timestamps,TP9,AF7,AF8,TP10,Right AUX
1728649889.197,-58.594,-20.508,-19.531,-37.598,0.000
1728649889.201,-40.527,-21.484,-23.438,-30.762,0.000
1728649889.205,-20.508,-24.414,-30.273,-20.996,0.000
1728649889.209,-29.785,-23.926,-25.879,-24.902,0.000
1728649889.213,-42.480,-25.879,-21.484,-30.762,0.000
1728649889.217,-54.688,-23.926,-23.438,-35.156,0.000
1728649889.220,-53.223,-23.438,-29.297,-30.273,0.000
1728649889.224,-28.809,-25.391,-32.227,-23.926,0.000
1728649889.228,-15.137,-29.297,-24.902,-16.113,0.000
1728649889.232,-35.156,-31.250,-21.973,-18.555,0.000
1728649889.236,-60.059,-29.785,-28.320,-36.621,0.000
1728649889.240,-39.062,-32.715,-26.367,-28.809,0.000
1728649889.244,-17.578,-35.645,-27.832,-20.996,0.000
1728649889.248,-17.578,-33.203,-32.715,-14.648,0.000
1728649889.252,-26.367,-26.367,-28.809,-19.043,0.000
1728649889.256,-41.016,-25.879,-29.297,-34.180,0.000
1728649889.259,-33.691,-28.809,-27.344,-32.715,0.000
1728649889.263,-10.254,-27.344,-24.902,-20.508,0.000
1728649889.267,-6.836,-26.367,-24.414,-24.414,0.000
1728649889.271,-28.809,-28.320,-24.902,-29.785,0.000
1728649889.275,-41.992,-29.785,-33.691,-15.625,0.000
1728649889.279,-31.738,-25.391,-32.715,-17.090,0.000
1728649889.283,-7.812,-24.902,-27.344,-15.625,0.000
1728649889.287,3.906,-24.902,-25.879,-10.254,0.000
1728649889.290,0.977,-23.438,-23.438,-7.324,0.000
1728649889.294,-18.066,-22.461,-25.391,-2.930,0.000
1728649889.298,-20.996,-19.531,-26.367,-8.789,0.000
1728649889.302,9.277,-15.137,-21.484,-7.812,0.000
1728649889.306,11.230,-17.090,-25.391,-11.719,0.000
1728649889.310,-3.418,-21.484,-29.785,-15.137,0.000
1728649889.314,-27.344,-21.484,-31.250,-21.484,0.000
1728649889.318,-38.574,-24.414,-30.273,-24.902,0.000
1728649889.322,-13.672,-26.855,-28.320,-12.207,0.000
1728649889.325,-9.766,-29.785,-30.762,-18.555,0.000
1728649889.329,-22.461,-31.250,-35.156,-26.367,0.000
1728649889.333,-40.527,-29.297,-32.715,-30.273,0.000
1728649889.337,-47.363,-26.855,-26.855,-22.949,0.000
1728649889.340,-19.531,-25.879,-28.809,-15.625,0.000
1728649889.344,-6.348,-26.367,-30.762,-15.625,0.000
1728649889.348,-15.137,-27.832,-28.320,-14.648,0.000
1728649889.352,-29.297,-25.879,-26.367,-16.602,0.000
1728649889.356,-32.227,-25.391,-20.508,-22.461,0.000
1728649889.360,-11.719,-27.832,-22.949,-13.184,0.000
1728649889.364,2.441,-27.344,-26.855,-2.930,0.000
1728649889.368,-3.906,-29.297,-25.879,-10.742,0.000
1728649889.372,-29.297,-30.273,-26.855,-23.926,0.000
1728649889.376,-54.199,-31.738,-27.832,-27.832,0.000
1728649889.380,-34.668,-32.227,-32.715,-25.391,0.000
1728649889.383,-10.742,-32.715,-34.180,-30.273,0.000
1728649889.387,-9.766,-26.855,-34.668,-44.434,0.000
1728649889.390,-30.273,-26.855,-31.738,-42.480,0.000
1728649889.394,-56.641,-36.133,-30.273,-37.109,0.000
1728649889.398,-41.992,-37.598,-30.762,-33.203,0.000
1728649889.402,-20.020,-34.180,-25.879,-26.855,0.000
1728649889.406,-22.461,-30.273,-23.926,-21.973,0.000
1728649889.410,-36.133,-34.668,-24.902,-15.137,0.000
1728649889.414,-47.852,-33.691,-29.297,-36.133,0.000
1728649889.418,-39.551,-30.273,-31.250,-45.410,0.000
1728649889.422,-25.391,-29.297,-27.832,-30.273,0.000
1728649889.426,-18.066,-29.785,-30.273,-39.062,0.000
1728649889.428,-30.762,-28.320,-33.203,-36.133,0.000
1728649889.432,-56.641,-20.508,-30.762,-30.762,0.000
1728649889.436,-47.363,-21.484,-26.855,-30.273,0.000
1728649889.440,-20.020,-20.996,-24.414,-21.973,0.000
1728649889.444,-8.789,-18.555,-22.949,-14.648,0.000
1728649889.448,-25.391,-24.902,-25.391,-14.160,0.000
1728649889.452,-53.223,-27.832,-26.855,-26.855,0.000
1728649889.456,-46.387,-28.320,-26.367,-25.879,0.000
1728649889.460,-22.461,-29.785,-23.438,-25.391,0.000
1728649889.464,-16.113,-25.879,-21.973,-26.855,0.000
1728649889.467,-29.297,-23.438,-27.832,-26.367,0.000
1728649889.471,-52.246,-23.926,-34.668,-38.086,0.000
1728649889.474,-50.781,-27.344,-35.156,-36.621,0.000
1728649889.478,-28.809,-30.273,-34.180,-36.133,0.000
1728649889.482,-26.367,-28.809,-35.645,-37.109,0.000
1728649889.486,-29.785,-32.227,-28.809,-22.949,0.000
1728649889.490,-56.152,-33.203,-23.926,-32.227,0.000
1728649889.494,-63.965,-28.809,-27.344,-42.480,0.000
1728649889.498,-17.090,-30.762,-26.855,-32.715,0.000
1728649889.501,-8.301,-25.879,-21.973,-24.414,0.000
1728649889.505,-25.879,-21.484,-23.926,-21.973,0.000
1728649889.509,-44.434,-22.461,-24.902,-30.762,0.000
1728649889.513,-46.875,-20.020,-26.855,-40.039,0.000
1728649889.517,-21.484,-22.461,-26.855,-32.715,0.000
1728649889.522,-11.230,-26.855,-23.438,-29.297,0.000
1728649889.526,-18.555,-29.785,-29.297,-32.227,0.000
1728649889.530,-43.457,-34.668,-32.227,-36.621,0.000
1728649889.534,-52.246,-33.203,-26.855,-41.992,0.000
1728649889.538,-33.691,-27.832,-29.297,-43.457,0.000
1728649889.542,-23.438,-29.297,-29.297,-30.273,0.000
1728649889.546,-28.809,-28.320,-32.227,-25.879,0.000
1728649889.550,-46.387,-24.414,-34.180,-39.062,0.000
1728649889.554,-47.852,-23.438,-31.738,-25.879,0.000
1728649889.557,-21.973,-20.996,-35.156,-17.578,0.000
1728649889.561,-5.859,-23.926,-38.574,-7.324,0.000
1728649889.565,-4.883,-28.809,-31.738,-6.348,0.000
1728649889.570,-34.668,-32.227,-27.344,-22.461,0.000
1728649889.574,-67.871,-31.250,-28.320,-40.527,0.000
1728649889.578,-45.410,-33.203,-25.879,-39.551,0.000
1728649889.582,-17.578,-41.016,-26.855,-32.227,0.000
1728649889.586,-18.066,-38.086,-22.461,-34.180,0.000
1728649889.590,-40.039,-35.156,-16.602,-32.715,0.000
1728649889.593,-66.406,-35.156,-21.484,-44.434,0.000
1728649889.597,-55.176,-33.691,-23.438,-56.641,0.000
1728649889.601,-24.902,-31.250,-21.484,-36.621,0.000
1728649889.605,-20.020,-27.832,-23.926,-21.973,0.000
1728649889.609,-29.785,-26.855,-23.438,-29.785,0.000
1728649889.613,-44.922,-28.320,-27.832,-35.645,0.000
1728649889.617,-35.156,-29.785,-36.133,-30.273,0.000
1728649889.621,-15.137,-31.738,-33.203,-19.531,0.000
1728649889.625,-17.090,-35.156,-31.738,-26.367,0.000
1728649889.629,-33.203,-30.762,-33.203,-32.227,0.000
1728649889.633,-57.617,-24.902,-30.762,-37.598,0.000
1728649889.637,-42.480,-28.320,-29.297,-31.250,0.000
1728649889.641,-19.043,-31.250,-34.668,-27.344,0.000
1728649889.645,-21.484,-30.273,-36.621,-27.832,0.000
1728649889.648,-31.250,-28.320,-35.645,-20.996,0.000
1728649889.652,-54.688,-25.879,-36.621,-26.367,0.000
1728649889.656,-50.781,-25.391,-31.250,-31.738,0.000
1728649889.660,-19.043,-24.414,-32.715,-23.438,0.000
1728649889.664,-10.254,-28.320,-34.180,-19.043,0.000
1728649889.668,-21.484,-34.180,-28.320,-21.484,0.000
1728649889.672,-46.875,-28.809,-26.855,-24.902,0.000
1728649889.676,-42.969,-27.344,-29.297,-24.414,0.000
1728649889.680,-19.043,-31.738,-28.320,-19.043,0.000
1728649889.683,-12.695,-30.762,-26.367,-11.719,0.000
1728649889.687,-13.672,-25.391,-28.320,-15.625,0.000
1728649889.691,-35.156,-25.391,-23.926,-20.020,0.000
1728649889.695,-40.527,-25.879,-31.250,-16.113,0.000
1728649889.699,-7.812,-21.973,-26.855,-18.066,0.000
1728649889.703,1.465,-24.902,-12.207,-12.207,0.000
1728649889.707,-17.090,-24.902,-19.531,-8.789,0.000
1728649889.710,-41.504,-20.508,-20.020,-16.113,0.000
1728649889.714,-42.969,-21.973,-20.020,-20.996,0.000
1728649889.718,-15.137,-24.902,-27.832,-19.531,0.000
1728649889.722,-3.418,-25.879,-25.879,-16.602,0.000
1728649889.726,-6.836,-27.832,-18.555,-11.719,0.000
1728649889.730,-22.949,-27.344,-18.555,-15.137,0.000
1728649889.734,-42.969,-24.902,-22.461,-33.691,0.000
1728649889.738,-31.738,-26.367,-23.438,-21.973,0.000
1728649889.742,-2.441,-23.926,-20.508,-6.348,0.000
1728649889.746,0.000,-23.438,-22.461,-16.602,0.000
1728649889.749,-17.578,-27.344,-26.367,-28.320,0.000
1728649889.753,-37.598,-26.855,-29.297,-31.250,0.000
1728649889.757,-24.414,-33.203,-29.297,-34.180,0.000
1728649889.761,-2.441,-31.738,-23.926,-26.367,0.000
1728649889.764,-4.883,-26.367,-26.367,-19.043,0.000
1728649889.768,-26.367,-30.273,-29.297,-25.879,0.000
1728649889.772,-43.457,-32.227,-29.785,-28.320,0.000
1728649889.776,-28.320,-33.203,-26.855,-24.414,0.000
1728649889.780,-8.301,-30.273,-28.809,-16.113,0.000
1728649889.784,-11.719,-28.320,-33.691,-10.742,0.000
1728649889.788,-20.996,-27.832,-28.320,-23.438,0.000
1728649889.792,-36.621,-28.320,-30.273,-31.738,0.000
1728649889.796,-25.391,-32.227,-32.227,-21.484,0.000
1728649889.800,-0.488,-27.832,-29.785,-13.184,0.000
1728649889.805,0.000,-27.344,-29.785,-12.207,0.000
1728649889.809,-16.113,-30.762,-32.715,-22.461,0.000
1728649889.813,-43.457,-29.785,-32.227,-33.691,0.000
1728649889.817,-31.738,-28.320,-30.273,-33.203,0.000
1728649889.821,-8.301,-29.297,-32.715,-19.531,0.000
1728649889.825,-8.301,-33.203,-32.715,-24.414,0.000
1728649889.829,-13.672,-31.250,-30.762,-27.832,0.000
1728649889.833,-33.691,-26.367,-33.691,-25.879,0.000
1728649889.837,-37.598,-29.785,-40.527,-21.973,0.000
1728649889.840,-20.508,-33.203,-41.016,-16.113,0.000
1728649889.844,-18.555,-31.250,-41.016,-23.926,0.000
1728649889.848,-33.203,-33.203,-41.016,-22.461,0.000
1728649889.851,-54.199,-31.250,-32.715,-24.902,0.000
1728649889.854,-51.270,-31.250,-34.180,-34.180,0.000
1728649889.858,-23.926,-34.668,-32.715,-25.391,0.000
1728649889.862,-12.207,-31.250,-24.902,-12.695,0.000
1728649889.866,-20.020,-30.273,-25.391,-11.719,0.000
1728649889.870,-47.852,-33.203,-31.738,-27.832,0.000
1728649889.874,-46.875,-34.180,-33.203,-28.809,0.000
1728649889.878,-17.090,-30.762,-31.250,-21.484,0.000
1728649889.882,-14.160,-32.227,-36.133,-22.461,0.000
1728649889.886,-29.297,-36.621,-38.086,-17.578,0.000
1728649889.890,-53.223,-30.762,-40.039,-32.227,0.000
1728649889.894,-46.387,-27.344,-36.133,-38.574,0.000
1728649889.898,-14.160,-25.879,-34.668,-28.809,0.000
1728649889.902,-5.859,-24.414,-35.645,-27.344,0.000
1728649889.906,-19.043,-25.879,-33.203,-24.414,0.000
1728649889.910,-43.945,-25.879,-33.691,-23.438,0.000
1728649889.914,-48.828,-24.414,-30.273,-27.344,0.000
1728649889.918,-27.344,-23.438,-31.738,-26.855,0.000
1728649889.922,-13.672,-25.879,-31.250,-26.367,0.000
1728649889.926,-9.277,-23.438,-25.879,-14.648,0.000
1728649889.930,-27.832,-21.484,-24.902,-12.207,0.000
1728649889.934,-42.480,-24.414,-25.879,-18.066,0.000
1728649889.938,-13.184,-25.391,-22.461,-19.043,0.000
1728649889.941,10.742,-22.461,-19.531,-11.230,0.000
1728649889.946,1.465,-20.020,-21.973,-11.719,0.000
1728649889.950,-29.297,-22.949,-21.484,-20.020,0.000
1728649889.954,-42.969,-26.367,-25.879,-25.879,0.000
1728649889.958,-15.625,-28.320,-29.297,-26.855,0.000
1728649889.962,5.371,-29.785,-26.855,-14.648,0.000
1728649889.965,1.953,-27.344,-30.273,-9.766,0.000
1728649889.969,-23.926,-25.879,-29.785,-16.113,0.000
1728649889.973,-50.293,-22.461,-27.832,-29.785,0.000
1728649889.977,-33.691,-23.926,-30.762,-29.785,0.000
1728649889.981,-12.207,-26.367,-27.832,-21.973,0.000
1728649889.985,-13.672,-24.414,-25.391,-22.949,0.000
1728649889.989,-27.344,-26.367,-23.438,-20.020,0.000
1728649889.993,-44.922,-28.809,-21.484,-26.367,0.000
1728649889.997,-37.598,-27.344,-28.809,-28.809,0.000
1728649890.001,-18.066,-26.855,-28.809,-23.926,0.000
1728649890.005,-13.672,-23.438,-24.414,-19.043,0.000
1728649890.009,-29.297,-23.926,-29.297,-18.066,0.000
1728649890.013,-47.363,-24.902,-27.344,-29.297,0.000
1728649890.016,-25.391,-20.020,-24.902,-24.414,0.000
1728649890.020,0.488,-18.555,-25.879,-9.766,0.000
1728649890.024,-5.859,-27.344,-25.879,-3.906,0.000
1728649890.028,-20.020,-27.344,-30.762,-8.789,0.000
1728649890.032,-38.574,-23.438,-29.785,-32.227,0.000
1728649890.036,-34.180,-31.250,-23.438,-36.621,0.000
1728649890.040,-12.207,-28.320,-25.391,-19.531,0.000
1728649890.044,-13.184,-24.902,-28.809,-19.531,0.000
1728649890.047,-27.832,-27.344,-25.879,-35.645,0.000
1728649890.051,-57.617,-29.297,-27.832,-46.387,0.000
1728649890.055,-51.758,-27.344,-31.738,-41.016,0.000
1728649890.059,-23.438,-26.855,-29.297,-28.809,0.000
1728649890.063,-16.602,-29.297,-20.508,-22.949,0.000
1728649890.067,-25.391,-26.367,-16.113,-17.090,0.000
1728649890.071,-45.898,-24.414,-20.996,-20.508,0.000
1728649890.075,-44.434,-23.926,-17.578,-29.785,0.000
1728649890.079,-15.625,-23.438,-16.602,-28.320,0.000
1728649890.083,-3.418,-27.832,-25.391,-21.973,0.000
1728649890.086,-13.672,-23.438,-24.414,-26.855,0.000
1728649890.090,-33.203,-18.066,-20.508,-33.691,0.000
1728649890.094,-33.203,-16.602,-21.973,-26.367,0.000
1728649890.098,-8.789,-14.160,-26.855,-25.391,0.000
1728649890.102,-1.465,-16.113,-28.320,-26.367,0.000
1728649890.106,-14.160,-19.531,-30.273,-19.531,0.000
1728649890.109,-42.480,-20.508,-34.668,-29.297,0.000
1728649890.113,-44.434,-19.531,-29.785,-28.809,0.000
1728649890.117,-10.254,-21.973,-27.344,-18.555,0.000
1728649890.121,0.488,-22.949,-29.297,-20.020,0.000
1728649890.125,-13.672,-22.461,-28.320,-19.043,0.000
1728649890.129,-34.180,-23.926,-25.879,-23.438,0.000
1728649890.132,-39.551,-19.531,-24.414,-34.668,0.000
1728649890.136,-8.789,-13.184,-22.949,-28.320,0.000
1728649890.140,2.441,-16.602,-30.273,-22.461,0.000
1728649890.144,-12.207,-19.043,-33.203,-28.320,0.000
1728649890.148,-39.551,-22.949,-30.273,-37.109,0.000
1728649890.152,-50.781,-25.391,-30.273,-27.832,0.000
1728649890.156,-24.902,-22.949,-22.949,-34.180,0.000
1728649890.159,-6.348,-24.414,-20.020,-30.762,0.000
1728649890.163,-8.789,-21.973,-25.391,-22.949,0.000
1728649890.167,-35.156,-22.949,-25.879,-26.367,0.000
1728649890.171,-60.059,-23.926,-28.320,-29.297,0.000
1728649890.175,-43.945,-23.926,-31.738,-27.344,0.000
1728649890.181,-19.043,-23.438,-34.668,-20.508,0.000
1728649890.185,-18.066,-21.484,-31.250,-32.227,0.000
1728649890.189,-40.527,-27.344,-29.785,-41.504,0.000
1728649890.192,-59.570,-33.691,-32.715,-38.574,0.000
1728649890.196,-47.363,-26.367,-32.227,-40.527,0.000
1728649890.200,-27.832,-23.926,-28.320,-32.715,0.000
1728649890.204,-21.973,-30.273,-26.855,-20.020,0.000
1728649890.208,-34.180,-24.414,-26.367,-25.879,0.000
1728649890.212,-53.223,-19.531,-27.832,-39.551,0.000
1728649890.216,-41.016,-20.020,-28.809,-35.645,0.000
1728649890.220,-21.484,-26.855,-33.203,-22.949,0.000
1728649890.224,-21.484,-32.227,-32.227,-18.555,0.000
1728649890.226,-30.762,-29.785,-24.414,-19.043,0.000
1728649890.230,-53.711,-32.715,-22.461,-26.367,0.000
1728649890.234,-50.293,-29.785,-22.461,-34.668,0.000
1728649890.238,-19.531,-28.809,-20.996,-20.508,0.000
1728649890.242,-11.719,-26.855,-23.926,-15.625,0.000
1728649890.246,-26.367,-25.879,-27.344,-33.203,0.000
1728649890.250,-52.246,-28.320,-30.273,-39.551,0.000
1728649890.254,-50.781,-26.367,-33.203,-40.527,0.000
1728649890.257,-10.254,-20.508,-37.109,-28.320,0.000
1728649890.261,12.207,-22.461,-34.668,3.418,0.000
1728649890.265,-14.160,-30.762,-24.902,-3.418,0.000
1728649890.269,-69.336,-37.598,-22.461,-52.246,0.000
1728649890.274,-75.684,-37.598,-23.438,-62.012,0.000
1728649890.278,-51.758,-40.039,-23.926,-54.688,0.000
1728649890.282,-48.828,-41.504,-20.020,-57.129,0.000
1728649890.286,-62.988,-43.945,-6.348,-61.523,0.000
1728649890.290,-92.285,-50.781,4.883,-82.520,0.000
1728649890.294,-100.098,-55.664,5.371,-84.473,0.000
1728649890.297,-83.496,-60.547,7.812,-77.148,0.000
1728649890.301,-76.660,-60.547,5.371,-79.102,0.000
1728649890.305,-90.332,-68.359,1.465,-85.449,0.000
1728649890.309,-117.676,-69.824,-1.953,-84.473,0.000
1728649890.313,-125.488,-67.383,1.465,-83.984,0.000
1728649890.317,-104.004,-70.312,9.277,-78.613,0.000
1728649890.321,-81.543,-63.965,7.324,-67.871,0.000
1728649890.325,-99.609,-67.871,14.160,-75.195,0.000
1728649890.329,-138.672,-77.148,16.602,-96.191,0.000
1728649890.333,-145.508,-81.543,25.879,-91.309,0.000
1728649890.337,-121.094,-83.496,39.062,-80.566,0.000
1728649890.341,-100.586,-83.984,35.156,-77.637,0.000
1728649890.345,-97.168,-81.055,34.180,-78.613,0.000
1728649890.349,-116.699,-76.660,31.738,-80.078,0.000
1728649890.353,-126.953,-71.289,26.367,-65.430,0.000
1728649890.357,-95.215,-68.848,16.602,-66.895,0.000
1728649890.361,-84.473,-73.242,6.836,-76.172,0.000
1728649890.364,-80.566,-67.871,8.301,-62.988,0.000
1728649890.368,-80.566,-60.059,6.348,-59.082,0.000
1728649890.372,-97.656,-56.152,1.465,-68.359,0.000
1728649890.376,-74.707,-56.152,6.348,-53.711,0.000
1728649890.380,-60.547,-62.988,5.371,-51.758,0.000
1728649890.384,-65.430,-54.199,8.789,-56.152,0.000
1728649890.388,-69.336,-42.969,7.812,-47.363,0.000
1728649890.392,-101.074,-57.617,-3.418,-66.895,0.000
1728649890.396,-108.398,-62.500,8.301,-80.566,0.000
1728649890.400,-84.961,-51.758,4.395,-68.359,0.000
1728649890.403,-65.430,-65.918,0.977,-50.293,0.000
1728649890.407,-91.309,-66.406,7.812,-70.312,0.000
1728649890.411,-150.879,-41.992,8.789,-121.582,0.000
1728649890.415,-147.949,-60.547,27.344,-123.535,0.000
1728649890.419,-135.254,-71.289,9.766,-124.512,0.000
1728649890.423,-158.691,-68.359,1.953,-147.461,0.000
1728649890.427,-191.895,-69.824,9.766,-176.270,0.000
1728649890.431,-219.727,-63.965,4.883,-192.383,0.000
1728649890.434,-206.055,-56.152,-0.977,-186.035,0.000
1728649890.438,-179.688,-57.617,5.371,-175.781,0.000
1728649890.442,-179.199,-60.547,17.090,-171.387,0.000
1728649890.446,-191.895,-54.688,20.020,-175.781,0.000
1728649890.450,-204.590,-52.734,16.113,-173.828,0.000
1728649890.454,-197.754,-56.641,23.926,-158.203,0.000
1728649890.458,-173.340,-56.641,25.879,-156.738,0.000
1728649890.461,-158.691,-54.199,12.207,-157.227,0.000
1728649890.465,-157.715,-58.594,16.602,-139.648,0.000
1728649890.469,-166.016,-58.105,14.160,-123.535,0.000
1728649890.473,-154.297,-52.734,3.418,-114.258,0.000
1728649890.477,-123.047,-48.828,5.371,-111.328,0.000
1728649890.481,-103.516,-47.852,10.254,-96.191,0.000
1728649890.485,-101.074,-49.805,6.348,-85.449,0.000
1728649890.489,-116.699,-50.293,8.301,-84.961,0.000
1728649890.493,-105.957,-44.922,12.695,-75.684,0.000
1728649890.496,-61.523,-40.039,12.695,-60.547,0.000
1728649890.500,-36.133,-35.156,8.301,-41.504,0.000
1728649890.504,-36.621,-31.738,12.695,-30.762,0.000
1728649890.507,-56.152,-36.133,12.695,-34.180,0.000
1728649890.511,-59.570,-41.016,3.418,-30.762,0.000
1728649890.515,-23.926,-40.527,-21.484,-13.672,0.000
1728649890.519,2.930,-33.203,-58.594,-4.395,0.000
1728649890.523,-0.977,-34.668,-41.016,0.000,0.000
1728649890.527,-28.809,-44.434,-4.395,-14.160,0.000
1728649890.531,-41.504,-48.340,7.324,-16.113,0.000
1728649890.535,-12.695,-43.457,12.695,0.488,0.000
1728649890.539,10.254,-36.133,7.812,3.906,0.000
1728649890.542,18.066,-34.668,-17.090,13.184,0.000
1728649890.546,6.836,-31.738,-44.922,9.277,0.000
1728649890.550,-16.113,-27.832,-61.035,3.418,0.000
1728649890.553,15.137,-23.438,-39.551,25.879,0.000
1728649890.557,47.852,-19.043,-26.855,40.527,0.000
1728649890.561,30.273,-29.785,-11.719,35.645,0.000
1728649890.565,9.766,-32.715,6.836,25.391,0.000
1728649890.569,3.906,-24.414,-12.695,21.484,0.000
1728649890.573,28.809,-26.367,-33.203,33.203,0.000
1728649890.577,56.641,-27.832,-41.504,46.387,0.000
1728649890.580,48.340,-27.832,-29.297,31.250,0.000
1728649890.584,22.461,-32.227,-14.648,20.020,0.000
1728649890.588,4.883,-25.391,-18.066,25.879,0.000
1728649890.592,33.203,-14.160,-39.551,37.598,0.000
1728649890.596,68.848,-11.230,-61.523,41.992,0.000
1728649890.599,69.824,-12.695,-46.387,38.086,0.000
1728649890.603,37.598,-19.531,-28.320,33.203,0.000
1728649890.607,5.859,-29.785,-19.531,14.648,0.000
1728649890.610,20.020,-23.926,-15.137,17.090,0.000
1728649890.614,42.969,-24.902,-21.484,31.738,0.000
1728649890.618,37.109,-38.086,-27.344,26.367,0.000
1728649890.622,22.461,-34.668,-42.969,24.902,0.000
1728649890.626,4.883,-25.391,-59.082,17.090,0.000
1728649890.630,17.578,-22.949,-64.941,11.719,0.000
1728649890.634,48.340,-20.996,-51.270,23.438,0.000
1728649890.638,52.734,-20.996,-39.551,35.156,0.000
1728649890.642,29.297,-26.367,-38.574,22.949,0.000
1728649890.647,3.906,-26.855,-40.527,3.418,0.000
1728649890.651,21.484,-17.090,-52.734,17.090,0.000
1728649890.655,49.316,-8.789,-46.875,30.273,0.000
1728649890.659,46.875,-16.602,-38.574,20.508,0.000
1728649890.663,34.668,-20.996,-46.875,20.020,0.000
1728649890.667,11.230,-19.043,-56.152,28.320,0.000
1728649890.670,19.043,-16.113,-66.406,31.738,0.000
1728649890.674,38.086,-17.090,-51.270,26.855,0.000
1728649890.678,29.785,-24.902,-14.160,16.602,0.000
1728649890.682,13.184,-31.250,-10.742,19.043,0.000
1728649890.686,-4.395,-30.762,-16.602,9.277,0.000
1728649890.690,-8.789,-26.855,-21.484,4.883,0.000
1728649890.695,25.879,-23.926,-45.410,20.020,0.000
1728649890.698,46.875,-24.902,-61.523,26.367,0.000
1728649890.702,28.809,-31.738,-41.016,17.578,0.000
1728649890.706,0.977,-38.086,-25.391,5.859,0.000
1728649890.710,-7.324,-34.668,-27.832,2.930,0.000
1728649890.714,20.020,-28.320,-36.621,12.207,0.000
1728649890.718,40.527,-21.973,-34.668,27.344,0.000
1728649890.722,38.574,-17.090,-40.527,33.203,0.000
1728649890.726,17.578,-20.996,-70.312,34.180,0.000
1728649890.730,4.883,-19.531,-48.340,32.227,0.000
1728649890.734,22.461,-24.902,-19.043,20.020,0.000
1728649890.738,32.227,-31.250,-14.160,20.996,0.000
1728649890.742,27.344,-25.391,-20.508,15.137,0.000
1728649890.746,2.930,-26.367,-23.926,1.953,0.000
1728649890.750,-22.949,-34.180,-18.555,2.930,0.000
1728649890.753,-1.953,-34.180,-18.066,10.742,0.000
1728649890.757,19.531,-30.762,-35.156,10.254,0.000
1728649890.761,17.578,-28.809,-43.457,4.883,0.000
1728649890.765,2.441,-25.879,-26.855,6.836,0.000
1728649890.769,-23.438,-31.250,-20.020,0.488,0.000
1728649890.773,-10.742,-41.016,-27.832,6.836,0.000
1728649890.777,14.160,-36.621,-33.691,12.695,0.000
1728649890.781,12.207,-31.250,-35.156,10.742,0.000
1728649890.785,-4.883,-30.762,-32.715,-3.906,0.000
1728649890.789,-25.879,-34.668,-38.574,-17.578,0.000
1728649890.792,-6.836,-30.273,-37.109,-2.441,0.000
1728649890.796,21.484,-21.973,-38.574,12.207,0.000
1728649890.800,19.043,-23.926,-54.199,11.719,0.000
1728649890.804,-0.977,-22.461,-45.410,4.883,0.000
1728649890.808,-26.367,-22.949,-35.156,-13.672,0.000
1728649890.812,-13.184,-21.973,-48.828,-13.672,0.000
1728649890.816,11.719,-15.625,-53.223,0.977,0.000
1728649890.820,17.578,-16.113,-29.297,7.324,0.000
1728649890.824,4.395,-20.020,-9.277,5.859,0.000
1728649890.828,-25.391,-18.555,-9.766,-6.348,0.000
1728649890.832,-20.020,-18.555,-25.391,-11.719,0.000
1728649890.835,4.883,-19.531,-28.809,-6.836,0.000
1728649890.839,12.695,-23.926,-17.578,-4.395,0.000
1728649890.843,-0.977,-29.785,-18.066,-15.137,0.000
1728649890.847,-25.391,-28.809,-31.250,-27.832,0.000
1728649890.851,-27.832,-24.902,-32.227,-17.090,0.000
1728649890.855,-1.953,-25.879,-16.602,-3.418,0.000
1728649890.858,6.348,-28.320,-12.695,-0.488,0.000
1728649890.862,-9.766,-23.926,-25.391,-2.930,0.000
1728649890.866,-37.109,-25.391,-30.762,-15.625,0.000
1728649890.870,-40.039,-29.785,-25.879,-28.320,0.000
1728649890.874,-5.859,-24.414,-20.996,-13.672,0.000
1728649890.878,11.230,-16.602,-25.879,4.883,0.000
1728649890.881,1.953,-21.973,-37.109,2.930,0.000
1728649890.885,-16.113,-30.273,-29.785,-2.930,0.000
1728649890.889,-26.367,-32.227,-32.227,-14.160,0.000
1728649890.893,-25.391,-30.762,-47.363,-19.043,0.000
1728649890.897,-27.832,-36.133,-37.109,-10.742,0.000
1728649890.901,-21.484,-36.621,-21.484,-19.531,0.000
1728649890.905,-28.809,-27.832,-19.043,-21.973,0.000
1728649890.909,-43.457,-26.367,-22.461,-20.996,0.000
1728649890.913,-28.320,-30.762,-23.926,-36.133,0.000
1728649890.917,-6.836,-32.227,-24.414,-20.508,0.000
1728649890.920,-5.371,-27.344,-36.133,-10.742,0.000
1728649890.924,-25.391,-27.832,-43.457,-18.555,0.000
1728649890.930,-34.668,-31.250,-24.414,-12.207,0.000
1728649890.934,-15.137,-28.809,-7.324,-13.184,0.000
1728649890.938,-2.441,-29.297,-20.020,-16.113,0.000
1728649890.942,-0.488,-29.297,-27.344,-11.719,0.000
1728649890.946,-24.902,-29.297,-28.809,-20.996,0.000
1728649890.950,-43.457,-23.438,-41.504,-16.113,0.000
1728649890.953,-16.113,-21.973,-41.992,-0.977,0.000
1728649890.957,9.766,-20.020,-26.367,-6.836,0.000
1728649890.961,0.488,-20.996,-22.949,-13.672,0.000
1728649890.965,-20.996,-28.809,-28.320,-22.949,0.000
1728649890.969,-36.621,-28.320,-35.156,-29.297,0.000
1728649890.973,-20.996,-25.391,-29.297,-27.832,0.000
1728649890.978,1.953,-23.438,-15.137,-25.879,0.000
1728649890.982,8.789,-19.531,-24.902,-16.113,0.000
1728649890.986,-4.395,-25.391,-19.531,-17.578,0.000
1728649890.990,-35.645,-30.762,-6.836,-33.691,0.000
1728649890.994,-24.414,-30.273,-24.414,-35.156,0.000
1728649890.998,-2.441,-33.691,-32.715,-29.785,0.000
1728649891.002,-8.789,-31.250,-29.297,-32.227,0.000
1728649891.005,-19.531,-25.879,-38.574,-24.414,0.000
1728649891.009,-38.574,-25.391,-39.062,-25.879,0.000
1728649891.013,-37.109,-24.902,-24.902,-32.715,0.000
1728649891.017,-12.695,-27.344,-23.926,-21.484,0.000
1728649891.021,-3.418,-26.367,-33.203,-2.441,0.000
1728649891.026,-10.254,-21.484,-49.316,-5.859,0.000
1728649891.030,-28.809,-24.902,-44.434,-31.250,0.000
1728649891.033,-26.855,-24.902,-24.902,-20.020,0.000
1728649891.037,-11.230,-23.438,-10.742,-11.719,0.000
1728649891.041,-13.672,-27.344,-28.809,-20.996,0.000
1728649891.045,-27.832,-33.203,-29.297,-28.809,0.000
1728649891.049,-50.781,-34.180,-7.812,-37.109,0.000
1728649891.053,-50.293,-34.668,-10.742,-36.621,0.000
1728649891.057,-13.672,-31.738,-21.484,-37.598,0.000
1728649891.061,-6.348,-25.391,-19.043,-23.438,0.000
1728649891.065,-25.391,-28.809,-22.949,-24.414,0.000
1728649891.069,-44.922,-32.227,-38.086,-34.180,0.000
1728649891.073,-41.992,-28.320,-43.945,-25.879,0.000
1728649891.077,-15.625,-26.367,-32.227,-21.973,0.000
1728649891.081,-12.695,-29.297,-17.578,-25.391,0.000
1728649891.084,-20.508,-29.297,-20.020,-27.344,0.000
1728649891.088,-35.645,-27.344,-29.785,-25.879,0.000
1728649891.092,-44.922,-28.320,-34.180,-20.508,0.000
1728649891.096,-19.531,-24.902,-51.270,-16.113,0.000
1728649891.100,0.977,-26.367,-48.340,-21.973,0.000
1728649891.104,-3.418,-26.855,-15.625,-20.020,0.000
1728649891.108,-26.855,-27.344,3.418,-26.855,0.000
1728649891.112,-35.645,-28.320,-3.418,-27.344,0.000
1728649891.116,-11.230,-25.879,-38.086,-11.719,0.000
1728649891.119,-1.465,-30.273,-33.691,-11.230,0.000
1728649891.123,-15.137,-29.785,-18.555,-18.555,0.000
1728649891.127,-36.133,-25.391,-23.438,-29.785,0.000
1728649891.131,-52.734,-25.391,-23.438,-37.598,0.000
1728649891.135,-31.250,-28.809,-22.949,-25.879,0.000
1728649891.139,-11.230,-27.344,-19.531,-13.672,0.000
1728649891.143,2.441,-21.484,-23.438,-20.020,0.000
1728649891.147,-12.695,-23.438,-38.086,-25.391,0.000
1728649891.151,-44.434,-22.949,-59.082,-15.137,0.000
1728649891.155,-22.949,-22.949,-49.805,-11.719,0.000
1728649891.158,-6.836,-28.320,-16.602,-18.066,0.000
1728649891.162,-13.184,-27.832,-10.254,-20.020,0.000
1728649891.166,-36.621,-29.297,-16.113,-32.715,0.000
1728649891.170,-57.129,-36.133,-9.766,-36.621,0.000
1728649891.173,-35.156,-38.574,-7.324,-27.832,0.000
1728649891.177,-4.883,-32.227,-18.555,-28.320,0.000
1728649891.181,-5.371,-29.297,-46.875,-29.785,0.000
1728649891.185,-21.484,-28.809,-37.598,-30.273,0.000
1728649891.189,-39.062,-28.320,-20.508,-41.504,0.000
1728649891.193,-20.020,-22.949,-29.297,-28.320,0.000
1728649891.197,3.418,-20.508,-26.855,-14.648,0.000
1728649891.201,-9.277,-27.344,-24.414,-25.879,0.000
1728649891.205,-23.438,-28.809,-21.484,-19.043,0.000
1728649891.209,-45.410,-29.297,-22.461,-19.043,0.000
1728649891.212,-38.086,-31.250,-24.902,-20.020,0.000
1728649891.216,-10.742,-31.738,-31.738,-17.090,0.000
1728649891.220,-6.348,-23.438,-41.016,-17.090,0.000
1728649891.224,-15.137,-18.066,-36.133,-23.438,0.000
1728649891.228,-39.551,-21.973,-61.035,-24.902,0.000
1728649891.231,-35.156,-27.832,-83.496,-25.391,0.000
1728649891.235,-4.395,-27.832,-63.965,-25.391,0.000
1728649891.239,-10.742,-28.809,-36.621,-8.789,0.000
1728649891.243,-22.461,-31.738,-10.742,-23.438,0.000
1728649891.247,-36.621,-25.879,-2.930,-40.527,0.000
1728649891.251,-33.691,-20.508,-9.766,-31.250,0.000
1728649891.255,-3.906,-20.020,-15.625,-17.578,0.000
1728649891.258,4.395,-20.996,-20.508,-13.184,0.000
1728649891.262,-7.324,-21.973,-33.203,-11.230,0.000
1728649891.266,-33.203,-21.973,-26.855,-16.602,0.000
1728649891.270,-43.457,-28.809,-16.602,-31.250,0.000
1728649891.274,-20.020,-28.320,-19.531,-22.949,0.000
1728649891.277,-9.766,-25.879,-25.879,-11.719,0.000
1728649891.281,-17.090,-28.320,-20.508,-20.020,0.000
1728649891.285,-36.621,-29.785,-15.625,-28.809,0.000
1728649891.289,-47.363,-27.832,-29.785,-23.438,0.000
1728649891.293,-19.043,-21.484,-38.086,-12.207,0.000
1728649891.297,-3.418,-21.484,-24.902,-17.578,0.000
1728649891.301,-5.859,-22.949,-18.555,-13.184,0.000
1728649891.304,-27.344,-23.926,-25.879,-12.695,0.000
1728649891.308,-36.621,-23.438,-21.973,-20.508,0.000
1728649891.312,-9.766,-20.020,-18.555,-14.160,0.000
1728649891.316,-4.395,-22.949,-21.973,-8.789,0.000
1728649891.319,-6.348,-23.438,-24.902,2.441,0.000
1728649891.323,-32.227,-23.438,-27.344,0.000,0.000
1728649891.327,-50.293,-22.461,-30.273,-1.465,0.000
1728649891.331,-12.695,-21.484,-40.527,-1.953,0.000
1728649891.335,9.766,-20.508,-41.504,-12.207,0.000
1728649891.339,6.348,-20.996,-36.133,-7.324,0.000
1728649891.343,-18.555,-25.879,-33.691,-9.277,0.000
1728649891.347,-36.621,-28.809,-33.691,-13.672,0.000
1728649891.349,-20.508,-22.949,-35.156,-8.789,0.000
1728649891.353,-2.441,-22.949,-37.109,-4.883,0.000
1728649891.357,-2.930,-31.738,-37.109,-10.254,0.000
1728649891.361,-15.625,-26.367,-27.832,-16.113,0.000
1728649891.365,-29.297,-21.973,-23.438,-12.695,0.000
1728649891.369,-19.531,-23.926,-37.109,-14.648,0.000
1728649891.373,-2.930,-23.438,-50.781,-9.766,0.000
1728649891.377,-10.254,-24.414,-29.785,-10.254,0.000
1728649891.381,-38.086,-23.438,-12.207,-24.414,0.000
1728649891.385,-50.293,-22.949,-7.812,-31.738,0.000
1728649891.389,-32.715,-24.902,-8.789,-32.227,0.000
1728649891.392,-6.348,-22.949,-13.672,-25.879,0.000
1728649891.398,5.859,-19.531,-17.090,-27.344,0.000
1728649891.402,-10.254,-19.531,-25.879,-30.762,0.000
1728649891.405,-40.527,-20.020,-38.086,-28.809,0.000
1728649891.409,-30.273,-25.391,-39.551,-26.855,0.000
1728649891.413,-4.883,-27.832,-26.855,-25.391,0.000
1728649891.417,-0.488,-22.949,-11.719,-22.949,0.000
1728649891.421,-14.160,-20.996,-7.812,-31.250,0.000
1728649891.425,-41.016,-18.555,-28.320,-41.992,0.000
1728649891.429,-43.945,-20.996,-23.926,-35.645,0.000
1728649891.433,-15.625,-22.461,-32.227,-25.879,0.000
1728649891.437,-5.859,-21.484,-69.824,-19.531,0.000
1728649891.441,-27.832,-28.809,-44.434,-31.738,0.000
1728649891.445,-57.617,-33.203,-2.441,-60.059,0.000
1728649891.449,-54.199,-28.320,-1.953,-56.152,0.000
1728649891.453,-23.438,-23.438,-14.648,-37.109,0.000
1728649891.457,-10.254,-21.973,-8.301,-45.898,0.000
1728649891.461,-22.949,-21.973,-13.672,-48.828,0.000
1728649891.465,-58.594,-23.438,-41.504,-47.852,0.000
1728649891.469,-50.781,-26.367,-45.410,-47.852,0.000
1728649891.472,-18.555,-29.785,-36.133,-38.086,0.000
1728649891.476,-0.488,-22.461,-43.457,-26.367,0.000
1728649891.480,-13.184,-23.438,-47.363,-16.113,0.000
1728649891.484,-41.992,-29.297,-38.086,-28.320,0.000
1728649891.488,-42.480,-27.832,-26.855,-42.480,0.000
1728649891.492,-20.996,-30.273,-17.578,-31.250,0.000
1728649891.496,-13.672,-34.180,-18.555,-23.926,0.000
1728649891.500,-15.137,-29.297,-24.902,-24.902,0.000
1728649891.504,-27.344,-21.973,-30.273,-26.855,0.000
1728649891.508,-31.250,-20.508,-40.039,-19.531,0.000
1728649891.512,-7.324,-22.461,-39.551,-7.812,0.000
1728649891.516,3.418,-23.438,-23.438,-16.113,0.000
1728649891.520,-9.766,-23.438,-28.320,-18.555,0.000
1728649891.523,-29.785,-20.996,-25.391,-10.742,0.000
1728649891.527,-46.387,-19.043,-10.254,-27.832,0.000
1728649891.531,-34.668,-23.438,-18.066,-37.598,0.000
1728649891.535,-6.348,-24.902,-14.160,-12.695,0.000
1728649891.539,-7.812,-19.531,-19.043,-5.371,0.000
1728649891.543,-42.480,-20.020,-30.762,-17.090,0.000
1728649891.547,-48.340,-22.949,-32.227,-25.391,0.000
1728649891.551,-17.578,-24.414,-45.410,-24.414,0.000
1728649891.555,-5.371,-27.832,-44.434,-18.555,0.000
1728649891.559,-13.184,-29.785,-21.484,-14.648,0.000
1728649891.562,-29.297,-32.715,-8.301,-27.832,0.000
1728649891.566,-48.828,-29.785,-19.043,-40.527,0.000
1728649891.570,-36.621,-28.320,-39.551,-33.691,0.000
1728649891.574,-13.184,-32.715,-39.551,-30.762,0.000
1728649891.578,-11.719,-30.273,-30.273,-21.973,0.000
1728649891.582,-30.762,-27.344,-36.621,-29.785,0.000
1728649891.585,-50.781,-27.832,-46.387,-39.551,0.000
1728649891.589,-40.527,-31.738,-36.133,-40.039,0.000
1728649891.593,-42.969,-34.668,-26.855,-38.086,0.000
1728649891.597,-32.227,-33.203,-25.391,-29.785,0.000
1728649891.601,-28.320,-34.668,-20.020,-32.715,0.000
1728649891.605,-44.434,-28.809,-26.855,-38.574,0.000
1728649891.609,-32.715,-19.531,-67.383,-33.691,0.000
1728649891.613,-11.719,-17.090,-76.172,-27.344,0.000
1728649891.617,-11.719,-17.578,-24.902,-26.855,0.000
1728649891.621,-31.738,-23.438,-5.859,-26.367,0.000
1728649891.625,-55.664,-30.762,-12.207,-36.133,0.000
1728649891.628,-48.828,-30.762,-6.836,-46.387,0.000
1728649891.632,-25.391,-29.297,-27.832,-42.480,0.000
1728649891.636,-14.648,-28.320,-32.715,-35.156,0.000
1728649891.639,-20.508,-30.762,-26.855,-37.598,0.000
1728649891.643,-51.270,-35.645,-29.785,-38.086,0.000
1728649891.647,-53.223,-32.227,-26.855,-35.645,0.000
1728649891.651,-20.996,-27.344,-18.066,-28.809,0.000
1728649891.655,-12.207,-32.715,-14.160,-28.320,0.000
1728649891.659,-18.066,-29.297,-20.020,-31.738,0.000
1728649891.663,-46.387,-30.762,-27.832,-37.598,0.000
1728649891.667,-53.223,-31.738,-33.691,-41.016,0.000
1728649891.671,-13.184,-27.344,-25.879,-26.855,0.000
1728649891.675,-1.465,-28.809,-22.949,-32.715,0.000
1728649891.678,-35.645,-28.809,-20.508,-51.270,0.000
1728649891.682,-59.570,-31.738,-19.043,-53.711,0.000
1728649891.686,-50.781,-36.133,-30.273,-39.062,0.000
1728649891.689,-19.043,-32.715,-35.156,-19.043,0.000
1728649891.693,-2.930,-26.367,-47.363,-20.996,0.000
1728649891.697,-8.301,-25.879,-54.688,-14.648,0.000
1728649891.701,-30.273,-24.414,-54.688,-11.719,0.000
1728649891.705,-53.711,-23.926,-38.574,-33.203,0.000
1728649891.709,-41.016,-30.762,-10.254,-38.086,0.000
1728649891.713,-18.066,-29.785,-0.488,-24.902,0.000
1728649891.717,-19.043,-25.391,-2.441,-20.508,0.000
1728649891.721,-36.133,-22.949,-12.207,-24.902,0.000
1728649891.724,-44.434,-19.531,-25.391,-26.367,0.000
1728649891.727,-23.926,-22.461,-37.598,-28.320,0.000
1728649891.731,-11.230,-24.902,-41.016,-27.832,0.000
1728649891.735,-6.348,-20.020,-29.297,-18.066,0.000
1728649891.739,-41.504,-20.508,-17.578,-16.113,0.000
1728649891.743,-84.961,-26.367,-15.137,-21.484,0.000
1728649891.747,-27.832,-27.832,-21.973,-15.625,0.000
1728649891.751,9.766,-27.832,-26.367,-3.418,0.000
1728649891.755,-1.465,-29.297,-20.996,-9.766,0.000
1728649891.759,-8.301,-26.367,-27.344,-21.484,0.000
1728649891.763,-31.738,-26.367,-38.574,-17.090,0.000
1728649891.767,-21.484,-27.344,-35.156,-18.555,0.000
1728649891.772,4.395,-22.949,-26.855,-7.324,0.000
1728649891.776,-3.418,-23.438,-30.273,-1.465,0.000
1728649891.780,-24.414,-28.320,-52.734,-12.695,0.000
1728649891.784,-41.992,-24.902,-65.918,-22.949,0.000
1728649891.788,-26.855,-25.391,-44.434,-27.832,0.000
1728649891.791,-7.324,-28.809,-22.949,-22.461,0.000
1728649891.795,-14.648,-33.691,-17.578,-18.555,0.000
1728649891.799,-23.926,-30.762,-21.484,-25.879,0.000
1728649891.803,-40.527,-24.902,-14.648,-33.691,0.000
1728649891.807,-39.062,-28.320,-15.625,-24.414,0.000
1728649891.811,-25.391,-30.762,-52.246,-13.672,0.000
1728649891.815,-28.809,-26.855,-63.965,-11.719,0.000
1728649891.820,-26.855,-24.902,-42.480,-22.461,0.000
1728649891.824,-48.828,-30.273,-19.043,-36.621,0.000
1728649891.827,-46.875,-30.762,-13.184,-32.227,0.000
1728649891.831,-19.531,-27.832,-14.160,-32.227,0.000
1728649891.835,-15.625,-24.414,-26.855,-29.785,0.000
1728649891.839,-19.043,-22.461,-44.922,-20.996,0.000
1728649891.843,-38.574,-20.996,-40.527,-36.621,0.000
1728649891.847,-41.016,-26.367,-37.598,-32.227,0.000
1728649891.851,-14.648,-28.809,-34.668,-13.184,0.000
1728649891.855,-12.207,-35.156,-39.062,-20.508,0.000
1728649891.859,-25.391,-33.203,-24.902,-34.180,0.000
1728649891.863,-51.758,-30.273,-19.531,-33.203,0.000
1728649891.867,-63.477,-38.574,-28.809,-30.273,0.000
1728649891.871,-36.133,-29.297,-30.762,-34.180,0.000
1728649891.875,-11.230,-24.902,-31.250,-31.738,0.000
1728649891.879,-21.484,-23.438,-28.809,-24.414,0.000
1728649891.883,-50.781,-19.531,-31.738,-29.785,0.000
1728649891.887,-49.316,-21.484,-32.715,-31.250,0.000
1728649891.890,-23.926,-22.949,-23.438,-22.949,0.000
1728649891.894,-12.695,-20.508,-29.297,-16.113,0.000
1728649891.898,-25.391,-22.949,-45.410,-15.625,0.000
1728649891.902,-43.457,-24.414,-35.156,-20.996,0.000
1728649891.906,-44.434,-25.391,-21.973,-42.969,0.000
1728649891.910,-28.809,-26.855,-28.809,-46.387,0.000
1728649891.914,-9.277,-23.926,-46.387,-27.832,0.000
1728649891.918,-7.812,-24.902,-44.922,-21.973,0.000
1728649891.922,-28.320,-29.297,-14.648,-36.133,0.000
1728649891.925,-38.574,-26.855,-1.465,-33.691,0.000
1728649891.929,-18.555,-25.391,-9.277,-19.043,0.000
1728649891.933,-5.859,-25.879,-14.160,-18.555,0.000
1728649891.937,-2.441,-21.973,-16.113,-24.414,0.000
1728649891.941,-21.973,-21.484,-24.902,-12.207,0.000
1728649891.945,-47.852,-21.973,-49.805,-24.902,0.000
1728649891.949,-28.320,-15.137,-64.941,-40.039,0.000
1728649891.953,2.441,-12.695,-74.219,-23.438,0.000
1728649891.957,-2.441,-23.438,-41.992,-27.344,0.000
1728649891.960,-22.461,-28.320,1.953,-33.691,0.000
1728649891.964,-27.344,-22.949,6.836,-34.668,0.000
1728649891.968,-28.320,-24.902,-4.883,-33.203,0.000
1728649891.972,-16.113,-20.996,-13.184,-14.160,0.000
1728649891.976,10.742,-18.066,-25.879,-9.766,0.000
1728649891.980,2.930,-16.113,-31.738,-9.277,0.000
1728649891.984,-29.297,-12.695,-31.250,-17.578,0.000
1728649891.988,-23.926,-17.578,-32.227,-23.438,0.000
1728649891.992,4.883,-14.648,-38.574,-2.441,0.000
1728649891.996,1.465,-20.508,-35.645,-4.395,0.000
1728649891.999,-29.297,-26.367,-24.414,-26.367,0.000
1728649892.003,-61.523,-22.949,-25.391,-37.598,0.000
1728649892.007,-41.016,-31.738,-25.879,-35.156,0.000
1728649892.011,-21.484,-29.785,-30.762,-36.621,0.000
1728649892.014,-13.672,-20.996,-43.945,-19.531,0.000
1728649892.018,-9.277,-21.973,-37.109,-11.719,0.000
1728649892.022,-36.133,-22.461,-32.227,-27.344,0.000
1728649892.026,-32.715,-26.367,-36.133,-39.062,0.000
1728649892.030,-6.836,-28.320,-30.273,-24.902,0.000
1728649892.034,-6.836,-28.320,-18.066,-14.648,0.000
1728649892.038,-22.461,-27.832,-13.184,-29.297,0.000
1728649892.042,-51.270,-25.391,-18.555,-36.621,0.000
1728649892.046,-44.922,-25.879,-23.438,-36.133,0.000
1728649892.050,-31.250,-22.461,-30.762,-30.273,0.000
1728649892.053,-29.297,-24.902,-36.133,-26.367,0.000
1728649892.057,-12.207,-27.832,-34.180,-20.508,0.000
1728649892.060,-44.922,-28.809,-27.344,-33.203,0.000
1728649892.064,-55.664,-36.133,-19.043,-53.223,0.000
1728649892.068,-31.250,-36.133,-23.926,-46.875,0.000
1728649892.072,-36.621,-31.250,-22.461,-17.578,0.000
1728649892.076,-20.020,-24.902,-23.438,-11.719,0.000
1728649892.080,-32.227,-25.879,-43.457,-24.902,0.000
1728649892.084,-45.898,-31.738,-48.828,-26.855,0.000
1728649892.088,-13.672,-31.738,-43.945,-16.602,0.000
1728649892.092,-8.301,-31.738,-30.273,-6.836,0.000
1728649892.096,-21.484,-30.762,-7.324,-14.160,0.000
1728649892.099,-32.715,-31.250,-4.395,-30.762,0.000
1728649892.102,-43.945,-30.273,-11.719,-29.785,0.000
1728649892.106,-40.039,-27.344,-20.996,-22.949,0.000
1728649892.110,-12.695,-31.250,-25.391,-26.367,0.000
1728649892.114,-8.301,-33.691,-22.461,-37.109,0.000
1728649892.118,-28.809,-28.320,-25.879,-29.297,0.000
1728649892.122,-45.898,-29.297,-32.227,-22.949,0.000
1728649892.126,-31.250,-32.227,-30.273,-20.996,0.000
1728649892.130,-9.277,-30.273,-27.832,-19.043,0.000
1728649892.134,-6.836,-30.273,-31.250,-20.996,0.000
1728649892.138,-24.414,-26.367,-35.645,-25.391,0.000
1728649892.141,-45.410,-21.973,-30.762,-42.969,0.000
1728649892.147,-24.902,-25.391,-16.113,-25.879,0.000
1728649892.151,-0.488,-30.762,-19.043,-11.719,0.000
1728649892.155,-1.465,-27.344,-25.391,-18.066,0.000
1728649892.159,-22.461,-26.367,-21.973,-20.508,0.000
1728649892.162,-46.387,-35.645,-23.926,-30.273,0.000
1728649892.166,-26.855,-35.156,-25.879,-19.043,0.000
1728649892.170,-2.441,-23.926,-27.344,-9.766,0.000
1728649892.174,-18.555,-24.414,-38.086,-14.160,0.000
1728649892.178,-21.973,-30.273,-33.203,-19.043,0.000
1728649892.182,-36.621,-28.809,-17.578,-24.414,0.000
1728649892.186,-39.062,-31.250,-12.695,-28.809,0.000
1728649892.190,-8.789,-31.738,-13.184,-36.133,0.000
1728649892.195,-7.812,-30.762,-25.879,-30.273,0.000
1728649892.198,-31.738,-33.691,-37.109,-24.902,0.000
1728649892.202,-62.500,-31.738,-41.504,-28.320,0.000
1728649892.206,-58.594,-27.832,-31.738,-20.508,0.000
1728649892.210,-18.066,-28.809,-20.020,-9.766,0.000
1728649892.214,-12.207,-28.809,-31.738,-21.973,0.000
1728649892.218,-35.156,-30.762,-38.086,-32.227,0.000
1728649892.222,-56.152,-29.785,-41.992,-27.344,0.000
1728649892.226,-45.898,-25.391,-50.781,-25.391,0.000
1728649892.230,-20.996,-25.879,-48.340,-20.996,0.000
1728649892.234,-10.254,-24.902,-36.621,-15.137,0.000
1728649892.237,-23.926,-23.926,-13.672,-9.277,0.000
1728649892.242,-62.012,-27.344,-18.555,-20.508,0.000
1728649892.246,-39.551,-22.461,-28.320,-24.902,0.000
1728649892.249,-1.953,-22.949,-14.648,-17.578,0.000
1728649892.253,-5.371,-28.809,-5.371,-18.555,0.000
1728649892.257,-10.254,-30.762,2.441,-12.207,0.000
1728649892.261,-29.785,-25.879,-6.348,-17.578,0.000
1728649892.265,-39.062,-20.508,-23.926,-20.996,0.000
1728649892.269,-15.137,-24.902,-21.484,0.000,0.000
1728649892.273,-2.930,-25.391,-20.508,11.719,0.000
1728649892.277,-9.277,-23.438,-31.738,-1.953,0.000
1728649892.281,-24.902,-22.949,-26.367,-19.043,0.000
1728649892.285,-34.180,-26.855,-3.418,-21.484,0.000
1728649892.288,-18.066,-28.320,-11.719,-13.184,0.000
1728649892.292,-8.301,-27.344,-26.855,-5.859,0.000
1728649892.296,-11.719,-27.344,-24.902,-16.602,0.000
1728649892.300,-27.832,-25.879,-23.438,-31.250,0.000
1728649892.304,-35.645,-20.996,-36.133,-17.578,0.000
1728649892.308,-15.137,-21.973,-71.777,-7.812,0.000
1728649892.312,-8.789,-28.809,-55.176,-30.273,0.000
1728649892.316,-9.766,-25.879,-12.207,-37.598,0.000
1728649892.320,-34.668,-25.879,-0.977,-23.926,0.000
1728649892.324,-58.105,-32.227,-3.906,-15.137,0.000
1728649892.328,-18.555,-24.902,-8.789,-10.742,0.000
1728649892.331,2.930,-24.414,-20.020,-10.742,0.000
1728649892.335,-9.277,-32.715,-36.621,-5.859,0.000
1728649892.339,-22.461,-32.715,-38.086,-19.531,0.000
1728649892.343,-36.621,-30.762,-36.133,-30.273,0.000
1728649892.347,-18.555,-26.855,-46.875,-29.785,0.000
1728649892.351,5.371,-22.461,-27.344,-31.250,0.000
1728649892.355,-1.953,-23.926,-9.766,-12.695,0.000
1728649892.359,-25.391,-19.531,-18.555,-15.625,0.000
1728649892.362,-44.434,-16.602,-20.020,-23.926,0.000
1728649892.366,-28.809,-15.625,-14.648,-24.414,0.000
1728649892.370,-8.301,-17.090,-10.254,-31.250,0.000
1728649892.374,-11.719,-21.484,-17.090,-31.738,0.000
1728649892.378,-22.461,-17.578,-34.180,-26.367,0.000
1728649892.381,-41.504,-20.508,-31.250,-24.414,0.000
1728649892.385,-36.621,-25.879,-38.574,-19.043,0.000
1728649892.389,-14.648,-20.996,-52.246,-12.207,0.000
1728649892.393,-10.742,-23.438,-21.973,-8.789,0.000
1728649892.397,-21.973,-27.832,-2.441,-15.625,0.000
1728649892.401,-31.250,-23.438,-6.836,-21.484,0.000
1728649892.405,-28.809,-21.484,-22.461,-21.484,0.000
1728649892.409,-10.742,-23.438,-25.391,-14.648,0.000
1728649892.413,-5.859,-20.020,-20.020,-15.137,0.000
1728649892.417,-16.113,-17.090,-38.086,-13.672,0.000
1728649892.420,-41.992,-19.531,-43.945,-16.602,0.000
1728649892.424,-42.969,-23.438,-17.090,-34.180,0.000
1728649892.427,-18.066,-30.273,-9.277,-45.898,0.000
1728649892.431,-13.184,-31.250,-36.621,-28.809,0.000
1728649892.435,-19.043,-26.855,-42.480,-26.367,0.000
1728649892.439,-50.293,-26.367,-27.344,-36.133,0.000
1728649892.443,-51.270,-22.949,-19.043,-32.227,0.000
1728649892.447,-21.973,-26.367,-20.996,-20.996,0.000
1728649892.451,-11.719,-35.156,-36.133,-10.254,0.000
1728649892.455,-22.949,-34.180,-34.668,-20.508,0.000
1728649892.459,-53.223,-24.902,-23.926,-32.227,0.000
1728649892.463,-41.016,-23.926,-16.113,-36.133,0.000
1728649892.466,-14.648,-29.297,-25.391,-18.555,0.000
1728649892.470,-7.812,-28.320,-29.297,-3.906,0.000
1728649892.473,-7.324,-27.832,-33.691,-15.137,0.000
1728649892.477,-22.949,-28.320,-38.574,-35.156,0.000
1728649892.481,-34.668,-23.438,-23.438,-34.668,0.000
1728649892.485,-18.066,-24.414,-9.766,-21.973,0.000
1728649892.489,-7.324,-27.832,-19.043,-16.602,0.000
1728649892.493,-11.719,-33.203,-28.809,-21.484,0.000
1728649892.497,-29.297,-30.762,-25.879,-20.508,0.000
1728649892.501,-41.504,-25.391,-24.414,-17.090,0.000
1728649892.504,-15.137,-23.438,-13.184,-6.836,0.000
1728649892.508,-0.977,-25.879,-11.719,-10.742,0.000
1728649892.512,-11.230,-29.297,-26.367,-24.414,0.000
1728649892.516,-37.598,-28.320,-37.598,-33.203,0.000
1728649892.522,-51.270,-31.250,-30.762,-40.039,0.000
1728649892.526,-25.879,-31.738,-20.508,-27.832,0.000
1728649892.530,-9.766,-28.320,-26.855,-18.555,0.000
1728649892.533,-3.418,-19.531,-50.781,-6.836,0.000
1728649892.537,-17.578,-14.160,-59.082,-15.137,0.000
1728649892.541,-50.781,-22.949,-33.691,-35.156,0.000
1728649892.545,-32.715,-25.879,-16.602,-34.180,0.000
1728649892.549,-7.812,-26.367,-17.578,-40.039,0.000
1728649892.553,-6.348,-21.973,-12.207,-37.598,0.000
1728649892.557,-17.578,-15.625,-31.250,-29.785,0.000
1728649892.561,-40.527,-15.625,-41.992,-29.297,0.000
1728649892.565,-34.180,-25.879,-31.250,-31.738,0.000
1728649892.569,-18.555,-32.227,-29.785,-27.832,0.000
1728649892.573,-18.066,-26.855,-24.414,-20.996,0.000
1728649892.577,-32.227,-26.367,-27.344,-27.832,0.000
1728649892.581,-60.059,-25.879,-29.785,-33.691,0.000
1728649892.585,-61.523,-34.668,-28.320,-38.574,0.000
1728649892.589,-41.992,-33.691,-33.203,-51.758,0.000
1728649892.593,-58.594,-35.156,-40.039,-73.730,0.000
1728649892.597,-95.215,-37.109,-31.250,-86.426,0.000
1728649892.601,-130.859,-39.062,-19.043,-98.145,0.000
1728649892.605,-138.184,-43.945,-22.949,-108.398,0.000
1728649892.609,-126.465,-30.273,-20.020,-117.188,0.000
1728649892.612,-147.461,-33.691,-16.602,-151.855,0.000
1728649892.617,-192.871,-45.898,-18.066,-194.336,0.000
1728649892.621,-229.492,-44.434,-14.648,-202.148,0.000
1728649892.625,-231.934,-35.156,-16.113,-215.332,0.000
1728649892.628,-212.891,-31.250,-19.043,-221.680,0.000
1728649892.632,-209.961,-29.785,-8.789,-215.820,0.000
1728649892.636,-229.980,-43.457,-1.953,-238.281,0.000
1728649892.640,-253.418,-46.875,-10.742,-248.535,0.000
1728649892.644,-246.094,-43.945,-16.602,-241.211,0.000
1728649892.648,-202.637,-42.480,-16.602,-213.867,0.000
1728649892.652,-195.312,-39.551,-26.855,-206.543,0.000
1728649892.656,-215.332,-44.434,-36.133,-229.004,0.000
1728649892.660,-233.398,-43.457,-28.320,-207.031,0.000
1728649892.663,-223.633,-37.598,-23.438,-188.965,0.000
1728649892.667,-199.219,-44.434,-21.484,-198.242,0.000
1728649892.671,-174.805,-42.969,-21.484,-187.500,0.000
1728649892.675,-166.504,-34.668,-32.227,-176.270,0.000
1728649892.679,-197.754,-33.691,-37.598,-179.688,0.000
1728649892.683,-204.102,-31.738,-38.086,-169.434,0.000
1728649892.687,-164.551,-32.227,-46.387,-162.598,0.000
1728649892.691,-146.484,-33.203,-53.711,-157.715,0.000
1728649892.695,-146.484,-32.227,-42.969,-145.996,0.000
1728649892.699,-163.086,-35.156,-35.645,-138.672,0.000
1728649892.703,-162.109,-34.180,-40.527,-115.723,0.000
1728649892.706,-111.816,-27.832,-49.316,-97.168,0.000
1728649892.710,-77.148,-23.438,-26.855,-82.520,0.000
1728649892.714,-76.172,-24.902,1.953,-83.496,0.000
1728649892.718,-82.031,-25.391,-6.836,-85.938,0.000
1728649892.722,-71.289,-21.973,-25.879,-54.688,0.000
1728649892.726,-39.062,-19.531,-23.438,-43.457,0.000
1728649892.730,-14.648,-23.926,-5.859,-31.738,0.000
1728649892.733,-18.066,-25.879,0.977,-21.973,0.000
1728649892.737,-32.227,-23.438,4.883,-16.113,0.000
1728649892.741,-36.621,-23.926,-4.395,-5.371,0.000
1728649892.745,-7.812,-26.855,3.418,-7.324,0.000
1728649892.749,30.762,-21.973,-23.438,14.160,0.000
1728649892.753,38.086,-14.160,-58.105,33.203,0.000
1728649892.756,10.254,-20.996,-22.949,14.160,0.000
1728649892.760,-5.371,-24.902,-4.395,15.625,0.000
1728649892.764,24.414,-23.438,-28.809,31.250,0.000
1728649892.768,48.828,-25.879,-34.180,32.227,0.000
1728649892.772,46.875,-22.461,-29.297,32.715,0.000
1728649892.776,41.992,-21.973,-9.277,39.062,0.000
1728649892.780,29.297,-25.879,21.973,30.273,0.000
1728649892.784,41.992,-25.391,7.324,40.527,0.000
1728649892.788,64.941,-24.414,-28.809,70.312,0.000
1728649892.792,70.801,-23.926,-28.320,68.848,0.000
1728649892.795,56.152,-25.391,-23.926,47.852,0.000
1728649892.799,35.156,-24.414,-28.809,53.223,0.000
1728649892.803,45.898,-25.391,-28.809,49.805,0.000
1728649892.806,59.570,-33.203,-42.969,53.711,0.000
1728649892.810,60.547,-36.621,-41.504,68.359,0.000
1728649892.814,59.082,-38.086,-41.016,70.801,0.000
1728649892.818,30.762,-36.621,-75.684,60.547,0.000
1728649892.822,33.691,-29.297,-66.406,47.852,0.000
1728649892.826,56.641,-34.668,-12.207,46.875,0.000
1728649892.830,56.152,-35.645,-24.414,56.641,0.000
1728649892.834,55.176,-26.855,-51.758,51.758,0.000
1728649892.838,35.156,-24.414,-26.855,37.109,0.000
1728649892.842,28.809,-26.855,-13.672,31.738,0.000
1728649892.846,41.016,-30.762,-21.484,42.969,0.000
1728649892.848,55.664,-33.203,-20.020,53.223,0.000
1728649892.852,51.758,-30.273,-29.785,53.223,0.000
1728649892.856,20.020,-29.785,-44.922,36.621,0.000
1728649892.860,14.648,-29.785,-48.340,23.926,0.000
1728649892.864,37.109,-25.391,-34.668,29.297,0.000
1728649892.868,47.852,-18.555,-38.574,42.969,0.000
1728649892.872,49.805,-16.113,-52.734,42.969,0.000
1728649892.876,28.320,-20.020,-64.941,29.297,0.000
1728649892.880,13.672,-17.090,-54.688,25.879,0.000
1728649892.883,36.621,-21.484,-23.438,21.484,0.000
1728649892.887,45.410,-26.855,-35.156,14.648,0.000
1728649892.891,36.621,-20.996,-41.992,11.719,0.000
1728649892.897,10.742,-20.020,-30.762,7.324,0.000
1728649892.901,-4.395,-18.555,-29.785,4.395,0.000
1728649892.905,17.090,-20.508,-29.297,6.836,0.000
1728649892.908,36.133,-22.461,-27.832,13.672,0.000
1728649892.912,36.621,-20.508,-21.484,20.508,0.000
1728649892.916,15.625,-23.926,-35.645,24.902,0.000
1728649892.920,1.465,-22.949,-54.688,25.391,0.000
1728649892.924,18.066,-21.973,-48.340,19.043,0.000
1728649892.928,32.715,-21.973,-26.855,21.973,0.000
1728649892.932,30.762,-21.973,-16.602,29.785,0.000
1728649892.936,15.625,-20.508,-21.973,26.855,0.000
1728649892.940,-3.906,-21.973,-27.344,6.836,0.000
1728649892.944,8.301,-21.484,-38.574,0.977,0.000
1728649892.948,30.273,-16.602,-41.016,18.066,0.000
1728649892.952,28.320,-19.043,-35.645,13.672,0.000
1728649892.956,13.184,-19.043,-44.434,3.906,0.000
1728649892.960,-2.930,-21.973,-37.109,16.113,0.000
1728649892.964,11.719,-23.926,-42.969,24.902,0.000
1728649892.968,27.832,-20.508,-44.434,25.879,0.000
1728649892.972,26.367,-22.461,-20.996,21.484,0.000
1728649892.976,25.391,-21.973,-21.484,20.996,0.000
1728649892.980,-2.441,-15.625,-45.410,24.414,0.000
1728649892.983,0.977,-16.113,-32.715,18.066,0.000
1728649892.987,37.598,-22.461,-20.508,28.320,0.000
1728649892.992,31.250,-21.973,-32.715,21.484,0.000
1728649892.996,5.371,-20.996,-20.996,19.043,0.000
1728649893.000,-14.648,-21.973,-7.324,13.184,0.000
1728649893.003,-4.395,-20.020,-35.645,11.230,0.000
1728649893.007,21.973,-20.020,-55.664,18.555,0.000
1728649893.011,23.926,-22.461,-35.645,12.207,0.000
1728649893.015,0.977,-27.832,-24.414,-6.836,0.000
1728649893.019,-26.367,-33.691,-11.719,-23.438,0.000
1728649893.023,-15.137,-31.738,-11.719,-5.859,0.000
1728649893.027,10.742,-31.250,-24.414,1.953,0.000
1728649893.031,7.812,-35.156,-21.973,-2.930,0.000
1728649893.035,0.488,-28.320,-20.508,7.324,0.000
1728649893.039,-19.531,-21.973,-57.617,-6.836,0.000
1728649893.042,-25.391,-23.926,-73.730,-14.648,0.000
1728649893.046,-6.348,-27.344,-44.434,-4.883,0.000
1728649893.050,-1.953,-21.484,-20.996,-5.371,0.000
1728649893.054,-15.137,-24.902,-13.672,-12.207,0.000
1728649893.058,-36.133,-27.344,-11.719,-12.207,0.000
1728649893.062,-39.062,-29.297,-14.160,-24.902,0.000
1728649893.066,-15.625,-34.180,-22.461,-23.926,0.000
1728649893.070,-10.742,-27.344,-32.715,-14.160,0.000
1728649893.074,-11.230,-29.297,-35.156,-16.113,0.000
1728649893.078,-26.855,-30.273,-48.828,-21.484,0.000
1728649893.082,-24.414,-25.391,-61.035,-22.461,0.000
1728649893.085,-6.836,-23.438,-81.055,-26.367,0.000
1728649893.089,-1.465,-20.508,-56.152,-34.180,0.000
1728649893.093,0.977,-23.926,-0.488,-25.391,0.000
1728649893.097,-18.555,-24.902,10.254,-17.578,0.000
1728649893.101,-26.367,-23.438,4.883,-19.531,0.000
1728649893.105,2.441,-29.297,-7.812,-16.113,0.000
1728649893.109,17.578,-26.367,-20.508,-6.348,0.000
1728649893.112,9.277,-21.973,-31.738,2.930,0.000
1728649893.116,-13.184,-23.926,-32.227,-1.465,0.000
1728649893.120,-37.109,-22.949,-24.902,-12.695,0.000
1728649893.124,-17.090,-22.949,-28.320,-13.184,0.000
1728649893.128,4.395,-26.855,-41.504,-4.395,0.000
1728649893.131,-2.441,-26.367,-55.664,-18.066,0.000
1728649893.135,-11.230,-24.414,-51.758,-23.438,0.000
1728649893.139,-33.691,-22.949,-45.410,-19.531,0.000
1728649893.143,-24.414,-24.902,-46.875,-24.902,0.000
1728649893.147,4.883,-29.297,-35.645,-17.090,0.000
1728649893.151,-2.930,-29.785,-14.160,-15.137,0.000
1728649893.155,-28.320,-33.691,-9.277,-34.668,0.000
1728649893.159,-52.246,-32.227,-13.672,-51.758,0.000
1728649893.163,-36.621,-27.832,-24.902,-33.203,0.000
1728649893.167,0.977,-29.297,-28.320,-16.113,0.000
1728649893.170,5.371,-29.785,-24.414,-11.719,0.000
1728649893.174,-3.418,-25.879,-30.762,-3.906,0.000
1728649893.178,-33.203,-29.297,-32.715,-24.414,0.000
1728649893.181,-33.691,-31.250,-32.715,-47.363,0.000
1728649893.185,-12.207,-30.762,-30.762,-38.574,0.000
1728649893.189,-9.766,-25.391,-26.855,-27.344,0.000
1728649893.193,-9.766,-21.484,-36.621,-22.461,0.000
1728649893.197,-25.391,-26.855,-55.664,-26.855,0.000
1728649893.201,-29.785,-23.438,-55.176,-24.902,0.000
1728649893.205,-11.719,-23.926,-29.297,-11.719,0.000
1728649893.209,-9.277,-31.738,-20.508,-18.066,0.000
1728649893.213,-16.602,-23.926,-20.996,-25.879,0.000
1728649893.217,-33.203,-18.066,-16.602,-30.762,0.000
1728649893.220,-42.969,-23.438,-23.438,-28.320,0.000
1728649893.223,-27.344,-26.367,-32.715,-26.367,0.000
1728649893.227,-23.438,-26.855,-63.965,-30.273,0.000
1728649893.231,-19.531,-22.949,-76.172,-28.809,0.000
1728649893.235,-40.039,-23.438,-50.293,-31.738,0.000
1728649893.239,-59.570,-31.738,-29.785,-47.852,0.000
1728649893.243,-30.762,-32.227,-5.371,-30.273,0.000
1728649893.247,-15.625,-30.762,2.441,-11.719,0.000
1728649893.251,-24.414,-29.785,-8.789,-12.207,0.000
1728649893.255,-41.016,-30.762,-25.391,-24.902,0.000
1728649893.259,-46.875,-31.738,-30.762,-28.809,0.000
1728649893.262,-15.137,-29.297,-32.227,-11.719,0.000
1728649893.266,1.953,-27.832,-33.203,-12.695,0.000
1728649893.272,-23.438,-26.367,-42.969,-20.020,0.000
1728649893.276,-33.203,-27.832,-36.133,-29.297,0.000
1728649893.280,-32.227,-29.297,-21.484,-27.344,0.000
1728649893.283,-11.230,-30.273,-24.414,-13.672,0.000
1728649893.287,5.859,-27.832,-20.508,-5.371,0.000
1728649893.291,3.906,-26.367,-17.090,-3.418,0.000
1728649893.295,-12.695,-22.949,-20.020,-5.371,0.000
1728649893.299,-31.250,-24.902,-30.273,-21.484,0.000
1728649893.303,-9.766,-26.855,-25.391,-19.043,0.000
1728649893.307,2.930,-22.949,-18.555,4.883,0.000
1728649893.311,-15.137,-25.391,-24.902,-25.879,0.000
1728649893.315,-33.203,-26.855,-28.809,-50.781,0.000
1728649893.320,-51.758,-25.391,-40.527,-27.344,0.000
1728649893.323,-25.879,-28.809,-48.828,-18.066,0.000
1728649893.327,2.930,-22.949,-35.156,-13.672,0.000
1728649893.331,-5.371,-19.531,-20.508,-13.672,0.000
1728649893.335,-24.414,-22.949,-23.438,-13.672,0.000
1728649893.339,-34.180,-25.391,-25.391,-13.672,0.000
1728649893.343,-13.672,-25.391,-22.949,-16.602,0.000
1728649893.347,8.789,-19.043,-23.926,-8.789,0.000
1728649893.351,7.324,-21.973,-36.133,-8.789,0.000
1728649893.355,-8.301,-23.438,-35.645,-13.672,0.000
1728649893.359,-34.668,-21.973,-18.066,-15.137,0.000
1728649893.363,-38.086,-27.832,-12.695,-26.367,0.000
1728649893.367,-8.301,-28.809,-14.648,-42.480,0.000
1728649893.371,-6.348,-26.855,-13.184,-38.574,0.000
1728649893.375,-27.832,-33.691,-19.043,-18.555,0.000
1728649893.379,-39.062,-33.691,-27.344,-21.973,0.000
1728649893.383,-22.949,-26.855,-47.852,-23.926,0.000
1728649893.387,0.000,-24.414,-52.734,-8.301,0.000
1728649893.390,0.000,-24.902,-37.598,-0.977,0.000
1728649893.394,-7.324,-22.949,-30.273,-9.277,0.000
1728649893.398,-25.391,-20.996,-24.414,-19.043,0.000
1728649893.402,-22.949,-23.438,-30.273,-22.461,0.000
1728649893.406,1.953,-22.461,-31.738,-16.113,0.000
1728649893.410,2.441,-20.020,-25.391,-24.902,0.000
1728649893.414,-21.973,-24.902,-26.855,-32.715,0.000
1728649893.418,-33.203,-23.926,-34.668,-21.484,0.000
1728649893.422,-25.391,-20.996,-31.738,-19.043,0.000
1728649893.426,-13.672,-27.832,-34.180,-14.160,0.000
1728649893.430,-14.160,-30.762,-50.293,-13.672,0.000
1728649893.433,-23.926,-29.297,-27.832,-30.762,0.000
1728649893.437,-34.180,-24.902,-10.742,-35.645,0.000
1728649893.441,-32.227,-27.832,-23.926,-21.484,0.000
1728649893.445,-17.578,-30.762,-31.250,-6.836,0.000
1728649893.449,-9.766,-29.785,-30.273,-10.742,0.000
1728649893.453,-12.695,-22.461,-25.879,-25.391,0.000
1728649893.457,-25.391,-14.648,-18.066,-31.738,0.000
1728649893.460,-41.016,-19.043,-31.250,-31.738,0.000
1728649893.464,-25.391,-21.484,-45.898,-10.742,0.000
1728649893.468,5.859,-18.066,-51.270,0.000,0.000
1728649893.472,0.977,-17.090,-66.895,-1.953,0.000
1728649893.476,-27.832,-20.996,-39.062,-20.020,0.000
1728649893.480,-39.062,-27.344,-0.977,-42.969,0.000
1728649893.484,-22.461,-34.180,-5.371,-43.457,0.000
1728649893.488,-14.160,-29.297,-15.137,-17.578,0.000
1728649893.492,-14.648,-23.926,-14.648,-13.672,0.000
1728649893.496,-42.480,-31.250,-19.531,-42.969,0.000
1728649893.499,-66.406,-35.156,-21.484,-48.340,0.000
1728649893.503,-23.438,-29.297,-20.996,-20.020,0.000
1728649893.507,7.324,-26.367,-20.508,-26.367,0.000
1728649893.511,-3.418,-27.344,-22.461,-38.574,0.000
1728649893.515,-33.691,-28.809,-32.227,-43.457,0.000
1728649893.518,-54.199,-30.762,-33.203,-22.461,0.000
1728649893.522,-33.203,-27.344,-35.156,-6.348,0.000
1728649893.526,-12.207,-24.902,-39.062,-35.156,0.000
1728649893.530,-0.488,-20.508,-43.945,-30.273,0.000
1728649893.534,-17.578,-19.043,-38.086,-10.254,0.000
1728649893.538,-39.551,-23.438,-28.320,-29.785,0.000
1728649893.542,-20.508,-25.879,-24.902,-30.762,0.000
1728649893.546,-7.324,-29.785,-30.762,-11.230,0.000
1728649893.550,-25.391,-30.273,-49.805,-18.066,0.000
1728649893.553,-30.273,-24.414,-55.176,-20.020,0.000
1728649893.557,-41.504,-28.809,-45.898,-14.160,0.000
1728649893.560,-43.945,-31.250,-42.480,-19.043,0.000
1728649893.564,-15.137,-26.367,-35.645,-17.090,0.000
1728649893.568,-14.648,-24.414,-37.109,-29.297,0.000
1728649893.572,-28.809,-26.855,-27.832,-35.156,0.000
1728649893.576,-46.875,-28.320,-3.906,-44.922,0.000
1728649893.580,-42.969,-28.320,-7.324,-43.457,0.000
1728649893.584,-12.695,-24.902,-22.461,-23.438,0.000
1728649893.588,1.465,-22.949,-34.180,-7.812,0.000
1728649893.592,-7.324,-20.508,-42.480,-2.441,0.000
1728649893.596,-35.645,-20.996,-33.691,-14.160,0.000
1728649893.599,-28.809,-18.066,-22.461,-22.949,0.000
1728649893.602,0.977,-13.184,-17.578,-28.809,0.000
1728649893.606,4.883,-17.578,-24.902,-27.832,0.000
1728649893.610,-4.883,-22.949,-23.438,-18.555,0.000
1728649893.614,-41.992,-23.926,-24.414,-24.414,0.000
1728649893.618,-40.527,-25.391,-33.203,-16.113,0.000
1728649893.622,-1.465,-23.926,-29.297,-12.207,0.000
1728649893.626,2.930,-20.020,-23.926,-17.090,0.000
1728649893.630,-9.277,-24.902,-36.133,-21.484,0.000
1728649893.634,-42.969,-25.391,-41.992,-37.109,0.000
1728649893.638,-58.105,-24.414,-41.992,-29.785,0.000
1728649893.641,-22.949,-23.438,-45.898,-25.879,0.000
1728649893.647,-2.930,-23.438,-42.969,-43.945,0.000
1728649893.651,-17.090,-23.926,-22.461,-30.273,0.000
1728649893.655,-43.457,-24.414,-24.414,-39.062,0.000
1728649893.659,-40.039,-22.461,-43.457,-33.203,0.000
1728649893.663,-12.695,-23.438,-37.109,-3.418,0.000
1728649893.666,-2.930,-24.902,-11.230,-14.160,0.000
1728649893.670,-12.695,-23.438,-1.953,-29.785,0.000
1728649893.674,-36.621,-26.855,-13.672,-35.156,0.000
1728649893.678,-44.434,-27.832,-26.367,-18.066,0.000
1728649893.682,-16.602,-26.855,-31.738,-8.789,0.000
1728649893.686,-14.648,-29.785,-25.391,-22.949,0.000
1728649893.690,-36.621,-30.273,-29.785,-29.297,0.000
1728649893.695,-46.387,-22.461,-30.762,-23.438,0.000
1728649893.699,-52.734,-21.973,-33.203,-29.297,0.000
1728649893.703,-31.738,-28.320,-33.691,-31.738,0.000
1728649893.706,-10.254,-25.391,-33.203,-21.484,0.000
1728649893.710,-3.418,-20.996,-34.180,-16.602,0.000
1728649893.714,-17.090,-23.438,-32.227,-29.785,0.000
1728649893.718,-35.156,-23.438,-35.156,-42.969,0.000
1728649893.722,-26.367,-25.391,-42.480,-40.039,0.000
1728649893.726,-6.348,-25.879,-36.133,-34.180,0.000
1728649893.730,-8.301,-26.855,-31.250,-13.184,0.000
1728649893.734,-41.504,-31.738,-35.156,-24.414,0.000
1728649893.738,-77.637,-41.504,-27.344,-40.527,0.000
1728649893.742,-47.852,-45.410,-33.691,-41.504,0.000
1728649893.746,-7.324,-39.551,-45.410,-28.320,0.000
1728649893.750,-14.648,-40.039,-44.434,-28.320,0.000
1728649893.754,-24.902,-35.156,-33.203,-29.785,0.000
1728649893.758,-50.781,-29.785,-24.414,-37.109,0.000
1728649893.762,-51.758,-34.668,-32.227,-33.203,0.000
1728649893.766,-25.879,-36.133,-29.297,-22.461,0.000
1728649893.769,-30.762,-34.180,-18.555,-32.227,0.000
1728649893.773,-42.480,-35.645,-13.184,-31.738,0.000
1728649893.777,-52.734,-33.203,-10.742,-32.715,0.000
1728649893.781,-52.246,-32.715,-23.438,-54.688,0.000
1728649893.785,-33.203,-37.598,-29.297,-40.039,0.000
1728649893.789,-24.902,-33.203,-27.832,-32.227,0.000
1728649893.793,-41.504,-27.832,-32.227,-51.758,0.000
1728649893.797,-66.895,-27.344,-27.344,-45.898,0.000
1728649893.801,-56.641,-30.273,-21.484,-32.227,0.000
1728649893.805,-31.250,-27.832,-24.414,-35.156,0.000
1728649893.809,-24.902,-25.391,-36.133,-33.691,0.000
1728649893.812,-34.668,-24.414,-43.945,-36.133,0.000
1728649893.816,-55.176,-27.344,-38.574,-27.344,0.000
1728649893.820,-54.199,-26.855,-46.387,-24.414,0.000
1728649893.824,-23.438,-24.414,-40.527,-33.203,0.000
1728649893.828,-16.113,-23.438,-26.855,-35.156,0.000
1728649893.832,-23.926,-21.484,-41.016,-39.551,0.000
1728649893.836,-46.387,-14.648,-38.574,-34.668,0.000
1728649893.840,-52.734,-17.090,-26.367,-42.480,0.000
1728649893.843,-21.973,-28.809,-31.250,-42.969,0.000
1728649893.847,-18.066,-28.809,-29.785,-42.480,0.000
1728649893.851,-37.109,-28.809,-20.508,-39.062,0.000
1728649893.855,-49.316,-27.344,-23.438,-32.227,0.000
1728649893.859,-50.293,-23.438,-20.996,-37.598,0.000
1728649893.863,-28.320,-26.367,-24.902,-25.879,0.000
1728649893.867,-14.160,-26.855,-31.250,-18.555,0.000
1728649893.871,-26.855,-21.973,-27.832,-37.109,0.000
1728649893.875,-44.434,-20.996,-26.367,-47.363,0.000
1728649893.879,-42.969,-22.949,-35.645,-31.250,0.000
1728649893.882,0.000,-20.508,-34.180,-24.902,0.000
1728649893.886,0.000,-18.066,-32.227,-35.156,0.000
1728649893.890,0.000,-23.926,-25.391,-38.086,0.000
1728649893.894,0.000,-28.809,-16.602,-29.785,0.000
1728649893.898,0.000,-28.809,-22.949,-40.039,0.000
1728649893.902,0.000,-29.297,-32.715,-53.223,0.000
1728649893.906,0.000,-24.902,-34.180,-30.273,0.000
1728649893.909,0.000,-25.879,-40.039,-12.207,0.000
1728649893.913,0.000,-30.273,-38.574,-25.879,0.000
1728649893.917,0.000,-25.391,-25.391,-41.504,0.000
1728649893.921,0.000,-30.273,-22.949,-35.645,0.000
1728649893.925,0.000,-35.156,-35.156,-29.785,0.000
1728649893.928,-18.066,-30.762,-40.039,-28.320,0.000
1728649893.932,-32.715,-26.367,-44.434,-41.992,0.000
1728649893.936,-49.805,-27.344,-40.527,-47.852,0.000
1728649893.940,-27.344,-21.973,-35.645,-23.926,0.000
1728649893.944,-3.418,-19.531,-29.785,-20.508,0.000
1728649893.948,-12.695,-21.484,-24.414,-24.902,0.000
1728649893.952,-33.203,-18.555,-26.367,-19.531,0.000
1728649893.956,-51.758,-17.578,-27.832,-29.785,0.000
1728649893.959,-46.875,-21.484,-27.832,-27.832,0.000
1728649893.963,-14.160,-22.461,-32.227,-5.371,0.000
1728649893.967,2.930,-22.949,-48.340,-10.254,0.000
1728649893.971,-17.090,-24.902,-59.082,-26.855,0.000
1728649893.974,-35.156,-25.391,-45.898,-31.738,0.000
1728649893.978,-22.461,-26.855,-28.320,-14.160,0.000
1728649893.982,3.906,-22.949,-14.160,-5.859,0.000
1728649893.986,8.301,-20.996,-10.254,-5.859,0.000
1728649893.990,-15.625,-24.414,-19.531,-18.555,0.000
1728649893.994,-40.039,-29.297,-35.645,-31.738,0.000
1728649893.997,-32.715,-30.762,-50.293,-17.578,0.000
1728649894.001,-6.348,-23.438,-47.852,-17.090,0.000
1728649894.005,-4.883,-16.113,-30.762,-23.438,0.000
1728649894.009,-16.113,-22.949,-27.344,-19.531,0.000
1728649894.013,-36.621,-28.809,-25.391,-30.273,0.000
1728649894.017,-44.922,-29.297,-12.695,-38.086,0.000
1728649894.022,-19.531,-24.902,-10.254,-33.691,0.000
1728649894.026,-11.719,-22.461,-20.508,-52.734,0.000
1728649894.030,-25.879,-27.832,-29.297,-43.945,0.000
1728649894.034,-35.645,-28.809,-29.297,-32.227,0.000
1728649894.038,-34.668,-26.855,-37.109,-28.320,0.000
1728649894.042,-18.066,-20.020,-52.734,-14.160,0.000
1728649894.046,-1.953,-18.066,-36.133,-13.184,0.000
1728649894.050,-18.555,-24.902,-37.109,-30.762,0.000
1728649894.054,-46.875,-26.855,-60.547,-37.109,0.000
1728649894.057,-37.598,-25.391,-48.828,-28.320,0.000
1728649894.061,-11.719,-25.879,-34.180,-31.250,0.000
1728649894.065,-8.301,-32.227,-14.648,-37.598,0.000
1728649894.073,-21.484,-27.832,-10.254,-27.344,0.000
1728649894.076,-41.992,-29.297,-22.461,-37.598,0.000
1728649894.080,-55.176,-37.109,-21.973,-47.852,0.000
1728649894.084,-27.832,-32.715,-22.461,-40.039,0.000
1728649894.088,-12.207,-26.855,-24.902,-37.598,0.000
1728649894.092,-25.391,-28.320,-25.391,-22.461,0.000
1728649894.096,-46.387,-25.391,-31.250,-7.812,0.000
1728649894.100,-44.922,-21.973,-28.320,-21.973,0.000
1728649894.104,-17.090,-24.902,-21.973,-25.879,0.000
1728649894.108,-9.766,-28.320,-26.367,-17.578,0.000
1728649894.112,-15.137,-30.762,-31.738,-30.273,0.000
1728649894.116,-32.227,-34.180,-32.715,-32.227,0.000
1728649894.119,-52.246,-32.715,-32.715,-27.344,0.000
1728649894.123,-38.086,-28.320,-36.621,-27.344,0.000
1728649894.127,-19.531,-22.949,-40.527,-26.855,0.000
1728649894.131,-19.043,-26.367,-46.387,-46.875,0.000
1728649894.135,-30.762,-31.250,-48.340,-49.805,0.000
1728649894.139,-44.434,-23.438,-43.945,-36.621,0.000
1728649894.143,-33.203,-21.973,-55.664,-22.949,0.000
1728649894.147,-11.719,-25.391,-48.828,-16.602,0.000
1728649894.151,-9.766,-24.414,-14.160,-6.836,0.000
1728649894.155,-40.039,-24.902,0.488,-16.113,0.000
1728649894.158,-54.199,-24.902,-2.930,-27.832,0.000
1728649894.162,-23.926,-24.902,-16.113,-19.043,0.000
1728649894.166,-7.812,-20.020,-28.320,-13.672,0.000
1728649894.170,-12.207,-27.344,-30.273,-12.695,0.000
1728649894.174,-18.066,-28.320,-45.410,-19.043,0.000
1728649894.178,-37.109,-22.949,-47.852,-32.715,0.000
1728649894.182,-45.410,-26.855,-38.086,-31.738,0.000
1728649894.186,-38.086,-28.320,-36.621,-37.598,0.000
1728649894.190,-19.043,-30.762,-39.551,-43.457,0.000
1728649894.193,-21.973,-42.480,-24.902,-21.973,0.000
1728649894.197,-43.945,-40.039,-18.066,-8.789,0.000
1728649894.201,-43.945,-34.180,-25.879,-16.602,0.000
1728649894.205,-25.879,-32.227,-21.484,-21.484,0.000
1728649894.209,-1.953,-25.879,-20.996,-17.578,0.000
1728649894.212,0.000,-29.785,-24.414,-8.789,0.000
1728649894.216,0.000,-30.273,-37.598,-20.996,0.000
1728649894.220,0.000,-27.344,-45.898,-23.926,0.000
1728649894.224,0.000,-28.809,-32.715,-20.020,0.000
1728649894.228,0.000,-32.227,-25.391,-28.809,0.000
1728649894.232,0.000,-27.832,-19.531,-24.414,0.000
1728649894.236,0.000,-22.949,-21.973,-10.254,0.000
1728649894.240,0.000,-25.391,-17.578,-14.648,0.000
1728649894.244,0.000,-28.809,-14.648,-15.137,0.000
1728649894.248,0.000,-24.414,-25.391,-7.812,0.000
1728649894.251,0.000,-19.531,-36.133,-18.555,0.000
1728649894.255,0.000,-24.414,-46.875,-41.992,0.000
1728649894.258,-29.297,-16.113,-53.711,-36.133,0.000
1728649894.262,-0.977,-7.812,-41.504,-18.555,0.000
1728649894.266,3.418,-25.391,-36.621,-17.090,0.000
1728649894.270,-10.742,-24.902,-26.367,-20.020,0.000
1728649894.274,-18.066,-17.578,-8.789,-31.250,0.000
1728649894.278,-35.156,-22.949,-5.859,-33.691,0.000
1728649894.282,-18.066,-20.996,-15.625,-25.879,0.000
1728649894.286,6.348,-20.020,-27.832,-22.461,0.000
1728649894.290,-6.348,-22.461,-36.133,-28.320,0.000
1728649894.294,-27.832,-24.414,-30.762,-31.738,0.000
1728649894.297,-37.598,-22.461,-26.855,-36.621,0.000
1728649894.301,-24.902,-23.438,-25.879,-42.480,0.000
1728649894.307,-10.742,-25.879,-22.461,-32.715,0.000
1728649894.311,-25.879,-30.273,-31.738,-18.555,0.000
1728649894.315,-52.246,-30.273,-41.016,-38.574,0.000
1728649894.319,-45.898,-28.809,-41.504,-33.203,0.000
1728649894.322,-24.902,-31.250,-31.738,-30.273,0.000
1728649894.326,-7.324,-27.832,-22.949,-52.246,0.000
1728649894.330,-13.672,-27.832,-16.602,-45.410,0.000
1728649894.334,-35.156,-28.809,-20.996,-44.922,0.000
1728649894.338,-52.246,-23.926,-43.945,-55.664,0.000
1728649894.342,-38.086,-26.855,-43.457,-36.621,0.000
1728649894.346,-16.113,-32.715,-32.227,-37.598,0.000
1728649894.350,-19.531,-33.203,-35.645,-45.410,0.000
1728649894.352,-32.715,-30.273,-38.574,-36.133,0.000
1728649894.356,-50.293,-33.203,-26.855,-58.594,0.000
1728649894.360,-42.480,-31.250,-16.113,-50.293,0.000
1728649894.364,-7.324,-32.715,-17.090,-27.832,0.000
1728649894.368,-9.277,-36.133,-14.648,-30.273,0.000
1728649894.371,-34.180,-29.785,-15.625,-12.695,0.000
1728649894.375,-53.223,-23.926,-30.273,-9.277,0.000
1728649894.379,-37.109,-22.461,-39.551,-14.648,0.000
1728649894.383,-9.277,-28.809,-37.109,-9.277,0.000
1728649894.387,-15.625,-35.156,-33.203,-18.555,0.000
1728649894.391,-19.531,-34.668,-29.297,-24.902,0.000
1728649894.395,-56.152,-35.156,-20.020,-24.902,0.000
1728649894.400,-68.359,-36.133,-20.508,-31.250,0.000
1728649894.404,-34.668,-36.133,-26.367,-22.461,0.000
1728649894.408,-18.066,-35.645,-31.738,-20.020,0.000
1728649894.411,-18.555,-30.762,-31.738,-22.949,0.000
1728649894.415,-43.945,-30.762,-31.250,-14.160,0.000
1728649894.419,-49.316,-32.227,-31.250,-12.207,0.000
1728649894.423,-18.555,-25.391,-24.414,-9.766,0.000
1728649894.427,2.930,-28.320,-14.160,-1.953,0.000
1728649894.431,-18.555,-33.203,-14.648,-28.809,0.000
1728649894.435,-37.598,-25.391,-19.531,-37.598,0.000
1728649894.439,-47.363,-24.414,-24.414,-16.113,0.000
1728649894.443,-30.762,-25.391,-32.227,-11.230,0.000
1728649894.447,-27.344,-26.855,-40.527,-13.184,0.000
1728649894.451,-40.039,-29.297,-49.316,-14.648,0.000
1728649894.455,-36.621,-27.832,-40.527,-20.020,0.000
1728649894.458,-34.180,-22.461,-27.832,-24.902,0.000
1728649894.462,-28.320,-16.602,-45.410,-17.578,0.000
1728649894.466,-18.066,-16.602,-46.387,-24.414,0.000
1728649894.470,5.859,-20.020,-19.531,-33.691,0.000
1728649894.474,-6.348,-20.996,-12.695,-35.645,0.000
1728649894.478,-19.531,-21.484,-25.391,-46.875,0.000
1728649894.482,-3.418,-22.949,-34.668,-25.879,0.000
1728649894.486,6.836,-19.531,-40.039,-9.277,0.000
1728649894.490,-1.953,-20.020,-33.203,-20.996,0.000
1728649894.494,-28.809,-23.926,-21.973,-33.203,0.000
1728649894.498,-44.434,-30.273,-20.996,-37.598,0.000
1728649894.502,-32.227,-34.180,-25.391,-30.762,0.000
1728649894.505,-14.160,-34.180,-29.297,-15.137,0.000
1728649894.509,-4.883,-32.715,-29.785,-18.066,0.000
1728649894.513,-16.602,-26.855,-35.156,-17.578,0.000
1728649894.517,-38.086,-22.949,-41.016,-20.996,0.000
1728649894.521,-28.320,-22.461,-43.945,-23.438,0.000
1728649894.525,-30.762,-24.414,-38.086,-14.160,0.000
1728649894.529,-13.672,-23.926,-30.762,-18.066,0.000
1728649894.533,-8.301,-24.902,-35.645,-23.438,0.000
1728649894.537,-34.180,-24.902,-44.922,-26.367,0.000
1728649894.540,-22.461,-23.926,-42.969,-11.230,0.000
1728649894.544,-20.508,-33.691,-42.969,-11.719,0.000
1728649894.548,-19.531,-42.480,-47.363,-29.785,0.000
1728649894.552,-27.832,-34.180,-40.039,-36.133,0.000
1728649894.556,-43.457,-30.273,-43.457,-28.809,0.000
1728649894.560,-34.668,-31.250,-47.363,-23.926,0.000
1728649894.564,-12.207,-28.320,-35.156,-17.578,0.000
1728649894.568,-19.531,-30.273,-22.461,-23.926,0.000
1728649894.572,-44.922,-34.180,-12.695,-49.805,0.000
1728649894.575,-48.828,-30.273,-7.324,-28.809,0.000
1728649894.579,-48.340,-29.297,-29.785,-19.043,0.000
1728649894.583,-14.648,-30.762,-38.574,-27.832,0.000
1728649894.587,2.930,-26.367,-28.320,-13.184,0.000
1728649894.591,-21.484,-27.344,-22.949,-15.625,0.000
1728649894.595,-44.922,-27.832,-17.578,-25.391,0.000
1728649894.598,-39.551,-24.902,-23.438,-31.738,0.000
1728649894.602,-17.090,-19.043,-31.250,-25.879,0.000
1728649894.606,-16.113,-20.020,-38.086,-29.785,0.000
1728649894.610,-24.414,-23.926,-37.109,-35.156,0.000
1728649894.614,-41.992,-24.902,-40.039,-35.156,0.000
1728649894.618,-51.758,-25.879,-47.852,-46.875,0.000
1728649894.622,-31.250,-22.949,-44.434,-33.203,0.000
1728649894.626,-18.066,-28.320,-47.363,-20.508,0.000
1728649894.630,-15.137,-25.391,-45.410,-19.531,0.000
1728649894.633,-39.551,-20.996,-33.691,-27.344,0.000
1728649894.637,-47.363,-26.367,-25.391,-25.391,0.000
1728649894.641,-20.020,-22.461,-16.113,-17.090,0.000
1728649894.645,-13.672,-22.461,-24.414,-25.391,0.000
1728649894.649,-28.809,-26.367,-33.203,-49.805,0.000
1728649894.652,-51.270,-29.785,-24.414,-48.828,0.000
1728649894.656,-50.293,-35.156,-23.438,-40.527,0.000
1728649894.660,-13.672,-29.297,-24.902,-22.461,0.000
1728649894.664,1.465,-23.926,-17.090,-11.719,0.000
1728649894.668,-9.277,-26.855,-21.484,-19.043,0.000
1728649894.672,-42.969,-28.320,-26.367,-22.461,0.000
1728649894.676,-45.410,-26.367,-30.762,-20.020,0.000
1728649894.679,-12.695,-20.996,-47.363,-9.277,0.000
1728649894.683,-1.465,-20.996,-46.387,-6.836,0.000
1728649894.687,5.371,-20.508,-26.367,-0.488,0.000
1728649894.691,-41.504,-19.043,-14.648,-4.395,0.000
1728649894.695,-54.688,-21.484,-11.230,-35.156,0.000
1728649894.698,-20.020,-25.391,-6.348,-40.039,0.000
1728649894.702,-25.391,-28.320,-13.672,-13.184,0.000
1728649894.706,-23.438,-23.438,-27.344,-5.859,0.000
1728649894.710,-12.207,-16.602,-25.391,-16.602,0.000
1728649894.714,-33.203,-16.602,-19.043,-25.391,0.000
1728649894.718,-22.949,-19.043,-26.855,-14.160,0.000
1728649894.722,1.465,-16.602,-41.504,-12.695,0.000
1728649894.725,7.324,-11.230,-37.598,-9.277,0.000
1728649894.728,-13.672,-13.672,-25.879,-5.859,0.000
1728649894.732,-35.645,-18.555,-21.484,-10.254,0.000
1728649894.736,-27.344,-21.973,-28.320,-21.484,0.000
1728649894.740,-7.324,-24.414,-22.949,-33.691,0.000
1728649894.744,-1.465,-20.020,-16.113,-31.250,0.000
1728649894.748,-20.508,-18.066,-20.020,-30.273,0.000
1728649894.752,-59.082,-21.484,-27.832,-30.273,0.000
1728649894.756,-52.734,-28.320,-31.738,-26.367,0.000
1728649894.760,-23.438,-31.250,-33.203,-35.156,0.000
1728649894.764,-26.367,-27.832,-30.273,-42.969,0.000
1728649894.768,-29.297,-26.367,-37.109,-33.691,0.000
1728649894.773,-45.898,-23.438,-41.992,-37.109,0.000
1728649894.776,-37.109,-17.578,-38.086,-29.785,0.000
1728649894.780,-8.301,-17.090,-44.922,-27.832,0.000
1728649894.784,2.930,-15.625,-23.438,-20.508,0.000
1728649894.788,-14.160,-18.555,-0.977,-12.695,0.000
1728649894.792,-58.105,-21.973,-4.395,-28.809,0.000
1728649894.796,-40.527,-22.949,-22.949,-35.156,0.000
1728649894.800,1.465,-19.531,-34.180,-28.320,0.000
1728649894.804,-6.836,-19.531,-28.809,-20.996,0.000
1728649894.808,-28.320,-23.926,-35.156,-22.461,0.000
1728649894.812,-40.039,-23.926,-40.039,-29.785,0.000
1728649894.816,-36.621,-24.902,-63.965,-25.391,0.000
1728649894.820,-29.297,-27.344,-80.078,-29.297,0.000
1728649894.824,-26.855,-27.344,-50.781,-31.250,0.000
1728649894.828,-19.043,-22.949,-18.555,-29.785,0.000
1728649894.832,-43.457,-23.926,-4.883,-41.016,0.000
1728649894.836,-56.152,-27.344,-16.602,-49.805,0.000
1728649894.840,-26.855,-33.203,-28.320,-36.133,0.000
1728649894.844,-13.184,-30.273,-26.367,-26.367,0.000
1728649894.847,-20.508,-25.879,-32.227,-31.738,0.000
1728649894.851,-34.668,-24.902,-39.062,-36.133,0.000
1728649894.855,-47.363,-22.461,-29.785,-35.645,0.000
1728649894.859,-33.691,-22.949,-23.926,-29.785,0.000
1728649894.863,-20.996,-22.949,-21.973,-24.414,0.000
1728649894.867,-32.715,-23.926,-41.016,-28.809,0.000
1728649894.871,-40.527,-25.391,-51.758,-36.133,0.000
1728649894.875,-49.316,-30.762,-39.551,-25.391,0.000
1728649894.879,-24.414,-36.133,-26.367,-24.902,0.000
1728649894.883,-12.207,-37.109,-20.996,-30.762,0.000
1728649894.887,-24.902,-31.250,-29.297,-22.949,0.000
1728649894.891,-37.109,-27.344,-32.715,-28.809,0.000
1728649894.895,-54.199,-28.809,-20.508,-31.738,0.000
1728649894.899,-40.039,-32.227,-14.160,-32.227,0.000
1728649894.902,-14.160,-33.203,-26.367,-36.133,0.000
1728649894.906,-15.137,-29.297,-32.227,-26.855,0.000
1728649894.910,-26.367,-30.762,-42.969,-38.574,0.000
1728649894.914,-41.504,-34.180,-53.223,-35.156,0.000
1728649894.918,-35.156,-31.738,-32.715,-21.484,0.000
1728649894.922,-22.461,-35.645,-18.066,-11.719,0.000
1728649894.926,-18.555,-36.621,-19.531,-15.625,0.000
1728649894.930,-22.461,-31.250,-23.926,-23.438,0.000
1728649894.934,-57.129,-27.832,-35.645,-34.180,0.000
1728649894.938,-35.645,-25.879,-56.152,-42.480,0.000
1728649894.941,-4.883,-28.320,-62.988,-15.625,0.000
1728649894.945,-5.371,-32.227,-43.945,-1.465,0.000
1728649894.949,-15.625,-34.180,-17.090,-14.648,0.000
1728649894.953,-49.316,-35.645,-6.836,-14.160,0.000
1728649894.957,-34.180,-34.180,-19.043,0.488,0.000
1728649894.961,-6.348,-28.809,-32.715,-9.766,0.000
1728649894.965,-27.832,-34.180,-26.855,-41.504,0.000
1728649894.969,-43.457,-32.715,-34.180,-36.133,0.000
1728649894.972,-54.688,-32.715,-43.457,-26.855,0.000
1728649894.976,-50.781,-34.668,-21.484,-39.062,0.000
1728649894.980,-35.645,-35.156,-6.348,-29.297,0.000
1728649894.984,-24.902,-32.715,-24.414,-26.855,0.000
1728649894.988,-27.344,-29.297,-31.738,-27.344,0.000
1728649894.992,-54.688,-34.180,-26.855,-26.855,0.000
1728649894.996,-49.805,-29.785,-18.066,-37.598,0.000
1728649895.000,-10.254,-28.320,-18.066,-32.715,0.000
1728649895.004,-1.465,-29.785,-29.297,-27.344,0.000
1728649895.007,-16.113,-26.367,-43.945,-42.480,0.000
1728649895.011,-42.969,-25.391,-50.293,-55.176,0.000
1728649895.015,-52.734,-26.367,-24.902,-47.852,0.000
1728649895.019,-39.062,-31.250,-16.113,-36.621,0.000
1728649895.023,-28.809,-34.180,-27.344,-52.246,0.000
1728649895.027,-36.621,-34.668,-29.297,-60.059,0.000
1728649895.031,-97.656,-30.762,-49.805,-53.223,0.000
1728649895.034,-79.590,-27.832,-53.223,-48.828,0.000
1728649895.038,-54.688,-31.250,-32.715,-50.781,0.000
1728649895.042,-71.289,-33.691,-23.926,-53.711,0.000
1728649895.046,-27.832,-28.809,-24.902,-50.293,0.000
1728649895.050,-46.387,-23.438,-29.785,-58.594,0.000
1728649895.053,-78.613,-26.855,-36.133,-60.547,0.000
1728649895.057,-46.387,-26.855,-39.062,-44.434,0.000
1728649895.061,-19.531,-27.832,-27.344,-48.340,0.000
1728649895.065,-32.715,-30.762,-38.086,-52.734,0.000
1728649895.069,-52.246,-29.785,-41.016,-44.434,0.000
1728649895.073,-66.406,-29.297,-30.762,-49.316,0.000
1728649895.077,-48.828,-32.227,-41.504,-56.152,0.000
1728649895.081,-29.785,-30.762,-38.574,-42.969,0.000
1728649895.084,-33.203,-28.320,-26.367,-46.387,0.000
1728649895.088,-64.453,-25.391,-18.066,-66.895,0.000
1728649895.092,-82.520,-27.344,-12.207,-62.988,0.000
1728649895.096,-77.637,-30.273,-15.137,-61.035,0.000
1728649895.099,-56.641,-30.273,-20.020,-62.012,0.000
1728649895.103,-57.129,-38.574,-11.230,-76.172,0.000
1728649895.107,-96.191,-38.086,-8.789,-92.285,0.000
1728649895.111,-144.531,-37.109,-16.602,-107.910,0.000
1728649895.115,-153.809,-47.852,-13.184,-133.789,0.000
1728649895.119,-145.996,-41.992,1.465,-145.508,0.000
1728649895.123,-167.969,-38.574,-7.812,-160.156,0.000
1728649895.126,-198.730,-41.016,-13.672,-184.082,0.000
1728649895.130,-222.656,-31.250,-18.066,-202.148,0.000
1728649895.134,-218.262,-36.621,-13.672,-206.055,0.000
1728649895.138,-204.590,-33.691,-13.184,-208.008,0.000
1728649895.142,-211.426,-31.250,-21.484,-211.914,0.000
1728649895.147,-225.586,-30.762,-20.996,-219.238,0.000
1728649895.151,-238.770,-27.832,-15.137,-230.957,0.000
1728649895.155,-229.004,-30.762,-19.043,-205.078,0.000
1728649895.159,-192.871,-31.250,-25.391,-196.289,0.000
1728649895.163,-183.105,-25.391,-22.949,-204.590,0.000
1728649895.167,-191.406,-22.461,-10.254,-194.824,0.000
1728649895.171,-204.590,-23.926,-5.371,-192.383,0.000
1728649895.175,-199.707,-33.203,-12.207,-190.918,0.000
1728649895.179,-171.387,-38.574,-16.602,-182.129,0.000
1728649895.183,-162.598,-31.738,-19.043,-151.367,0.000
1728649895.186,-163.086,-29.297,-26.855,-155.762,0.000
1728649895.190,-169.434,-25.879,-22.949,-166.992,0.000
1728649895.195,-167.480,-22.461,-24.902,-164.062,0.000
1728649895.199,-146.973,-28.809,-38.574,-152.832,0.000
1728649895.203,-128.906,-28.320,-36.133,-137.695,0.000
1728649895.207,-129.883,-24.414,-21.484,-135.254,0.000
1728649895.211,-154.785,-31.250,-18.066,-130.859,0.000
1728649895.215,-153.809,-33.203,-25.391,-125.000,0.000
1728649895.219,-117.676,-29.785,-31.738,-116.699,0.000
1728649895.222,-98.145,-28.809,-24.902,-111.328,0.000
1728649895.226,-102.051,-26.855,-41.016,-103.027,0.000
1728649895.230,-120.117,-20.996,-76.660,-88.867,0.000
1728649895.234,-108.398,-20.508,-59.570,-77.637,0.000
1728649895.238,-72.266,-18.555,-41.992,-62.500,0.000
1728649895.242,-36.133,-18.555,-44.922,-37.598,0.000
1728649895.246,-40.527,-21.973,-46.875,-32.715,0.000
1728649895.250,-56.152,-20.508,-21.484,-29.297,0.000
1728649895.254,-41.992,-20.996,-16.602,-31.250,0.000
1728649895.258,-25.879,-22.461,-8.301,-20.020,0.000
1728649895.262,6.836,-19.043,-18.066,14.160,0.000
1728649895.266,35.156,-19.531,-38.574,17.578,0.000
1728649895.270,11.230,-22.949,-15.137,18.066,0.000
1728649895.274,-0.977,-22.461,-12.695,17.090,0.000
1728649895.278,25.879,-19.043,-33.203,24.902,0.000
1728649895.281,49.316,-23.438,-28.320,30.762,0.000
1728649895.285,48.340,-30.762,-5.371,34.180,0.000
1728649895.289,37.598,-27.344,-6.348,41.992,0.000
1728649895.293,21.484,-29.785,-26.855,49.316,0.000
1728649895.297,47.363,-29.785,-27.832,60.059,0.000
1728649895.301,68.848,-30.273,-15.137,49.805,0.000
1728649895.305,63.477,-36.621,-19.043,49.316,0.000
1728649895.309,66.406,-26.367,-52.246,63.965,0.000
1728649895.313,48.828,-14.648,-72.266,57.617,0.000
1728649895.317,40.527,-24.902,-53.223,56.641,0.000
1728649895.320,62.988,-33.691,-9.277,61.523,0.000
1728649895.324,65.430,-34.180,15.137,55.176,0.000
1728649895.328,48.340,-34.180,4.883,55.176,0.000
1728649895.332,28.809,-35.156,-12.207,62.988,0.000
1728649895.336,39.551,-33.691,-17.090,57.129,0.000
1728649895.340,67.871,-32.227,-22.461,51.758,0.000
1728649895.344,67.383,-30.762,-41.504,62.012,0.000
1728649895.347,56.641,-25.391,-38.574,46.875,0.000
1728649895.351,39.551,-28.320,-22.461,32.227,0.000
1728649895.355,36.133,-34.180,-17.578,33.203,0.000
1728649895.359,65.430,-32.227,-18.555,25.879,0.000
1728649895.363,73.730,-27.344,-48.340,53.223,0.000
1728649895.367,60.059,-24.902,-49.805,62.500,0.000
1728649895.371,40.039,-25.391,-45.898,47.363,0.000
1728649895.375,47.852,-23.438,-44.922,48.340,0.000
1728649895.379,59.570,-28.809,-24.414,47.363,0.000
1728649895.382,61.523,-30.273,-28.320,50.293,0.000
1728649895.386,44.922,-27.832,-27.832,42.969,0.000
1728649895.390,25.391,-26.855,-12.695,20.508,0.000
1728649895.394,38.086,-22.949,-18.555,32.227,0.000
1728649895.398,69.824,-22.949,-25.391,57.129,0.000
1728649895.402,69.824,-21.484,-44.922,47.363,0.000
1728649895.405,54.688,-18.066,-74.219,42.969,0.000
1728649895.409,28.320,-20.996,-52.246,40.527,0.000
1728649895.413,11.230,-26.367,-21.484,30.762,0.000
1728649895.417,43.457,-24.414,-20.508,36.133,0.000
1728649895.421,61.523,-19.531,-40.527,48.828,0.000
1728649895.425,45.410,-26.367,-55.176,41.992,0.000
1728649895.428,20.020,-27.832,-38.574,17.578,0.000
1728649895.432,28.320,-17.090,-39.062,39.551,0.000
1728649895.436,43.457,-16.113,-75.684,52.246,0.000
1728649895.440,25.391,-18.555,-69.824,41.016,0.000
1728649895.444,35.645,-21.484,-29.785,34.180,0.000
1728649895.448,33.203,-20.996,-24.902,20.996,0.000
1728649895.452,18.066,-20.508,-42.969,25.879,0.000
1728649895.456,39.062,-21.484,-35.156,41.016,0.000
1728649895.459,49.805,-22.461,-38.574,32.715,0.000
1728649895.463,41.504,-23.438,-44.922,1.465,0.000
1728649895.467,20.020,-22.949,-38.574,13.184,0.000
1728649895.471,-0.488,-24.414,-29.785,29.785,0.000
1728649895.474,25.879,-23.926,-22.461,21.484,0.000
1728649895.478,41.016,-21.484,-16.602,15.137,0.000
1728649895.482,38.574,-19.043,-17.090,12.207,0.000
1728649895.486,20.996,-20.508,-25.391,22.461,0.000
1728649895.490,-18.555,-22.949,-33.691,12.695,0.000
1728649895.494,0.488,-25.391,-36.621,2.930,0.000
1728649895.497,24.414,-22.949,-38.574,12.207,0.000
1728649895.501,16.113,-24.414,-42.480,-0.977,0.000
1728649895.505,2.441,-22.949,-54.688,-6.836,0.000
1728649895.509,-13.184,-20.996,-50.781,11.230,0.000
1728649895.513,0.000,-25.879,-35.645,8.301,0.000
1728649895.517,16.602,-28.809,-25.879,12.207,0.000
1728649895.522,25.391,-27.832,-13.184,17.578,0.000
1728649895.526,10.254,-27.344,-10.254,13.184,0.000
1728649895.530,-22.949,-30.273,-15.137,3.906,0.000
1728649895.534,-5.371,-27.832,-28.809,-19.531,0.000
1728649895.538,8.789,-22.461,-41.016,-8.301,0.000
1728649895.542,-5.371,-25.391,-28.809,1.465,0.000
1728649895.546,-3.906,-25.391,-24.902,-19.531,0.000
1728649895.550,-34.668,-20.508,-31.738,-16.113,0.000
1728649895.554,-18.555,-21.973,-44.922,-6.836,0.000
1728649895.557,17.090,-20.508,-61.035,2.441,0.000
1728649895.561,13.184,-18.555,-56.152,-1.953,0.000
1728649895.565,7.812,-13.672,-40.039,-0.977,0.000
1728649895.570,-30.273,-16.602,-11.230,-5.859,0.000
1728649895.574,-24.414,-17.578,-0.977,-23.926,0.000
1728649895.578,9.766,-20.020,-3.418,-22.949,0.000
1728649895.582,10.254,-21.973,-7.812,-7.324,0.000
1728649895.586,1.465,-20.996,-6.836,-3.906,0.000
1728649895.590,-30.762,-21.973,-10.254,-8.789,0.000
1728649895.593,-35.645,-24.902,-41.016,-8.301,0.000
1728649895.597,-0.488,-25.391,-44.922,2.930,0.000
1728649895.601,12.695,-20.996,-32.715,11.230,0.000
1728649895.605,0.977,-20.996,-39.551,18.555,0.000
1728649895.609,-32.715,-18.066,-53.711,4.395,0.000
1728649895.613,-24.414,-16.113,-22.461,-6.348,0.000
1728649895.617,7.812,-22.461,3.418,-9.277,0.000
1728649895.621,12.695,-21.973,-3.418,-10.254,0.000
1728649895.625,11.719,-20.996,-15.137,-12.207,0.000
1728649895.629,-18.555,-23.926,-17.578,-19.531,0.000
1728649895.633,-39.062,-27.344,-20.996,-25.879,0.000
1728649895.637,-12.695,-26.367,-62.988,-3.418,0.000
1728649895.641,2.441,-16.113,-56.152,8.301,0.000
1728649895.644,-20.996,-13.184,-5.371,7.324,0.000
1728649895.648,-27.832,-17.578,-3.906,-6.348,0.000
1728649895.652,-25.879,-15.625,-9.277,-10.254,0.000
1728649895.656,-8.789,-12.695,-4.395,-1.953,0.000
1728649895.660,10.254,-12.695,-11.230,6.836,0.000
1728649895.664,7.812,-15.625,-19.043,-1.465,0.000
1728649895.668,-23.438,-18.555,-21.484,-17.578,0.000
1728649895.672,-37.598,-12.207,-25.391,-35.156,0.000
1728649895.676,-3.418,-7.812,-38.086,-20.996,0.000
1728649895.680,15.625,-7.812,-50.781,-7.324,0.000
1728649895.683,6.836,-9.766,-45.410,-8.301,0.000
1728649895.687,-12.695,-14.648,-29.297,-10.254,0.000
1728649895.691,-29.297,-12.695,-22.949,-17.090,0.000
1728649895.695,-26.367,-17.090,-21.973,-6.348,0.000
1728649895.699,-2.441,-21.973,-20.020,-22.949,0.000
1728649895.703,11.230,-16.113,-21.484,-16.602,0.000
1728649895.707,-20.508,-14.648,-20.508,-12.207,0.000
1728649895.711,-38.086,-15.137,-37.598,-38.574,0.000
1728649895.714,-11.230,-6.348,-62.500,-33.691,0.000
1728649895.718,4.883,-3.906,-34.180,-15.137,0.000
1728649895.722,-4.395,-15.625,-0.488,-15.137,0.000
1728649895.726,-15.137,-19.531,-1.953,-20.508,0.000
1728649895.730,-36.133,-13.184,-5.371,-15.137,0.000
1728649895.734,-24.902,-12.695,-17.090,-3.418,0.000
1728649895.738,8.789,-15.137,-31.250,-5.859,0.000
1728649895.742,11.230,-12.207,-50.293,-26.367,0.000
1728649895.746,-10.742,-10.742,-49.805,-18.555,0.000
1728649895.750,-43.457,-19.043,-27.832,-12.695,0.000
1728649895.754,-49.805,-24.902,-15.625,-41.504,0.000
1728649895.757,-20.508,-21.484,-0.488,-39.062,0.000
1728649895.761,1.465,-18.066,-13.672,-0.977,0.000
1728649895.765,-18.555,-16.602,-36.621,-15.137,0.000
1728649895.769,-44.434,-17.090,-39.551,-38.574,0.000
1728649895.773,-43.457,-16.602,-38.086,-35.156,0.000
1728649895.776,-18.555,-17.578,-35.645,-39.551,0.000
1728649895.780,-13.184,-23.438,-25.391,-17.578,0.000
1728649895.784,-11.719,-23.438,-16.602,-5.859,0.000
1728649895.788,-17.578,-18.555,-18.066,-36.621,0.000
1728649895.792,-32.227,-21.484,-34.180,-45.410,0.000
1728649895.796,-19.531,-17.578,-47.852,-24.414,0.000
1728649895.800,-6.836,-14.160,-43.945,-13.672,0.000
1728649895.803,-18.066,-19.531,-44.434,-29.297,0.000
1728649895.807,-47.852,-20.508,-31.738,-47.363,0.000
1728649895.811,-45.898,-21.973,-29.785,-50.293,0.000
1728649895.815,-27.344,-27.344,-27.832,-37.598,0.000
1728649895.819,-19.043,-28.320,-21.484,-29.297,0.000
1728649895.823,-17.578,-25.391,-30.762,-39.062,0.000
1728649895.826,-52.734,-23.438,-19.043,-44.922,0.000
1728649895.830,-66.406,-22.461,-6.836,-49.316,0.000
1728649895.834,-23.438,-22.949,-20.508,-22.461,0.000
1728649895.838,-13.184,-26.367,-34.180,-20.508,0.000
1728649895.842,-12.207,-22.949,-24.902,-32.227,0.000
1728649895.846,-29.297,-22.461,-27.832,-27.344,0.000
1728649895.849,-55.664,-24.414,-31.250,-39.062,0.000
1728649895.853,-41.016,-25.391,-33.203,-23.438,0.000
1728649895.857,-6.348,-26.367,-41.504,-18.555,0.000
1728649895.861,0.977,-22.949,-51.270,-19.043,0.000
1728649895.865,-24.902,-24.902,-47.852,-30.273,0.000
1728649895.868,-44.434,-26.367,-44.434,-50.293,0.000
1728649895.872,-14.160,-20.996,-55.176,-20.996,0.000
1728649895.876,-4.395,-23.926,-28.809,-7.812,0.000
1728649895.880,-24.414,-24.902,-4.883,-14.648,0.000
1728649895.884,-34.668,-22.949,-7.324,-22.949,0.000
1728649895.888,-37.598,-19.531,-13.672,-20.020,0.000
1728649895.892,-11.719,-9.766,-39.551,-17.090,0.000
1728649895.897,9.766,-7.812,-58.105,-13.672,0.000
1728649895.901,-4.395,-23.926,-25.879,-16.602,0.000
1728649895.905,-37.598,-27.344,-22.461,-23.438,0.000
1728649895.909,-43.457,-24.414,-50.781,-18.066,0.000
1728649895.913,-24.414,-26.367,-38.086,-11.719,0.000
1728649895.917,-8.301,-23.438,-12.695,-24.414,0.000
1728649895.920,-13.672,-28.809,0.000,-21.973,0.000
1728649895.924,-50.781,-30.762,-2.441,-28.320,0.000
1728649895.928,-70.801,-28.809,-19.531,-46.387,0.000
1728649895.932,-30.762,-34.668,-39.062,-30.273,0.000
1728649895.936,-15.625,-29.297,-22.461,-20.020,0.000
1728649895.940,-14.648,-23.438,-15.625,-27.344,0.000
1728649895.945,-18.555,-28.320,-23.926,-21.973,0.000
1728649895.948,-47.363,-24.902,-22.949,-27.344,0.000
1728649895.952,-40.527,-20.020,-21.973,-12.207,0.000
1728649895.956,-14.648,-27.832,-26.367,-15.625,0.000
1728649895.960,-5.371,-27.344,-41.504,-36.621,0.000
1728649895.964,0.000,-26.855,-41.016,-28.809,0.000
1728649895.968,-30.762,-24.414,-31.738,-19.531,0.000
1728649895.972,-41.992,-22.949,-40.039,-6.836,0.000
1728649895.976,-9.766,-26.855,-48.340,-13.184,0.000
1728649895.980,-5.371,-26.855,-45.410,-14.160,0.000
1728649895.984,-13.184,-30.762,-39.062,-10.254,0.000
1728649895.988,-32.715,-36.133,-35.156,-48.828,0.000
1728649895.992,-32.715,-28.320,-35.156,-46.875,0.000
1728649895.996,-3.418,-24.414,-30.762,-9.277,0.000
1728649895.999,-10.254,-30.762,-22.949,-11.230,0.000
1728649896.003,-20.020,-35.645,-24.414,-16.602,0.000
1728649896.007,-37.109,-34.668,-46.875,-8.789,0.000
1728649896.011,-61.035,-30.273,-53.711,-9.766,0.000
1728649896.015,-44.922,-26.855,-43.945,-10.742,0.000
1728649896.019,-7.324,-25.391,-38.574,-22.949,0.000
1728649896.023,-18.066,-26.367,-26.855,-6.836,0.000
1728649896.027,-43.457,-33.691,-18.555,-8.789,0.000
1728649896.031,-25.879,-36.133,-18.066,-41.016,0.000
1728649896.035,-3.906,-27.832,-26.855,-26.367,0.000
1728649896.039,6.836,-23.438,-34.180,-13.184,0.000
1728649896.043,-9.766,-22.949,-32.227,-12.207,0.000
1728649896.046,-35.156,-26.367,-29.785,-29.785,0.000
1728649896.050,-47.363,-28.809,-29.297,-44.434,0.000
1728649896.054,-42.480,-30.273,-32.227,-20.996,0.000
1728649896.058,-10.742,-26.855,-32.227,-15.137,0.000
1728649896.062,-4.395,-26.367,-32.227,-22.949,0.000
1728649896.066,-35.645,-30.762,-48.340,-20.996,0.000
1728649896.070,-46.875,-34.668,-56.641,-31.250,0.000
1728649896.074,-38.574,-33.203,-41.016,-17.090,0.000
1728649896.078,-32.227,-25.391,-33.203,-5.859,0.000
1728649896.082,-20.508,-20.996,-45.898,-1.465,0.000
1728649896.085,-20.996,-20.996,-41.504,-10.742,0.000
1728649896.089,-45.898,-23.926,-22.949,-19.531,0.000
1728649896.093,-27.832,-20.508,-65.430,-9.277,0.000
1728649896.097,1.465,-18.066,-66.895,-3.418,0.000
1728649896.101,-8.789,-24.414,-16.113,-10.742,0.000
1728649896.105,-27.344,-27.344,-1.465,-25.391,0.000
1728649896.109,-54.199,-30.762,-2.930,-35.156,0.000
1728649896.112,-45.410,-30.762,-18.555,-39.062,0.000
1728649896.116,-21.973,-24.902,-27.832,-36.133,0.000
1728649896.120,-26.855,-21.484,-18.066,-14.160,0.000
1728649896.124,-19.531,-21.484,-15.625,-10.254,0.000
1728649896.128,-37.109,-23.438,-14.160,-17.090,0.000
1728649896.131,-33.203,-21.484,-22.949,-11.230,0.000
1728649896.135,6.348,-17.578,-26.855,-2.930,0.000
1728649896.139,11.719,-15.137,-33.203,-6.836,0.000
1728649896.143,-10.742,-19.531,-55.176,-14.160,0.000
1728649896.147,-40.039,-22.949,-44.922,-23.926,0.000
1728649896.151,-44.922,-22.949,-40.039,-39.062,0.000
1728649896.155,-0.488,-25.879,-38.574,-20.996,0.000
1728649896.159,11.230,-27.832,-23.926,-21.973,0.000
1728649896.163,-15.625,-29.297,-32.227,-31.250,0.000
1728649896.167,-41.504,-28.809,-29.785,-24.902,0.000
1728649896.171,-45.410,-29.297,-20.996,-21.973,0.000
1728649896.174,-20.996,-29.297,-20.996,-13.184,0.000
1728649896.178,-6.836,-27.344,-27.832,-17.578,0.000
1728649896.181,-15.137,-26.367,-36.133,-23.926,0.000
1728649896.185,-45.410,-27.832,-33.691,-20.508,0.000
1728649896.189,-53.711,-29.297,-25.879,-25.879,0.000
1728649896.193,-18.066,-25.391,-26.855,-35.156,0.000
1728649896.197,-8.301,-21.484,-41.504,-18.066,0.000
1728649896.201,-10.742,-20.996,-45.410,2.930,0.000
1728649896.205,-28.320,-23.438,-33.691,-25.391,0.000
1728649896.209,-43.457,-24.902,-21.484,-36.133,0.000
1728649896.213,-27.832,-31.250,-32.715,-24.414,0.000
1728649896.217,-18.066,-29.297,-66.406,-20.996,0.000
1728649896.221,-21.484,-24.902,-61.035,-36.133,0.000
1728649896.224,-43.457,-26.367,-33.203,-43.457,0.000
1728649896.227,-55.176,-28.809,-2.930,-23.438,0.000
1728649896.231,-30.273,-29.297,15.137,-23.926,0.000
1728649896.235,-13.672,-26.367,4.395,-26.855,0.000
1728649896.239,-19.531,-23.438,-9.277,-20.996,0.000
1728649896.243,-31.738,-23.438,-22.949,-22.949,0.000
1728649896.247,-47.852,-22.461,-42.480,-9.766,0.000
1728649896.251,-37.109,-22.461,-36.133,-10.254,0.000
1728649896.255,-9.766,-20.508,-26.367,-39.062,0.000
1728649896.259,-13.184,-17.578,-22.949,-39.551,0.000
1728649896.263,-41.504,-15.625,-14.648,-36.621,0.000
1728649896.266,-54.688,-16.602,-26.367,-46.875,0.000
1728649896.272,-26.367,-19.043,-43.945,-38.574,0.000
1728649896.276,-7.812,-17.578,-37.109,-12.695,0.000
1728649896.279,-4.395,-23.438,-30.762,0.488,0.000
1728649896.283,-17.090,-22.949,-27.344,2.441,0.000
1728649896.287,-38.574,-20.020,-20.020,-28.320,0.000
1728649896.291,-25.879,-26.855,-20.508,-22.461,0.000
1728649896.295,-11.719,-25.879,-30.273,-17.090,0.000
1728649896.299,-1.953,-22.461,-37.598,-24.902,0.000
1728649896.303,-17.090,-23.926,-35.645,-14.648,0.000
1728649896.307,-42.480,-25.879,-40.527,-30.762,0.000
1728649896.311,-22.949,-25.391,-20.508,-32.227,0.000
1728649896.315,0.488,-24.414,-5.371,-14.648,0.000
1728649896.319,-2.930,-26.855,-17.578,-9.766,0.000
1728649896.323,-23.926,-29.297,-34.180,-11.719,0.000
1728649896.327,-45.898,-29.785,-24.414,-26.367,0.000
1728649896.331,-36.133,-26.367,-13.672,-22.949,0.000
1728649896.335,-9.766,-27.344,-23.438,-20.996,0.000
1728649896.339,0.977,-22.949,-34.180,-23.438,0.000
1728649896.343,-7.812,-18.066,-38.574,-38.086,0.000
1728649896.347,-29.785,-19.531,-33.691,-30.762,0.000
1728649896.351,-38.574,-12.695,-35.156,-24.902,0.000
1728649896.354,-16.602,-13.672,-27.832,-15.137,0.000
1728649896.358,0.977,-20.996,-20.508,2.441,0.000
1728649896.362,-11.230,-25.391,-22.949,-22.461,0.000
1728649896.367,-38.086,-26.367,-16.602,-26.367,0.000
1728649896.371,-40.527,-22.461,-8.301,-17.090,0.000
1728649896.374,-10.742,-20.996,-11.719,-5.859,0.000
1728649896.378,0.977,-27.344,-34.668,5.859,0.000
1728649896.382,-13.184,-31.738,-62.988,-22.461,0.000
1728649896.386,-41.504,-33.691,-48.340,-41.016,0.000
1728649896.390,-44.434,-33.203,-34.180,-40.527,0.000
1728649896.394,-18.555,-32.227,-39.062,-23.438,0.000
1728649896.398,-12.695,-30.273,-13.184,-4.883,0.000
1728649896.402,-10.254,-28.809,-8.789,-17.578,0.000
1728649896.406,-32.227,-31.738,-28.809,-31.738,0.000
1728649896.410,-53.711,-33.203,-31.738,-28.320,0.000
1728649896.414,-17.090,-29.297,-33.203,-28.320,0.000
1728649896.417,3.906,-29.297,-31.250,-35.156,0.000
1728649896.421,-6.836,-27.344,-28.809,-24.902,0.000
1728649896.425,-30.762,-23.438,-41.016,-17.578,0.000
1728649896.429,-41.504,-19.043,-62.500,-16.602,0.000
1728649896.433,-32.227,-19.043,-63.477,-10.254,0.000
1728649896.437,-22.949,-19.531,-43.457,-18.555,0.000
1728649896.441,-10.742,-20.996,-23.926,-41.016,0.000
1728649896.445,-29.785,-24.414,-26.855,-15.137,0.000
1728649896.449,-45.898,-22.461,-44.922,-3.418,0.000
1728649896.453,-19.043,-23.438,-36.621,-24.414,0.000
1728649896.457,-7.324,-22.949,-22.461,-25.879,0.000
1728649896.460,-8.301,-17.578,-21.973,-15.625,0.000
1728649896.464,-21.484,-20.996,-30.762,-20.508,0.000
1728649896.468,-45.898,-21.973,-52.246,-25.391,0.000
1728649896.472,-40.527,-20.508,-50.781,-28.809,0.000
1728649896.476,-16.113,-20.996,-38.086,-20.508,0.000
1728649896.480,-1.465,-20.020,-31.250,-12.207,0.000
1728649896.484,-29.785,-21.484,-23.438,-21.484,0.000
1728649896.487,-65.430,-27.344,-22.949,-25.391,0.000
1728649896.491,-41.992,-30.273,-26.855,-47.852,0.000
1728649896.495,-28.320,-26.855,-17.578,-39.551,0.000
1728649896.499,-18.066,-22.461,-18.555,-33.203,0.000
1728649896.503,-32.227,-24.414,-29.297,-42.969,0.000
1728649896.507,-74.707,-26.367,-30.273,-33.691,0.000
1728649896.510,-28.809,-22.461,-36.133,-24.414,0.000
1728649896.514,1.465,-20.508,-58.594,-23.438,0.000
1728649896.518,-7.812,-20.020,-47.363,-21.484,0.000
1728649896.522,-19.531,-23.438,-31.250,-23.926,0.000
1728649896.526,-55.664,-30.762,-41.504,-34.668,0.000
1728649896.530,-53.223,-32.715,-26.367,-31.738,0.000
1728649896.534,-20.996,-38.086,-19.043,-18.066,0.000
1728649896.538,-15.625,-39.062,-31.738,-25.391,0.000
1728649896.542,-19.043,-35.645,-47.363,-15.625,0.000
1728649896.546,-45.410,-34.180,-43.945,-11.230,0.000
1728649896.549,-48.340,-27.832,-21.973,-27.832,0.000
1728649896.553,-19.531,-29.297,-24.902,-21.484,0.000
1728649896.557,-20.020,-30.273,-34.180,-7.812,0.000
1728649896.561,-33.691,-30.762,-25.879,-8.789,0.000
1728649896.564,-55.176,-33.203,-17.578,-33.203,0.000
1728649896.568,-54.199,-29.297,-30.273,-33.691,0.000
1728649896.572,-23.438,-22.949,-44.434,-1.953,0.000
1728649896.576,-19.043,-23.438,-41.504,-1.953,0.000
1728649896.580,-22.949,-26.855,-34.668,-24.414,0.000
1728649896.584,-41.504,-30.273,-27.832,-29.785,0.000
1728649896.588,-50.293,-30.273,-22.461,-22.461,0.000
1728649896.592,-20.020,-24.414,-23.926,-4.883,0.000
1728649896.596,-12.695,-21.973,-39.551,-5.371,0.000
1728649896.599,-21.484,-24.902,-54.688,-20.020,0.000
1728649896.603,-30.762,-25.391,-35.645,-20.020,0.000
1728649896.607,-41.992,-27.832,-15.625,-32.227,0.000
1728649896.610,-30.762,-26.367,-11.719,-23.438,0.000
1728649896.614,-17.578,-29.785,-10.254,-13.184,0.000
1728649896.618,-8.301,-33.691,-21.973,-13.184,0.000
1728649896.622,-37.109,-29.297,-40.039,-19.043,0.000
1728649896.626,-46.875,-25.391,-33.203,-29.785,0.000
1728649896.630,-11.230,-24.902,-23.926,-21.484,0.000
1728649896.634,-16.602,-29.785,-26.367,-32.227,0.000
1728649896.638,-37.598,-35.645,-27.832,-41.016,0.000
1728649896.642,-66.406,-38.574,-47.852,-53.711,0.000
1728649896.647,-62.500,-35.156,-48.828,-38.574,0.000
1728649896.651,-30.273,-34.180,-32.715,-30.762,0.000
1728649896.655,-24.902,-36.133,-22.461,-32.715,0.000
1728649896.659,-21.484,-30.762,-24.414,-27.832,0.000
1728649896.663,-28.809,-29.297,-31.738,-29.785,0.000
1728649896.667,-66.895,-37.109,-38.574,-30.762,0.000
1728649896.670,-44.922,-34.668,-28.809,-16.113,0.000
1728649896.674,-4.883,-27.344,-18.066,-6.836,0.000
1728649896.678,-9.766,-27.832,-42.480,-17.578,0.000
1728649896.682,-33.691,-24.902,-67.383,-19.531,0.000
1728649896.686,-56.641,-27.344,-63.477,-26.367,0.000
1728649896.690,-40.527,-26.855,-39.062,-30.762,0.000
1728649896.695,-24.414,-24.902,-15.625,-28.320,0.000
1728649896.699,-16.113,-30.273,-32.227,-27.832,0.000
1728649896.703,-21.973,-28.809,-19.531,-24.902,0.000
1728649896.707,-49.805,-25.391,-0.977,-23.926,0.000
1728649896.710,-39.062,-28.320,-11.719,-20.508,0.000
1728649896.714,-13.672,-31.250,-19.043,-15.137,0.000
1728649896.718,-10.742,-33.203,-37.598,-26.855,0.000
1728649896.722,-25.879,-31.738,-63.965,-23.926,0.000
1728649896.726,-52.246,-25.391,-43.945,-20.020,0.000
1728649896.730,-40.039,-24.902,-20.996,-21.973,0.000
1728649896.734,-18.066,-28.809,-36.133,-27.832,0.000
1728649896.738,-7.324,-27.344,-28.809,-32.227,0.000
1728649896.742,-8.301,-24.414,-20.996,-23.438,0.000
1728649896.746,-33.203,-24.902,-36.621,-23.926,0.000
1728649896.750,-23.926,-26.367,-26.855,-26.855,0.000
1728649896.754,-3.906,-25.879,-11.230,-43.457,0.000
1728649896.758,-5.371,-24.902,-20.996,-41.504,0.000
1728649896.762,-19.043,-26.367,-32.227,-23.926,0.000
1728649896.765,-33.203,-26.367,-36.133,-27.344,0.000
1728649896.769,-34.180,-28.320,-50.293,-19.531,0.000
1728649896.773,-10.254,-27.832,-47.363,-10.254,0.000
1728649896.777,-6.348,-27.832,-34.180,-19.531,0.000
1728649896.781,-29.785,-27.832,-26.855,-19.043,0.000
1728649896.785,-41.504,-27.344,-19.043,-18.066,0.000
1728649896.789,-52.246,-30.273,-29.785,-28.809,0.000
1728649896.793,-46.387,-36.133,-28.809,-29.297,0.000
1728649896.797,-20.996,-36.621,-29.297,-35.156,0.000
1728649896.801,-20.020,-30.762,-48.340,-43.945,0.000
1728649896.804,-39.062,-28.320,-44.922,-36.621,0.000
1728649896.808,-35.645,-32.715,-23.926,-36.133,0.000
1728649896.812,-13.184,-34.180,-15.137,-38.086,0.000
1728649896.816,14.648,-23.438,-29.297,-8.301,0.000
1728649896.820,9.766,-19.531,-41.016,7.812,0.000
1728649896.824,-17.578,-24.414,-33.203,1.465,0.000
1728649896.828,-39.551,-21.484,-28.320,-9.277,0.000
1728649896.832,-24.902,-23.438,-33.203,-10.254,0.000
1728649896.836,-8.789,-27.832,-49.316,-1.953,0.000
1728649896.839,-18.555,-28.809,-30.762,-17.578,0.000
1728649896.843,-45.898,-31.738,-21.484,-24.902,0.000
1728649896.847,-59.082,-29.297,-32.227,-27.832,0.000
1728649896.851,-45.410,-20.508,-17.578,-15.625,0.000
1728649896.855,-16.113,-16.602,-4.395,-3.418,0.000
1728649896.859,-2.930,-19.531,-7.812,-11.230,0.000
1728649896.863,-27.832,-20.020,-10.742,-7.324,0.000
1728649896.867,-44.922,-18.066,-14.648,-23.926,0.000
1728649896.871,-29.785,-23.438,-20.020,-28.320,0.000
1728649896.875,-20.996,-24.414,-14.648,-14.648,0.000
1728649896.879,-10.254,-23.926,-13.672,-3.906,0.000
1728649896.882,-12.207,-29.785,-20.996,-17.578,0.000
1728649896.886,-29.297,-26.367,-30.273,-33.691,0.000
1728649896.890,-16.113,-24.414,-37.109,-35.645,0.000
1728649896.894,0.977,-27.344,-34.668,-17.578,0.000
1728649896.898,-5.859,-28.809,-31.738,-8.301,0.000
1728649896.902,-23.926,-27.344,-28.320,-24.414,0.000
1728649896.905,-53.711,-22.461,-32.227,-31.738,0.000
1728649896.909,-42.969,-23.438,-36.621,-26.367,0.000
1728649896.913,-7.324,-22.949,-29.297,-17.090,0.000
1728649896.917,-1.465,-26.855,-44.922,-33.203,0.000
1728649896.921,-9.277,-26.367,-68.848,-26.367,0.000
1728649896.925,-36.133,-21.973,-49.805,-15.137,0.000
1728649896.928,-43.457,-21.484,-26.367,-17.578,0.000
1728649896.932,-0.977,-20.508,-13.672,-14.648,0.000
1728649896.936,2.930,-20.996,-11.719,-16.113,0.000
1728649896.940,-23.926,-21.973,-17.578,-14.648,0.000
1728649896.944,-41.504,-20.020,-20.996,-19.531,0.000
1728649896.948,-39.551,-20.508,-28.320,-26.855,0.000
1728649896.952,-6.836,-19.531,-36.621,-23.926,0.000
1728649896.956,15.625,-18.066,-43.945,-11.230,0.000
1728649896.959,1.953,-18.066,-39.551,-11.230,0.000
1728649896.963,-17.578,-15.625,-28.809,-21.973,0.000
1728649896.967,-20.996,-17.090,-15.137,-16.602,0.000
1728649896.971,-6.348,-17.090,-12.695,-8.789,0.000
1728649896.974,-0.977,-20.508,-27.832,-15.625,0.000
1728649896.978,-14.648,-24.902,-38.086,-20.020,0.000
1728649896.982,-41.504,-26.367,-36.133,-50.781,0.000
1728649896.986,-40.039,-22.949,-34.668,-50.781,0.000
1728649896.990,-15.625,-17.090,-29.785,-18.555,0.000
1728649896.994,-8.301,-18.066,-21.484,-22.461,0.000
1728649896.997,-17.578,-20.508,-22.949,-15.137,0.000
1728649897.001,-33.203,-20.996,-23.438,-1.465,0.000
1728649897.005,-32.227,-20.508,-8.789,-13.672,0.000
1728649897.009,-13.184,-22.949,-9.766,-24.902,0.000
1728649897.013,-15.625,-27.832,-20.996,-8.301,0.000
1728649897.017,-11.719,-21.484,-30.762,-5.371,0.000
1728649897.022,-17.090,-17.578,-32.227,-15.625,0.000
1728649897.026,-41.504,-22.461,-39.062,-15.137,0.000
1728649897.030,-34.180,-21.973,-47.852,-12.207,0.000
1728649897.034,-1.953,-20.996,-23.438,-10.742,0.000
1728649897.038,5.371,-23.438,-3.906,-6.836,0.000
1728649897.042,-16.602,-20.020,-5.859,-5.859,0.000
1728649897.046,-41.016,-21.973,-9.766,-18.066,0.000
1728649897.050,-23.926,-24.902,-14.160,-19.043,0.000
1728649897.054,-7.812,-19.043,-12.695,-23.926,0.000
1728649897.057,-7.324,-16.602,-15.625,-15.137,0.000
1728649897.061,-26.367,-21.973,-18.066,-4.395,0.000
1728649897.065,-49.316,-23.438,-22.949,-16.602,0.000
1728649897.070,-23.926,-22.461,-28.320,-9.277,0.000
1728649897.074,2.930,-22.461,-32.715,-2.441,0.000
1728649897.078,-7.812,-18.555,-31.250,-8.789,0.000
1728649897.082,-19.531,-18.555,-45.410,-21.973,0.000
1728649897.086,-36.133,-20.508,-56.152,-17.090,0.000
1728649897.090,-21.973,-22.949,-17.578,-16.602,0.000
1728649897.093,-3.418,-19.043,-5.371,-14.160,0.000
1728649897.097,-20.508,-12.207,-17.090,-13.672,0.000
1728649897.101,-32.715,-12.695,-16.602,-20.508,0.000
1728649897.105,-43.457,-19.531,-27.832,-8.789,0.000
1728649897.109,-23.926,-18.555,-32.227,-18.555,0.000
1728649897.113,-2.930,-24.414,-16.602,-23.926,0.000
1728649897.117,-7.324,-27.344,-11.719,-10.742,0.000
1728649897.121,-14.648,-20.508,-12.207,-4.395,0.000
1728649897.125,-24.414,-20.020,-13.184,-11.719,0.000
1728649897.129,-27.344,-23.926,-35.645,-15.137,0.000
1728649897.133,-20.996,-23.438,-44.434,-21.484,0.000
1728649897.137,5.859,-24.414,-32.227,-29.297,0.000
1728649897.141,7.324,-29.785,-20.996,-14.648,0.000
1728649897.145,-24.414,-30.762,-16.602,-17.090,0.000
1728649897.149,-26.855,-31.250,-14.648,-11.230,0.000
1728649897.152,-8.301,-34.180,-21.484,-0.488,0.000
1728649897.156,9.277,-31.250,-27.832,-2.930,0.000
1728649897.160,-2.441,-25.391,-40.527,-0.488,0.000
1728649897.164,-34.180,-22.949,-47.363,-21.484,0.000
1728649897.168,-29.785,-24.414,-35.156,-43.457,0.000
1728649897.172,-9.277,-26.855,-25.391,-30.762,0.000
1728649897.176,1.465,-23.438,-22.949,-9.766,0.000
1728649897.180,-0.488,-22.949,-28.809,-2.930,0.000
1728649897.184,-20.020,-20.508,-35.645,-1.465,0.000
1728649897.187,-37.109,-21.973,-30.762,-11.230,0.000
1728649897.191,-16.113,-26.855,-32.227,-17.578,0.000
1728649897.195,5.859,-28.809,-27.832,-5.371,0.000
1728649897.199,-4.883,-33.691,-28.320,-17.578,0.000
1728649897.203,-37.598,-30.762,-36.133,-34.180,0.000
1728649897.207,-44.434,-34.668,-31.250,-37.598,0.000
1728649897.211,-18.555,-33.691,-28.809,-41.504,0.000
1728649897.215,-2.441,-24.902,-31.738,-24.902,0.000
1728649897.219,-2.930,-22.949,-34.180,-15.625,0.000
1728649897.222,-30.762,-19.531,-50.781,-32.227,0.000
1728649897.226,-55.176,-20.996,-50.781,-37.598,0.000
1728649897.230,-35.156,-28.320,-31.738,-29.785,0.000
1728649897.234,-14.648,-30.273,-30.273,-29.297,0.000
1728649897.238,-19.043,-31.250,-35.156,-27.832,0.000
1728649897.242,-39.062,-28.809,-32.227,-26.367,0.000
1728649897.246,-52.246,-26.855,-36.621,-33.203,0.000
1728649897.250,-37.598,-33.203,-30.273,-39.062,0.000
1728649897.254,-23.438,-34.180,-22.949,-59.082,0.000
1728649897.259,-35.645,-34.180,-27.832,-49.316,0.000
1728649897.263,-56.152,-38.086,-25.391,-26.855,0.000
1728649897.267,-69.336,-35.645,-32.227,-38.574,0.000
1728649897.271,-49.316,-31.250,-54.688,-35.156,0.000
1728649897.275,-36.621,-35.645,-51.758,-35.645,0.000
1728649897.279,-45.898,-35.645,-29.785,-38.574,0.000
1728649897.283,-50.293,-31.250,-19.531,-31.250,0.000
1728649897.287,-60.547,-29.785,-22.949,-25.391,0.000
1728649897.291,-35.156,-30.762,-23.438,-33.203,0.000
1728649897.295,-17.578,-34.180,-22.461,-39.062,0.000
1728649897.298,-29.297,-30.273,-27.832,-32.715,0.000
1728649897.302,-46.387,-26.367,-20.996,-41.016,0.000
1728649897.305,-56.641,-28.320,-20.508,-62.988,0.000
1728649897.309,-38.574,-27.344,-17.578,-59.082,0.000
1728649897.313,-19.043,-23.438,-15.137,-40.527,0.000
1728649897.317,-21.973,-28.809,-31.250,-41.504,0.000
1728649897.321,-45.410,-30.273,-32.227,-45.898,0.000
1728649897.325,-106.445,-41.016,-30.273,-66.406,0.000
1728649897.329,-88.379,-41.992,-32.227,-81.055,0.000
1728649897.333,-52.734,-40.527,-22.949,-74.219,0.000
1728649897.336,-67.383,-49.805,-24.902,-82.520,0.000
1728649897.340,-116.211,-49.805,-29.785,-102.051,0.000
1728649897.344,-157.227,-39.062,-29.785,-118.164,0.000
1728649897.348,-143.555,-37.598,-18.555,-135.742,0.000
1728649897.351,-131.348,-39.062,-16.602,-149.414,0.000
1728649897.355,-168.457,-36.133,-24.414,-168.457,0.000
1728649897.359,-194.824,-39.062,-19.043,-192.383,0.000
1728649897.362,-209.473,-42.969,-1.953,-204.102,0.000
1728649897.366,-224.609,-41.992,-2.441,-213.867,0.000
1728649897.370,-202.637,-35.645,-11.230,-186.035,0.000
1728649897.374,-168.945,-32.715,-4.883,-165.527,0.000
1728649897.378,-194.336,-38.086,-20.020,-201.660,0.000
1728649897.382,-224.121,-39.062,-18.066,-212.402,0.000
1728649897.386,-207.520,-26.855,-14.648,-198.730,0.000
1728649897.390,-171.387,-16.113,-19.531,-197.754,0.000
1728649897.394,-175.781,-23.926,-11.719,-203.125,0.000
1728649897.399,-187.988,-23.926,-18.066,-205.566,0.000
1728649897.403,-193.359,-27.344,-19.043,-184.082,0.000
1728649897.407,-204.102,-33.203,-15.137,-167.480,0.000
1728649897.410,-186.035,-25.391,-19.043,-167.480,0.000
1728649897.414,-155.762,-21.973,-16.602,-160.645,0.000
1728649897.418,-145.508,-22.949,-17.578,-141.602,0.000
1728649897.422,-161.133,-23.438,-16.602,-156.250,0.000
1728649897.426,-181.152,-21.973,-20.996,-166.992,0.000
1728649897.430,-158.691,-25.879,-28.320,-135.254,0.000
1728649897.434,-132.812,-29.297,-29.297,-124.023,0.000
1728649897.438,-146.973,-22.461,-27.344,-125.488,0.000
1728649897.442,-145.996,-21.484,-29.785,-123.047,0.000
1728649897.446,-127.441,-23.438,-34.668,-105.469,0.000
1728649897.450,-103.516,-25.879,-42.480,-101.562,0.000
1728649897.454,-81.055,-26.855,-52.246,-107.910,0.000
1728649897.458,-66.895,-30.273,-19.043,-92.285,0.000
1728649897.462,-66.406,-33.691,10.742,-72.266,0.000
1728649897.466,-72.754,-28.809,12.207,-55.664,0.000
1728649897.470,-52.246,-27.832,5.371,-31.250,0.000
1728649897.473,-22.461,-25.391,-8.789,-12.695,0.000
1728649897.477,-11.230,-23.438,-19.531,-14.160,0.000
1728649897.481,-23.926,-24.414,-40.527,-1.953,0.000
1728649897.485,-43.945,-23.926,-56.641,-3.418,0.000
1728649897.489,-27.344,-27.344,-44.922,-18.066,0.000
1728649897.493,1.953,-29.297,-32.227,-3.906,0.000
1728649897.497,27.344,-24.414,-10.254,2.441,0.000
1728649897.501,18.066,-22.461,11.230,4.883,0.000
1728649897.505,6.348,-24.414,4.395,33.203,0.000
1728649897.509,26.367,-17.578,-18.555,34.180,0.000
1728649897.513,42.480,-13.672,-26.367,12.695,0.000
1728649897.517,53.711,-14.648,-27.832,25.879,0.000
1728649897.521,41.504,-21.484,-50.781,30.273,0.000
1728649897.524,14.648,-24.902,-44.922,22.461,0.000
1728649897.528,19.531,-21.973,-4.883,33.691,0.000
1728649897.532,41.504,-26.367,3.906,32.227,0.000
1728649897.536,43.945,-25.879,-5.371,38.574,0.000
1728649897.540,30.273,-24.902,-15.137,49.805,0.000
1728649897.544,12.695,-27.832,-4.883,35.156,0.000
1728649897.548,13.672,-27.344,-2.441,25.391,0.000
1728649897.552,39.062,-24.414,-31.250,34.668,0.000
1728649897.556,53.711,-24.414,-31.250,45.410,0.000
1728649897.559,43.945,-27.832,-19.531,43.457,0.000
1728649897.563,13.672,-29.297,-20.020,31.738,0.000
1728649897.567,2.930,-29.297,-20.020,34.668,0.000
1728649897.571,39.551,-27.344,-36.133,54.199,0.000
1728649897.575,57.617,-29.297,-32.227,63.965,0.000
1728649897.579,39.551,-31.738,-19.531,58.105,0.000
1728649897.583,13.184,-28.320,-37.109,40.039,0.000
1728649897.586,0.000,-29.785,-34.180,21.484,0.000
1728649897.590,0.000,-32.715,-24.902,33.203,0.000
1728649897.594,0.000,-27.344,-35.156,39.062,0.000
1728649897.598,0.000,-31.250,-30.273,26.367,0.000
1728649897.602,0.000,-33.203,-23.926,39.551,0.000
1728649897.606,0.000,-25.391,-19.043,49.316,0.000
1728649897.610,0.000,-26.367,-25.879,42.480,0.000
1728649897.614,0.000,-30.762,-40.039,37.598,0.000
1728649897.618,0.000,-21.973,-84.961,33.203,0.000
1728649897.622,0.000,-15.625,-80.078,41.016,0.000
1728649897.626,0.000,-24.902,-24.902,21.484,0.000
1728649897.629,0.000,-29.297,-30.762,16.602,0.000
1728649897.633,32.715,-34.180,-30.762,9.277,0.000
1728649897.637,23.926,-34.668,-25.391,-6.836,0.000
1728649897.641,13.672,-24.902,-22.949,18.066,0.000
1728649897.645,8.789,-23.438,-26.367,26.855,0.000
1728649897.648,21.973,-23.438,-41.992,17.090,0.000
1728649897.652,29.297,-21.973,-41.504,20.020,0.000
1728649897.656,25.879,-18.555,-33.691,33.203,0.000
1728649897.660,15.625,-15.625,-45.898,37.109,0.000
1728649897.664,-24.902,-16.602,-48.828,17.578,0.000
1728649897.668,-4.883,-23.926,-43.457,6.836,0.000
1728649897.672,32.715,-24.902,-53.223,10.742,0.000
1728649897.676,25.879,-22.949,-56.152,15.625,0.000
1728649897.679,8.301,-24.414,-42.480,11.719,0.000
1728649897.683,-10.254,-25.391,-23.438,4.883,0.000
1728649897.687,3.418,-23.438,-18.555,18.066,0.000
1728649897.690,27.832,-21.484,-33.203,32.227,0.000
1728649897.694,30.273,-21.484,-55.664,28.320,0.000
1728649897.698,21.484,-19.043,-58.105,21.484,0.000
1728649897.702,0.488,-18.555,-41.992,13.184,0.000
1728649897.706,0.977,-20.996,-27.344,-2.930,0.000
1728649897.710,20.020,-25.879,-31.738,0.488,0.000
1728649897.714,34.668,-27.344,-36.133,15.137,0.000
1728649897.718,17.578,-28.809,-27.344,2.930,0.000
1728649897.722,-12.207,-26.855,-34.668,-5.859,0.000
1728649897.724,-2.930,-22.461,-43.457,-8.789,0.000
1728649897.728,20.020,-20.996,-43.457,-4.883,0.000
1728649897.732,7.324,-21.973,-44.922,11.719,0.000
1728649897.736,-7.324,-24.414,-37.598,8.789,0.000
1728649897.740,-26.855,-26.367,-20.020,-14.648,0.000
1728649897.744,-16.113,-25.391,-21.484,-8.301,0.000
1728649897.748,5.859,-23.926,-30.762,16.113,0.000
1728649897.752,11.719,-23.926,-34.668,14.160,0.000
1728649897.756,7.812,-17.578,-36.133,8.301,0.000
1728649897.760,-20.020,-16.113,-32.715,-2.930,0.000
1728649897.764,-16.602,-20.020,-30.762,6.836,0.000
1728649897.767,8.789,-19.043,-15.625,9.277,0.000
1728649897.773,14.160,-18.066,-7.812,-3.906,0.000
1728649897.776,3.418,-22.461,-12.695,-10.254,0.000
1728649897.780,-35.156,-26.855,-22.949,-5.859,0.000
1728649897.784,-31.738,-22.949,-37.598,-3.418,0.000
1728649897.788,7.812,-19.043,-52.246,5.859,0.000
1728649897.792,18.066,-17.090,-89.355,1.465,0.000
1728649897.796,9.766,-26.367,-56.641,-11.230,0.000
1728649897.800,-16.602,-30.273,-0.488,-23.926,0.000
1728649897.804,-34.180,-30.273,7.812,-35.156,0.000
1728649897.808,-7.324,-33.691,-0.977,-1.465,0.000
1728649897.812,9.766,-28.809,-6.836,10.254,0.000
1728649897.816,8.301,-20.996,-19.043,-15.137,0.000
1728649897.820,0.977,-19.531,-21.973,-17.578,0.000
1728649897.824,-24.902,-27.344,-18.555,-7.324,0.000
1728649897.828,-20.996,-31.250,-15.137,-19.043,0.000
1728649897.832,-6.348,-25.391,-23.438,-20.508,0.000
1728649897.836,-5.371,-30.762,-31.738,-12.695,0.000
1728649897.840,-18.066,-37.598,-24.414,-13.672,0.000
1728649897.844,-40.039,-31.738,-22.949,-14.160,0.000
1728649897.848,-20.508,-25.879,-27.344,-8.789,0.000
1728649897.851,15.625,-16.602,-27.832,-0.977,0.000
1728649897.855,14.648,-10.742,-32.715,0.488,0.000
1728649897.859,-8.301,-12.207,-38.574,0.977,0.000
1728649897.863,-24.902,-18.066,-37.109,0.000,0.000
1728649897.867,-6.348,-22.461,-17.090,4.883,0.000
1728649897.871,0.000,-24.902,-16.113,7.324,0.000
1728649897.875,-3.906,-27.832,-31.738,-1.953,0.000
1728649897.879,-20.508,-27.832,-30.273,-16.113,0.000
1728649897.883,-41.504,-24.902,-46.875,-2.441,0.000
1728649897.887,-37.109,-21.973,-37.598,3.418,0.000
1728649897.891,-0.977,-23.438,-21.484,2.930,0.000
1728649897.895,18.066,-27.832,-8.301,10.742,0.000
1728649897.899,-3.906,-27.344,6.836,9.277,0.000
1728649897.903,-23.438,-23.926,11.230,-1.465,0.000
1728649897.907,-7.812,-22.461,6.348,-9.766,0.000
1728649897.910,17.090,-20.996,-23.926,-8.301,0.000
1728649897.914,27.344,-14.648,-27.344,11.230,0.000
1728649897.918,16.113,-20.508,-4.883,11.230,0.000
1728649897.922,-16.113,-21.973,-4.395,-5.859,0.000
1728649897.926,-32.715,-21.484,-9.277,-7.812,0.000
1728649897.930,2.441,-27.344,-8.301,1.465,0.000
1728649897.934,12.207,-25.879,-18.555,13.672,0.000
1728649897.938,-6.836,-22.461,-31.250,-3.906,0.000
1728649897.942,-22.949,-19.531,-37.598,-35.645,0.000
1728649897.946,-30.762,-19.043,-42.480,-32.227,0.000
1728649897.949,-18.066,-20.996,-38.086,-4.883,0.000
1728649897.953,10.254,-19.531,-21.973,-3.906,0.000
1728649897.957,0.488,-15.137,-22.949,-14.160,0.000
1728649897.961,-21.484,-17.090,-31.250,-15.625,0.000
1728649897.965,-18.066,-16.602,-29.297,-16.113,0.000
1728649897.969,2.930,-14.648,-24.414,-14.648,0.000
1728649897.973,6.836,-16.113,-35.645,-23.926,0.000
1728649897.976,-10.254,-15.625,-51.270,-24.414,0.000
1728649897.980,-27.344,-9.766,-43.945,-31.250,0.000
1728649897.984,-32.227,-12.207,-46.875,-47.363,0.000
1728649897.988,-11.230,-20.020,-47.852,-16.113,0.000
1728649897.992,4.395,-19.043,-30.273,-6.836,0.000
1728649897.996,0.000,-14.160,-21.973,-8.301,0.000
1728649898.000,-21.973,-15.625,-20.020,-17.578,0.000
1728649898.004,-41.504,-20.020,-7.812,-31.250,0.000
1728649898.007,-21.484,-21.484,-10.742,-27.344,0.000
1728649898.011,2.441,-21.484,-24.902,-24.902,0.000
1728649898.015,2.930,-20.996,-28.809,-22.949,0.000
1728649898.019,-25.879,-27.344,-34.668,-37.109,0.000
1728649898.023,-50.293,-32.715,-40.039,-34.668,0.000
1728649898.026,-12.695,-28.320,-38.574,-19.043,0.000
1728649898.030,11.719,-31.250,-29.785,-20.996,0.000
1728649898.034,0.000,-28.809,-25.879,-15.137,0.000
1728649898.038,-24.902,-20.508,-35.645,-18.555,0.000
1728649898.042,-42.480,-25.391,-35.156,-30.273,0.000
1728649898.046,-22.461,-23.438,-26.855,-25.879,0.000
1728649898.050,0.000,-22.461,-19.531,-2.930,0.000
1728649898.053,15.137,-19.531,-48.340,0.000,0.000
1728649898.057,-15.137,-19.043,-88.867,-23.438,0.000
1728649898.061,-59.082,-24.902,-66.895,-39.062,0.000
1728649898.065,-32.715,-29.297,-10.742,-33.691,0.000
1728649898.069,-6.348,-30.273,9.277,-20.020,0.000
1728649898.073,-9.277,-24.414,3.906,-13.672,0.000
1728649898.076,-17.090,-25.879,-1.953,-14.648,0.000
1728649898.080,-42.480,-24.414,-14.648,-15.625,0.000
1728649898.084,-28.809,-23.438,-30.273,-18.066,0.000
1728649898.088,-13.184,-31.250,-51.270,-14.648,0.000
1728649898.092,-17.090,-30.762,-43.945,-33.691,0.000
1728649898.096,-26.367,-27.344,-31.738,-27.832,0.000
1728649898.099,-49.805,-22.461,-36.133,-32.227,0.000
1728649898.103,-51.270,-24.414,-33.691,-39.062,0.000
1728649898.107,-30.762,-30.762,-41.992,-31.250,0.000
1728649898.111,-18.066,-27.344,-45.410,-33.691,0.000
1728649898.115,-33.691,-33.691,-27.344,-34.668,0.000
1728649898.118,-57.129,-36.621,-28.809,-41.016,0.000
1728649898.122,-40.039,-29.297,-45.410,-32.227,0.000
1728649898.126,-28.809,-32.715,-48.340,-22.949,0.000
1728649898.130,-14.648,-31.250,-46.875,-20.508,0.000
1728649898.134,-8.789,-23.926,-51.270,-36.133,0.000
1728649898.138,-43.945,-23.438,-43.945,-52.734,0.000
1728649898.142,-46.387,-20.020,-43.945,-42.480,0.000
1728649898.147,-13.184,-20.020,-30.273,-31.738,0.000
