timestamps,TP9,AF7,AF8,TP10,Right AUX
1728617923.180,-56.641,-33.203,-33.691,-71.289,0.000
1728617923.184,-12.207,-32.227,-32.715,8.301,0.000
1728617923.188,8.789,-31.250,-31.250,37.109,0.000
1728617923.192,-4.883,-35.156,-27.832,6.348,0.000
1728617923.196,-29.785,-33.691,-23.926,-45.410,0.000
1728617923.199,-48.340,-34.180,-25.879,-70.312,0.000
1728617923.203,-16.113,-35.156,-24.414,1.465,0.000
1728617923.207,2.930,-32.715,-25.391,25.391,0.000
1728617923.211,-2.930,-35.156,-27.832,-9.277,0.000
1728617923.215,-38.574,-36.621,-32.227,-59.570,0.000
1728617923.219,-63.477,-35.645,-34.668,-88.867,0.000
1728617923.223,-21.484,-31.738,-35.156,-24.902,0.000
1728617923.227,9.277,-25.879,-34.668,10.742,0.000
1728617923.231,8.301,-26.855,-29.785,-0.488,0.000
1728617923.234,-22.461,-30.273,-29.297,-48.828,0.000
1728617923.238,-48.828,-30.762,-34.668,-84.473,0.000
1728617923.242,-13.184,-30.273,-30.762,-19.531,0.000
1728617923.246,15.137,-27.344,-21.973,26.367,0.000
1728617923.250,0.000,-26.367,-21.973,20.020,0.000
1728617923.254,-23.438,-27.344,-22.949,-27.832,0.000
1728617923.258,-48.828,-30.273,-24.902,-85.449,0.000
1728617923.262,-25.879,-27.344,-23.926,-29.785,0.000
1728617923.266,11.230,-25.879,-26.855,30.762,0.000
1728617923.270,11.719,-27.832,-26.855,19.043,0.000
1728617923.274,-3.906,-20.020,-19.531,-17.578,0.000
1728617923.278,-34.668,-19.043,-25.391,-67.383,0.000
1728617923.281,-21.484,-20.020,-28.809,-23.926,0.000
1728617923.285,8.789,-20.020,-24.414,34.668,0.000
1728617923.289,3.418,-22.949,-22.461,30.762,0.000
1728617923.293,-10.254,-23.926,-18.066,-0.977,0.000
1728617923.297,-39.551,-21.484,-17.578,-66.895,0.000
1728617923.301,-37.109,-25.879,-19.043,-48.828,0.000
1728617923.305,-0.488,-29.785,-20.508,17.090,0.000
1728617923.309,15.625,-26.855,-22.461,34.180,0.000
1728617923.313,-6.348,-21.973,-22.461,1.953,0.000
1728617923.317,-43.945,-24.414,-23.926,-69.824,0.000
1728617923.321,-33.691,-27.344,-24.902,-53.223,0.000
1728617923.324,5.371,-23.926,-24.414,18.555,0.000
1728617923.328,15.137,-23.926,-19.531,22.949,0.000
1728617923.332,-4.883,-26.367,-21.484,-7.812,0.000
1728617923.336,-49.316,-30.273,-25.391,-60.547,0.000
1728617923.340,-44.434,-33.691,-20.508,-50.293,0.000
1728617923.344,3.418,-27.832,-20.996,19.043,0.000
1728617923.348,9.766,-25.391,-22.949,23.926,0.000
1728617923.352,-0.977,-26.367,-20.508,-8.301,0.000
1728617923.356,-29.785,-26.367,-23.926,-47.363,0.000
1728617923.360,-49.805,-27.832,-27.344,-57.129,0.000
1728617923.363,-9.277,-28.320,-25.879,10.742,0.000
1728617923.367,6.348,-28.320,-29.297,39.062,0.000
1728617923.371,-5.371,-33.203,-28.809,14.648,0.000
1728617923.375,-35.156,-34.668,-20.508,-52.246,0.000
1728617923.379,-56.152,-34.180,-22.949,-77.148,0.000
1728617923.383,-20.996,-34.668,-29.785,-3.906,0.000
1728617923.387,2.930,-31.250,-31.250,18.555,0.000
1728617923.391,3.906,-29.297,-29.785,2.930,0.000
1728617923.395,-24.414,-36.133,-29.785,-45.410,0.000
1728617923.399,-40.527,-39.062,-30.273,-68.848,0.000
1728617923.403,-10.742,-35.156,-30.273,-3.418,0.000
1728617923.406,3.906,-34.180,-33.203,20.020,0.000
1728617923.410,-9.277,-36.133,-37.109,3.418,0.000
1728617923.414,-41.992,-40.039,-41.992,-49.316,0.000
1728617923.418,-67.871,-41.504,-37.109,-90.820,0.000
1728617923.422,-39.551,-35.645,-31.738,-30.762,0.000
1728617923.426,-4.883,-33.691,-29.297,19.043,0.000
1728617923.430,-6.836,-30.762,-27.832,0.977,0.000
1728617923.434,-30.762,-27.832,-30.762,-49.316,0.000
1728617923.438,-47.852,-26.855,-29.785,-82.520,0.000
1728617923.442,-21.973,-25.391,-30.762,-31.738,0.000
1728617923.446,5.859,-27.344,-31.250,21.973,0.000
1728617923.449,3.906,-30.762,-30.273,17.090,0.000
1728617923.453,-22.949,-30.273,-33.203,-22.461,0.000
1728617923.457,-49.316,-34.180,-33.691,-66.895,0.000
1728617923.461,-31.250,-36.133,-28.809,-26.855,0.000
1728617923.465,-1.953,-31.738,-27.832,24.902,0.000
1728617923.469,-5.371,-31.738,-30.762,9.766,0.000
1728617923.473,-27.832,-36.621,-34.180,-25.879,0.000
1728617923.477,-53.711,-33.691,-36.133,-73.242,0.000
1728617923.481,-39.551,-31.738,-34.180,-44.434,0.000
1728617923.485,-1.953,-29.297,-32.227,13.672,0.000
1728617923.488,2.930,-26.367,-29.785,21.484,0.000
1728617923.492,-21.973,-28.320,-34.668,-10.742,0.000
1728617923.496,-47.363,-30.273,-40.527,-67.871,0.000
1728617923.500,-23.926,-27.344,-41.992,-37.598,0.000
1728617923.504,16.113,-33.203,-45.898,29.297,0.000
1728617923.508,15.625,-41.504,-32.227,31.738,0.000
1728617923.512,-15.625,-43.457,-24.414,-19.531,0.000
1728617923.516,-56.641,-45.898,-22.461,-86.914,0.000
1728617923.520,-63.477,-48.340,-21.484,-73.730,0.000
1728617923.524,-25.391,-41.504,-23.438,-5.371,0.000
1728617923.527,3.418,-42.480,-15.137,15.137,0.000
1728617923.531,-4.883,-42.480,-18.066,-3.418,0.000
1728617923.535,-51.758,-36.133,-25.391,-62.500,0.000
1728617923.539,-61.035,-39.062,-29.785,-74.219,0.000
1728617923.543,-19.043,-38.574,-29.785,-2.441,0.000
1728617923.547,-1.953,-34.668,-24.414,13.184,0.000
1728617923.551,-8.301,-39.551,-28.320,-16.113,0.000
1728617923.555,-43.945,-41.016,-30.762,-74.707,0.000
1728617923.559,-62.012,-38.086,-28.809,-82.520,0.000
1728617923.563,-17.090,-34.668,-29.785,-8.301,0.000
1728617923.567,11.719,-32.227,-25.879,12.207,0.000
1728617923.571,0.000,-36.133,-29.297,-9.766,0.000
1728617923.574,-32.715,-37.109,-32.227,-59.082,0.000
1728617923.578,-44.434,-35.645,-28.809,-70.801,0.000
1728617923.582,-13.672,-37.109,-27.832,-2.930,0.000
1728617923.586,6.348,-34.668,-29.785,16.602,0.000
1728617923.590,6.348,-29.297,-30.762,12.695,0.000
1728617923.594,-33.203,-30.762,-27.344,-25.391,0.000
1728617923.598,-69.824,-34.668,-29.785,-65.918,0.000
1728617923.602,-33.691,-36.621,-28.809,-9.766,0.000
1728617923.606,1.465,-34.668,-29.785,18.555,0.000
1728617923.610,-4.395,-34.668,-31.738,-2.441,0.000
1728617923.613,-26.367,-36.133,-30.273,-43.945,0.000
1728617923.617,-49.805,-33.203,-29.297,-79.102,0.000
1728617923.621,-30.273,-34.668,-35.156,-19.531,0.000
1728617923.625,-0.488,-33.691,-41.504,26.855,0.000
1728617923.629,2.441,-32.715,-37.109,15.137,0.000
1728617923.633,-14.648,-27.832,-39.062,-25.391,0.000
1728617923.637,-41.016,-24.902,-39.062,-67.871,0.000
1728617923.641,-22.461,-26.367,-31.250,-20.020,0.000
1728617923.645,11.719,-31.250,-27.832,14.648,0.000
1728617923.649,11.230,-36.133,-29.785,12.695,0.000
1728617923.653,-11.230,-31.738,-39.062,-20.508,0.000
1728617923.656,-41.016,-28.320,-33.691,-85.449,0.000
1728617923.660,-34.180,-34.668,-26.367,-61.035,0.000
1728617923.664,1.465,-34.180,-22.461,-4.883,0.000
1728617923.668,10.254,-33.691,-17.578,14.160,0.000
1728617923.672,-10.742,-30.273,-24.414,-13.184,0.000
1728617923.676,-38.086,-24.902,-31.250,-73.242,0.000
1728617923.680,-29.785,-26.367,-32.715,-47.852,0.000
1728617923.684,10.742,-28.320,-30.273,26.367,0.000
1728617923.688,13.184,-37.598,-32.227,32.227,0.000
1728617923.692,-7.324,-39.062,-29.297,0.488,0.000
1728617923.696,-32.227,-38.086,-26.855,-56.152,0.000
1728617923.699,-34.668,-38.574,-29.785,-44.922,0.000
1728617923.703,2.441,-36.621,-29.297,25.391,0.000
1728617923.707,9.277,-35.156,-27.344,27.344,0.000
1728617923.711,2.930,-31.738,-23.926,2.930,0.000
1728617923.715,-29.297,-31.250,-37.109,-47.363,0.000
1728617923.719,-43.457,-32.715,-42.969,-55.176,0.000
1728617923.723,1.465,-32.715,-25.879,8.301,0.000
1728617923.727,25.391,-27.832,-20.020,29.297,0.000
1728617923.731,13.672,-24.902,-31.250,24.902,0.000
1728617923.735,-28.809,-20.508,-62.500,-37.598,0.000
1728617923.739,-25.879,-15.625,-66.406,-39.062,0.000
1728617923.742,26.367,-26.367,-28.320,50.293,0.000
1728617923.746,19.531,-39.062,-18.066,46.387,0.000
1728617923.750,-25.391,-39.551,-42.480,-10.254,0.000
1728617923.754,-62.012,-41.504,-37.598,-63.965,0.000
1728617923.758,-83.496,-46.387,-4.395,-84.473,0.000
1728617923.762,-67.871,-50.293,16.602,-59.570,0.000
1728617923.766,-61.523,-54.199,4.883,-56.152,0.000
1728617923.770,-92.773,-59.570,4.395,-81.543,0.000
1728617923.774,-136.719,-66.895,25.391,-140.137,0.000
1728617923.778,-164.062,-79.590,58.594,-170.410,0.000
1728617923.781,-151.855,-85.449,69.824,-131.348,0.000
1728617923.785,-133.789,-86.426,53.223,-105.957,0.000
1728617923.789,-131.348,-85.449,10.254,-94.727,0.000
1728617923.793,-160.156,-83.008,-11.719,-127.441,0.000
1728617923.797,-199.219,-90.332,28.809,-182.129,0.000
1728617923.801,-176.270,-98.633,67.871,-135.254,0.000
1728617923.805,-136.230,-95.703,65.430,-87.402,0.000
1728617923.809,-131.348,-91.309,32.227,-83.008,0.000
1728617923.813,-139.160,-89.355,4.395,-109.863,0.000
1728617923.817,-158.203,-95.215,-6.836,-146.484,0.000
1728617923.821,-138.184,-96.680,19.043,-95.215,0.000
1728617923.824,-99.609,-98.145,62.500,-48.828,0.000
1728617923.828,-82.031,-91.797,61.035,-46.875,0.000
1728617923.832,-92.773,-88.379,55.664,-72.266,0.000
1728617923.836,-124.023,-89.844,63.965,-110.840,0.000
1728617923.840,-105.469,-81.543,50.781,-70.801,0.000
1728617923.844,-61.523,-74.219,35.156,-18.555,0.000
1728617923.848,-45.898,-72.754,58.105,-13.184,0.000
1728617923.852,-61.035,-70.801,51.270,-44.434,0.000
1728617923.856,-89.844,-64.941,17.578,-98.633,0.000
1728617923.860,-77.637,-63.965,9.277,-65.430,0.000
1728617923.864,-44.922,-63.477,39.551,0.000,0.000
1728617923.867,-28.809,-57.617,59.570,1.953,0.000
1728617923.871,-34.668,-54.688,11.719,-25.879,0.000
1728617923.875,-64.453,-59.082,0.488,-71.777,0.000
1728617923.879,-63.477,-63.965,50.781,-54.688,0.000
1728617923.883,-23.438,-62.988,64.941,7.324,0.000
1728617923.887,-4.395,-60.547,45.898,12.207,0.000
1728617923.891,-3.418,-50.781,16.113,2.930,0.000
1728617923.895,-29.785,-42.969,-15.625,-25.879,0.000
1728617923.899,-38.574,-47.363,3.418,-28.320,0.000
1728617923.903,0.977,-45.410,35.645,26.367,0.000
1728617923.906,13.672,-48.828,73.730,33.203,0.000
1728617923.910,-13.184,-54.688,96.680,14.160,0.000
1728617923.914,-50.781,-52.246,55.664,-50.781,0.000
1728617923.918,-39.062,-50.781,27.832,-78.125,0.000
1728617923.922,4.395,-43.457,9.766,-2.930,0.000
1728617923.926,20.508,-41.504,-13.672,34.668,0.000
1728617923.930,14.160,-37.109,-17.578,22.461,0.000
1728617923.934,-8.789,-33.203,-1.465,-30.762,0.000
1728617923.938,-31.250,-44.922,20.508,-58.594,0.000
1728617923.942,-13.672,-58.105,74.707,-8.301,0.000
1728617923.945,-2.930,-62.012,125.000,11.230,0.000
1728617923.949,0.488,-54.199,75.684,5.859,0.000
1728617923.953,4.395,-32.227,-4.395,-15.137,0.000
1728617923.957,-15.137,-24.902,-11.719,-40.039,0.000
1728617923.961,-10.742,-42.969,41.016,-8.301,0.000
1728617923.965,18.066,-44.922,57.617,28.320,0.000
1728617923.969,23.926,-39.551,0.977,32.227,0.000
1728617923.973,-16.602,-42.969,-40.527,-20.508,0.000
1728617923.977,-45.898,-51.270,67.383,-65.918,0.000
1728617923.981,-12.695,-57.129,169.434,-11.230,0.000
1728617923.984,12.207,-60.547,161.621,28.320,0.000
1728617923.988,-1.953,-61.523,134.766,0.977,0.000
1728617923.992,-17.578,-60.547,103.027,-31.250,0.000
1728617923.996,-41.504,-56.641,83.984,-55.176,0.000
1728617924.000,-27.344,-47.852,94.727,-7.324,0.000
1728617924.004,2.441,-46.387,78.125,39.062,0.000
1728617924.008,7.812,-42.480,59.082,28.320,0.000
1728617924.012,-2.930,-37.109,69.824,-5.859,0.000
1728617924.016,-24.902,-38.086,87.402,-51.758,0.000
1728617924.020,-18.066,-41.016,127.441,-32.227,0.000
1728617924.024,7.812,-39.551,142.090,12.695,0.000
1728617924.027,20.020,-32.715,135.742,14.648,0.000
1728617924.031,5.371,-32.227,127.930,-10.254,0.000
1728617924.035,-26.855,-28.809,81.543,-63.965,0.000
1728617924.039,-12.695,-20.508,63.965,-27.832,0.000
1728617924.043,26.367,-15.137,85.938,39.551,0.000
1728617924.047,23.926,-20.020,91.309,23.438,0.000
1728617924.051,-4.883,-33.691,125.000,-19.043,0.000
1728617924.055,-43.457,-35.645,143.555,-73.242,0.000
1728617924.059,-44.922,-34.668,119.629,-52.246,0.000
1728617924.063,-6.348,-36.133,99.609,17.090,0.000
1728617924.067,6.348,-34.668,104.492,22.949,0.000
1728617924.070,-6.836,-30.273,74.219,-6.348,0.000
1728617924.074,-35.645,-24.902,57.617,-59.082,0.000
1728617924.078,-40.039,-25.879,83.496,-60.547,0.000
1728617924.082,-5.859,-25.879,78.613,0.488,0.000
1728617924.086,7.324,-26.855,81.055,15.625,0.000
1728617924.090,-6.836,-29.785,83.496,-9.766,0.000
1728617924.094,-41.992,-26.367,71.289,-67.871,0.000
1728617924.098,-45.410,-20.020,50.293,-74.219,0.000
1728617924.102,4.883,-15.137,31.738,-2.930,0.000
1728617924.106,27.832,-14.648,41.016,24.414,0.000
1728617924.110,11.230,-14.160,44.434,4.883,0.000
1728617924.113,-23.926,-20.020,44.434,-53.711,0.000
1728617924.117,-33.203,-22.949,37.598,-68.848,0.000
1728617924.121,-2.930,-19.531,25.391,2.930,0.000
1728617924.125,19.043,-20.508,21.484,31.738,0.000
1728617924.129,17.578,-20.996,12.695,7.812,0.000
1728617924.133,-16.113,-17.578,8.789,-51.758,0.000
1728617924.137,-31.738,-10.742,1.465,-63.965,0.000
1728617924.141,-0.977,-14.160,14.160,7.324,0.000
1728617924.145,20.020,-14.648,26.855,34.668,0.000
1728617924.149,11.719,-13.672,31.250,20.996,0.000
1728617924.153,-34.668,-27.832,47.363,-34.180,0.000
1728617924.156,-69.824,-36.621,44.434,-82.520,0.000
1728617924.160,-35.156,-33.691,14.160,-23.438,0.000
1728617924.164,2.930,-23.438,-55.176,31.250,0.000
1728617924.168,9.766,-24.902,-34.180,21.484,0.000
1728617924.172,-12.207,-30.762,18.066,-21.973,0.000
1728617924.176,-36.133,-27.344,9.277,-72.266,0.000
1728617924.180,-24.902,-29.297,23.926,-27.832,0.000
1728617924.184,-2.441,-29.785,42.969,25.879,0.000
1728617924.188,15.137,-23.438,39.551,21.973,0.000
1728617924.192,10.254,-20.996,-2.930,-0.977,0.000
1728617924.195,-43.945,-27.344,-24.414,-52.246,0.000
1728617924.199,-49.805,-34.668,0.000,-27.832,0.000
1728617924.203,-2.930,-37.598,25.879,23.926,0.000
1728617924.207,-0.977,-40.039,15.625,11.230,0.000
1728617924.211,-35.156,-46.875,9.766,-36.133,0.000
1728617924.215,-75.195,-54.688,21.973,-94.238,0.000
1728617924.219,-74.219,-60.547,31.250,-62.988,0.000
1728617924.223,-38.574,-61.523,32.227,4.395,0.000
1728617924.227,-18.066,-54.688,17.578,6.836,0.000
1728617924.231,-37.109,-48.828,-13.184,-22.461,0.000
1728617924.235,-73.242,-43.457,-24.902,-74.707,0.000
1728617924.238,-52.246,-36.133,-4.883,-53.223,0.000
1728617924.242,-18.066,-41.504,15.137,4.395,0.000
1728617924.246,-10.742,-45.898,13.184,8.789,0.000
1728617924.250,-14.648,-40.039,-9.766,-7.324,0.000
1728617924.254,-50.293,-40.039,-25.879,-56.641,0.000
1728617924.258,-43.945,-41.504,-19.043,-53.223,0.000
1728617924.262,2.930,-29.297,3.906,8.789,0.000
1728617924.266,2.441,-34.180,7.812,21.973,0.000
1728617924.270,-22.461,-41.504,17.090,-14.160,0.000
1728617924.274,-48.340,-33.691,7.812,-67.871,0.000
1728617924.277,-50.293,-29.785,-2.441,-59.570,0.000
1728617924.281,-13.672,-28.320,21.484,17.578,0.000
1728617924.285,3.418,-29.785,29.785,40.527,0.000
1728617924.289,-16.113,-27.344,-3.418,10.254,0.000
1728617924.293,-42.969,-22.461,-51.270,-34.668,0.000
1728617924.297,-34.668,-25.879,-60.059,-25.391,0.000
1728617924.301,3.418,-27.832,-19.531,32.227,0.000
1728617924.305,13.672,-27.832,0.488,36.621,0.000
1728617924.309,-6.348,-31.250,-6.348,-0.977,0.000
1728617924.313,-39.551,-40.039,14.648,-77.148,0.000
1728617924.316,-75.195,-40.039,11.230,-100.098,0.000
1728617924.320,-75.195,-25.391,-29.297,-46.875,0.000
1728617924.324,-9.766,-1.465,-77.637,4.395,0.000
1728617924.328,33.691,-15.137,-77.148,37.598,0.000
1728617924.332,-8.789,-47.363,-34.668,-10.742,0.000
1728617924.336,-39.551,-44.922,32.715,-61.035,0.000
1728617924.340,-11.230,-43.457,24.902,-7.324,0.000
1728617924.344,30.762,-30.762,-0.977,38.086,0.000
1728617924.348,-4.395,-39.062,39.062,-7.324,0.000
1728617924.352,-59.570,-53.711,-4.395,-66.406,0.000
1728617924.355,-31.250,-13.672,-80.078,-48.828,0.000
1728617924.359,3.418,0.977,-39.551,14.160,0.000
1728617924.363,-1.465,-31.738,17.578,26.367,0.000
1728617924.367,-4.395,-47.852,32.715,17.090,0.000
1728617924.371,-24.902,-46.875,42.480,-31.250,0.000
1728617924.375,-59.570,-47.852,21.484,-87.891,0.000
1728617924.379,-51.758,-48.828,-18.066,-34.668,0.000
1728617924.383,-22.461,-42.969,-48.340,23.926,0.000
1728617924.387,-3.418,-37.598,-58.105,20.508,0.000
1728617924.391,-20.996,-38.086,-61.035,-14.648,0.000
1728617924.395,-62.988,-39.062,-48.828,-87.402,0.000
1728617924.398,-57.129,-46.875,-3.906,-69.824,0.000
1728617924.402,-31.250,-55.664,21.973,-3.906,0.000
1728617924.406,-26.367,-46.875,-0.977,6.348,0.000
1728617924.410,-32.715,-44.922,-51.758,-20.020,0.000
1728617924.414,-53.711,-46.387,-39.551,-82.031,0.000
1728617924.418,-40.039,-28.809,-26.367,-47.363,0.000
1728617924.422,-13.184,-34.180,-41.016,3.418,0.000
1728617924.426,-30.762,-54.199,-13.184,-17.090,0.000
1728617924.430,-49.316,-50.781,4.883,-41.504,0.000
1728617924.434,-60.547,-29.297,-2.441,-76.172,0.000
1728617924.438,-46.387,-19.531,-20.020,-54.199,0.000
1728617924.441,-1.465,-18.555,-22.461,7.324,0.000
1728617924.445,12.207,-15.625,-57.129,17.578,0.000
1728617924.449,9.766,-29.297,-73.242,5.859,0.000
1728617924.453,-23.926,-44.434,-11.230,-56.641,0.000
1728617924.457,-41.504,-45.898,39.062,-71.777,0.000
1728617924.461,-12.695,-43.457,46.875,-5.859,0.000
1728617924.465,5.371,-39.062,23.438,19.043,0.000
1728617924.469,-5.859,-39.551,-12.695,8.789,0.000
1728617924.473,-43.945,-43.457,-26.367,-55.176,0.000
1728617924.477,-47.852,-34.180,-47.363,-80.566,0.000
1728617924.481,12.207,-13.672,-57.129,3.906,0.000
1728617924.484,17.090,-23.926,-12.207,20.508,0.000
1728617924.488,-12.207,-41.504,12.207,-13.184,0.000
1728617924.492,-31.738,-33.691,-6.836,-48.828,0.000
1728617924.496,-40.039,-24.902,-34.180,-75.684,0.000
1728617924.500,-23.438,-27.344,-25.391,-32.715,0.000
1728617924.504,-3.418,-28.320,-8.789,10.742,0.000
1728617924.508,0.488,-29.785,4.395,-1.953,0.000
1728617924.512,-24.414,-35.156,-31.250,-55.176,0.000
1728617924.516,-29.785,-28.320,-67.871,-62.500,0.000
1728617924.520,-9.766,-34.668,-43.457,11.230,0.000
1728617924.524,10.254,-36.133,-36.133,38.574,0.000
1728617924.527,14.648,-24.414,-53.223,19.531,0.000
1728617924.531,-7.812,-13.184,-12.695,-22.461,0.000
1728617924.535,-46.387,-31.738,24.902,-61.523,0.000
1728617924.539,-17.090,-39.062,40.527,-2.930,0.000
1728617924.543,18.555,-22.461,8.789,30.762,0.000
1728617924.547,0.977,10.254,-3.418,-9.277,0.000
1728617924.551,-38.086,-5.859,-1.465,-62.988,0.000
1728617924.555,-78.613,-50.781,-60.547,-110.840,0.000
1728617924.559,-45.898,-25.391,-60.547,-27.832,0.000
1728617924.563,-9.277,-15.137,-17.090,30.273,0.000
1728617924.566,-14.160,-10.254,-17.578,-1.953,0.000
1728617924.570,-32.227,-20.020,-42.969,-37.109,0.000
1728617924.574,-57.617,-30.273,-34.180,-76.660,0.000
1728617924.578,-60.059,32.715,-73.730,-53.711,0.000
1728617924.582,-25.391,25.879,-50.293,-0.488,0.000
1728617924.586,5.859,-37.598,31.250,7.324,0.000
1728617924.590,-16.113,-11.230,-32.715,-48.828,0.000
1728617924.594,-34.180,17.090,-22.949,-91.797,0.000
1728617924.598,-52.246,5.859,37.109,-73.242,0.000
1728617924.602,-47.852,6.836,-55.176,-16.113,0.000
1728617924.606,-43.457,12.207,-50.781,-6.348,0.000
1728617924.609,-81.543,-2.930,11.719,-76.172,0.000
1728617924.613,-142.578,-35.156,-36.133,-166.992,0.000
1728617924.617,-135.254,-59.570,-54.688,-130.371,0.000
1728617924.621,-98.145,-91.309,-27.832,-64.453,0.000
1728617924.625,-104.004,-101.074,-33.203,-83.984,0.000
1728617924.629,-97.656,-193.848,-68.359,-88.379,0.000
1728617924.633,-91.309,-285.156,-83.984,-107.422,0.000
1728617924.637,-103.027,-299.316,-69.824,-109.863,0.000
1728617924.641,-75.684,-359.863,-7.324,-40.527,0.000
1728617924.645,-66.406,-404.297,9.766,-50.781,0.000
1728617924.648,-81.055,-473.633,-60.059,-87.891,0.000
1728617924.652,-112.793,-597.168,-87.402,-126.465,0.000
1728617924.656,-94.727,-656.738,8.789,-92.773,0.000
1728617924.660,-58.594,-729.980,56.641,-8.789,0.000
1728617924.664,-69.336,-812.988,0.488,-35.645,0.000
1728617924.668,-63.965,-888.184,-26.855,-83.496,0.000
1728617924.672,-83.984,-966.797,-5.371,-129.395,0.000
1728617924.676,-98.633,-1000.000,7.324,-137.207,0.000
1728617924.680,-88.867,-999.023,-57.617,-81.055,0.000
1728617924.684,-73.730,-1000.000,-90.332,-49.805,0.000
1728617924.687,-48.828,-1000.000,-38.086,-43.457,0.000
1728617924.691,-99.121,-1000.000,-14.648,-107.910,0.000
1728617924.695,-89.355,-1000.000,10.254,-115.723,0.000
1728617924.699,-24.414,-1000.000,-11.230,-26.855,0.000
1728617924.703,-34.668,-1000.000,-26.855,-3.906,0.000
1728617924.707,-74.219,-1000.000,-13.184,-43.945,0.000
1728617924.711,-95.215,-1000.000,-33.203,-116.699,0.000
1728617924.715,-93.750,-1000.000,-24.902,-140.137,0.000
1728617924.719,-63.965,-1000.000,-12.695,-66.406,0.000
1728617924.723,-36.133,-1000.000,-24.902,-20.996,0.000
1728617924.726,-15.625,-1000.000,-21.973,-16.113,0.000
1728617924.730,-39.551,-1000.000,-8.301,-45.898,0.000
1728617924.734,-91.309,-1000.000,-21.484,-106.445,0.000
1728617924.738,-74.707,-1000.000,-38.574,-74.707,0.000
1728617924.742,10.254,-1000.000,-20.020,35.156,0.000
1728617924.746,24.414,-1000.000,-26.367,30.762,0.000
1728617924.750,-1.465,-1000.000,-9.766,-30.762,0.000
1728617924.754,-33.691,-1000.000,-5.859,-85.938,0.000
1728617924.758,-20.508,-1000.000,-2.930,-50.781,0.000
1728617924.762,5.859,-1000.000,17.090,11.230,0.000
1728617924.766,3.418,-1000.000,20.020,17.090,0.000
1728617924.769,5.859,-1000.000,9.766,-0.488,0.000
1728617924.773,-24.414,-1000.000,-5.371,-62.012,0.000
1728617924.777,-9.277,-1000.000,-14.160,-49.805,0.000
1728617924.781,31.738,-999.023,-13.672,10.742,0.000
1728617924.785,39.062,-1000.000,12.207,24.414,0.000
1728617924.789,25.879,-975.098,7.812,6.348,0.000
1728617924.793,-6.836,-911.133,-9.277,-44.434,0.000
1728617924.797,6.348,-882.812,24.414,-17.090,0.000
1728617924.801,45.410,-862.793,37.598,57.617,0.000
1728617924.805,62.500,-813.477,10.254,68.359,0.000
1728617924.809,51.270,-756.836,-16.113,50.781,0.000
1728617924.812,10.254,-706.543,7.324,-12.207,0.000
1728617924.816,-1.953,-667.480,27.344,-24.414,0.000
1728617924.820,49.805,-615.723,37.109,57.129,0.000
1728617924.824,64.941,-586.426,46.875,78.613,0.000
1728617924.828,51.270,-562.012,37.109,55.664,0.000
1728617924.832,31.250,-521.973,14.648,-21.973,0.000
1728617924.836,21.973,-488.281,21.484,-34.668,0.000
1728617924.840,51.270,-448.730,29.785,41.992,0.000
1728617924.844,63.965,-420.898,11.719,59.082,0.000
1728617924.848,53.711,-398.926,0.000,39.062,0.000
1728617924.852,21.484,-356.934,-16.602,-1.465,0.000
1728617924.855,6.836,-325.684,-15.137,-4.395,0.000
1728617924.859,33.203,-299.316,13.672,43.457,0.000
1728617924.863,45.410,-259.277,31.250,53.223,0.000
1728617924.867,34.668,-213.867,19.043,35.156,0.000
1728617924.871,10.742,-174.316,-1.465,-5.859,0.000
1728617924.875,-1.953,-131.348,-12.207,-20.508,0.000
1728617924.879,19.531,-82.031,-39.551,30.762,0.000
1728617924.883,48.340,-29.297,-51.270,60.059,0.000
1728617924.887,36.133,75.195,-10.254,26.855,0.000
1728617924.891,-1.953,207.031,-9.766,-40.527,0.000
1728617924.895,-23.438,292.480,-23.438,-72.266,0.000
1728617924.898,-0.488,300.781,-1.953,-3.906,0.000
1728617924.902,17.090,295.898,-7.324,37.109,0.000
1728617924.906,20.508,337.402,-23.926,24.414,0.000
1728617924.910,1.953,421.875,-28.809,-5.859,0.000
1728617924.914,-32.227,510.254,-37.109,-46.875,0.000
1728617924.918,-8.789,568.848,-52.734,-8.301,0.000
1728617924.922,27.832,601.074,-49.805,40.527,0.000
1728617924.926,33.691,631.348,-40.039,29.297,0.000
1728617924.930,22.949,668.945,-27.344,-4.883,0.000
1728617924.934,-5.371,690.918,-14.648,-45.898,0.000
1728617924.937,0.000,693.359,-12.207,-9.766,0.000
1728617924.941,31.738,717.773,-8.301,40.527,0.000
1728617924.945,35.156,764.160,-10.254,53.711,0.000
1728617924.949,12.695,789.551,-23.926,25.879,0.000
1728617924.953,-17.578,791.016,-65.430,-29.297,0.000
1728617924.957,1.953,773.438,-70.801,8.301,0.000
1728617924.961,32.715,756.348,-31.738,59.570,0.000
1728617924.965,32.227,763.184,1.465,49.805,0.000
1728617924.969,21.973,773.438,-0.977,18.066,0.000
1728617924.973,-12.695,782.227,-15.625,-40.527,0.000
1728617924.977,-13.184,787.109,-18.555,-25.879,0.000
1728617924.980,23.438,781.738,-17.090,30.273,0.000
1728617924.984,25.391,779.785,-14.648,31.250,0.000
1728617924.988,3.906,770.508,-12.695,6.348,0.000
1728617924.992,-24.414,752.441,-17.578,-41.504,0.000
1728617924.996,-22.949,744.629,-19.043,-28.809,0.000
1728617925.000,-1.465,729.980,-16.113,23.926,0.000
1728617925.004,8.301,714.355,-22.461,30.273,0.000
1728617925.008,3.906,711.914,-27.344,21.973,0.000
1728617925.012,-32.227,703.125,-32.227,-34.668,0.000
1728617925.016,-39.551,694.336,-47.852,-47.852,0.000
1728617925.019,-6.348,690.430,-69.336,16.113,0.000
1728617925.023,13.184,694.824,-47.852,25.879,0.000
1728617925.027,13.184,686.035,-15.137,-1.465,0.000
1728617925.031,-15.137,668.945,-44.434,-51.270,0.000
1728617925.035,-25.391,649.902,-84.473,-42.969,0.000
1728617925.039,7.812,631.836,-80.078,18.555,0.000
1728617925.043,15.625,605.469,-17.090,18.555,0.000
1728617925.047,8.301,588.867,26.855,-3.906,0.000
1728617925.051,-13.672,577.148,8.789,-45.898,0.000
1728617925.055,-34.180,554.199,-4.883,-63.477,0.000
1728617925.058,7.324,541.504,-26.367,9.766,0.000
1728617925.062,36.133,530.273,-51.758,48.828,0.000
1728617925.066,27.344,513.672,-45.410,25.879,0.000
1728617925.070,0.488,499.023,-32.715,-21.973,0.000
1728617925.074,-30.273,470.703,-32.715,-55.664,0.000
1728617925.078,-5.859,437.012,-32.715,2.930,0.000
1728617925.082,20.508,426.758,-37.598,44.434,0.000
1728617925.086,23.438,413.086,-40.039,32.715,0.000
1728617925.090,12.695,391.602,-38.574,-4.883,0.000
1728617925.094,-13.672,375.000,-43.945,-39.062,0.000
1728617925.098,1.953,357.910,-30.273,0.000,0.000
1728617925.101,28.320,339.844,-16.602,41.504,0.000
1728617925.105,25.879,330.078,-35.645,49.316,0.000
1728617925.109,4.395,325.684,-86.426,15.137,0.000
1728617925.113,-25.879,314.941,-70.801,-48.340,0.000
1728617925.117,-8.301,301.758,-27.344,-14.648,0.000
1728617925.121,23.926,293.945,-31.738,36.133,0.000
1728617925.125,24.902,285.645,-27.344,33.203,0.000
1728617925.129,5.371,273.926,-23.926,-0.488,0.000
1728617925.133,-29.785,261.230,-35.645,-62.500,0.000
1728617925.137,-25.879,244.141,-32.227,-42.969,0.000
1728617925.140,11.719,234.375,-17.090,19.043,0.000
1728617925.144,22.461,228.516,-36.621,21.484,0.000
1728617925.148,2.441,217.773,-55.176,-1.465,0.000
1728617925.152,-30.762,209.961,-53.711,-51.270,0.000
1728617925.156,-16.602,203.613,-25.879,-31.738,0.000
1728617925.160,13.184,191.406,-16.113,32.715,0.000
1728617925.164,16.113,182.129,-42.480,36.621,0.000
1728617925.168,11.719,181.641,-39.551,13.672,0.000
1728617925.172,-20.508,171.875,-33.203,-34.180,0.000
1728617925.176,-27.832,159.668,-53.223,-31.250,0.000
1728617925.180,8.789,157.227,-47.852,31.250,0.000
1728617925.183,27.832,151.367,-27.832,43.945,0.000
1728617925.187,5.371,148.438,-23.438,6.348,0.000
1728617925.191,-34.668,145.508,-29.297,-55.176,0.000
1728617925.195,-28.320,143.066,-37.598,-56.152,0.000
1728617925.199,12.695,149.414,-41.504,12.695,0.000
1728617925.203,29.297,152.832,-46.387,39.062,0.000
1728617925.207,19.531,148.926,-65.430,24.414,0.000
1728617925.211,-18.555,145.996,-38.574,-31.738,0.000
1728617925.215,-41.504,138.672,-8.789,-57.129,0.000
1728617925.219,-14.160,127.441,-18.066,-5.371,0.000
1728617925.223,11.230,119.629,-26.855,7.324,0.000
1728617925.226,1.953,114.746,-34.668,-15.137,0.000
1728617925.230,-33.203,106.445,-35.645,-46.387,0.000
1728617925.234,-46.387,98.145,-38.574,-70.801,0.000
1728617925.238,-11.230,97.168,-42.480,-15.137,0.000
1728617925.242,13.184,91.309,-40.527,26.367,0.000
1728617925.246,12.207,83.984,-63.477,8.789,0.000
1728617925.250,-19.043,83.008,-81.543,-45.898,0.000
1728617925.254,-42.480,76.660,-38.086,-67.871,0.000
1728617925.258,-14.648,73.242,0.977,-16.602,0.000
1728617925.262,6.836,66.406,-5.371,13.672,0.000
1728617925.266,3.418,62.988,-5.371,15.137,0.000
1728617925.269,-13.184,64.941,-13.672,-31.250,0.000
1728617925.273,-32.227,61.035,-32.715,-64.941,0.000
1728617925.277,-9.766,61.523,-31.250,2.441,0.000
1728617925.281,20.020,60.059,-35.156,41.992,0.000
1728617925.285,20.020,53.223,-70.312,20.996,0.000
1728617925.289,6.348,52.734,-82.520,-9.277,0.000
1728617925.293,-12.207,47.363,-42.480,-41.504,0.000
1728617925.297,-5.371,39.062,-20.020,-8.789,0.000
1728617925.301,-3.906,36.133,-17.090,9.766,0.000
1728617925.305,-11.230,28.809,-10.254,-8.789,0.000
1728617925.309,-17.578,27.832,-19.531,-28.809,0.000
1728617925.312,-62.500,32.227,-46.387,-100.098,0.000
1728617925.316,-60.547,30.762,-73.730,-81.055,0.000
1728617925.320,-13.184,21.484,-47.852,1.953,0.000
1728617925.324,-21.484,21.973,-16.602,-8.301,0.000
1728617925.328,-33.203,25.391,-54.199,-37.598,0.000
1728617925.332,-54.688,22.461,-53.223,-86.914,0.000
1728617925.336,-62.988,20.996,-24.414,-73.242,0.000
1728617925.340,-34.180,15.625,-25.879,-14.648,0.000
1728617925.344,-14.648,24.414,-43.457,0.488,0.000
1728617925.348,-29.785,34.180,-61.523,-27.832,0.000
1728617925.351,-61.035,33.203,-39.062,-84.473,0.000
1728617925.355,-48.828,35.156,-40.039,-53.711,0.000
1728617925.359,-6.836,42.969,-84.961,11.230,0.000
1728617925.363,1.465,42.969,-74.707,18.066,0.000
1728617925.367,-26.855,41.504,-18.555,-13.672,0.000
1728617925.371,-61.523,45.410,12.695,-90.332,0.000
1728617925.375,-61.523,51.270,12.207,-81.055,0.000
1728617925.379,-18.555,60.547,-1.953,-4.395,0.000
1728617925.383,3.418,68.359,-29.297,0.000,0.000
1728617925.387,-5.859,67.383,-38.086,-21.484,0.000
1728617925.390,-36.133,62.012,-43.945,-66.895,0.000
1728617925.394,-61.523,59.082,-54.199,-77.148,0.000
1728617925.398,-18.066,60.547,-54.688,-4.883,0.000
1728617925.402,16.602,65.430,-54.688,18.555,0.000
1728617925.406,2.930,63.965,-33.203,1.465,0.000
1728617925.410,-25.391,61.523,-14.648,-37.598,0.000
1728617925.414,-56.641,64.453,-29.785,-69.336,0.000
1728617925.418,-22.949,68.359,-35.156,-18.555,0.000
1728617925.422,1.465,68.848,-31.250,15.137,0.000
1728617925.426,-18.555,64.453,-39.062,-3.906,0.000
1728617925.430,-34.180,68.848,-50.781,-52.246,0.000
1728617925.433,-54.199,77.637,-45.898,-76.660,0.000
1728617925.437,-35.645,80.566,-37.109,-24.414,0.000
1728617925.441,-4.883,76.172,-38.574,16.602,0.000
1728617925.445,-1.953,78.613,-57.617,16.113,0.000
1728617925.449,-31.250,79.102,-63.965,-37.109,0.000
1728617925.453,-72.266,76.660,-45.898,-91.309,0.000
1728617925.457,-54.199,69.824,-41.992,-37.109,0.000
1728617925.461,-30.273,69.336,-49.805,3.906,0.000
1728617925.465,-32.715,68.359,-40.527,-1.953,0.000
1728617925.469,-55.176,66.895,-24.902,-52.246,0.000
1728617925.472,-84.473,71.777,-25.879,-102.539,0.000
1728617925.476,-68.359,77.148,-38.574,-42.480,0.000
1728617925.480,-17.578,81.055,-65.430,-6.836,0.000
1728617925.484,5.371,81.055,-61.523,-25.391,0.000
1728617925.488,-20.020,70.312,-33.203,-46.387,0.000
1728617925.492,-51.758,60.059,-37.598,-91.797,0.000
1728617925.496,-29.297,56.152,-40.039,-51.270,0.000
1728617925.500,7.324,62.012,-44.922,12.695,0.000
1728617925.504,11.719,64.941,-56.152,23.926,0.000
1728617925.508,-7.324,71.289,-68.848,3.418,0.000
1728617925.511,-29.785,74.219,-80.566,-50.781,0.000
1728617925.515,-23.926,62.988,-63.477,-32.715,0.000
1728617925.519,11.230,57.129,-32.715,9.766,0.000
1728617925.523,17.090,52.734,-8.789,2.441,0.000
1728617925.527,-29.785,48.340,-13.672,-28.320,0.000
1728617925.531,-63.965,40.039,-34.180,-63.965,0.000
1728617925.535,-49.805,39.551,-58.105,-51.270,0.000
1728617925.539,-21.973,35.645,-44.922,-3.906,0.000
1728617925.543,-0.488,31.250,-21.973,14.160,0.000
1728617925.547,-7.324,29.785,-28.809,-5.371,0.000
1728617925.551,-50.781,29.785,-42.480,-63.965,0.000
1728617925.554,-54.199,36.621,-55.176,-59.082,0.000
1728617925.558,-2.441,40.039,-59.570,13.184,0.000
1728617925.562,20.508,36.621,-37.109,35.645,0.000
1728617925.566,-3.418,28.320,-29.297,6.348,0.000
1728617925.570,-41.504,23.926,-41.016,-51.270,0.000
1728617925.574,-41.504,24.902,-41.992,-60.059,0.000
1728617925.578,-4.883,22.461,-33.203,9.277,0.000
1728617925.582,21.484,22.949,-29.297,44.922,0.000
1728617925.586,12.695,19.043,-39.551,21.484,0.000
1728617925.590,-28.809,19.531,-75.684,-48.340,0.000
1728617925.594,-48.340,22.949,-77.148,-82.520,0.000
1728617925.597,-9.277,21.484,-60.547,-29.785,0.000
1728617925.601,16.602,21.484,-58.105,-3.906,0.000
1728617925.605,17.090,16.602,-12.695,3.906,0.000
1728617925.609,-16.113,9.766,3.418,-55.176,0.000
1728617925.613,-48.828,11.230,-9.277,-95.703,0.000
1728617925.617,-14.648,7.324,-13.184,-32.715,0.000
1728617925.621,15.625,8.789,-18.066,7.324,0.000
1728617925.625,0.977,15.625,-21.973,5.371,0.000
1728617925.629,-31.738,12.207,-23.926,-37.598,0.000
1728617925.633,-45.410,8.301,-31.250,-51.270,0.000
1728617925.637,-19.531,5.371,-46.875,4.395,0.000
1728617925.640,7.324,3.418,-55.664,33.203,0.000
1728617925.644,5.371,5.859,-50.293,15.625,0.000
1728617925.648,-17.090,3.906,-49.805,-25.879,0.000
1728617925.652,-52.246,-3.418,-76.660,-60.547,0.000
1728617925.656,-29.785,-9.766,-70.801,-18.066,0.000
1728617925.660,12.207,-10.742,-26.855,24.902,0.000
1728617925.664,15.137,-6.836,-12.207,14.648,0.000
1728617925.668,-8.789,-5.859,-14.648,-24.414,0.000
1728617925.672,-38.574,-6.836,-18.066,-62.500,0.000
1728617925.676,-31.250,-3.906,-37.598,-20.996,0.000
1728617925.680,3.418,-7.812,-45.898,22.461,0.000
1728617925.683,10.742,-11.719,-28.809,20.996,0.000
1728617925.687,-16.113,-7.324,-19.043,-12.695,0.000
1728617925.691,-45.410,-6.836,-43.457,-69.824,0.000
1728617925.695,-23.926,-13.184,-60.059,-38.574,0.000
1728617925.699,2.930,-11.719,-37.109,17.090,0.000
1728617925.703,0.977,-4.883,-18.555,10.254,0.000
1728617925.707,6.348,-4.395,-24.414,-14.648,0.000
1728617925.711,-25.879,-11.230,-35.645,-76.172,0.000
1728617925.715,-33.691,-10.742,-50.781,-53.711,0.000
1728617925.719,8.789,-9.277,-56.152,28.809,0.000
1728617925.723,20.996,-10.254,-46.875,33.691,0.000
1728617925.727,3.906,-11.719,-34.180,2.441,0.000
1728617925.730,-31.250,-15.137,-26.367,-61.035,0.000
1728617925.734,-36.621,-19.043,-26.855,-64.453,0.000
1728617925.738,-1.465,-17.578,-32.715,22.461,0.000
1728617925.742,22.949,-20.020,-28.320,62.988,0.000
1728617925.746,13.672,-18.066,-24.902,38.574,0.000
1728617925.750,-30.273,-13.672,-41.992,-46.875,0.000
1728617925.754,-41.016,-13.672,-57.617,-83.008,0.000
1728617925.758,-6.348,-18.555,-45.898,-7.324,0.000
1728617925.762,11.719,-20.020,-32.227,24.902,0.000
1728617925.766,1.953,-15.625,-40.527,-6.348,0.000
1728617925.769,-26.367,-16.602,-46.875,-53.223,0.000
1728617925.773,-49.316,-23.438,-37.109,-60.547,0.000
1728617925.777,-28.809,-30.273,-33.203,2.441,0.000
1728617925.781,9.277,-25.879,-41.992,31.250,0.000
1728617925.785,8.789,-25.879,-50.781,10.742,0.000
1728617925.789,-28.320,-27.832,-54.688,-43.457,0.000
1728617925.793,-45.898,-25.391,-56.152,-60.547,0.000
1728617925.797,-4.883,-23.926,-49.805,-4.395,0.000
1728617925.801,12.207,-24.902,-35.156,38.086,0.000
1728617925.805,0.000,-29.785,-32.715,30.273,0.000
1728617925.808,-10.254,-28.809,-35.156,-24.902,0.000
1728617925.812,-41.504,-22.461,-40.527,-62.012,0.000
1728617925.816,-24.414,-23.438,-41.504,-18.555,0.000
1728617925.820,14.160,-22.949,-34.668,20.508,0.000
1728617925.824,13.184,-17.578,-31.738,27.344,0.000
1728617925.828,-3.906,-13.672,-39.062,-8.301,0.000
1728617925.832,-29.785,-19.043,-60.059,-48.340,0.000
1728617925.836,-19.043,-21.973,-67.871,-1.953,0.000
1728617925.840,10.742,-23.438,-41.504,29.785,0.000
1728617925.844,6.348,-24.902,-20.996,23.438,0.000
1728617925.848,-14.648,-24.902,-20.020,-14.648,0.000
1728617925.851,-41.504,-28.809,-42.969,-79.102,0.000
1728617925.855,-15.137,-17.578,-90.820,-34.180,0.000
1728617925.859,33.203,-11.230,-69.336,44.922,0.000
1728617925.863,18.066,-19.531,-20.996,25.879,0.000
1728617925.867,-8.301,-13.672,-20.508,-34.668,0.000
1728617925.871,-25.879,-15.625,-23.438,-87.891,0.000
1728617925.875,-23.438,-24.414,-18.555,-51.758,0.000
1728617925.879,-9.277,-24.902,-24.902,9.766,0.000
1728617925.883,6.348,-19.531,-31.738,15.137,0.000
1728617925.887,0.000,-20.996,-23.926,-4.395,0.000
1728617925.890,-40.527,-29.785,-13.672,-47.852,0.000
1728617925.894,-38.086,-30.762,-22.949,-24.902,0.000
1728617925.898,-5.371,-28.809,-44.922,28.320,0.000
1728617925.902,7.812,-23.926,-52.246,23.438,0.000
1728617925.906,4.883,-21.973,-62.988,-8.301,0.000
1728617925.910,-30.762,-20.996,-74.219,-68.359,0.000
1728617925.914,-46.875,-20.508,-44.922,-62.500,0.000
1728617925.918,-9.766,-19.043,-11.230,11.230,0.000
1728617925.922,12.695,-15.137,-30.273,36.133,0.000
1728617925.926,7.812,-9.766,-64.941,20.508,0.000
1728617925.930,-31.738,-8.301,-44.922,-47.852,0.000
1728617925.933,-42.480,-15.625,-31.738,-54.199,0.000
1728617925.937,-6.836,-19.531,-43.945,16.602,0.000
1728617925.941,12.695,-13.672,-14.160,27.344,0.000
1728617925.945,10.254,-19.043,-9.277,10.742,0.000
1728617925.949,-24.902,-23.438,-23.438,-44.922,0.000
1728617925.953,-41.016,-21.973,-37.109,-68.848,0.000
1728617925.957,-0.488,-18.555,-51.270,5.371,0.000
1728617925.961,27.344,-16.113,-46.875,41.016,0.000
1728617925.965,15.625,-19.043,-50.781,15.625,0.000
1728617925.969,-22.949,-21.973,-64.941,-42.969,0.000
1728617925.973,-48.340,-25.879,-50.293,-69.824,0.000
1728617925.976,-20.996,-28.320,-37.598,-14.648,0.000
1728617925.980,10.254,-25.879,-23.926,29.785,0.000
1728617925.984,2.930,-23.438,-17.090,20.020,0.000
1728617925.988,-29.785,-25.879,-46.875,-36.621,0.000
1728617925.992,-55.176,-27.344,-38.574,-74.219,0.000
1728617925.996,-25.879,-27.344,-22.461,-8.301,0.000
1728617926.000,4.883,-22.461,-36.621,31.738,0.000
1728617926.004,6.348,-19.043,-52.246,14.648,0.000
1728617926.008,-16.113,-11.719,-62.500,-27.344,0.000
1728617926.012,-45.898,-14.648,-60.547,-55.664,0.000
1728617926.016,-29.785,-17.578,-45.410,-8.789,0.000
1728617926.019,3.418,-18.555,-41.992,24.902,0.000
1728617926.023,9.766,-23.438,-50.293,27.832,0.000
1728617926.027,-26.367,-20.020,-41.016,-10.742,0.000
1728617926.031,-58.105,-19.043,-35.156,-80.078,0.000
1728617926.035,-38.086,-20.508,-43.945,-41.504,0.000
1728617926.039,0.000,-25.391,-24.414,23.438,0.000
1728617926.043,-5.859,-27.344,-20.020,5.859,0.000
1728617926.047,-27.832,-29.297,-32.715,-21.973,0.000
1728617926.051,-47.363,-33.691,-38.086,-66.406,0.000
1728617926.055,-38.086,-28.320,-42.480,-40.039,0.000
1728617926.059,6.836,-26.855,-52.246,26.855,0.000
1728617926.062,21.973,-20.020,-38.574,29.785,0.000
1728617926.066,-14.160,-20.996,-14.648,-6.836,0.000
1728617926.070,-56.641,-28.320,-15.625,-62.500,0.000
1728617926.074,-45.898,-25.391,-22.461,-41.504,0.000
1728617926.078,-4.883,-17.578,-31.738,24.414,0.000
1728617926.082,5.859,-18.066,-44.922,33.691,0.000
1728617926.086,-14.160,-21.973,-58.105,-1.465,0.000
1728617926.090,-55.176,-28.320,-67.383,-69.824,0.000
1728617926.094,-50.781,-28.809,-51.758,-60.059,0.000
1728617926.098,-11.719,-26.367,-28.320,5.371,0.000
1728617926.101,-3.418,-27.344,-26.855,12.207,0.000
1728617926.105,-10.254,-30.762,-30.762,-10.742,0.000
1728617926.109,-48.828,-31.738,-38.574,-69.336,0.000
1728617926.113,-62.988,-25.879,-66.895,-63.965,0.000
1728617926.117,-11.719,-21.484,-71.289,17.090,0.000
1728617926.121,10.742,-21.484,-29.785,25.391,0.000
1728617926.125,-1.953,-22.461,-15.625,-2.930,0.000
1728617926.129,-41.016,-23.438,-19.531,-66.895,0.000
1728617926.133,-54.688,-24.902,-20.508,-82.520,0.000
1728617926.137,-4.883,-22.949,-37.109,-11.719,0.000
1728617926.141,24.414,-19.043,-56.152,11.230,0.000
1728617926.144,13.672,-20.020,-60.059,-21.484,0.000
1728617926.148,-22.461,-23.926,-53.223,-83.984,0.000
1728617926.152,-42.969,-27.344,-47.852,-95.703,0.000
1728617926.156,-12.207,-24.902,-58.594,-26.367,0.000
1728617926.160,7.812,-23.438,-43.457,8.789,0.000
1728617926.164,-4.883,-26.855,-29.297,-4.395,0.000
1728617926.168,-22.949,-24.414,-40.527,-44.434,0.000
1728617926.172,-53.223,-23.926,-51.758,-80.566,0.000
1728617926.176,-39.062,-25.879,-42.969,-38.086,0.000
1728617926.180,-4.883,-21.973,-27.344,2.441,0.000
1728617926.183,-13.184,-19.043,-44.434,-8.301,0.000
1728617926.187,-34.180,-15.137,-52.246,-47.852,0.000
1728617926.191,-61.523,-20.020,-47.363,-89.355,0.000
1728617926.195,-43.945,-27.832,-34.668,-38.574,0.000
1728617926.199,-13.184,-27.832,-28.809,4.883,0.000
1728617926.203,-7.812,-21.973,-58.105,4.883,0.000
1728617926.207,-20.996,-17.578,-57.129,-25.879,0.000
1728617926.211,-63.965,-20.020,-23.438,-86.914,0.000
1728617926.215,-47.363,-25.391,-7.812,-42.480,0.000
1728617926.219,-0.488,-23.438,-17.578,14.160,0.000
1728617926.222,0.488,-21.484,-34.668,4.395,0.000
1728617926.226,-20.996,-20.508,-36.133,-41.504,0.000
1728617926.230,-48.340,-21.484,-46.875,-97.656,0.000
1728617926.234,-31.738,-26.855,-56.152,-50.293,0.000
1728617926.238,1.953,-23.438,-51.270,0.977,0.000
1728617926.242,6.836,-21.973,-48.828,2.441,0.000
1728617926.246,-15.625,-23.926,-40.527,-22.461,0.000
1728617926.250,-54.199,-29.297,-21.973,-83.008,0.000
1728617926.254,-41.504,-30.273,-28.809,-55.176,0.000
1728617926.258,-13.184,-31.250,-29.785,1.953,0.000
1728617926.261,-5.859,-35.645,-24.902,3.418,0.000
1728617926.265,-19.531,-30.273,-35.156,-14.160,0.000
1728617926.269,-50.781,-27.344,-31.738,-78.613,0.000
1728617926.273,-37.109,-31.250,-24.902,-67.383,0.000
1728617926.277,0.000,-29.785,-41.016,4.395,0.000
1728617926.281,3.906,-24.414,-64.453,11.230,0.000
1728617926.285,-7.324,-30.273,-77.148,-9.766,0.000
1728617926.289,-35.156,-32.227,-50.781,-62.988,0.000
1728617926.293,-47.852,-31.250,-15.137,-70.801,0.000
1728617926.297,-16.113,-40.039,-24.902,-3.906,0.000
1728617926.301,1.465,-35.156,-37.598,23.926,0.000
1728617926.305,-0.488,-24.414,-33.691,12.207,0.000
1728617926.308,-28.809,-27.832,-25.391,-41.504,0.000
1728617926.312,-47.363,-29.297,-47.852,-63.965,0.000
1728617926.316,-16.602,-29.785,-68.359,-5.859,0.000
1728617926.320,6.836,-28.320,-47.363,25.879,0.000
1728617926.324,1.953,-24.414,-45.898,2.441,0.000
1728617926.328,-33.691,-26.855,-44.434,-60.059,0.000
1728617926.332,-51.758,-30.273,-17.090,-84.473,0.000
1728617926.336,-14.160,-33.203,-15.137,-24.414,0.000
1728617926.340,0.000,-33.691,-22.461,4.395,0.000
1728617926.344,-15.137,-34.668,-9.766,-14.648,0.000
1728617926.348,-32.227,-28.809,-14.160,-58.105,0.000
1728617926.351,-43.945,-21.484,-28.809,-75.684,0.000
1728617926.355,-16.113,-21.484,-49.805,-5.859,0.000
1728617926.359,11.230,-22.949,-72.266,21.973,0.000
1728617926.363,10.742,-17.090,-72.754,-0.488,0.000
1728617926.367,-11.719,-13.184,-60.547,-38.086,0.000
1728617926.371,-39.062,-20.020,-47.363,-65.918,0.000
1728617926.375,-21.484,-20.508,-31.738,-12.695,0.000
1728617926.379,1.465,-23.926,-1.953,15.137,0.000
1728617926.383,-3.906,-28.809,-4.883,7.812,0.000
1728617926.387,-33.691,-32.715,-21.484,-32.227,0.000
1728617926.390,-62.012,-39.062,-39.551,-82.031,0.000
1728617926.394,-21.973,-30.273,-79.590,-27.832,0.000
1728617926.398,20.996,-21.973,-69.824,35.645,0.000
1728617926.402,8.301,-26.855,-20.996,34.180,0.000
1728617926.406,-16.602,-28.320,0.977,-12.207,0.000
1728617926.410,-42.969,-30.273,-6.348,-70.312,0.000
1728617926.414,-18.555,-27.832,-21.973,-26.855,0.000
1728617926.418,10.254,-25.391,-41.504,30.762,0.000
1728617926.422,13.184,-27.832,-83.984,29.297,0.000
1728617926.426,10.254,-26.855,-79.102,-5.859,0.000
1728617926.430,-38.574,-31.250,-30.273,-73.730,0.000
1728617926.433,-43.457,-38.086,10.254,-56.641,0.000
1728617926.437,1.465,-31.738,1.465,5.859,0.000
1728617926.441,8.301,-29.297,-17.578,10.254,0.000
1728617926.445,-11.230,-36.133,-5.859,-22.949,0.000
1728617926.449,-45.898,-37.109,-4.395,-83.496,0.000
1728617926.453,-44.434,-36.621,-35.156,-53.711,0.000
1728617926.457,6.836,-27.344,-95.215,26.855,0.000
1728617926.461,13.184,-27.832,-74.219,23.438,0.000
1728617926.465,-12.695,-39.062,-8.301,-18.066,0.000
1728617926.469,-40.039,-37.598,-8.789,-73.730,0.000
1728617926.473,-38.086,-30.762,-44.922,-57.129,0.000
1728617926.476,-4.395,-32.227,-34.668,8.301,0.000
1728617926.480,5.859,-35.645,-4.395,21.973,0.000
1728617926.484,-5.371,-33.203,-8.789,-4.395,0.000
1728617926.488,-27.832,-27.344,-22.949,-59.570,0.000
1728617926.492,-40.039,-25.391,-29.297,-62.500,0.000
1728617926.496,-14.648,-27.832,-36.621,-6.348,0.000
1728617926.500,17.578,-22.461,-65.918,19.531,0.000
1728617926.504,10.742,-19.531,-62.500,1.953,0.000
1728617926.508,-29.297,-28.809,-29.785,-61.035,0.000
1728617926.512,-42.969,-32.715,-24.902,-79.590,0.000
1728617926.515,-8.301,-32.715,-29.785,-2.930,0.000
1728617926.519,15.625,-32.227,-41.992,24.414,0.000
1728617926.523,15.625,-28.320,-52.734,4.395,0.000
1728617926.527,-12.695,-23.926,-56.641,-36.133,0.000
1728617926.531,-43.457,-22.461,-63.965,-65.430,0.000
1728617926.535,-9.277,-18.555,-54.688,-4.883,0.000
1728617926.539,10.254,-21.484,-15.137,9.277,0.000
1728617926.543,1.465,-20.508,-4.395,-19.043,0.000
1728617926.547,-23.926,-28.320,-13.672,-66.895,0.000
1728617926.551,-57.617,-37.598,-27.344,-104.492,0.000
1728617926.554,-25.391,-30.273,-37.109,-33.203,0.000
1728617926.558,8.789,-24.902,-57.617,12.207,0.000
1728617926.562,7.812,-24.902,-47.363,10.254,0.000
1728617926.566,-15.137,-31.250,-33.203,-19.531,0.000
1728617926.570,-46.875,-34.668,-41.992,-61.035,0.000
1728617926.574,-30.762,-28.320,-35.156,-14.160,0.000
1728617926.578,1.465,-24.902,-43.945,35.156,0.000
1728617926.582,7.812,-30.762,-44.434,37.109,0.000
1728617926.586,-12.695,-24.902,-24.414,-17.090,0.000
1728617926.590,-37.109,-19.531,-30.273,-76.172,0.000
1728617926.594,-17.090,-24.902,-30.762,-27.832,0.000
1728617926.597,4.883,-35.645,-2.441,26.367,0.000
1728617926.601,3.906,-38.574,11.230,13.672,0.000
1728617926.605,-11.230,-25.391,2.441,-20.020,0.000
1728617926.609,-43.457,-25.391,-14.648,-64.453,0.000
1728617926.613,-32.715,-30.762,-47.852,-36.621,0.000
1728617926.617,8.301,-29.785,-62.988,19.531,0.000
1728617926.621,11.719,-30.273,-40.527,0.000,0.000
1728617926.625,-11.719,-31.738,-27.344,-38.574,0.000
1728617926.629,-47.363,-31.738,-41.992,-80.566,0.000
1728617926.633,-40.527,-27.832,-49.805,-54.688,0.000
1728617926.636,2.930,-21.484,-39.551,13.184,0.000
1728617926.640,15.137,-19.043,-39.062,21.973,0.000
1728617926.644,-1.465,-19.043,-43.945,-13.672,0.000
1728617926.648,-30.273,-18.066,-41.992,-66.406,0.000
1728617926.652,-35.645,-21.973,-17.090,-52.734,0.000
1728617926.656,2.441,-18.066,-31.250,14.648,0.000
1728617926.660,18.066,-12.695,-39.551,26.855,0.000
1728617926.664,3.906,-14.160,-13.184,0.488,0.000
1728617926.668,-29.297,-18.555,-14.648,-55.176,0.000
1728617926.672,-34.668,-20.996,-15.137,-55.176,0.000
1728617926.676,0.977,-19.043,-29.785,10.254,0.000
1728617926.679,18.555,-18.066,-41.992,33.691,0.000
1728617926.683,5.859,-18.555,-38.086,31.738,0.000
1728617926.687,-33.203,-23.438,-33.691,-35.156,0.000
1728617926.691,-45.410,-28.809,-27.344,-67.871,0.000
1728617926.695,0.000,-20.020,-67.383,-5.371,0.000
1728617926.699,13.672,-13.184,-85.938,13.184,0.000
1728617926.703,-3.418,-13.672,-58.594,-8.301,0.000
1728617926.707,-24.902,-24.414,-30.762,-56.152,0.000
1728617926.711,-63.965,-34.180,-3.418,-87.402,0.000
1728617926.715,-46.387,-25.391,-11.719,-26.367,0.000
1728617926.719,5.859,-21.973,-50.781,24.414,0.000
1728617926.722,14.648,-24.414,-44.922,6.836,0.000
1728617926.726,-14.160,-25.391,-15.137,-37.598,0.000
1728617926.730,-36.621,-20.996,-27.832,-54.199,0.000
1728617926.734,-11.230,-28.320,-17.090,-5.859,0.000
1728617926.738,13.184,-41.504,13.672,30.273,0.000
1728617926.742,0.977,-42.480,4.883,19.043,0.000
1728617926.746,-27.344,-32.227,-38.574,-20.508,0.000
1728617926.750,-48.340,-31.250,-42.480,-65.918,0.000
1728617926.754,-27.832,-36.621,-37.598,-31.250,0.000
1728617926.758,4.883,-32.227,-41.992,23.438,0.000
1728617926.762,-6.836,-41.504,-15.137,16.602,0.000
1728617926.765,-38.086,-46.387,-2.441,-31.738,0.000
1728617926.769,-59.082,-41.504,8.301,-67.871,0.000
1728617926.773,-39.062,-44.434,17.578,-22.461,0.000
1728617926.777,-5.859,-40.527,-17.578,23.438,0.000
1728617926.781,7.812,-27.344,-50.781,12.695,0.000
1728617926.785,-21.484,-31.738,-56.641,-29.297,0.000
1728617926.789,-67.383,-37.598,-61.523,-76.660,0.000
1728617926.793,-36.621,-26.855,-40.039,-37.598,0.000
1728617926.797,10.254,-27.832,-26.855,22.949,0.000
1728617926.801,5.859,-27.344,-26.367,25.391,0.000
1728617926.805,-21.973,-20.020,-4.883,-20.996,0.000
1728617926.808,-50.293,-17.090,4.883,-84.961,0.000
1728617926.812,-40.527,-33.691,-28.809,-52.734,0.000
1728617926.816,-15.137,-35.156,-57.129,6.836,0.000
1728617926.820,-7.812,-7.324,-59.570,11.230,0.000
1728617926.824,-15.137,-11.719,-28.320,-12.207,0.000
1728617926.828,-51.270,-50.293,6.348,-78.125,0.000
1728617926.832,-55.176,-37.109,-3.418,-70.312,0.000
1728617926.836,-19.531,-23.438,-63.965,-7.812,0.000
1728617926.840,-25.879,-8.301,-91.309,-19.043,0.000
1728617926.844,-32.227,0.488,-15.625,-23.438,0.000
1728617926.847,-34.668,-41.504,11.230,-55.176,0.000
1728617926.851,-39.551,-32.227,-17.578,-73.730,0.000
1728617926.855,-24.902,-20.508,-15.625,-18.555,0.000
1728617926.859,-1.953,-20.996,-18.066,15.137,0.000
1728617926.863,-2.930,35.156,-79.102,-20.996,0.000
1728617926.867,-55.176,29.297,-88.867,-101.562,0.000
1728617926.871,-63.477,-40.039,-8.301,-96.191,0.000
1728617926.875,-1.953,-35.645,-8.789,0.000,0.000
1728617926.879,-15.625,11.230,-28.320,3.906,0.000
1728617926.883,-47.363,43.457,-11.719,-42.969,0.000
1728617926.887,-56.152,-14.648,0.488,-90.332,0.000
1728617926.890,-69.824,-52.246,-20.996,-104.980,0.000
1728617926.894,-1.465,-2.930,-37.109,0.977,0.000
1728617926.898,31.250,0.488,-25.879,55.176,0.000
1728617926.902,-1.953,-6.348,-42.480,20.996,0.000
1728617926.906,-20.508,-24.414,4.395,-24.902,0.000
1728617926.910,-62.500,-62.500,20.996,-69.336,0.000
1728617926.914,-79.102,-55.176,14.648,-40.039,0.000
1728617926.918,-2.441,-117.188,59.570,39.062,0.000
1728617926.922,6.348,-207.031,-19.043,14.160,0.000
1728617926.926,-65.430,-240.723,-73.730,-70.801,0.000
1728617926.929,-92.773,-299.805,-34.180,-97.168,0.000
1728617926.933,-96.680,-370.605,-41.992,-70.312,0.000
1728617926.937,-27.832,-446.777,-23.926,7.324,0.000
1728617926.941,8.301,-514.160,2.930,20.996,0.000
1728617926.945,-41.992,-609.375,-9.766,-52.246,0.000
1728617926.949,-88.379,-666.504,-20.508,-108.398,0.000
1728617926.953,-83.496,-776.367,-22.949,-76.172,0.000
1728617926.957,-62.988,-928.711,-40.039,-48.828,0.000
1728617926.961,-8.301,-995.117,9.277,-25.391,0.000
1728617926.965,-32.715,-999.023,25.391,-58.594,0.000
1728617926.969,-105.957,-999.512,0.488,-135.742,0.000
1728617926.972,-133.301,-1000.000,-65.430,-134.766,0.000
1728617926.976,-115.723,-1000.000,-92.285,-94.238,0.000
1728617926.980,-11.230,-1000.000,9.766,1.465,0.000
1728617926.984,-8.789,-1000.000,17.578,-1.465,0.000
1728617926.988,-72.266,-1000.000,-21.973,-99.121,0.000
1728617926.992,-65.918,-1000.000,-9.766,-89.844,0.000
1728617926.996,-24.414,-1000.000,-11.719,-12.207,0.000
1728617927.000,-17.578,-1000.000,-10.742,-9.277,0.000
1728617927.004,-35.156,-1000.000,15.137,-51.270,0.000
1728617927.008,-76.660,-1000.000,9.766,-122.559,0.000
1728617927.011,-96.191,-1000.000,-22.461,-117.676,0.000
1728617927.015,-47.363,-1000.000,-53.223,-22.461,0.000
1728617927.019,-20.508,-1000.000,-14.160,13.184,0.000
1728617927.023,-64.453,-1000.000,3.418,-44.922,0.000
1728617927.027,-89.844,-1000.000,-35.156,-113.281,0.000
1728617927.031,-75.684,-1000.000,-38.574,-98.145,0.000
1728617927.035,-46.387,-1000.000,-20.020,-46.387,0.000
1728617927.039,-8.789,-1000.000,-1.465,-28.320,0.000
1728617927.043,-18.066,-1000.000,-14.160,-50.293,0.000
1728617927.047,-61.523,-1000.000,-13.672,-104.980,0.000
1728617927.051,-44.922,-1000.000,2.441,-101.074,0.000
1728617927.054,0.000,-1000.000,1.465,-22.949,0.000
1728617927.058,-21.484,-1000.000,-3.418,-15.625,0.000
1728617927.062,-59.082,-1000.000,-11.719,-52.246,0.000
1728617927.066,-64.941,-1000.000,-13.184,-76.660,0.000
1728617927.070,-62.500,-1000.000,2.441,-85.938,0.000
1728617927.074,-41.504,-1000.000,-4.395,-41.992,0.000
1728617927.078,7.812,-1000.000,-47.363,6.348,0.000
1728617927.082,14.160,-999.512,-33.203,-1.953,0.000
1728617927.086,-29.297,-1000.000,9.766,-54.688,0.000
1728617927.090,-47.852,-985.352,-11.719,-76.172,0.000
1728617927.094,-12.207,-942.383,-25.879,-7.324,0.000
1728617927.097,10.742,-892.578,-6.836,17.090,0.000
1728617927.101,15.137,-860.352,-3.906,0.000,0.000
1728617927.105,9.277,-833.984,0.000,-14.648,0.000
1728617927.109,-21.973,-781.250,-16.602,-47.852,0.000
1728617927.113,5.371,-742.188,-17.090,12.207,0.000
1728617927.117,42.480,-714.355,6.836,57.617,0.000
1728617927.121,42.969,-675.781,0.000,31.250,0.000
1728617927.125,23.926,-631.348,-20.508,-9.277,0.000
1728617927.129,-11.719,-587.402,14.648,-57.129,0.000
1728617927.133,9.277,-560.059,45.410,-10.254,0.000
1728617927.137,39.551,-506.348,12.695,33.203,0.000
1728617927.140,40.039,-452.637,3.906,26.367,0.000
1728617927.144,33.691,-427.246,15.137,6.836,0.000
1728617927.148,14.160,-408.691,-3.418,-34.180,0.000
1728617927.152,28.320,-391.113,-0.488,-0.488,0.000
1728617927.156,57.617,-353.516,-7.812,58.105,0.000
1728617927.160,58.594,-312.988,-35.156,66.895,0.000
1728617927.164,35.645,-285.645,-10.254,31.250,0.000
1728617927.168,-3.418,-254.395,24.414,-34.180,0.000
1728617927.172,6.348,-206.055,29.785,-3.906,0.000
1728617927.176,46.875,-158.203,21.973,59.570,0.000
1728617927.179,58.594,-116.211,-8.789,61.523,0.000
1728617927.183,37.109,-63.965,-29.785,30.273,0.000
1728617927.187,-8.301,-2.441,1.953,-35.645,0.000
1728617927.191,-7.324,28.809,14.160,-24.414,0.000
1728617927.195,36.621,58.594,-48.828,59.082,0.000
1728617927.199,38.086,171.875,-76.172,63.477,0.000
1728617927.203,6.348,381.348,-34.668,10.254,0.000
1728617927.207,-25.391,630.371,-3.418,-47.852,0.000
1728617927.211,-36.133,818.359,-8.301,-39.551,0.000
1728617927.215,-5.371,935.547,-36.621,16.602,0.000
1728617927.219,17.090,970.215,-41.504,29.785,0.000
1728617927.222,5.371,965.332,-15.625,8.789,0.000
1728617927.226,-35.645,968.750,-32.227,-53.223,0.000
1728617927.230,-48.828,968.262,-55.664,-63.965,0.000
1728617927.234,-5.371,968.262,-33.203,12.695,0.000
1728617927.238,24.414,968.262,-23.926,48.340,0.000
1728617927.242,18.555,968.262,-31.250,23.926,0.000
1728617927.246,-19.043,968.262,-49.316,-47.363,0.000
1728617927.250,-34.668,968.262,-64.941,-58.594,0.000
1728617927.254,8.301,968.262,-65.430,14.648,0.000
1728617927.258,26.855,968.262,-62.500,41.016,0.000
1728617927.261,12.207,968.262,-37.598,13.672,0.000
1728617927.265,-15.137,968.750,-37.598,-43.457,0.000
1728617927.269,-31.738,966.309,-49.316,-63.477,0.000
1728617927.273,-5.859,970.215,-41.992,-3.418,0.000
1728617927.277,14.160,956.055,-34.668,23.438,0.000
1728617927.281,23.926,899.902,-22.461,21.973,0.000
1728617927.285,-4.395,849.121,-21.973,-2.930,0.000
1728617927.289,-46.875,813.477,-36.621,-48.340,0.000
1728617927.293,-16.602,771.484,-48.340,0.977,0.000
1728617927.297,15.625,730.469,-65.918,45.898,0.000
1728617927.301,20.996,714.355,-72.266,34.668,0.000
1728617927.304,-8.301,701.660,-68.848,-6.836,0.000
1728617927.308,-47.363,675.781,-39.551,-56.152,0.000
1728617927.312,-20.996,654.297,-7.324,-5.371,0.000
1728617927.316,9.277,649.414,-29.297,33.691,0.000
1728617927.320,5.859,652.832,-49.316,20.020,0.000
1728617927.324,-14.160,650.391,-38.086,-15.625,0.000
1728617927.328,-42.969,636.230,-37.109,-71.289,0.000
1728617927.332,-27.344,622.559,-47.852,-37.109,0.000
1728617927.336,2.441,610.352,-42.480,8.789,0.000
1728617927.340,9.277,595.215,-58.594,8.301,0.000
1728617927.343,4.395,580.078,-75.195,-11.230,0.000
1728617927.347,-36.621,565.918,-45.410,-66.895,0.000
1728617927.351,-32.227,559.570,-41.504,-38.574,0.000
1728617927.355,17.090,556.152,-54.688,22.461,0.000
1728617927.359,8.789,537.109,-43.945,11.719,0.000
1728617927.363,-12.695,519.043,-26.855,-14.160,0.000
1728617927.367,-38.574,496.094,-22.461,-62.500,0.000
1728617927.371,-31.250,473.145,-40.527,-40.039,0.000
1728617927.375,10.254,459.473,-67.383,28.809,0.000
1728617927.379,13.672,434.570,-64.941,29.297,0.000
1728617927.382,-6.348,415.039,-36.621,-5.371,0.000
1728617927.386,-39.551,400.391,-33.203,-65.918,0.000
1728617927.390,-37.598,380.859,-50.781,-58.105,0.000
1728617927.394,1.465,373.535,-22.949,1.953,0.000
1728617927.398,12.695,361.816,-14.648,6.348,0.000
1728617927.402,-4.883,354.980,-36.133,-6.836,0.000
1728617927.406,-44.434,349.121,-11.230,-62.012,0.000
1728617927.410,-43.945,335.449,7.812,-70.801,0.000
1728617927.414,-4.395,330.078,-5.859,2.930,0.000
1728617927.418,1.465,318.848,-41.992,19.043,0.000
1728617927.422,-11.230,308.105,-42.480,-1.465,0.000
1728617927.425,-35.645,301.758,-24.902,-51.758,0.000
1728617927.429,-46.387,299.316,-32.715,-65.918,0.000
1728617927.433,-7.812,297.363,-38.574,11.719,0.000
1728617927.437,12.207,293.945,-37.598,35.156,0.000
1728617927.441,6.348,288.574,-49.316,11.230,0.000
1728617927.445,-15.625,273.926,-47.363,-26.367,0.000
1728617927.449,-32.227,255.859,-47.363,-45.898,0.000
1728617927.453,-10.742,242.188,-43.945,4.883,0.000
1728617927.457,12.207,228.516,-35.645,29.297,0.000
1728617927.461,3.418,222.656,-16.113,7.812,0.000
1728617927.465,-24.414,209.473,12.695,-43.457,0.000
1728617927.468,-47.852,193.848,0.488,-82.031,0.000
1728617927.472,-11.230,194.336,-23.926,-25.879,0.000
1728617927.476,18.066,192.871,-36.133,11.719,0.000
1728617927.480,9.277,183.105,-69.824,7.812,0.000
1728617927.484,-9.277,178.223,-61.523,-23.926,0.000
1728617927.488,-43.945,164.062,-5.371,-74.219,0.000
1728617927.492,-31.738,147.461,6.348,-32.715,0.000
1728617927.496,2.930,145.020,-25.391,16.602,0.000
1728617927.500,9.766,146.973,-41.504,8.301,0.000
1728617927.504,-13.184,146.973,-29.785,-29.297,0.000
1728617927.508,-42.480,144.531,-12.695,-77.637,0.000
1728617927.511,-27.344,134.277,-16.113,-37.109,0.000
1728617927.515,4.395,131.836,-18.555,19.531,0.000
1728617927.519,6.348,130.859,-26.855,15.625,0.000
1728617927.523,-15.625,122.559,-39.551,-12.207,0.000
1728617927.527,-49.316,114.258,-36.133,-70.312,0.000
1728617927.531,-40.039,109.863,-36.621,-48.340,0.000
1728617927.535,-5.371,105.957,-42.969,11.230,0.000
1728617927.539,4.883,101.562,-37.598,17.090,0.000
1728617927.543,-8.789,102.051,-48.340,-0.977,0.000
1728617927.547,-45.898,100.586,-71.289,-58.105,0.000
1728617927.551,-39.551,88.867,-44.434,-61.035,0.000
1728617927.554,4.395,85.449,-33.203,1.465,0.000
1728617927.558,10.254,88.867,-45.898,8.789,0.000
1728617927.562,-8.301,80.566,-23.926,-22.949,0.000
1728617927.566,-45.898,74.219,-3.906,-76.172,0.000
1728617927.570,-46.875,71.777,-9.766,-57.129,0.000
1728617927.574,-11.719,73.730,-21.973,0.000,0.000
1728617927.578,3.418,78.613,-25.879,6.836,0.000
1728617927.582,2.930,88.379,-36.133,-8.789,0.000
1728617927.586,-24.902,98.633,-43.945,-61.035,0.000
1728617927.590,-36.621,99.121,-50.293,-61.523,0.000
1728617927.593,-3.906,103.027,-50.781,2.441,0.000
1728617927.597,12.695,111.816,-36.133,14.648,0.000
1728617927.601,-2.441,113.281,-17.090,-1.465,0.000
1728617927.605,-27.832,112.305,-24.414,-44.922,0.000
1728617927.609,-27.832,110.840,-41.016,-60.059,0.000
1728617927.613,-0.488,109.863,-30.273,12.207,0.000
1728617927.617,4.395,105.957,-29.297,43.457,0.000
1728617927.621,-1.953,104.004,-20.996,20.020,0.000
1728617927.625,-28.320,108.398,-13.184,-26.855,0.000
1728617927.629,-45.898,104.492,-28.320,-40.039,0.000
1728617927.633,-18.555,100.586,-33.691,17.578,0.000
1728617927.636,-2.441,99.121,-30.273,35.645,0.000
1728617927.640,-5.371,96.680,-32.715,16.602,0.000
1728617927.644,-21.973,95.215,-14.160,-40.039,0.000
1728617927.648,-47.363,88.379,-2.441,-85.938,0.000
1728617927.652,-24.902,88.379,-27.832,-27.344,0.000
1728617927.656,14.648,87.402,-43.945,17.090,0.000
1728617927.660,19.531,81.055,-28.809,14.648,0.000
1728617927.664,-6.348,78.613,-18.066,-30.273,0.000
1728617927.668,-35.645,72.754,-17.578,-83.496,0.000
1728617927.672,-17.090,61.035,-27.344,-25.391,0.000
1728617927.675,13.672,64.453,-42.969,29.297,0.000
1728617927.679,12.207,65.918,-72.266,18.555,0.000
1728617927.683,-18.555,60.059,-83.984,-18.555,0.000
1728617927.687,-51.270,66.406,-27.832,-65.918,0.000
1728617927.691,-31.250,74.219,-0.977,-31.738,0.000
1728617927.695,-1.953,70.312,-14.160,14.648,0.000
1728617927.699,-6.348,72.266,-7.324,2.441,0.000
1728617927.703,-23.926,77.637,-17.090,-26.367,0.000
1728617927.707,-62.012,74.707,-33.691,-80.566,0.000
1728617927.711,-48.340,70.801,-35.156,-54.688,0.000
1728617927.714,3.418,78.613,-40.039,17.578,0.000
1728617927.718,2.441,81.543,-54.688,16.602,0.000
1728617927.722,-13.672,77.148,-61.523,-16.602,0.000
1728617927.726,-37.109,71.777,-58.105,-73.242,0.000
1728617927.730,-38.086,65.918,-23.926,-56.641,0.000
1728617927.734,-4.883,66.406,-3.906,10.254,0.000
1728617927.738,-1.953,67.383,-35.645,13.672,0.000
1728617927.742,-12.695,68.848,-55.664,-13.672,0.000
1728617927.746,-38.574,64.453,-48.828,-58.105,0.000
1728617927.750,-42.480,61.035,-31.738,-47.363,0.000
1728617927.753,-9.766,59.570,-17.090,5.859,0.000
1728617927.757,0.977,58.594,-20.996,11.230,0.000
1728617927.761,-4.883,54.199,-20.996,-3.906,0.000
1728617927.765,-34.180,50.781,-34.180,-47.852,0.000
1728617927.769,-40.039,46.387,-34.668,-63.965,0.000
1728617927.773,1.465,44.434,-16.113,2.441,0.000
1728617927.777,16.113,48.340,-11.719,32.227,0.000
1728617927.781,4.395,46.387,-21.973,3.906,0.000
1728617927.785,-26.367,40.039,-35.156,-53.711,0.000
1728617927.789,-37.598,34.180,-34.180,-60.547,0.000
1728617927.793,-2.930,33.203,-30.273,14.160,0.000
1728617927.797,11.719,26.367,-26.855,34.180,0.000
1728617927.801,-2.441,24.414,-46.875,3.906,0.000
1728617927.804,-30.273,29.785,-67.871,-43.457,0.000
1728617927.808,-33.691,28.320,-36.133,-53.223,0.000
1728617927.812,-0.488,21.484,-1.953,6.348,0.000
1728617927.816,6.836,23.926,-10.254,24.902,0.000
1728617927.820,11.230,31.250,-43.945,18.555,0.000
1728617927.824,-7.812,22.949,-24.902,-28.320,0.000
1728617927.828,-47.852,2.930,5.371,-75.684,0.000
1728617927.832,-29.297,3.418,-4.395,-16.113,0.000
1728617927.836,5.859,10.742,-22.949,28.320,0.000
1728617927.840,11.230,6.836,-38.086,13.672,0.000
1728617927.844,-20.508,5.371,-36.621,-41.016,0.000
1728617927.847,-50.293,5.371,-39.551,-83.008,0.000
1728617927.851,-23.438,0.977,-38.574,-27.832,0.000
1728617927.855,11.719,2.930,-39.062,14.648,0.000
1728617927.859,14.160,3.418,-47.363,4.883,0.000
1728617927.863,-7.324,2.441,-39.062,-33.203,0.000
1728617927.867,-37.109,4.883,-29.297,-75.195,0.000
1728617927.871,-22.949,0.488,-12.207,-26.855,0.000
1728617927.875,3.906,-4.395,-13.184,12.695,0.000
1728617927.879,9.766,1.465,-31.250,6.836,0.000
1728617927.883,-5.859,7.324,-37.598,-22.461,0.000
1728617927.887,-37.109,-0.977,-49.805,-77.148,0.000
1728617927.890,-20.508,-3.418,-55.664,-41.016,0.000
1728617927.894,17.090,-0.488,-45.898,20.020,0.000
1728617927.898,17.090,-0.977,-45.898,23.926,0.000
1728617927.902,-9.277,-3.906,-39.062,-4.395,0.000
1728617927.906,-46.387,-4.395,-38.086,-67.383,0.000
1728617927.910,-45.898,-5.859,-31.250,-49.805,0.000
1728617927.914,-10.742,-13.184,-22.461,4.395,0.000
1728617927.918,3.906,-18.066,-27.832,15.137,0.000
1728617927.922,-8.789,-18.066,-40.039,0.488,0.000
1728617927.926,-52.246,-19.531,-34.180,-64.941,0.000
1728617927.930,-50.781,-22.949,-23.438,-62.988,0.000
1728617927.933,-12.207,-17.090,-35.156,2.930,0.000
1728617927.937,0.488,-15.625,-45.898,20.508,0.000
1728617927.941,-7.812,-16.113,-37.109,-0.488,0.000
1728617927.945,-37.598,-11.719,-33.203,-50.781,0.000
1728617927.949,-38.086,-10.742,-51.270,-50.293,0.000
1728617927.953,1.953,-7.324,-33.691,10.254,0.000
1728617927.957,17.090,-6.348,-7.812,25.391,0.000
1728617927.961,0.977,-9.766,-9.766,5.371,0.000
1728617927.965,-34.180,-10.254,-21.973,-49.805,0.000
1728617927.969,-41.016,-15.625,-41.504,-71.289,0.000
1728617927.972,2.930,-10.742,-29.297,0.488,0.000
1728617927.976,17.578,-10.254,-0.488,25.391,0.000
1728617927.980,1.465,-14.648,-2.441,-4.395,0.000
1728617927.984,-30.273,-18.066,-7.812,-58.594,0.000
1728617927.988,-41.016,-19.531,1.465,-71.777,0.000
1728617927.992,-1.465,-22.461,-9.277,6.836,0.000
1728617927.996,21.484,-16.113,-22.949,29.785,0.000
1728617928.000,18.555,-7.812,-22.949,10.254,0.000
1728617928.004,-8.789,-5.859,-30.762,-27.344,0.000
1728617928.008,-33.691,-10.742,-34.668,-57.129,0.000
1728617928.011,-5.371,-16.602,-29.297,-4.883,0.000
1728617928.015,14.648,-16.113,-23.438,22.461,0.000
1728617928.019,0.488,-12.207,-16.113,2.441,0.000
1728617928.023,-22.461,-16.602,-16.113,-32.227,0.000
1728617928.027,-38.574,-20.508,-20.996,-66.406,0.000
1728617928.031,-14.160,-15.137,-21.484,-20.508,0.000
1728617928.035,15.137,-13.672,-19.531,36.133,0.000
1728617928.039,1.465,-17.090,-25.391,34.668,0.000
1728617928.043,-18.555,-12.207,-34.180,-15.137,0.000
1728617928.047,-38.086,-7.812,-35.156,-81.055,0.000
1728617928.051,-20.996,-9.277,-38.086,-33.691,0.000
1728617928.054,7.324,-10.742,-34.668,24.902,0.000
1728617928.058,8.789,-11.719,-22.949,6.836,0.000
1728617928.062,-13.184,-10.742,-29.297,-36.621,0.000
1728617928.066,-41.016,-8.301,-48.828,-72.754,0.000
1728617928.070,-29.297,-7.812,-41.992,-35.156,0.000
1728617928.074,1.953,-7.324,-37.109,14.160,0.000
1728617928.078,12.695,-2.441,-62.500,22.461,0.000
1728617928.082,-8.301,-1.465,-62.500,-2.930,0.000
1728617928.086,-41.992,-9.277,-27.832,-64.941,0.000
1728617928.090,-29.785,-14.648,-14.648,-41.504,0.000
1728617928.093,2.930,-12.695,-17.578,16.602,0.000
1728617928.097,3.906,-12.207,-20.020,17.578,0.000
1728617928.101,-10.742,-17.578,-23.926,-6.348,0.000
1728617928.105,-41.504,-19.043,-30.762,-57.129,0.000
1728617928.109,-39.062,-13.672,-50.293,-46.387,0.000
1728617928.113,-1.465,-13.672,-53.223,10.742,0.000
1728617928.117,11.230,-11.719,-36.133,18.066,0.000
1728617928.121,2.930,-8.301,-33.203,-1.465,0.000
1728617928.125,-26.855,-9.277,-48.340,-49.805,0.000
1728617928.129,-40.039,-17.090,-44.922,-51.270,0.000
1728617928.132,-9.277,-20.020,-40.039,9.766,0.000
1728617928.136,10.254,-18.555,-45.410,33.691,0.000
1728617928.140,2.441,-15.137,-37.598,23.438,0.000
1728617928.144,-30.762,-12.207,-41.992,-34.668,0.000
1728617928.148,-40.039,-19.531,-55.176,-55.664,0.000
1728617928.152,-3.906,-23.438,-40.527,5.859,0.000
1728617928.156,13.672,-14.648,-23.438,24.414,0.000
1728617928.160,0.000,-11.230,-16.113,-4.883,0.000
1728617928.164,-38.086,-15.625,-13.184,-65.918,0.000
1728617928.168,-52.246,-13.672,-26.855,-76.172,0.000
1728617928.172,-13.672,-9.766,-73.242,-0.977,0.000
1728617928.175,4.883,-15.625,-62.012,14.160,0.000
1728617928.179,-10.254,-24.414,-7.812,-15.625,0.000
1728617928.183,-39.551,-22.461,-7.324,-60.059,0.000
1728617928.187,-54.688,-20.996,-41.504,-94.727,0.000
1728617928.191,-26.855,-23.438,-45.898,-35.156,0.000
1728617928.195,-0.977,-16.602,-27.832,8.301,0.000
1728617928.199,2.441,-15.137,-12.207,-6.836,0.000
1728617928.203,-24.414,-16.113,-22.949,-46.875,0.000
1728617928.207,-49.316,-11.719,-53.711,-77.148,0.000
1728617928.211,-15.137,-11.719,-53.711,-22.949,0.000
1728617928.215,13.672,-15.625,-35.156,19.043,0.000
1728617928.218,-1.465,-21.973,-27.344,8.789,0.000
1728617928.222,-26.855,-25.879,-34.668,-30.273,0.000
1728617928.226,-53.223,-21.973,-47.363,-73.242,0.000
1728617928.230,-29.785,-20.508,-46.387,-16.602,0.000
1728617928.234,1.953,-16.113,-52.246,23.438,0.000
1728617928.238,14.160,-11.230,-61.035,21.484,0.000
1728617928.242,-1.953,-18.555,-47.363,-15.137,0.000
1728617928.246,-38.574,-19.043,-23.438,-66.406,0.000
1728617928.250,-24.902,-19.043,-20.508,-24.902,0.000
1728617928.254,11.719,-18.066,-43.945,13.672,0.000
1728617928.258,19.531,-10.254,-53.711,1.465,0.000
1728617928.261,-7.324,-14.648,-38.574,-32.715,0.000
1728617928.265,-38.574,-24.902,-31.738,-67.871,0.000
1728617928.269,-29.297,-21.484,-34.180,-32.227,0.000
1728617928.273,10.254,-18.555,-35.156,21.484,0.000
1728617928.277,18.555,-17.090,-40.527,32.227,0.000
1728617928.281,-6.836,-17.090,-37.598,3.418,0.000
1728617928.285,-38.086,-17.090,-31.250,-61.523,0.000
1728617928.289,-41.992,-21.484,-24.902,-54.688,0.000
1728617928.293,-4.883,-26.367,-28.809,6.348,0.000
1728617928.297,11.230,-25.879,-22.949,16.113,0.000
1728617928.301,0.000,-20.020,-27.344,-3.418,0.000
1728617928.304,-26.367,-19.043,-53.711,-53.223,0.000
1728617928.308,-38.574,-20.508,-51.270,-53.711,0.000
1728617928.312,-3.418,-20.020,-43.457,14.160,0.000
1728617928.316,16.113,-20.996,-33.691,21.973,0.000
1728617928.320,-2.441,-19.531,-16.113,2.930,0.000
1728617928.324,-33.203,-18.066,-5.371,-51.758,0.000
1728617928.328,-41.504,-18.555,-2.930,-67.383,0.000
1728617928.332,-8.301,-21.484,-5.859,0.977,0.000
1728617928.336,12.695,-20.996,-19.531,18.555,0.000
1728617928.340,-1.953,-18.555,-25.391,-2.441,0.000
1728617928.344,-36.621,-21.484,-24.902,-50.781,0.000
1728617928.347,-52.246,-16.602,-37.598,-71.777,0.000
1728617928.351,-18.555,-18.555,-39.551,-9.766,0.000
1728617928.355,2.441,-22.949,-32.227,14.160,0.000
1728617928.359,-2.930,-19.531,-42.969,-14.160,0.000
1728617928.363,-34.668,-18.066,-52.246,-59.082,0.000
1728617928.367,-56.641,-19.043,-53.223,-76.172,0.000
1728617928.371,-21.484,-18.555,-55.176,-19.531,0.000
1728617928.375,4.395,-17.578,-36.133,14.648,0.000
1728617928.379,0.977,-22.461,-15.625,7.324,0.000
1728617928.383,-22.461,-21.973,-14.160,-52.246,0.000
1728617928.386,-47.852,-18.066,-33.203,-91.797,0.000
1728617928.390,-15.137,-13.184,-71.777,-25.391,0.000
1728617928.394,19.531,-13.672,-69.824,13.672,0.000
1728617928.398,2.930,-22.949,-9.766,-1.953,0.000
1728617928.402,-36.621,-32.227,5.859,-51.758,0.000
1728617928.406,-58.105,-33.203,-13.672,-88.379,0.000
1728617928.410,-23.438,-27.832,-29.785,-22.461,0.000
1728617928.414,-3.906,-24.414,-37.109,15.625,0.000
1728617928.418,-3.418,-27.344,-44.922,-5.859,0.000
1728617928.422,-18.066,-29.785,-65.430,-37.109,0.000
1728617928.426,-56.152,-25.879,-52.734,-80.566,0.000
1728617928.429,-45.410,-29.297,-14.648,-41.504,0.000
1728617928.433,-5.371,-28.809,-3.418,14.160,0.000
1728617928.437,3.906,-23.926,-25.391,19.531,0.000
1728617928.441,-7.324,-25.391,-35.645,-20.508,0.000
1728617928.445,-37.109,-27.344,-17.578,-86.426,0.000
1728617928.449,-33.203,-27.832,-20.996,-55.176,0.000
1728617928.453,2.441,-26.367,-28.809,10.254,0.000
1728617928.457,11.230,-25.391,-30.273,14.648,0.000
1728617928.461,-7.812,-24.414,-28.320,-12.207,0.000
1728617928.465,-36.621,-25.391,-36.133,-74.219,0.000
1728617928.468,-28.809,-27.344,-49.805,-54.199,0.000
1728617928.472,-0.488,-26.855,-36.133,9.277,0.000
1728617928.476,9.277,-22.461,-43.457,6.836,0.000
1728617928.480,-13.184,-23.926,-50.293,-22.949,0.000
1728617928.484,-50.781,-34.180,-25.879,-71.289,0.000
1728617928.488,-47.363,-33.203,-13.184,-60.059,0.000
1728617928.492,-18.066,-33.203,-24.902,-0.488,0.000
1728617928.496,5.371,-34.180,-36.621,15.625,0.000
1728617928.500,3.906,-23.438,-38.086,-2.441,0.000
1728617928.504,-33.203,-22.949,-30.273,-62.500,0.000
1728617928.507,-52.246,-32.715,-19.531,-72.754,0.000
1728617928.511,-14.160,-30.762,-17.578,5.859,0.000
1728617928.515,16.602,-21.973,-39.551,33.203,0.000
1728617928.519,-2.930,-21.484,-65.918,-0.488,0.000
1728617928.523,-52.246,-24.414,-44.434,-63.477,0.000
1728617928.527,-56.641,-27.832,-8.789,-78.125,0.000
1728617928.531,-16.113,-30.273,-4.395,-10.254,0.000
1728617928.535,3.418,-29.785,-11.230,23.438,0.000
1728617928.539,-1.953,-28.809,-24.902,-1.953,0.000
1728617928.543,-29.785,-30.273,-33.691,-62.012,0.000
1728617928.547,-50.781,-27.832,-38.574,-88.867,0.000
1728617928.551,-13.672,-25.391,-50.781,-31.738,0.000
1728617928.555,7.324,-25.391,-35.156,-5.371,0.000
1728617928.558,0.977,-26.367,-17.578,-10.742,0.000
1728617928.562,-29.785,-34.180,-28.320,-62.988,0.000
1728617928.566,-53.223,-35.156,-38.086,-91.797,0.000
1728617928.570,-21.484,-30.273,-48.828,-22.949,0.000
1728617928.574,0.488,-30.762,-71.777,5.859,0.000
1728617928.578,2.441,-24.902,-63.477,-0.488,0.000
1728617928.582,-26.367,-23.926,-21.484,-38.574,0.000
1728617928.586,-62.012,-32.715,-2.930,-93.750,0.000
1728617928.590,-37.598,-35.156,-17.578,-47.363,0.000
1728617928.594,-11.719,-35.645,-22.949,4.395,0.000
1728617928.598,-11.230,-33.691,-20.020,-2.930,0.000
1728617928.601,-29.785,-30.762,-32.715,-38.574,0.000
1728617928.605,-60.547,-33.203,-37.598,-81.055,0.000
1728617928.609,-47.852,-33.203,-47.363,-47.363,0.000
1728617928.613,-13.672,-25.391,-90.332,9.277,0.000
1728617928.617,-1.953,-19.531,-85.449,15.625,0.000
1728617928.621,-29.785,-24.414,-16.602,-16.113,0.000
1728617928.625,-67.383,-36.621,1.465,-77.148,0.000
1728617928.629,-41.016,-32.715,-12.207,-39.551,0.000
1728617928.633,-1.465,-26.367,-17.090,35.645,0.000
1728617928.637,5.859,-25.391,-28.809,29.785,0.000
1728617928.641,-13.184,-25.879,-36.133,-23.438,0.000
1728617928.644,-47.852,-25.879,-28.320,-76.172,0.000
1728617928.648,-38.574,-27.344,-29.785,-51.270,0.000
1728617928.652,-5.859,-32.227,-28.809,7.812,0.000
1728617928.656,-7.324,-33.691,-19.531,4.883,0.000
1728617928.660,-19.531,-33.691,-17.578,-17.578,0.000
1728617928.664,-50.781,-33.691,-23.926,-55.176,0.000
1728617928.668,-60.547,-30.273,-42.480,-56.641,0.000
1728617928.672,-18.555,-26.367,-49.316,-4.883,0.000
1728617928.676,-0.977,-24.414,-43.945,7.324,0.000
1728617928.680,-14.160,-24.414,-54.688,-10.742,0.000
1728617928.683,-45.410,-26.367,-64.453,-70.312,0.000
1728617928.687,-49.316,-27.832,-53.223,-71.289,0.000
1728617928.691,-17.090,-24.902,-32.715,-10.254,0.000
1728617928.695,-5.371,-25.879,-6.348,7.324,0.000
1728617928.699,-17.578,-28.320,-2.441,-16.113,0.000
1728617928.703,-49.805,-28.320,-24.902,-71.289,0.000
1728617928.707,-62.012,-28.320,-39.062,-80.078,0.000
1728617928.711,-20.996,-29.297,-35.156,-15.625,0.000
1728617928.715,9.766,-31.250,-26.855,19.043,0.000
1728617928.719,-2.441,-32.227,-29.785,-2.930,0.000
1728617928.723,-31.250,-32.227,-57.129,-56.641,0.000
1728617928.726,-46.875,-29.785,-67.871,-63.965,0.000
1728617928.730,-20.508,-31.250,-30.273,-8.301,0.000
1728617928.734,3.418,-26.855,-18.555,14.648,0.000
1728617928.738,6.348,-21.973,-19.043,16.113,0.000
1728617928.742,-23.926,-22.461,-22.949,-26.367,0.000
1728617928.746,-48.340,-21.484,-31.250,-69.824,0.000
1728617928.750,-15.137,-20.508,-34.668,-22.949,0.000
1728617928.754,10.254,-20.508,-25.879,8.789,0.000
1728617928.758,4.395,-20.996,-28.320,-1.953,0.000
1728617928.762,-20.508,-19.531,-38.574,-45.410,0.000
1728617928.765,-42.480,-19.531,-31.250,-70.801,0.000
1728617928.769,-10.742,-22.461,-30.273,-5.371,0.000
1728617928.773,21.973,-17.578,-33.691,33.203,0.000
1728617928.777,16.602,-14.648,-42.969,16.602,0.000
1728617928.781,-8.301,-17.090,-51.758,-22.949,0.000
1728617928.785,-40.527,-12.207,-49.805,-64.453,0.000
1728617928.789,-25.391,-14.160,-28.320,-28.320,0.000
1728617928.793,5.859,-23.438,-9.277,15.625,0.000
1728617928.797,1.953,-25.879,-8.789,8.789,0.000
1728617928.801,-10.742,-21.973,-26.855,-29.297,0.000
1728617928.804,-41.016,-20.020,-40.527,-79.102,0.000
1728617928.808,-20.996,-20.020,-28.809,-37.109,0.000
1728617928.812,17.578,-19.531,-27.832,36.621,0.000
1728617928.816,23.438,-18.555,-52.734,40.527,0.000
1728617928.820,6.836,-20.020,-63.965,-4.395,0.000
1728617928.824,-36.621,-22.461,-61.035,-68.359,0.000
1728617928.828,-29.785,-23.438,-55.664,-38.574,0.000
1728617928.832,14.160,-23.926,-32.715,19.043,0.000
1728617928.836,9.766,-25.391,-2.930,0.488,0.000
1728617928.840,-16.113,-20.996,-7.324,-27.832,0.000
1728617928.844,-38.086,-20.020,-25.879,-76.660,0.000
1728617928.847,-35.156,-16.113,-32.227,-59.570,0.000
1728617928.851,-2.930,-15.625,-33.203,14.160,0.000
1728617928.855,19.043,-15.625,-34.180,31.250,0.000
1728617928.859,13.672,-8.301,-27.344,8.789,0.000
1728617928.863,-23.438,-5.859,-21.484,-42.480,0.000
1728617928.867,-32.227,-10.254,-22.949,-40.039,0.000
1728617928.871,0.488,-15.137,-28.809,16.602,0.000
1728617928.875,27.344,-12.695,-29.785,38.086,0.000
1728617928.879,19.531,-10.742,-31.738,21.484,0.000
1728617928.883,-23.438,-14.160,-33.691,-43.457,0.000
1728617928.886,-40.039,-21.484,-20.020,-58.594,0.000
1728617928.890,-10.254,-20.508,-24.902,22.949,0.000
1728617928.894,8.789,-15.625,-39.551,38.086,0.000
1728617928.898,4.395,-14.648,-52.734,16.113,0.000
1728617928.902,-22.461,-12.207,-65.918,-32.227,0.000
1728617928.906,-40.039,-16.113,-43.945,-67.383,0.000
1728617928.910,-15.137,-20.508,-5.371,-3.418,0.000
1728617928.914,7.324,-15.625,1.465,32.227,0.000
1728617928.918,3.906,-15.625,-17.090,8.301,0.000
1728617928.922,-28.809,-23.926,-25.879,-40.527,0.000
1728617928.926,-51.270,-18.555,-38.086,-66.895,0.000
1728617928.929,-21.973,-19.043,-28.320,-13.184,0.000
1728617928.933,6.836,-22.949,-10.254,19.043,0.000
1728617928.937,-0.488,-19.043,-17.090,8.789,0.000
1728617928.941,-26.367,-19.531,-39.062,-31.738,0.000
1728617928.945,-41.504,-22.461,-42.969,-60.547,0.000
1728617928.949,-16.113,-18.066,-33.203,-1.953,0.000
1728617928.953,8.301,-21.973,-37.598,26.855,0.000
1728617928.957,-0.488,-25.391,-42.969,1.465,0.000
1728617928.961,-21.484,-22.949,-29.785,-32.227,0.000
1728617928.965,-51.758,-27.344,-13.672,-78.125,0.000
1728617928.969,-34.668,-25.391,-18.555,-37.109,0.000
1728617928.972,2.441,-21.973,-38.086,15.625,0.000
1728617928.976,5.859,-24.414,-46.387,10.254,0.000
1728617928.980,-7.812,-26.855,-43.457,-19.531,0.000
1728617928.984,-45.410,-27.344,-48.828,-74.707,0.000
1728617928.988,-33.203,-21.973,-64.941,-41.016,0.000
1728617928.992,10.254,-23.438,-61.523,21.484,0.000
1728617928.996,5.859,-32.715,-27.344,21.973,0.000
1728617929.000,-19.531,-36.621,-21.484,-12.695,0.000
1728617929.004,-53.711,-37.598,-38.574,-66.406,0.000
1728617929.008,-47.852,-36.621,-53.223,-39.551,0.000
1728617929.012,-2.441,-32.715,-34.668,21.973,0.000
1728617929.015,16.113,-26.855,-24.414,25.879,0.000
1728617929.019,1.953,-24.902,-36.621,-17.578,0.000
1728617929.023,-36.133,-26.855,-29.297,-77.148,0.000
1728617929.027,-40.039,-26.855,-14.160,-54.688,0.000
1728617929.031,-4.395,-28.809,-10.254,8.301,0.000
1728617929.035,11.230,-32.227,-17.578,7.324,0.000
1728617929.039,-2.441,-31.738,-31.250,-22.949,0.000
1728617929.043,-34.668,-24.902,-45.898,-67.871,0.000
1728617929.047,-39.062,-22.949,-43.457,-62.012,0.000
1728617929.051,-11.230,-30.762,-29.785,-3.906,0.000
1728617929.055,9.277,-31.738,-21.973,12.207,0.000
1728617929.058,2.441,-31.250,-29.297,-6.836,0.000
1728617929.062,-33.691,-28.320,-44.434,-59.570,0.000
1728617929.066,-48.828,-29.297,-42.969,-60.547,0.000
1728617929.070,-14.160,-30.273,-35.645,10.742,0.000
1728617929.074,5.859,-24.414,-53.711,20.020,0.000
1728617929.078,-7.324,-20.020,-63.477,3.906,0.000
1728617929.082,-41.504,-15.137,-26.855,-54.199,0.000
1728617929.086,-53.711,-12.207,-11.230,-77.637,0.000
1728617929.090,-21.484,-19.531,-29.297,-15.625,0.000
1728617929.094,-1.953,-20.020,-35.645,10.254,0.000
1728617929.097,-14.160,-17.578,-33.691,1.465,0.000
1728617929.101,-39.062,-14.160,-25.391,-51.270,0.000
1728617929.105,-48.828,-11.230,-10.742,-72.754,0.000
1728617929.109,-19.043,-11.719,-21.484,-10.742,0.000
1728617929.113,15.137,-10.742,-29.785,15.625,0.000
1728617929.117,3.418,-10.742,-18.066,-4.883,0.000
1728617929.121,-31.250,-14.160,-10.742,-58.105,0.000
1728617929.125,-50.781,-10.742,-16.602,-89.844,0.000
1728617929.129,-17.090,-7.812,-36.621,-16.602,0.000
1728617929.133,9.766,-6.836,-56.152,27.344,0.000
1728617929.137,1.953,-11.230,-46.387,8.301,0.000
1728617929.140,-21.973,-20.508,-15.625,-32.715,0.000
1728617929.144,-49.805,-19.531,-11.719,-79.102,0.000
1728617929.148,-29.297,-11.230,-26.855,-32.715,0.000
1728617929.152,4.395,-4.883,-48.828,16.113,0.000
1728617929.156,6.836,-10.254,-38.086,13.184,0.000
1728617929.160,-13.672,-9.277,-35.156,-11.719,0.000
1728617929.164,-46.387,-3.418,-56.152,-58.105,0.000
1728617929.168,-28.809,-11.719,-33.203,-39.062,0.000
1728617929.172,5.859,-14.160,-22.949,8.789,0.000
1728617929.176,-5.371,-13.672,-22.949,-8.789,0.000
1728617929.179,-23.438,-22.949,0.488,-45.898,0.000
1728617929.183,-51.270,-23.438,-4.883,-87.402,0.000
1728617929.187,-44.434,-26.855,-15.625,-57.617,0.000
1728617929.191,-7.324,-26.367,-24.902,0.000,0.000
1728617929.195,5.859,-20.508,-36.621,-1.465,0.000
1728617929.199,-6.348,-17.578,-72.754,-25.391,0.000
1728617929.203,-39.551,-13.184,-86.426,-67.871,0.000
1728617929.207,-36.133,-14.648,-36.621,-49.316,0.000
1728617929.211,-3.418,-12.695,-6.836,-6.348,0.000
1728617929.215,4.395,-16.602,-8.301,2.441,0.000
1728617929.218,-15.625,-26.367,-22.461,-14.160,0.000
1728617929.222,-53.223,-25.879,-48.828,-70.801,0.000
1728617929.226,-40.039,-20.996,-60.547,-60.547,0.000
1728617929.230,-3.906,-19.043,-44.434,-1.465,0.000
1728617929.234,2.441,-22.949,-38.086,10.742,0.000
1728617929.238,-0.488,-20.020,-41.016,4.883,0.000
1728617929.242,-35.645,-17.090,-41.992,-49.316,0.000
1728617929.246,-47.363,-19.531,-56.152,-60.547,0.000
1728617929.250,-0.977,-15.625,-53.711,5.371,0.000
1728617929.254,9.766,-18.555,-26.855,14.160,0.000
1728617929.258,1.465,-20.996,-21.973,6.836,0.000
1728617929.262,-20.996,-14.160,-21.484,-37.598,0.000
1728617929.265,-42.969,-12.207,-19.043,-59.570,0.000
1728617929.269,-15.137,-15.625,-65.430,-7.812,0.000
1728617929.273,9.766,-17.090,-75.195,14.648,0.000
1728617929.277,-12.207,-23.926,-30.762,-6.836,0.000
1728617929.281,-54.199,-29.297,-32.227,-62.500,0.000
1728617929.285,-59.570,-40.527,-19.043,-83.984,0.000
1728617929.289,-12.695,-20.020,1.465,-12.695,0.000
1728617929.293,24.902,-7.324,-9.766,34.180,0.000
1728617929.297,22.949,-36.133,-19.531,22.461,0.000
1728617929.301,-20.508,-28.320,-43.945,-29.297,0.000
1728617929.305,-49.805,-17.090,-56.152,-72.266,0.000
1728617929.308,-12.207,-30.762,-47.363,-12.695,0.000
1728617929.312,12.695,-28.320,-53.223,32.227,0.000
1728617929.316,5.371,-22.949,-30.273,11.230,0.000
1728617929.320,-31.250,-27.344,-14.160,-42.969,0.000
1728617929.324,-62.012,-33.203,-26.367,-76.660,0.000
1728617929.328,-31.738,-21.484,-32.715,-23.438,0.000
1728617929.332,-5.371,-13.672,-26.855,9.277,0.000
1728617929.336,2.930,-23.926,-28.809,6.348,0.000
1728617929.340,-18.555,-45.898,-43.945,-22.949,0.000
1728617929.344,-86.426,-18.555,-43.945,-100.098,0.000
1728617929.348,-58.594,3.906,-18.555,-61.523,0.000
1728617929.351,-17.090,-25.391,-50.293,-6.348,0.000
1728617929.355,-8.301,-6.836,-72.266,3.418,0.000
1728617929.359,-15.137,-1.953,-65.430,-26.367,0.000
1728617929.363,-67.383,-56.152,-76.660,-98.145,0.000
1728617929.367,-57.129,-56.152,-18.066,-40.527,0.000
1728617929.371,-16.602,-27.344,-5.371,19.043,0.000
1728617929.375,-40.039,-39.551,-63.477,-29.785,0.000
1728617929.379,-28.809,-63.965,-41.504,-21.484,0.000
1728617929.383,-70.801,-43.945,-5.371,-83.496,0.000
1728617929.387,-77.148,-47.363,3.418,-83.008,0.000
1728617929.391,-11.719,-56.641,-8.301,7.324,0.000
1728617929.394,-1.953,-86.426,-58.594,9.766,0.000
1728617929.398,-9.766,-109.863,-41.016,-11.719,0.000
1728617929.402,-44.922,-130.859,18.555,-68.848,0.000
1728617929.406,-63.477,-183.105,12.207,-77.637,0.000
1728617929.410,-69.824,-204.102,-26.855,-47.852,0.000
1728617929.414,-43.945,-219.238,-15.625,-14.648,0.000
1728617929.418,-0.488,-264.648,-24.414,18.066,0.000
1728617929.422,1.465,-320.801,-62.012,-25.391,0.000
1728617929.426,-14.648,-380.371,-31.250,-55.664,0.000
1728617929.430,-16.602,-442.383,20.020,-15.137,0.000
1728617929.433,-15.137,-512.695,36.133,-9.277,0.000
1728617929.437,-35.645,-611.816,25.879,-36.133,0.000
1728617929.441,-71.777,-710.449,-6.348,-83.496,0.000
1728617929.445,-58.594,-814.941,-46.387,-58.105,0.000
1728617929.449,-21.973,-901.855,-27.344,31.738,0.000
1728617929.453,-3.906,-951.172,0.977,37.109,0.000
1728617929.457,-38.086,-986.816,4.883,-21.484,0.000
1728617929.461,-76.660,-999.512,28.809,-57.617,0.000
1728617929.465,-62.012,-1000.000,30.762,-53.223,0.000
1728617929.469,-35.156,-1000.000,-3.906,-15.137,0.000
1728617929.473,-8.789,-1000.000,-18.066,-6.348,0.000
1728617929.476,-6.348,-1000.000,-21.973,-26.855,0.000
1728617929.480,-41.016,-1000.000,-83.984,-95.215,0.000
1728617929.484,-38.086,-1000.000,-64.941,-109.375,0.000
1728617929.488,-11.719,-1000.000,-4.395,-30.273,0.000
1728617929.492,-10.254,-1000.000,-25.879,-7.812,0.000
1728617929.496,14.160,-1000.000,-18.555,-5.859,0.000
1728617929.500,-6.348,-1000.000,3.906,-53.223,0.000
1728617929.504,-55.176,-1000.000,-11.230,-105.469,0.000
1728617929.508,-37.598,-1000.000,-41.992,-51.758,0.000
1728617929.512,-15.137,-1000.000,-34.668,-15.137,0.000
1728617929.515,-12.695,-1000.000,-10.742,-21.484,0.000
1728617929.519,-32.227,-1000.000,-10.742,-50.293,0.000
1728617929.523,-78.613,-1000.000,-31.738,-102.051,0.000
1728617929.527,-58.105,-1000.000,-52.246,-60.059,0.000
1728617929.531,-12.207,-1000.000,-63.965,1.465,0.000
1728617929.535,-8.301,-1000.000,-61.523,-0.488,0.000
1728617929.539,-20.020,-1000.000,-40.039,-33.203,0.000
1728617929.543,-37.109,-1000.000,-21.484,-76.172,0.000
1728617929.547,-18.555,-1000.000,-33.691,-26.855,0.000
1728617929.551,8.301,-1000.000,-49.805,18.555,0.000
1728617929.554,4.395,-1000.000,-42.480,-9.766,0.000
1728617929.558,-14.160,-998.535,-30.273,-41.016,0.000
1728617929.562,-56.152,-1000.000,-32.715,-98.145,0.000
1728617929.566,-56.641,-997.559,-58.105,-85.449,0.000
1728617929.570,-3.906,-939.453,-65.918,-10.254,0.000
1728617929.574,10.742,-893.555,-58.594,11.719,0.000
1728617929.578,-3.418,-854.980,-29.785,3.906,0.000
1728617929.582,-37.109,-792.969,-11.230,-60.059,0.000
1728617929.586,-41.992,-728.516,-31.250,-68.359,0.000
1728617929.590,9.277,-681.641,-28.320,12.695,0.000
1728617929.594,30.762,-640.625,-49.805,22.461,0.000
1728617929.597,12.695,-601.562,-57.617,-5.371,0.000
1728617929.601,-31.738,-567.383,-24.414,-58.594,0.000
1728617929.605,-47.363,-531.738,-27.832,-75.684,0.000
1728617929.609,-12.695,-505.371,-49.316,-10.254,0.000
1728617929.613,6.836,-472.656,-60.059,10.742,0.000
1728617929.617,6.348,-438.965,-55.176,-8.301,0.000
1728617929.621,-36.133,-421.875,-31.738,-59.082,0.000
1728617929.625,-50.781,-393.555,-14.648,-55.664,0.000
1728617929.629,-10.254,-365.234,-9.766,4.883,0.000
1728617929.633,10.254,-329.590,-16.602,16.602,0.000
1728617929.636,10.742,-273.438,-30.273,18.555,0.000
1728617929.640,-15.625,-229.980,-46.875,-21.484,0.000
1728617929.644,-42.969,-168.945,-48.828,-52.734,0.000
1728617929.648,-3.906,-90.820,-47.852,2.441,0.000
1728617929.652,28.320,-7.812,-37.109,18.555,0.000
1728617929.656,15.137,183.594,-23.926,-10.742,0.000
1728617929.660,-23.926,395.508,-23.438,-61.523,0.000
1728617929.664,-39.551,485.840,-12.695,-71.777,0.000
1728617929.668,-2.930,535.156,-9.766,7.324,0.000
1728617929.672,24.902,622.559,-34.668,47.363,0.000
1728617929.676,20.508,736.328,-42.969,25.391,0.000
1728617929.679,-7.324,810.059,-22.461,-24.902,0.000
1728617929.683,-40.527,847.656,-12.695,-66.895,0.000
1728617929.687,-17.090,875.977,-16.113,-19.531,0.000
1728617929.691,15.625,864.258,-25.879,23.926,0.000
1728617929.695,6.836,851.562,-25.879,17.578,0.000
1728617929.699,-20.508,845.703,-10.742,-15.137,0.000
1728617929.703,-52.734,832.031,-30.273,-59.570,0.000
1728617929.707,-23.438,826.172,-54.688,-7.812,0.000
1728617929.711,18.555,824.219,-43.945,46.875,0.000
1728617929.715,8.789,811.523,-34.180,20.508,0.000
1728617929.719,-17.090,778.809,-23.438,-34.668,0.000
1728617929.722,-55.176,751.953,-25.391,-92.773,0.000
1728617929.726,-31.738,737.305,-32.227,-46.387,0.000
1728617929.730,19.043,725.098,-19.043,30.273,0.000
1728617929.734,15.137,724.609,3.906,20.508,0.000
1728617929.738,-2.441,714.844,9.277,-17.578,0.000
1728617929.742,-25.391,680.176,-0.488,-61.523,0.000
1728617929.746,-26.855,650.879,-16.113,-34.180,0.000
1728617929.750,3.906,635.742,-32.227,34.668,0.000
1728617929.754,25.879,623.535,-25.879,44.434,0.000
1728617929.758,6.348,605.469,-16.113,7.324,0.000
1728617929.762,-31.250,592.285,-37.598,-49.316,0.000
1728617929.765,-18.555,586.914,-56.152,-33.203,0.000
1728617929.769,12.207,578.613,-29.785,23.438,0.000
1728617929.773,22.461,568.848,4.395,32.227,0.000
1728617929.777,12.207,548.340,7.324,15.137,0.000
1728617929.781,-36.621,527.344,-5.371,-46.875,0.000
1728617929.785,-47.852,507.812,-23.438,-36.621,0.000
1728617929.789,13.184,488.281,-37.598,39.551,0.000
1728617929.793,30.762,480.957,-33.691,43.457,0.000
1728617929.797,4.395,466.797,-13.672,14.160,0.000
1728617929.801,-26.367,444.824,-2.930,-30.273,0.000
1728617929.805,-41.504,431.152,-12.207,-32.227,0.000
1728617929.808,-5.859,418.945,-25.391,35.156,0.000
1728617929.812,17.578,411.133,-41.504,50.293,0.000
1728617929.816,9.277,404.785,-26.855,20.996,0.000
1728617929.820,-24.414,399.902,-6.836,-26.855,0.000
1728617929.824,-52.734,396.973,-7.812,-52.734,0.000
1728617929.828,-18.555,399.414,-14.648,-4.883,0.000
1728617929.832,9.766,399.902,-17.090,17.090,0.000
1728617929.836,-0.977,391.113,-16.602,-1.465,0.000
1728617929.840,-27.832,379.883,-30.273,-42.480,0.000
1728617929.844,-44.922,368.164,-36.133,-63.965,0.000
1728617929.847,-17.578,359.375,-38.574,-11.230,0.000
1728617929.851,10.254,346.680,-49.316,24.902,0.000
1728617929.855,8.789,332.031,-35.156,16.113,0.000
1728617929.859,-12.207,318.848,-38.086,-35.156,0.000
1728617929.863,-35.156,311.523,-84.961,-65.430,0.000
1728617929.867,-10.742,300.781,-65.430,-3.906,0.000
1728617929.871,11.719,283.691,-7.324,22.949,0.000
1728617929.875,1.953,267.090,11.230,2.930,0.000
1728617929.879,-21.484,255.859,2.930,-41.016,0.000
1728617929.883,-48.828,250.000,-34.668,-75.684,0.000
1728617929.887,-20.020,249.023,-51.270,-18.555,0.000
1728617929.890,21.973,253.418,-31.738,26.855,0.000
1728617929.894,21.973,250.488,-31.738,21.484,0.000
1728617929.898,1.953,249.023,-37.109,-9.766,0.000
1728617929.902,-33.691,246.094,-16.113,-59.082,0.000
1728617929.906,-16.113,245.605,-12.207,-17.578,0.000
1728617929.910,20.996,249.512,-31.250,53.223,0.000
1728617929.914,15.137,245.605,-37.598,48.340,0.000
1728617929.918,-0.488,243.164,-20.996,-6.836,0.000
1728617929.922,-35.645,233.398,-19.531,-70.312,0.000
1728617929.926,-29.297,226.074,-27.832,-39.551,0.000
1728617929.929,17.578,227.539,-28.809,24.902,0.000
1728617929.933,28.320,224.609,-48.340,32.715,0.000
1728617929.937,13.184,224.121,-41.016,10.742,0.000
1728617929.941,-15.137,224.121,-15.137,-51.270,0.000
1728617929.945,-18.066,214.844,-21.484,-43.945,0.000
1728617929.949,20.508,207.520,-41.016,27.344,0.000
1728617929.953,35.156,200.684,-34.668,44.434,0.000
1728617929.957,18.066,192.383,-21.973,14.648,0.000
1728617929.961,-22.461,184.082,-25.879,-54.199,0.000
1728617929.965,-30.762,173.340,-21.973,-50.781,0.000
1728617929.969,20.996,162.598,-15.137,20.996,0.000
1728617929.972,34.180,158.691,-17.090,29.297,0.000
1728617929.976,9.766,151.855,-23.438,-2.930,0.000
1728617929.980,-19.043,140.625,-32.227,-54.199,0.000
1728617929.984,-29.297,134.766,-37.109,-64.453,0.000
1728617929.988,3.418,125.488,-40.039,-2.441,0.000
1728617929.992,21.973,124.023,-49.316,23.926,0.000
1728617929.996,12.695,119.141,-46.875,10.254,0.000
1728617930.000,-15.137,104.492,-27.832,-41.504,0.000
1728617930.004,-40.527,96.680,-19.043,-74.219,0.000
1728617930.008,-14.160,90.820,-18.066,-20.508,0.000
1728617930.011,9.277,86.426,-29.785,14.160,0.000
1728617930.015,2.930,83.008,-24.902,13.184,0.000
1728617930.019,-38.086,78.125,-25.879,-44.434,0.000
1728617930.023,-63.477,70.801,-36.621,-80.566,0.000
1728617930.027,-19.531,66.895,-39.551,-15.137,0.000
1728617930.031,8.789,72.754,-54.688,24.902,0.000
1728617930.035,5.371,71.777,-47.363,15.625,0.000
1728617930.039,-20.020,66.895,-12.695,-31.738,0.000
1728617930.043,-49.316,69.336,-8.301,-73.730,0.000
1728617930.047,-25.879,67.871,-24.414,-25.391,0.000
1728617930.051,9.766,61.523,-33.203,12.695,0.000
1728617930.054,13.672,59.570,-34.180,4.883,0.000
1728617930.058,-14.648,54.688,-32.227,-37.109,0.000
1728617930.062,-56.641,46.387,-33.203,-84.473,0.000
1728617930.066,-33.691,47.363,-37.598,-29.785,0.000
1728617930.070,5.859,50.781,-49.805,16.113,0.000
1728617930.074,8.789,52.734,-52.246,12.695,0.000
1728617930.078,-5.859,53.223,-54.199,-10.742,0.000
1728617930.082,-35.156,46.875,-51.758,-62.012,0.000
1728617930.086,-27.832,40.527,-32.715,-22.949,0.000
1728617930.090,4.395,45.898,-32.227,30.273,0.000
1728617930.094,8.301,47.852,-40.527,22.461,0.000
1728617930.097,-13.184,41.504,-27.344,-16.602,0.000
1728617930.101,-53.223,35.156,-45.410,-72.754,0.000
1728617930.105,-36.621,34.180,-83.008,-22.949,0.000
1728617930.109,6.836,39.062,-77.148,36.621,0.000
1728617930.113,2.930,36.133,-23.926,15.137,0.000
1728617930.117,-16.113,31.738,18.555,-16.602,0.000
1728617930.121,-42.480,32.227,11.719,-66.895,0.000
1728617930.125,-41.504,28.320,-8.789,-51.270,0.000
1728617930.129,-2.930,26.367,-25.391,12.207,0.000
1728617930.133,15.137,28.809,-36.621,17.090,0.000
1728617930.137,2.930,35.156,-29.785,-22.461,0.000
1728617930.140,-41.992,31.250,-31.738,-88.379,0.000
1728617930.144,-45.898,29.785,-42.969,-78.613,0.000
1728617930.148,3.906,39.062,-35.156,-2.441,0.000
1728617930.152,7.324,37.109,-34.668,9.766,0.000
1728617930.156,-4.883,33.691,-31.250,-8.789,0.000
1728617930.160,-15.137,37.109,-29.785,-41.992,0.000
1728617930.164,-37.109,45.410,-41.016,-52.246,0.000
1728617930.168,-21.484,43.945,-34.180,-7.812,0.000
1728617930.172,-2.930,41.504,-29.785,4.395,0.000
1728617930.176,-14.648,47.363,-36.133,-22.949,0.000
1728617930.180,-50.781,48.828,-64.453,-78.125,0.000
1728617930.183,-63.965,48.340,-74.707,-83.984,0.000
1728617930.187,-24.902,44.434,-38.086,-13.184,0.000
1728617930.191,-10.254,41.016,-22.949,3.418,0.000
1728617930.195,-16.602,41.016,-17.578,-6.836,0.000
1728617930.199,-37.598,36.621,-32.715,-51.270,0.000
1728617930.203,-45.410,34.668,-73.242,-74.707,0.000
1728617930.207,-13.672,35.156,-30.762,-17.090,0.000
1728617930.211,-6.348,26.367,7.324,1.465,0.000
1728617930.215,-10.742,19.043,-7.812,-5.371,0.000
1728617930.219,-32.227,15.137,-17.090,-37.109,0.000
1728617930.222,-56.152,18.066,-40.527,-63.965,0.000
1728617930.226,-23.926,19.531,-29.785,-27.344,0.000
1728617930.230,0.977,17.090,-9.277,-0.977,0.000
1728617930.234,-1.465,17.090,-23.926,-7.812,0.000
1728617930.238,-19.531,23.438,-41.992,-49.805,0.000
1728617930.242,-41.504,17.090,-43.457,-77.148,0.000
1728617930.246,-22.949,9.766,-34.668,-34.668,0.000
1728617930.250,4.395,11.230,-20.020,8.789,0.000
1728617930.254,10.742,17.090,-14.160,10.254,0.000
1728617930.258,-0.977,18.555,-25.391,-28.320,0.000
1728617930.262,-40.039,15.137,-39.062,-72.754,0.000
1728617930.265,-30.762,21.484,-48.340,-32.227,0.000
1728617930.269,3.418,21.484,-61.035,18.066,0.000
1728617930.273,13.672,18.555,-65.430,14.160,0.000
1728617930.277,-15.137,11.230,-18.555,-24.902,0.000
1728617930.281,-60.059,6.348,8.789,-82.031,0.000
1728617930.285,-41.992,8.789,-3.906,-40.039,0.000
1728617930.289,-6.348,9.766,-24.414,9.766,0.000
1728617930.293,2.441,8.789,-31.738,-0.977,0.000
1728617930.297,-14.648,12.207,-31.250,-18.066,0.000
1728617930.301,-42.969,13.672,-54.199,-68.359,0.000
1728617930.304,-28.809,9.277,-79.590,-45.898,0.000
1728617930.308,0.488,6.836,-60.059,9.766,0.000
1728617930.312,3.418,8.301,-9.766,9.277,0.000
1728617930.316,-3.418,8.301,4.395,-10.254,0.000
1728617930.320,-37.109,7.324,-6.836,-65.430,0.000
1728617930.324,-41.992,5.859,-17.090,-56.152,0.000
1728617930.328,-0.977,9.766,-21.484,13.672,0.000
1728617930.332,14.648,13.672,-29.297,36.621,0.000
1728617930.336,-7.324,14.648,-41.504,1.953,0.000
1728617930.340,-41.016,16.602,-53.223,-61.035,0.000
1728617930.344,-41.992,18.066,-52.734,-67.383,0.000
1728617930.347,-9.277,14.648,-38.574,-4.395,0.000
1728617930.351,7.812,17.578,-27.832,17.578,0.000
1728617930.355,-1.465,20.508,-36.621,-14.648,0.000
1728617930.359,-38.086,15.137,-48.340,-76.660,0.000
1728617930.363,-53.711,17.090,-44.434,-87.402,0.000
1728617930.367,-11.230,15.137,-21.973,-16.113,0.000
1728617930.371,4.883,17.090,-18.066,3.906,0.000
1728617930.375,-3.906,16.602,-28.809,-20.508,0.000
1728617930.379,-31.250,15.625,-31.738,-64.941,0.000
1728617930.383,-51.758,18.555,-36.133,-88.379,0.000
1728617930.386,-22.949,14.648,-37.109,-24.414,0.000
1728617930.390,4.395,20.996,-37.598,20.508,0.000
1728617930.394,1.953,34.180,-48.828,1.465,0.000
1728617930.398,-35.645,39.551,-48.828,-52.734,0.000
1728617930.402,-60.547,35.645,-29.785,-79.102,0.000
1728617930.406,-19.043,31.250,-15.625,-20.996,0.000
1728617930.410,13.672,35.645,-17.578,21.484,0.000
1728617930.414,2.441,31.738,-31.250,12.207,0.000
1728617930.418,-22.461,32.227,-41.504,-30.762,0.000
1728617930.422,-51.758,33.691,-41.992,-74.707,0.000
1728617930.426,-41.992,30.762,-46.387,-34.180,0.000
1728617930.429,0.977,36.621,-53.223,13.672,0.000
1728617930.433,8.301,40.527,-39.062,11.230,0.000
1728617930.437,-19.531,33.691,-33.203,-33.203,0.000
1728617930.441,-46.387,38.086,-46.387,-86.426,0.000
1728617930.445,-17.578,38.574,-57.129,-40.039,0.000
1728617930.449,16.602,32.715,-63.477,25.879,0.000
1728617930.453,4.395,35.645,-43.945,10.742,0.000
1728617930.457,-20.020,30.762,-19.043,-40.039,0.000
1728617930.461,-44.922,27.832,-13.672,-92.773,0.000
1728617930.465,-30.273,30.762,-26.367,-55.176,0.000
1728617930.469,4.395,24.902,-32.227,7.812,0.000
1728617930.472,6.836,22.461,-39.551,6.836,0.000
1728617930.476,-0.977,23.926,-41.992,-19.043,0.000
1728617930.480,-32.227,20.996,-25.391,-62.988,0.000
1728617930.484,-34.668,21.484,-41.504,-47.852,0.000
1728617930.488,9.277,21.484,-42.969,10.742,0.000
1728617930.492,17.578,16.113,-19.531,14.160,0.000
1728617930.496,-2.930,17.090,-18.555,-12.695,0.000
1728617930.500,-40.527,14.160,-25.879,-72.754,0.000
1728617930.504,-44.434,5.371,-25.391,-67.383,0.000
1728617930.508,-3.418,3.906,-25.391,-0.488,0.000
1728617930.512,14.648,7.812,-35.156,15.137,0.000
1728617930.515,4.395,9.277,-42.969,-1.465,0.000
1728617930.519,-19.043,7.324,-36.621,-48.340,0.000
1728617930.523,-22.461,6.836,-24.414,-40.527,0.000
1728617930.527,6.836,4.883,-24.902,25.391,0.000
1728617930.531,8.789,5.859,-38.574,10.254,0.000
1728617930.535,-13.672,5.371,-35.645,-25.879,0.000
1728617930.539,-43.457,-4.395,-22.461,-79.590,0.000
1728617930.543,-46.875,-3.418,-21.973,-87.402,0.000
1728617930.547,-2.930,-0.977,-26.855,-10.254,0.000
1728617930.551,17.578,-3.906,-32.715,21.484,0.000
1728617930.554,11.719,-1.953,-27.832,4.883,0.000
1728617930.558,-20.020,-0.488,-28.320,-45.410,0.000
1728617930.562,-29.297,-1.953,-32.715,-60.547,0.000
1728617930.566,-1.953,1.465,-30.273,-14.160,0.000
1728617930.570,6.836,3.906,-33.203,23.926,0.000
1728617930.574,0.488,-4.883,-39.062,10.742,0.000
1728617930.578,-13.184,-3.906,-30.762,-44.434,0.000
1728617930.582,-35.156,-1.953,-20.508,-66.895,0.000
1728617930.586,-11.230,-7.324,-29.785,-11.719,0.000
1728617930.590,25.391,-7.324,-36.621,21.484,0.000
1728617930.594,18.066,-7.324,-31.738,11.719,0.000
1728617930.597,-15.137,-10.742,-19.043,-31.738,0.000
1728617930.601,-49.805,-11.230,-16.113,-70.801,0.000
1728617930.605,-27.832,-18.555,-25.391,-10.254,0.000
1728617930.609,-2.441,-20.020,-33.691,22.949,0.000
1728617930.613,-2.930,-10.742,-43.457,1.465,0.000
1728617930.617,-14.648,-5.859,-55.176,-22.461,0.000
1728617930.621,-47.852,-13.672,-37.598,-69.336,0.000
1728617930.625,-28.320,-17.578,-17.090,-20.996,0.000
1728617930.629,7.812,-13.184,-15.625,29.785,0.000
1728617930.633,7.812,-12.695,-14.648,20.020,0.000
1728617930.636,-11.719,-10.254,-20.508,-14.160,0.000
1728617930.640,-46.875,-13.184,-26.367,-71.777,0.000
1728617930.644,-32.715,-19.043,-23.926,-55.176,0.000
1728617930.648,0.488,-17.578,-40.039,-6.348,0.000
1728617930.652,0.488,-10.254,-49.316,0.977,0.000
1728617930.656,-17.090,-9.766,-41.016,-33.203,0.000
1728617930.660,-38.574,-10.742,-43.457,-84.473,0.000
1728617930.664,-40.527,-9.277,-39.551,-66.895,0.000
1728617930.668,-11.719,-7.812,-17.578,-8.301,0.000
1728617930.672,2.930,-4.883,-11.719,9.277,0.000
1728617930.676,-3.418,-3.906,-41.016,-4.883,0.000
1728617930.680,-36.133,-1.953,-81.543,-56.641,0.000
1728617930.683,-41.992,-4.395,-47.363,-49.805,0.000
1728617930.687,-2.441,-6.836,7.324,11.230,0.000
1728617930.691,3.906,-9.277,14.648,20.020,0.000
1728617930.695,-18.066,-14.160,-3.906,-9.766,0.000
1728617930.699,-40.039,-17.578,-12.695,-62.012,0.000
1728617930.703,-37.109,-14.160,-13.184,-53.223,0.000
1728617930.707,0.977,-11.719,-29.297,23.926,0.000
1728617930.711,18.066,-10.742,-39.062,37.109,0.000
1728617930.715,1.465,-13.184,-10.254,10.742,0.000
1728617930.719,-35.156,-19.043,-2.930,-32.715,0.000
1728617930.723,-49.316,-17.090,-37.598,-42.480,0.000
1728617930.726,-4.395,-8.789,-59.082,19.043,0.000
1728617930.730,21.973,-10.742,-38.574,34.668,0.000
1728617930.734,3.906,-13.184,-9.277,3.906,0.000
1728617930.738,-30.273,-13.184,5.371,-47.363,0.000
1728617930.742,-44.922,-11.719,2.930,-68.848,0.000
1728617930.746,-12.207,-13.184,-18.066,-8.301,0.000
1728617930.750,14.160,-13.184,-39.551,20.996,0.000
1728617930.754,8.789,-12.207,-39.062,6.836,0.000
1728617930.758,-22.461,-17.090,-47.363,-41.992,0.000
1728617930.762,-43.945,-16.113,-50.781,-70.801,0.000
1728617930.765,-10.742,-14.648,-22.461,-3.906,0.000
1728617930.769,5.859,-14.648,-20.508,22.949,0.000
1728617930.773,8.789,-6.348,-38.086,10.254,0.000
1728617930.777,-6.836,1.465,-33.203,-22.461,0.000
1728617930.781,-37.598,-9.277,-20.996,-66.406,0.000
1728617930.785,-10.254,-11.230,-31.738,-13.184,0.000
1728617930.789,29.297,-3.418,-42.480,34.668,0.000
1728617930.793,16.113,-7.812,-36.621,18.066,0.000
1728617930.797,-24.902,-13.672,-31.738,-26.367,0.000
1728617930.801,-48.828,-19.043,-34.668,-69.336,0.000
1728617930.805,-23.926,-19.531,-36.621,-23.926,0.000
1728617930.808,9.277,-19.043,-34.668,22.461,0.000
1728617930.812,3.418,-23.438,-44.922,19.043,0.000
1728617930.816,-26.855,-19.531,-38.086,-9.766,0.000
1728617930.820,-48.340,-19.043,-30.762,-55.176,0.000
1728617930.824,-21.973,-19.531,-63.965,-5.371,0.000
1728617930.828,6.836,-17.090,-52.734,50.293,0.000
1728617930.832,3.418,-17.090,-19.043,24.414,0.000
1728617930.836,-18.555,-17.090,-13.672,-17.578,0.000
1728617930.840,-46.387,-16.113,-33.691,-67.383,0.000
1728617930.844,-34.668,-19.531,-34.180,-48.828,0.000
1728617930.848,-7.324,-22.949,-24.902,-3.418,0.000
1728617930.851,8.301,-21.973,-18.555,0.488,0.000
1728617930.855,-5.371,-20.996,-7.812,-12.207,0.000
1728617930.859,-49.316,-22.461,-20.020,-74.219,0.000
1728617930.863,-41.992,-23.438,-32.227,-62.988,0.000
1728617930.867,-0.977,-19.043,-41.992,2.441,0.000
1728617930.871,6.836,-19.043,-52.734,4.395,0.000
1728617930.875,-8.301,-18.555,-56.152,-15.625,0.000
1728617930.879,-44.434,-22.461,-51.270,-69.336,0.000
1728617930.883,-47.363,-19.531,-52.246,-61.035,0.000
1728617930.887,-3.418,-10.742,-45.410,9.766,0.000
1728617930.890,9.766,-18.066,-23.438,8.789,0.000
1728617930.894,-15.625,-20.996,-15.625,-21.973,0.000
1728617930.898,-42.969,-18.555,-19.043,-61.035,0.000
1728617930.902,-52.246,-22.461,-37.598,-65.430,0.000
1728617930.906,-18.555,-22.949,-41.504,-2.441,0.000
1728617930.910,10.742,-21.484,-31.738,22.461,0.000
1728617930.914,2.441,-19.043,-26.367,-1.465,0.000
1728617930.918,-35.156,-19.531,-31.738,-51.270,0.000
1728617930.922,-56.152,-22.461,-20.996,-62.500,0.000
1728617930.926,-31.250,-20.508,-15.137,-5.859,0.000
1728617930.930,0.977,-13.672,-23.926,15.625,0.000
1728617930.933,5.371,-11.719,-22.949,6.348,0.000
1728617930.937,-31.250,-11.230,-27.832,-44.434,0.000
1728617930.941,-41.016,-7.324,-35.645,-71.289,0.000
1728617930.945,-5.859,-6.348,-37.109,9.277,0.000
1728617930.949,6.348,-9.766,-42.969,38.086,0.000
1728617930.953,-3.418,-8.301,-35.156,7.812,0.000
1728617930.957,-33.691,-10.254,-31.250,-37.598,0.000
1728617930.961,-55.176,-11.230,-31.738,-69.824,0.000
1728617930.965,-23.926,-14.648,-31.250,-12.695,0.000
1728617930.969,-2.930,-21.484,-17.090,19.043,0.000
1728617930.973,-6.348,-20.508,-9.766,6.836,0.000
1728617930.976,-26.855,-15.137,-25.391,-27.832,0.000
1728617930.980,-57.617,-18.555,-44.434,-71.289,0.000
1728617930.984,-36.621,-24.414,-30.762,-30.762,0.000
1728617930.988,-7.324,-19.043,-21.973,10.742,0.000
1728617930.992,-2.930,-20.996,-38.574,9.766,0.000
1728617930.996,-24.414,-25.879,-35.645,-29.785,0.000
1728617931.000,-61.523,-28.809,-25.391,-87.891,0.000
1728617931.004,-39.062,-19.043,-21.484,-46.387,0.000
1728617931.008,2.930,-13.672,-27.344,4.883,0.000
1728617931.012,1.465,-25.391,-33.691,4.883,0.000
1728617931.015,-14.160,-21.484,-42.969,-12.207,0.000
1728617931.019,-44.434,-20.508,-48.828,-59.570,0.000
1728617931.023,-41.992,-23.926,-41.504,-39.551,0.000
1728617931.027,2.441,-26.367,-33.691,9.766,0.000
1728617931.031,11.230,-24.414,-21.484,5.371,0.000
1728617931.035,-7.324,-18.555,-20.508,-5.371,0.000
1728617931.039,-38.086,-18.066,-33.203,-51.758,0.000
1728617931.043,-31.250,-19.531,-40.527,-41.992,0.000
1728617931.047,6.836,-23.926,-29.297,22.461,0.000
1728617931.051,11.230,-28.809,-19.043,17.578,0.000
1728617931.055,2.930,-23.438,-51.270,-11.230,0.000
1728617931.058,-19.531,-17.578,-76.172,-53.223,0.000
1728617931.062,-39.551,-27.832,-29.297,-52.246,0.000
1728617931.066,-16.602,-40.527,0.977,1.953,0.000
1728617931.070,5.371,-39.551,-0.977,12.695,0.000
1728617931.074,-3.418,-32.715,-5.371,-7.812,0.000
1728617931.078,-35.156,-29.297,-21.484,-45.410,0.000
1728617931.082,-47.363,-30.273,-37.598,-39.062,0.000
1728617931.086,-12.207,-30.273,-30.273,21.973,0.000
1728617931.090,10.254,-23.438,-22.461,30.273,0.000
1728617931.094,-2.441,-23.926,-28.320,-3.418,0.000
1728617931.098,-37.598,-26.367,-29.297,-51.758,0.000
1728617931.101,-43.457,-22.461,-34.180,-71.289,0.000
1728617931.105,-1.953,-20.996,-55.176,-8.301,0.000
1728617931.109,24.414,-18.555,-60.059,26.367,0.000
1728617931.113,14.648,-16.602,-31.738,4.395,0.000
1728617931.117,-21.484,-17.578,-14.160,-47.852,0.000
1728617931.121,-42.480,-15.625,-15.625,-76.172,0.000
1728617931.125,-7.324,-19.531,-17.090,-11.719,0.000
1728617931.129,15.625,-21.973,-34.180,16.602,0.000
1728617931.133,2.930,-20.020,-63.477,-8.301,0.000
1728617931.137,-28.809,-21.484,-41.016,-44.922,0.000
1728617931.140,-47.852,-23.438,-0.977,-61.523,0.000
1728617931.144,-19.531,-28.809,0.000,-6.836,0.000
1728617931.148,7.324,-25.391,-7.812,24.902,0.000
1728617931.152,4.883,-21.973,-19.531,2.930,0.000
1728617931.156,-19.043,-26.855,-29.297,-37.109,0.000
1728617931.160,-45.410,-26.367,-39.551,-67.383,0.000
1728617931.164,-16.113,-22.949,-57.617,-14.160,0.000
1728617931.168,10.742,-26.855,-55.664,33.691,0.000
1728617931.172,-3.906,-32.715,-47.852,25.391,0.000
1728617931.176,-21.484,-27.832,-43.457,-17.578,0.000
1728617931.180,-47.363,-25.391,-15.137,-70.801,0.000
1728617931.183,-27.344,-26.367,-3.906,-37.598,0.000
1728617931.187,13.672,-22.461,-20.020,19.531,0.000
1728617931.191,12.695,-23.926,-29.297,18.066,0.000
1728617931.195,0.000,-23.438,-33.203,-12.695,0.000
1728617931.199,0.000,-22.949,-35.645,-58.594,0.000
1728617931.203,0.000,-22.461,-44.434,-36.133,0.000
1728617931.207,0.000,-23.438,-35.156,11.719,0.000
1728617931.211,0.000,-23.926,-24.902,11.230,0.000
1728617931.215,0.000,-27.344,-27.344,-13.184,0.000
1728617931.219,0.000,-27.832,-27.832,-68.359,0.000
1728617931.223,0.000,-23.438,-29.297,-57.129,0.000
1728617931.226,0.000,-25.879,-33.203,2.930,0.000
1728617931.230,0.000,-29.785,-36.133,21.973,0.000
1728617931.234,0.000,-26.367,-41.016,-8.789,0.000
1728617931.238,0.000,-24.414,-41.992,-67.383,0.000
1728617931.242,-44.434,-28.809,-41.016,-54.199,0.000
1728617931.246,-8.789,-28.809,-48.828,-0.488,0.000
1728617931.250,1.953,-27.344,-45.410,11.230,0.000
1728617931.254,-9.277,-34.180,-34.668,-11.719,0.000
1728617931.258,-41.016,-36.133,-20.996,-70.801,0.000
1728617931.262,-50.293,-32.715,-10.742,-72.754,0.000
1728617931.266,-21.973,-37.109,-27.344,-3.418,0.000
1728617931.269,-9.277,-37.109,-40.527,9.277,0.000
1728617931.273,-20.508,-35.156,-20.020,-7.324,0.000
1728617931.277,-50.293,-39.551,-20.996,-54.199,0.000
1728617931.281,-65.430,-40.527,-35.156,-85.938,0.000
1728617931.285,-26.367,-40.527,-41.992,-15.625,0.000
1728617931.289,9.766,-36.133,-53.223,20.508,0.000
1728617931.293,2.930,-28.320,-41.504,-1.953,0.000
1728617931.297,-32.715,-30.762,-14.648,-52.246,0.000
1728617931.301,-44.434,-31.250,1.465,-61.523,0.000
1728617931.305,-8.789,-30.273,2.930,6.836,0.000
1728617931.309,2.441,-30.762,-16.602,34.180,0.000
1728617931.312,-1.953,-26.367,-46.875,16.602,0.000
1728617931.316,-15.137,-21.484,-46.387,-32.227,0.000
1728617931.320,-43.945,-27.344,-15.625,-51.758,0.000
1728617931.324,-32.715,-35.156,-6.348,-4.395,0.000
1728617931.328,-3.906,-35.156,-18.555,24.414,0.000
1728617931.332,11.719,-31.250,-25.879,27.832,0.000
1728617931.336,-17.578,-30.762,-20.020,-18.555,0.000
1728617931.340,-57.129,-33.691,-20.020,-71.777,0.000
1728617931.344,-35.156,-30.273,-27.832,-13.672,0.000
1728617931.348,-2.930,-24.902,-40.039,37.109,0.000
1728617931.351,5.371,-22.949,-54.199,24.902,0.000
1728617931.355,-2.930,-19.531,-66.406,0.000,0.000
1728617931.359,-26.367,-16.602,-54.688,-46.387,0.000
1728617931.363,-10.742,-18.555,-24.902,-7.812,0.000
1728617931.367,17.090,-21.973,-21.484,42.969,0.000
1728617931.371,5.859,-24.902,-6.348,21.484,0.000
1728617931.375,-17.578,-31.738,9.766,-10.742,0.000
1728617931.379,-50.293,-38.574,-6.348,-54.199,0.000
1728617931.383,-38.086,-35.645,-20.996,-22.461,0.000
1728617931.387,8.301,-23.438,-44.434,34.668,0.000
1728617931.391,17.578,-17.578,-69.824,37.598,0.000
1728617931.394,-0.488,-25.879,-29.297,-10.254,0.000
1728617931.398,-43.945,-31.738,7.812,-82.520,0.000
1728617931.402,-41.016,-29.785,-15.625,-50.781,0.000
1728617931.406,0.000,-30.273,-35.156,15.625,0.000
1728617931.410,11.230,-31.250,-36.133,19.531,0.000
1728617931.414,-5.371,-30.273,-28.809,-10.742,0.000
1728617931.418,-45.898,-31.250,-4.395,-70.312,0.000
1728617931.422,-38.574,-29.785,-9.277,-43.945,0.000
1728617931.426,5.859,-27.344,-29.785,25.879,0.000
1728617931.430,13.184,-30.273,-23.438,15.137,0.000
1728617931.433,-6.836,-34.180,-19.043,-8.789,0.000
1728617931.437,-30.762,-25.879,-35.156,-53.223,0.000
1728617931.441,-38.086,-24.414,-36.133,-59.570,0.000
1728617931.445,-10.742,-26.367,-27.344,10.742,0.000
1728617931.449,6.348,-23.926,-35.156,31.250,0.000
1728617931.453,-10.254,-23.438,-41.016,5.859,0.000
1728617931.457,-35.156,-27.832,-35.645,-47.363,0.000
1728617931.461,-46.387,-25.879,-41.504,-64.453,0.000
1728617931.465,-5.859,-20.020,-55.176,4.883,0.000
1728617931.469,21.484,-22.949,-25.391,28.809,0.000
1728617931.473,10.254,-25.391,-1.465,5.371,0.000
1728617931.476,-18.066,-26.367,-18.555,-46.875,0.000
1728617931.480,-39.062,-20.508,-16.602,-72.754,0.000
1728617931.484,-10.742,-20.020,11.230,-14.160,0.000
1728617931.488,14.160,-22.461,6.348,19.043,0.000
1728617931.492,0.488,-18.066,-35.645,-0.977,0.000
1728617931.496,-22.949,-16.113,-52.734,-50.293,0.000
1728617931.500,-41.016,-20.508,-31.250,-64.453,0.000
1728617931.504,-20.508,-24.902,-25.879,-17.578,0.000
1728617931.508,7.324,-26.855,-13.672,12.695,0.000
1728617931.512,0.000,-27.344,-14.648,12.695,0.000
1728617931.516,-27.344,-22.949,-32.715,-32.715,0.000
1728617931.519,-56.641,-20.020,-29.297,-73.730,0.000
1728617931.523,-28.809,-25.391,-30.273,-18.555,0.000
1728617931.527,10.742,-28.320,-31.738,30.762,0.000
1728617931.531,3.418,-21.484,-31.738,21.973,0.000
1728617931.535,-25.879,-23.438,-29.785,-19.531,0.000
1728617931.539,-50.293,-29.297,-14.648,-68.359,0.000
1728617931.543,-27.832,-27.832,-25.879,-28.320,0.000
1728617931.547,-2.441,-17.578,-40.527,14.648,0.000
1728617931.551,7.324,-16.113,-50.293,28.320,0.000
1728617931.555,10.254,-12.695,-62.500,12.207,0.000
1728617931.559,-40.527,-15.625,-31.250,-68.359,0.000
1728617931.562,-56.152,-30.273,0.977,-56.152,0.000
1728617931.566,-12.207,-31.250,-0.488,0.977,0.000
1728617931.570,-2.930,-29.785,-22.949,1.465,0.000
1728617931.574,-28.809,-24.414,-22.949,-35.156,0.000
1728617931.578,-65.430,-11.230,-30.762,-95.215,0.000
1728617931.582,-55.664,-7.812,-57.129,-64.453,0.000
1728617931.586,0.488,-24.902,-47.852,23.438,0.000
1728617931.590,4.883,-44.434,-43.945,16.113,0.000
1728617931.594,-26.855,-40.527,-37.598,-20.020,0.000
1728617931.598,-52.246,-23.926,-17.578,-46.875,0.000
1728617931.602,-40.039,-20.996,-40.527,-32.227,0.000
1728617931.605,2.930,-23.926,-41.016,33.203,0.000
1728617931.609,29.785,-38.574,2.441,42.480,0.000
1728617931.613,21.973,-31.250,-6.348,32.227,0.000
1728617931.617,-27.832,-21.973,-34.180,-29.297,0.000
1728617931.621,-54.199,-19.043,-26.855,-74.707,0.000
1728617931.625,-17.578,-27.344,-5.371,-14.160,0.000
1728617931.629,-18.555,-18.066,-8.301,-13.184,0.000
1728617931.633,-41.016,-16.113,-28.320,-44.434,0.000
1728617931.637,-53.223,-41.016,-44.922,-79.102,0.000
1728617931.641,-61.523,-0.488,-61.523,-88.379,0.000
1728617931.645,-45.410,-15.625,-47.363,-29.297,0.000
1728617931.648,-16.602,-66.406,-8.789,24.902,0.000
1728617931.652,-16.113,-21.484,-26.367,8.789,0.000
1728617931.656,-52.734,9.277,-46.387,-62.500,0.000
1728617931.660,-35.645,-34.668,-6.836,-55.176,0.000
1728617931.664,-7.324,-20.020,-14.160,3.906,0.000
1728617931.668,-12.695,-7.324,-83.984,10.254,0.000
1728617931.672,-36.133,-21.484,-70.801,-17.090,0.000
1728617931.676,-68.359,27.832,-20.020,-68.359,0.000
1728617931.680,-45.898,-6.836,-36.133,-56.641,0.000
1728617931.684,-7.812,-46.387,-56.152,14.648,0.000
1728617931.688,-33.691,-48.340,-22.949,-21.484,0.000
1728617931.691,-27.344,-21.973,2.930,-53.711,0.000
1728617931.695,-35.156,-29.297,20.508,-63.965,0.000
1728617931.699,-71.289,-93.750,-13.672,-94.238,0.000
1728617931.703,-58.105,-113.770,-90.820,-52.246,0.000
1728617931.707,17.578,-126.953,-46.387,13.184,0.000
1728617931.711,15.137,-141.113,-47.363,3.906,0.000
1728617931.715,-42.480,-188.965,-40.527,-51.758,0.000
1728617931.719,-75.195,-273.926,33.203,-99.121,0.000
1728617931.723,-53.223,-363.281,22.949,-44.434,0.000
1728617931.727,-45.898,-367.188,-27.344,-30.273,0.000
1728617931.730,-37.598,-374.512,-3.418,-34.180,0.000
1728617931.734,1.465,-513.672,34.180,-8.789,0.000
1728617931.738,-25.391,-619.141,4.395,-42.969,0.000
1728617931.742,-15.625,-721.680,-8.789,-10.742,0.000
1728617931.746,-20.996,-820.801,-48.828,8.301,0.000
1728617931.750,-35.156,-882.324,-82.520,-28.809,0.000
1728617931.754,-43.945,-976.074,-31.250,-64.941,0.000
1728617931.758,-83.984,-1000.000,25.391,-108.398,0.000
1728617931.762,-74.219,-996.582,-7.812,-92.285,0.000
1728617931.766,1.465,-1000.000,-26.367,-7.324,0.000
1728617931.770,0.000,-1000.000,4.395,8.301,0.000
1728617931.773,-41.504,-1000.000,-10.254,-32.715,0.000
1728617931.777,-69.824,-1000.000,-32.715,-92.773,0.000
1728617931.781,-61.523,-1000.000,-54.688,-79.102,0.000
1728617931.785,-21.973,-1000.000,-97.168,-14.648,0.000
1728617931.789,-28.320,-1000.000,-21.484,-22.461,0.000
1728617931.793,-56.152,-1000.000,54.688,-60.547,0.000
1728617931.797,-69.336,-1000.000,44.922,-113.281,0.000
1728617931.801,-46.875,-1000.000,33.203,-97.656,0.000
1728617931.805,-27.832,-1000.000,-11.230,-41.016,0.000
1728617931.809,2.930,-1000.000,-26.855,2.441,0.000
1728617931.812,18.555,-1000.000,3.418,9.766,0.000
1728617931.816,-28.320,-1000.000,2.930,-60.547,0.000
1728617931.820,-60.059,-1000.000,-21.484,-81.543,0.000
1728617931.824,-41.992,-1000.000,-41.016,-33.203,0.000
1728617931.828,-4.883,-1000.000,-16.113,-1.953,0.000
1728617931.832,3.418,-1000.000,-0.488,1.465,0.000
1728617931.836,-23.438,-1000.000,18.066,-53.223,0.000
1728617931.840,-29.297,-1000.000,5.371,-65.430,0.000
1728617931.844,1.953,-1000.000,-21.973,2.930,0.000
1728617931.848,20.020,-1000.000,2.930,22.949,0.000
1728617931.851,-1.465,-1000.000,6.836,-6.836,0.000
1728617931.855,-29.785,-1000.000,7.324,-59.570,0.000
1728617931.859,-43.457,-1000.000,3.906,-91.309,0.000
1728617931.863,-22.949,-988.770,-10.742,-31.738,0.000
1728617931.867,18.066,-968.262,-24.902,27.832,0.000
1728617931.871,25.879,-931.152,-39.551,15.137,0.000
1728617931.875,0.000,-874.512,-8.301,-41.016,0.000
1728617931.879,-53.711,-809.570,-4.395,-89.355,0.000
1728617931.883,-23.438,-787.109,-32.715,-29.297,0.000
1728617931.887,41.992,-777.344,-5.371,43.457,0.000
1728617931.890,41.504,-723.633,15.625,40.527,0.000
1728617931.894,3.418,-674.805,9.766,-17.090,0.000
1728617931.898,-32.715,-631.836,-9.766,-67.383,0.000
1728617931.902,-4.395,-591.797,-37.109,-11.719,0.000
1728617931.906,26.367,-568.848,-30.273,33.203,0.000
1728617931.910,22.949,-529.785,-5.371,21.973,0.000
1728617931.914,3.906,-474.121,-7.812,-1.953,0.000
1728617931.918,-26.367,-429.688,-10.742,-50.781,0.000
1728617931.922,-11.230,-371.582,-13.672,-14.648,0.000
1728617931.926,20.020,-301.270,-20.508,31.738,0.000
1728617931.930,14.160,-224.121,-23.926,13.184,0.000
1728617931.933,-9.766,-146.484,-27.344,-20.996,0.000
1728617931.937,-38.086,-145.020,-33.203,-56.152,0.000
1728617931.941,-28.320,-136.230,-38.086,-32.715,0.000
1728617931.945,11.230,-10.254,-31.250,19.531,0.000
1728617931.949,26.367,145.020,-19.531,27.832,0.000
1728617931.953,10.254,289.062,-14.160,-0.488,0.000
1728617931.957,-36.621,473.633,-15.137,-57.129,0.000
1728617931.961,-36.133,690.430,-19.043,-41.504,0.000
1728617931.965,6.348,838.379,-24.902,18.555,0.000
1728617931.969,15.137,884.277,-41.504,22.949,0.000
1728617931.973,-15.137,872.070,-60.059,-15.137,0.000
1728617931.976,-43.457,884.766,-53.711,-68.359,0.000
1728617931.980,-41.504,934.082,-37.109,-41.992,0.000
1728617931.984,-4.883,965.820,-42.969,12.207,0.000
1728617931.988,30.273,967.773,-43.945,28.320,0.000
1728617931.992,15.137,967.285,-25.879,20.020,0.000
1728617931.996,-33.203,968.262,-24.902,-43.457,0.000
1728617932.000,-46.875,968.262,-32.715,-59.570,0.000
1728617932.004,-9.766,968.262,-31.738,7.812,0.000
1728617932.008,11.719,968.262,-26.367,30.273,0.000
1728617932.012,0.488,967.285,-23.438,3.418,0.000
1728617932.016,-30.762,967.773,-27.832,-41.016,0.000
1728617932.019,-51.270,968.750,-21.484,-51.758,0.000
1728617932.023,-20.996,934.570,-4.883,11.719,0.000
1728617932.027,2.441,894.531,-7.324,33.203,0.000
1728617932.031,-1.953,872.070,-18.066,-4.883,0.000
1728617932.035,-20.996,841.797,-20.996,-55.664,0.000
1728617932.039,-37.598,809.082,-24.902,-81.055,0.000
1728617932.043,-13.184,774.414,-43.945,-9.766,0.000
1728617932.047,11.230,754.395,-61.523,26.855,0.000
1728617932.051,9.766,739.258,-53.223,9.277,0.000
1728617932.055,-20.996,715.332,-39.062,-33.691,0.000
1728617932.059,-54.199,680.176,-17.090,-72.266,0.000
1728617932.062,-25.879,660.645,-6.836,-22.461,0.000
1728617932.066,8.301,664.062,-31.738,12.207,0.000
1728617932.070,8.301,650.391,-36.133,8.301,0.000
1728617932.074,-23.438,625.000,-18.555,-39.062,0.000
1728617932.078,-49.316,602.539,-15.137,-85.449,0.000
1728617932.082,-15.137,585.449,-25.391,-24.414,0.000
1728617932.086,23.926,579.102,-34.668,34.180,0.000
1728617932.090,24.414,558.105,-11.230,20.508,0.000
