timestamps,TP9,AF7,AF8,TP10,Right AUX
1728648273.211,68.848,-22.949,-25.391,27.832,0.000
1728648273.215,45.898,-31.250,-22.949,13.672,0.000
1728648273.219,-51.758,-37.109,-12.695,-10.742,0.000
1728648273.222,-71.777,-26.367,-4.395,-24.902,0.000
1728648273.226,21.484,-25.879,-7.324,5.371,0.000
1728648273.230,75.195,-32.227,-8.301,37.109,0.000
1728648273.234,58.105,-27.832,-14.160,33.203,0.000
1728648273.238,-20.508,-21.484,-20.020,-4.395,0.000
1728648273.242,-56.641,-23.926,-13.672,-24.414,0.000
1728648273.246,20.996,-27.344,-3.906,16.113,0.000
1728648273.250,67.383,-23.926,0.488,46.875,0.000
1728648273.254,53.711,-27.832,-0.977,38.086,0.000
1728648273.258,0.000,-28.809,-3.906,14.160,0.000
1728648273.262,0.000,-24.414,1.465,14.160,0.000
1728648273.265,0.000,-22.461,9.277,37.598,0.000
1728648273.269,0.000,-19.531,1.465,48.828,0.000
1728648273.273,0.000,-19.043,-2.930,50.293,0.000
1728648273.277,0.000,-14.648,2.441,38.086,0.000
1728648273.281,0.000,-12.207,-3.906,8.301,0.000
1728648273.285,0.000,-16.113,-14.648,23.926,0.000
1728648273.289,0.000,-18.555,-11.230,45.410,0.000
1728648273.293,0.000,-18.066,-7.812,41.016,0.000
1728648273.297,0.000,-19.531,-16.602,28.809,0.000
1728648273.301,0.000,-20.996,-18.066,4.883,0.000
1728648273.305,13.672,-19.043,-18.555,18.066,0.000
1728648273.308,77.637,-19.531,-12.207,41.992,0.000
1728648273.312,67.383,-20.020,-0.977,27.344,0.000
1728648273.316,15.625,-18.555,-0.488,6.836,0.000
1728648273.320,-50.293,-20.020,-6.348,-9.766,0.000
1728648273.324,-14.160,-23.926,-9.766,6.836,0.000
1728648273.328,55.176,-31.738,-9.277,33.203,0.000
1728648273.332,66.406,-28.809,-16.113,21.484,0.000
1728648273.336,22.949,-22.461,-21.973,5.859,0.000
1728648273.340,-52.734,-24.902,-21.484,-11.719,0.000
1728648273.344,-34.668,-22.461,-39.062,-7.324,0.000
1728648273.347,32.227,-28.320,-69.336,20.020,0.000
1728648273.351,52.246,-34.668,-57.617,21.484,0.000
1728648273.355,20.020,-37.598,-18.555,1.953,0.000
1728648273.359,-40.527,-44.922,4.883,-23.438,0.000
1728648273.363,-32.227,-43.945,5.371,-18.555,0.000
1728648273.367,43.457,-35.156,-9.766,17.578,0.000
1728648273.371,60.059,-40.527,-24.902,23.926,0.000
1728648273.375,23.438,-49.805,-21.484,6.348,0.000
1728648273.379,-44.922,-62.012,-9.277,-12.695,0.000
1728648273.383,-46.875,-61.523,-5.371,-6.836,0.000
1728648273.387,33.691,-53.223,-7.324,18.066,0.000
1728648273.390,63.965,-47.363,-8.301,24.414,0.000
1728648273.394,28.809,-45.410,-15.137,17.578,0.000
1728648273.398,-45.410,-51.758,-15.137,-15.625,0.000
1728648273.402,-45.410,-48.828,-35.645,-26.367,0.000
1728648273.406,26.855,-48.340,-66.895,4.883,0.000
1728648273.410,46.387,-60.059,-46.875,15.137,0.000
1728648273.414,29.785,-66.895,-13.672,4.883,0.000
1728648273.418,-34.180,-63.965,-15.137,-21.484,0.000
1728648273.422,-58.594,-59.082,-18.555,-23.438,0.000
1728648273.426,6.836,-58.105,-7.812,9.277,0.000
1728648273.430,33.691,-63.477,-3.418,21.973,0.000
1728648273.433,26.367,-70.312,-14.160,6.836,0.000
1728648273.437,-29.297,-72.754,-14.160,-12.695,0.000
1728648273.441,-72.266,-71.777,-8.789,-25.391,0.000
1728648273.445,-1.953,-75.684,-14.648,-5.859,0.000
1728648273.449,40.039,-71.777,-10.742,13.184,0.000
1728648273.453,16.113,-70.312,-16.113,13.672,0.000
1728648273.457,-18.066,-64.453,-41.504,-15.137,0.000
1728648273.461,-57.617,-60.059,-46.387,-33.691,0.000
1728648273.465,-9.766,-67.383,-23.438,-3.906,0.000
1728648273.469,41.992,-66.406,-10.254,11.230,0.000
1728648273.473,40.039,-67.383,-8.301,7.812,0.000
1728648273.476,-5.859,-73.242,-9.277,-8.301,0.000
1728648273.480,-60.547,-70.312,-14.160,-28.320,0.000
1728648273.484,-19.531,-71.777,-16.113,-9.766,0.000
1728648273.488,39.062,-74.219,-15.137,2.441,0.000
1728648273.492,39.551,-68.359,-15.137,-0.488,0.000
1728648273.496,-7.324,-74.707,-11.230,-12.207,0.000
1728648273.500,-76.660,-83.008,-20.996,-39.062,0.000
1728648273.504,-35.645,-79.102,-38.086,-29.297,0.000
1728648273.508,30.273,-80.566,-33.691,-9.277,0.000
1728648273.512,28.320,-88.379,-19.043,-12.695,0.000
1728648273.515,-0.488,-92.773,-18.066,-16.602,0.000
1728648273.519,-57.129,-83.984,-20.996,-32.227,0.000
1728648273.523,-34.668,-79.590,-14.160,-25.879,0.000
1728648273.527,34.180,-83.984,-5.371,1.465,0.000
1728648273.531,40.039,-90.332,-7.812,0.000,0.000
1728648273.535,1.953,-94.727,-11.719,-21.484,0.000
1728648273.539,-67.871,-95.703,-10.742,-41.992,0.000
1728648273.543,-54.199,-98.145,-28.809,-26.367,0.000
1728648273.547,22.461,-95.703,-37.598,0.488,0.000
1728648273.551,32.227,-97.656,-26.367,-2.441,0.000
1728648273.554,5.371,-101.562,-22.949,-15.137,0.000
1728648273.558,-62.012,-104.004,-18.555,-30.762,0.000
1728648273.562,-61.523,-112.793,-18.555,-14.648,0.000
1728648273.566,16.113,-122.070,-14.648,10.742,0.000
1728648273.570,36.621,-120.117,-11.719,4.395,0.000
1728648273.574,16.113,-112.305,-15.137,-0.977,0.000
1728648273.578,-46.387,-109.863,-15.625,-25.879,0.000
1728648273.582,-62.500,-112.793,-20.020,-40.039,0.000
1728648273.586,6.348,-116.211,-19.043,-3.906,0.000
1728648273.590,29.297,-114.258,-19.043,4.883,0.000
1728648273.594,2.441,-110.352,-17.090,-9.277,0.000
1728648273.597,-57.129,-113.281,-17.578,-27.344,0.000
1728648273.601,-74.707,-112.793,-19.531,-38.086,0.000
1728648273.605,1.465,-108.398,-19.043,-3.906,0.000
1728648273.609,47.363,-116.211,-22.461,21.973,0.000
1728648273.613,24.414,-118.652,-17.090,7.812,0.000
1728648273.617,-38.574,-117.676,-23.926,-19.043,0.000
1728648273.621,-79.590,-117.188,-34.668,-34.180,0.000
1728648273.625,-13.184,-109.863,-33.691,-0.977,0.000
1728648273.629,39.062,-106.445,-30.273,22.461,0.000
1728648273.633,15.625,-107.910,-32.715,7.812,0.000
1728648273.637,-41.504,-109.863,-34.180,-15.625,0.000
1728648273.640,-80.078,-105.957,-26.855,-35.156,0.000
1728648273.644,-22.949,-103.516,-21.484,-19.531,0.000
1728648273.648,33.691,-106.934,-25.391,0.488,0.000
1728648273.652,21.973,-109.375,-27.344,-0.488,0.000
1728648273.656,-30.762,-105.469,-26.367,-17.090,0.000
1728648273.660,-75.684,-103.516,-21.973,-34.668,0.000
1728648273.664,-28.809,-106.934,-20.996,-18.555,0.000
1728648273.668,29.297,-109.375,-21.973,8.789,0.000
1728648273.672,28.809,-104.492,-30.273,4.883,0.000
1728648273.676,-16.113,-98.633,-41.504,-22.949,0.000
1728648273.680,-71.289,-95.215,-37.598,-40.039,0.000
1728648273.683,-36.621,-98.145,-26.855,-15.137,0.000
1728648273.687,17.090,-101.074,-29.785,2.930,0.000
1728648273.691,19.531,-92.773,-36.133,1.953,0.000
1728648273.695,-18.555,-95.215,-45.410,-15.625,0.000
1728648273.699,-86.426,-102.539,-34.180,-45.410,0.000
1728648273.703,-61.035,-100.586,-12.207,-41.504,0.000
1728648273.707,12.695,-101.562,-13.672,-20.508,0.000
1728648273.711,39.062,-97.656,-14.160,5.371,0.000
1728648273.715,13.672,-90.332,-20.996,4.883,0.000
1728648273.719,-55.176,-88.867,-28.809,-31.250,0.000
1728648273.722,-53.223,-89.844,-26.367,-26.855,0.000
1728648273.726,18.066,-90.332,-25.879,1.465,0.000
1728648273.730,45.410,-83.984,-37.598,12.207,0.000
1728648273.734,26.855,-88.379,-32.715,9.766,0.000
1728648273.738,-35.156,-93.750,-23.438,-6.348,0.000
1728648273.742,-30.273,-91.309,-23.926,-5.371,0.000
1728648273.746,44.434,-88.867,-21.484,22.949,0.000
1728648273.750,70.312,-89.844,-21.484,37.109,0.000
1728648273.754,46.387,-90.332,-27.344,20.020,0.000
1728648273.758,-26.855,-88.867,-30.273,12.695,0.000
1728648273.762,-49.316,-91.309,-27.832,13.672,0.000
1728648273.765,26.855,-90.820,-20.020,23.926,0.000
1728648273.769,62.012,-84.961,-20.020,28.320,0.000
1728648273.773,34.668,-84.961,-24.902,16.602,0.000
1728648273.777,-28.320,-89.844,-23.438,-0.488,0.000
1728648273.781,-44.922,-83.984,-22.461,3.906,0.000
1728648273.785,22.949,-84.473,-26.855,29.297,0.000
1728648273.789,60.547,-82.031,-34.180,36.621,0.000
1728648273.793,47.852,-71.777,-62.988,25.879,0.000
1728648273.797,-12.695,-71.777,-64.453,6.348,0.000
1728648273.801,-51.758,-81.543,-23.438,-9.766,0.000
1728648273.805,-0.488,-80.078,-9.766,5.371,0.000
1728648273.808,40.527,-72.266,-15.625,18.555,0.000
1728648273.812,31.250,-81.543,-14.648,12.695,0.000
1728648273.816,-20.020,-92.285,-16.602,-4.883,0.000
1728648273.820,-65.918,-91.309,-20.508,-21.484,0.000
1728648273.824,-6.836,-83.008,-45.898,0.000,0.000
1728648273.828,58.594,-74.707,-74.219,20.020,0.000
1728648273.832,50.781,-74.707,-47.852,15.137,0.000
1728648273.836,-8.789,-79.102,-22.461,-10.742,0.000
1728648273.840,-67.871,-77.637,-20.020,-33.691,0.000
1728648273.844,-17.578,-57.129,-13.672,-17.090,0.000
1728648273.848,31.738,-32.715,-14.160,2.441,0.000
1728648273.851,22.949,-14.160,-21.484,0.488,0.000
1728648273.855,-17.578,-1.953,-25.391,-17.578,0.000
1728648273.859,-92.285,14.648,-27.344,-35.156,0.000
1728648273.863,-33.691,36.133,-27.832,-19.043,0.000
1728648273.867,48.828,55.664,-37.598,16.113,0.000
1728648273.871,47.852,74.707,-47.363,21.484,0.000
1728648273.875,12.207,90.332,-29.297,5.371,0.000
1728648273.879,-63.477,100.586,-13.184,-20.996,0.000
1728648273.883,-34.668,112.305,-12.207,-14.648,0.000
1728648273.887,40.039,124.023,-21.973,12.207,0.000
1728648273.890,38.574,134.277,-39.062,16.113,0.000
1728648273.894,5.371,142.578,-39.551,7.812,0.000
1728648273.898,-51.270,146.484,-35.156,-28.320,0.000
1728648273.902,-46.875,147.461,-27.344,-26.367,0.000
1728648273.906,19.043,147.949,-15.625,0.000,0.000
1728648273.910,44.922,158.691,-15.137,6.348,0.000
1728648273.914,21.484,168.945,-20.996,6.348,0.000
1728648273.918,-49.316,180.176,-29.297,-20.508,0.000
1728648273.922,-31.738,187.988,-29.785,-14.648,0.000
1728648273.926,52.734,180.176,-26.367,21.484,0.000
1728648273.929,62.988,180.664,-30.762,26.855,0.000
1728648273.933,33.203,189.941,-42.480,13.184,0.000
1728648273.937,-39.062,189.453,-34.668,-23.438,0.000
1728648273.941,-59.082,180.664,-17.090,-39.062,0.000
1728648273.945,-1.953,173.340,-12.695,-14.160,0.000
1728648273.949,28.320,178.711,-22.949,5.371,0.000
1728648273.953,26.855,179.199,-36.621,-4.395,0.000
1728648273.957,-41.016,168.457,-34.668,-40.039,0.000
1728648273.961,-63.965,164.062,-16.113,-29.785,0.000
1728648273.965,16.602,159.180,-12.207,2.930,0.000
1728648273.968,55.664,147.949,-20.020,7.812,0.000
1728648273.972,44.434,139.160,-23.438,1.465,0.000
1728648273.976,-29.785,136.719,-24.414,-19.043,0.000
1728648273.980,-68.848,126.465,-25.879,-39.062,0.000
1728648273.984,-2.930,119.141,-28.320,-14.648,0.000
1728648273.988,44.434,119.629,-14.160,9.277,0.000
1728648273.992,40.039,118.652,-21.484,10.254,0.000
1728648273.996,-13.672,121.094,-58.105,-4.883,0.000
1728648274.000,-47.363,117.676,-50.293,-18.555,0.000
1728648274.004,17.090,119.629,-37.109,10.254,0.000
1728648274.008,74.219,127.441,-20.508,34.668,0.000
1728648274.012,56.152,120.605,-0.488,24.414,0.000
1728648274.015,-8.301,104.492,-0.488,-4.395,0.000
1728648274.019,-52.246,95.215,1.953,-24.902,0.000
1728648274.023,8.789,93.750,-4.395,-6.836,0.000
1728648274.027,61.035,87.891,-7.812,17.578,0.000
1728648274.031,29.785,86.914,-15.625,8.789,0.000
1728648274.035,-33.203,80.078,-21.484,-30.762,0.000
1728648274.039,-95.215,69.824,-9.766,-63.965,0.000
1728648274.043,-58.594,65.430,-11.230,-51.270,0.000
1728648274.047,12.695,62.500,-3.418,-18.066,0.000
1728648274.051,19.043,62.500,-3.906,-9.277,0.000
1728648274.055,-54.688,63.965,-23.926,-59.570,0.000
1728648274.058,-155.273,49.316,-31.738,-125.977,0.000
1728648274.062,-138.184,42.480,-18.555,-125.977,0.000
1728648274.066,-85.938,44.434,-6.348,-121.094,0.000
1728648274.070,-116.699,36.133,-6.348,-166.016,0.000
1728648274.074,-164.062,26.367,-13.184,-192.383,0.000
1728648274.078,-244.141,13.184,-29.297,-218.750,0.000
1728648274.082,-241.211,16.113,-56.641,-223.145,0.000
1728648274.086,-156.738,35.156,-81.055,-193.848,0.000
1728648274.090,-169.922,38.086,-63.965,-205.078,0.000
1728648274.094,-232.422,19.043,-32.227,-254.883,0.000
1728648274.097,-315.918,14.648,-9.277,-296.875,0.000
1728648274.101,-288.574,9.766,-7.324,-274.414,0.000
1728648274.105,-191.406,-8.301,-29.297,-240.723,0.000
1728648274.109,-182.129,-10.742,-45.410,-231.445,0.000
1728648274.113,-203.613,-2.441,-55.176,-220.703,0.000
1728648274.117,-251.465,-9.277,-46.387,-228.027,0.000
1728648274.121,-250.977,-18.066,-32.227,-216.797,0.000
1728648274.125,-169.434,-4.883,-21.973,-176.270,0.000
1728648274.129,-116.211,10.254,-37.109,-140.137,0.000
1728648274.133,-118.652,9.277,-67.383,-128.418,0.000
1728648274.137,-172.852,-0.977,-48.828,-141.602,0.000
1728648274.140,-173.828,-23.926,-12.695,-127.930,0.000
1728648274.144,-72.266,-21.973,-21.484,-82.520,0.000
1728648274.148,-34.180,-8.301,-26.367,-66.406,0.000
1728648274.152,-61.523,-24.414,-2.930,-67.871,0.000
1728648274.156,-108.398,-44.922,13.672,-71.289,0.000
1728648274.160,-119.141,-36.621,-17.090,-64.941,0.000
1728648274.164,-33.203,5.859,-52.734,-33.691,0.000
1728648274.168,15.625,18.066,-35.645,-16.113,0.000
1728648274.172,6.836,4.883,-5.859,-13.184,0.000
1728648274.176,-37.598,-8.789,-7.812,-5.371,0.000
1728648274.180,-69.824,-15.625,-39.551,-1.953,0.000
1728648274.183,7.324,-5.859,-75.684,31.250,0.000
1728648274.187,100.098,-10.742,-44.922,78.613,0.000
1728648274.191,86.914,-27.344,11.719,74.219,0.000
1728648274.195,6.836,-28.809,19.043,32.715,0.000
1728648274.199,-40.527,-33.203,14.160,18.555,0.000
1728648274.203,28.809,-23.438,-1.465,55.176,0.000
1728648274.207,99.609,1.465,-6.836,79.102,0.000
1728648274.211,86.426,-0.488,-9.277,77.637,0.000
1728648274.215,28.809,-11.230,-14.648,74.707,0.000
1728648274.219,-7.324,-17.578,-14.648,52.734,0.000
1728648274.222,41.504,-11.719,-23.926,71.289,0.000
1728648274.226,103.516,-7.324,-7.324,97.168,0.000
1728648274.230,116.699,-31.250,-15.625,93.750,0.000
1728648274.234,84.961,-21.484,-57.129,94.238,0.000
1728648274.238,9.766,0.000,-20.996,59.570,0.000
1728648274.242,22.461,8.301,7.812,47.363,0.000
1728648274.246,92.285,22.461,-5.371,72.266,0.000
1728648274.250,118.652,25.391,3.906,88.379,0.000
1728648274.254,88.379,13.184,26.367,75.684,0.000
1728648274.258,13.672,3.418,24.414,40.527,0.000
1728648274.262,40.039,-3.906,-10.742,50.293,0.000
1728648274.265,119.629,-11.230,-20.996,83.496,0.000
1728648274.269,132.812,-9.277,-17.090,90.820,0.000
1728648274.273,91.797,-5.859,-31.738,64.941,0.000
1728648274.277,14.160,-5.371,-43.457,43.945,0.000
1728648274.281,22.949,-2.930,-51.270,59.082,0.000
1728648274.285,88.867,-1.465,-17.578,70.801,0.000
1728648274.289,104.492,9.766,21.484,62.500,0.000
1728648274.293,77.148,0.977,6.348,52.734,0.000
1728648274.297,11.719,2.441,-6.348,33.203,0.000
1728648274.301,2.930,13.672,-20.996,30.273,0.000
1728648274.304,71.777,10.742,-28.320,48.828,0.000
1728648274.308,101.074,14.160,-2.441,62.012,0.000
1728648274.312,77.637,6.348,23.438,70.801,0.000
1728648274.316,8.301,14.648,15.625,42.969,0.000
1728648274.320,-0.488,34.180,-5.859,25.879,0.000
1728648274.324,73.730,34.180,-20.020,52.734,0.000
1728648274.328,121.582,44.434,-35.645,73.242,0.000
1728648274.332,113.281,59.082,-42.480,64.941,0.000
1728648274.336,25.879,56.152,-17.578,27.832,0.000
1728648274.340,-11.719,56.152,11.230,20.508,0.000
1728648274.343,56.152,50.781,20.508,46.875,0.000
1728648274.347,95.703,55.176,11.230,64.453,0.000
1728648274.351,82.031,66.406,-16.113,59.570,0.000
1728648274.355,20.508,57.617,-20.508,35.156,0.000
1728648274.359,-8.789,37.109,0.000,36.621,0.000
1728648274.363,48.340,33.203,8.301,52.734,0.000
1728648274.367,85.449,21.484,-11.230,59.082,0.000
1728648274.371,92.285,-0.488,-43.945,63.965,0.000
1728648274.375,43.457,22.461,-32.227,56.641,0.000
1728648274.379,-12.695,48.340,3.418,34.668,0.000
1728648274.383,41.992,25.391,2.441,40.527,0.000
1728648274.386,92.773,20.508,-11.719,57.617,0.000
1728648274.390,74.707,20.020,-8.789,40.039,0.000
1728648274.394,16.113,11.719,-13.672,13.184,0.000
1728648274.398,-34.180,1.465,-18.555,5.859,0.000
1728648274.402,15.625,-24.414,1.953,24.414,0.000
1728648274.406,70.801,-15.625,11.719,43.457,0.000
1728648274.410,62.500,10.742,2.441,37.109,0.000
1728648274.414,25.879,18.555,-20.996,25.879,0.000
1728648274.418,-32.227,14.648,-33.691,11.719,0.000
1728648274.422,3.418,1.465,-20.996,15.625,0.000
1728648274.426,77.637,-9.766,2.930,47.852,0.000
1728648274.429,78.125,-6.836,10.742,48.340,0.000
1728648274.433,35.156,-3.418,-8.301,15.625,0.000
1728648274.437,-30.762,5.371,-27.344,-2.930,0.000
1728648274.441,-19.043,10.742,-40.527,11.230,0.000
1728648274.445,52.734,6.348,-30.273,34.180,0.000
1728648274.449,65.918,8.789,-19.531,29.297,0.000
1728648274.453,29.297,12.695,-28.809,13.184,0.000
1728648274.457,-49.805,19.043,-31.738,-14.160,0.000
1728648274.461,-29.785,27.832,-16.113,-9.277,0.000
1728648274.465,45.898,10.254,3.418,19.531,0.000
1728648274.469,51.758,-5.859,-7.812,12.207,0.000
1728648274.472,30.273,-8.301,-19.531,8.301,0.000
1728648274.476,-23.438,-12.695,-19.043,1.953,0.000
1728648274.480,-30.762,-12.207,-21.484,-4.883,0.000
1728648274.484,45.898,-28.320,-20.996,21.484,0.000
1728648274.488,71.777,-14.648,-16.602,30.273,0.000
1728648274.492,31.738,-2.441,-18.066,4.395,0.000
1728648274.496,-27.832,-6.836,-12.207,-20.996,0.000
1728648274.500,-29.297,2.930,-13.672,-15.137,0.000
1728648274.504,33.203,8.789,-20.996,5.371,0.000
1728648274.508,47.363,5.859,-18.066,12.695,0.000
1728648274.512,24.414,3.906,-26.367,1.465,0.000
1728648274.515,-29.785,-8.301,-27.832,-9.277,0.000
1728648274.519,-51.758,-21.484,-14.160,-8.301,0.000
1728648274.523,14.160,-12.207,-20.996,15.137,0.000
1728648274.527,49.805,-5.859,-40.039,28.320,0.000
1728648274.531,33.691,-12.207,-44.922,18.555,0.000
1728648274.535,-18.555,-22.461,-28.320,4.395,0.000
1728648274.539,-43.457,-19.531,-5.371,-12.207,0.000
1728648274.543,22.461,-13.184,-7.812,15.137,0.000
1728648274.547,56.152,-15.137,-10.742,38.574,0.000
1728648274.551,46.387,-7.324,-13.184,33.691,0.000
1728648274.555,-7.324,1.953,-18.555,25.391,0.000
1728648274.558,-51.758,5.371,-20.508,1.953,0.000
1728648274.562,13.184,13.184,-14.160,21.484,0.000
1728648274.566,62.012,3.906,-16.113,34.180,0.000
1728648274.570,49.316,-0.488,-21.973,24.902,0.000
1728648274.574,3.906,-3.906,-8.789,8.301,0.000
1728648274.578,-29.785,-1.953,2.441,-2.441,0.000
1728648274.582,4.395,0.977,-13.672,10.254,0.000
1728648274.586,50.293,-1.465,-19.043,22.461,0.000
1728648274.590,46.387,1.465,-1.953,15.625,0.000
1728648274.594,-0.977,8.789,1.465,-6.836,0.000
1728648274.597,-57.617,6.348,-5.859,-7.812,0.000
1728648274.601,-15.137,-5.859,-7.324,12.207,0.000
1728648274.605,60.059,-4.883,-13.184,13.672,0.000
1728648274.609,63.965,1.465,-29.297,24.902,0.000
1728648274.613,22.949,5.371,-26.855,11.719,0.000
1728648274.617,-49.805,6.348,-15.137,-25.879,0.000
1728648274.621,-31.738,3.418,-16.602,-17.090,0.000
1728648274.625,41.016,-4.883,-20.020,10.742,0.000
1728648274.629,49.805,-23.926,-21.973,8.789,0.000
1728648274.633,5.371,-24.902,-32.227,-12.695,0.000
1728648274.637,-63.965,-10.742,-43.945,-39.062,0.000
1728648274.640,-47.852,-7.812,-39.551,-16.113,0.000
1728648274.644,33.203,-6.836,-32.227,21.973,0.000
1728648274.648,43.457,-22.461,-36.621,6.836,0.000
1728648274.652,10.742,-32.715,-31.250,-12.207,0.000
1728648274.656,-41.016,-34.180,-27.344,-15.137,0.000
1728648274.660,-26.855,-22.461,-23.438,4.883,0.000
1728648274.664,33.203,-13.184,-33.691,4.883,0.000
1728648274.668,38.574,-13.672,-32.227,-12.695,0.000
1728648274.672,30.762,-22.949,-12.207,-6.836,0.000
1728648274.676,-21.484,-39.062,-12.695,-8.789,0.000
1728648274.679,-31.738,-20.508,-22.461,-2.441,0.000
1728648274.683,67.871,-2.441,-23.926,35.645,0.000
1728648274.687,105.469,-5.371,-29.297,54.688,0.000
1728648274.691,71.777,-4.395,-36.621,49.805,0.000
1728648274.695,26.367,-4.395,-38.086,38.574,0.000
1728648274.699,18.066,-4.395,-34.668,32.715,0.000
1728648274.703,84.961,2.441,-36.621,53.223,0.000
1728648274.707,126.953,7.812,-40.039,68.359,0.000
1728648274.711,106.445,7.812,-40.039,62.012,0.000
1728648274.715,50.293,3.418,-44.434,50.781,0.000
1728648274.718,22.949,-1.465,-34.180,53.711,0.000
1728648274.722,86.914,15.625,-45.898,81.543,0.000
1728648274.726,139.648,28.809,-68.848,97.656,0.000
1728648274.730,123.535,23.438,-53.711,89.355,0.000
1728648274.734,54.199,14.648,-27.344,60.059,0.000
1728648274.738,8.301,1.953,-17.090,25.879,0.000
1728648274.742,61.523,-8.301,-10.742,41.504,0.000
1728648274.746,103.516,-13.184,-14.160,64.941,0.000
1728648274.750,92.285,-3.418,-38.086,60.059,0.000
1728648274.754,38.086,-4.395,-44.922,40.527,0.000
1728648274.758,-19.043,-24.902,-39.551,17.578,0.000
1728648274.761,25.879,-23.926,-42.480,19.043,0.000
1728648274.765,74.219,-19.531,-28.809,32.715,0.000
1728648274.769,69.336,-17.090,-13.672,31.738,0.000
1728648274.773,20.996,-8.789,-16.113,4.883,0.000
1728648274.777,-36.133,-16.602,-20.020,-13.184,0.000
1728648274.781,-0.977,-26.367,-20.020,5.859,0.000
1728648274.785,59.570,-20.508,-36.621,23.438,0.000
1728648274.789,59.570,-12.695,-37.598,31.250,0.000
1728648274.793,16.602,-9.277,-26.367,21.484,0.000
1728648274.797,-50.781,-24.902,-39.062,-9.277,0.000
1728648274.801,-27.344,-29.297,-43.457,-2.441,0.000
1728648274.804,38.086,-13.184,-30.273,20.508,0.000
1728648274.808,61.035,1.953,-27.832,31.738,0.000
1728648274.812,43.945,10.742,-42.480,24.414,0.000
1728648274.816,-34.668,7.324,-33.691,-5.859,0.000
1728648274.820,-38.086,1.953,-17.578,-11.230,0.000
1728648274.824,43.945,-8.301,-16.113,15.625,0.000
1728648274.828,62.500,-12.207,-18.066,29.297,0.000
1728648274.832,30.762,-6.348,-58.594,22.949,0.000
1728648274.836,-32.715,-0.488,-75.684,-5.371,0.000
1728648274.840,-27.832,-4.395,-36.621,0.000,0.000
1728648274.844,46.387,-17.090,4.883,18.066,0.000
1728648274.847,60.547,-34.180,10.254,19.531,0.000
1728648274.851,29.785,-37.598,-12.207,16.602,0.000
1728648274.855,-38.086,-36.621,-8.789,-12.695,0.000
1728648274.859,-37.109,-32.227,-8.301,-15.137,0.000
1728648274.863,43.457,-16.602,-13.184,13.672,0.000
1728648274.867,71.777,-21.484,-12.695,22.949,0.000
1728648274.871,36.621,-25.391,-11.230,3.906,0.000
1728648274.875,-34.668,-20.020,-12.695,-28.320,0.000
1728648274.879,-49.316,-24.902,-34.668,-25.879,0.000
1728648274.883,19.531,-28.809,-42.969,14.160,0.000
1728648274.887,60.059,-27.832,-25.391,28.809,0.000
1728648274.890,47.363,-31.250,-18.555,10.742,0.000
1728648274.894,-22.461,-31.250,-9.277,-19.043,0.000
1728648274.898,-53.223,-27.832,-1.953,-17.090,0.000
1728648274.902,17.090,-22.949,-20.020,16.602,0.000
1728648274.906,50.781,-23.438,-28.320,17.578,0.000
1728648274.910,28.809,-20.996,-12.207,0.000,0.000
1728648274.914,-20.020,-26.855,-13.672,-6.836,0.000
1728648274.918,-45.410,-39.062,0.488,-5.859,0.000
1728648274.922,-7.812,-34.180,14.648,-9.766,0.000
1728648274.926,15.137,-30.273,9.766,-18.555,0.000
1728648274.930,5.371,-35.645,11.230,-17.090,0.000
1728648274.933,-41.992,-40.039,-4.395,-34.180,0.000
1728648274.937,-111.816,-42.480,-11.719,-64.941,0.000
1728648274.941,-84.961,-42.480,-4.883,-67.383,0.000
1728648274.945,-43.457,-60.059,22.949,-66.895,0.000
1728648274.949,-71.777,-74.219,21.484,-86.426,0.000
1728648274.953,-127.441,-73.730,23.926,-113.770,0.000
1728648274.957,-175.293,-85.938,66.406,-126.953,0.000
1728648274.961,-121.094,-85.449,50.293,-96.191,0.000
1728648274.965,-67.383,-76.660,28.809,-80.078,0.000
1728648274.969,-77.148,-82.031,41.504,-80.566,0.000
1728648274.972,-114.258,-88.867,35.156,-78.613,0.000
1728648274.976,-178.223,-93.750,30.762,-99.609,0.000
1728648274.980,-145.508,-96.680,44.434,-92.773,0.000
1728648274.984,-64.941,-98.633,52.734,-56.641,0.000
1728648274.988,-41.016,-96.191,39.551,-37.598,0.000
1728648274.992,-67.871,-89.844,45.898,-42.480,0.000
1728648274.996,-134.766,-86.914,60.059,-60.547,0.000
1728648275.000,-109.375,-90.820,47.852,-56.641,0.000
1728648275.004,-38.086,-89.844,29.785,-35.645,0.000
1728648275.008,-22.461,-75.684,-9.766,-21.973,0.000
1728648275.012,-41.016,-54.199,-3.418,-24.902,0.000
1728648275.015,-109.375,-62.012,41.992,-43.457,0.000
1728648275.019,-97.656,-71.777,44.922,-34.668,0.000
1728648275.023,-3.418,-66.406,32.715,-2.441,0.000
1728648275.027,26.367,-67.383,27.832,7.812,0.000
1728648275.031,8.789,-59.082,45.898,2.930,0.000
1728648275.035,-51.270,-52.246,30.273,-17.578,0.000
1728648275.039,-65.430,-52.734,-3.906,-19.043,0.000
1728648275.043,20.020,-47.852,-14.160,20.996,0.000
1728648275.047,51.270,-43.457,11.719,27.344,0.000
1728648275.051,3.906,-52.734,38.086,2.930,0.000
1728648275.055,-83.008,-57.129,44.434,-31.738,0.000
1728648275.058,-95.703,-65.918,50.293,-40.527,0.000
1728648275.062,11.230,-64.941,40.039,10.254,0.000
1728648275.066,53.223,-56.152,-1.953,32.227,0.000
1728648275.070,27.344,-48.828,-46.387,18.066,0.000
1728648275.074,-32.227,-29.785,-7.324,-1.953,0.000
1728648275.078,-67.383,-27.832,55.176,-12.207,0.000
1728648275.082,-3.906,-26.367,59.082,3.906,0.000
1728648275.086,23.926,-23.926,54.199,10.254,0.000
1728648275.090,5.371,-25.879,42.969,-2.441,0.000
1728648275.094,-59.082,5.371,3.906,-31.738,0.000
1728648275.097,-90.820,17.578,12.695,-36.133,0.000
1728648275.101,-0.488,3.906,45.898,15.625,0.000
1728648275.105,45.898,14.648,47.363,37.598,0.000
1728648275.109,29.785,14.160,50.293,23.438,0.000
1728648275.113,-46.875,9.766,26.855,-2.441,0.000
1728648275.117,-98.633,16.602,-26.855,-28.809,0.000
1728648275.121,-35.156,34.180,-33.691,-31.738,0.000
1728648275.125,-4.883,25.391,-22.461,-33.203,0.000
1728648275.129,24.414,1.953,1.953,-0.977,0.000
1728648275.133,0.000,-6.348,-18.555,35.645,0.000
1728648275.137,0.000,17.578,-21.484,2.441,0.000
1728648275.140,0.000,27.344,80.078,-37.598,0.000
1728648275.144,0.000,3.906,93.262,-57.617,0.000
1728648275.148,0.000,-4.883,53.711,-34.180,0.000
1728648275.152,0.000,-16.113,74.219,-19.531,0.000
1728648275.156,0.000,-7.812,50.781,-74.707,0.000
1728648275.160,0.000,-2.441,-62.500,-67.871,0.000
1728648275.164,0.000,-27.832,-51.270,36.621,0.000
1728648275.168,0.000,-6.348,48.340,81.055,0.000
1728648275.172,0.000,13.672,92.773,18.555,0.000
1728648275.176,0.000,21.484,102.539,-31.738,0.000
1728648275.180,-110.840,-0.488,59.570,-25.879,0.000
1728648275.183,-62.500,6.836,-18.066,-41.992,0.000
1728648275.187,-55.664,-5.371,-2.441,-54.688,0.000
1728648275.191,20.020,-45.898,98.633,19.531,0.000
1728648275.195,-61.035,17.578,96.191,-0.977,0.000
1728648275.199,-90.332,60.059,38.086,-19.531,0.000
1728648275.203,-31.738,36.133,12.207,20.020,0.000
1728648275.207,13.184,45.898,49.805,9.277,0.000
1728648275.211,-24.414,87.891,64.941,-35.645,0.000
1728648275.215,-153.809,67.383,57.617,-77.637,0.000
1728648275.219,-126.953,54.688,127.930,-56.641,0.000
1728648275.223,-50.781,95.703,150.879,-12.207,0.000
1728648275.226,-84.961,140.625,63.965,-25.879,0.000
1728648275.230,-107.910,78.125,-12.695,-43.457,0.000
1728648275.234,-153.320,48.828,56.152,-73.242,0.000
1728648275.238,-143.066,71.777,113.770,-71.289,0.000
1728648275.242,-126.953,87.891,74.707,-72.266,0.000
1728648275.246,-142.090,141.602,36.621,-91.309,0.000
1728648275.250,-115.723,88.867,47.852,-26.367,0.000
1728648275.254,-146.973,69.824,70.801,-41.016,0.000
1728648275.258,-215.820,66.406,113.770,-127.441,0.000
1728648275.262,-150.391,-12.207,111.816,-85.449,0.000
1728648275.266,-51.270,19.043,100.586,14.160,0.000
1728648275.269,-72.754,-11.719,163.574,16.113,0.000
1728648275.273,-226.074,-85.449,144.043,-100.586,0.000
1728648275.277,-255.859,-78.613,65.918,-131.836,0.000
1728648275.281,-113.281,-177.734,48.340,-40.527,0.000
1728648275.285,-83.496,-228.516,88.379,-14.160,0.000
1728648275.289,-100.586,-232.422,82.520,-21.484,0.000
1728648275.293,-181.641,-388.184,91.797,-68.848,0.000
1728648275.297,-247.559,-533.203,156.250,-86.914,0.000
1728648275.301,-153.809,-696.289,133.789,-56.641,0.000
1728648275.305,-96.191,-811.035,72.754,-44.434,0.000
1728648275.309,-151.367,-908.203,35.156,-71.777,0.000
1728648275.312,-198.730,-957.520,25.879,-102.539,0.000
1728648275.316,-189.941,-906.738,41.992,-84.961,0.000
1728648275.320,-129.883,-806.641,87.402,-52.246,0.000
1728648275.324,-109.375,-695.312,96.191,-68.848,0.000
1728648275.328,-135.742,-624.512,70.312,-85.938,0.000
1728648275.332,-201.660,-678.223,29.785,-117.188,0.000
1728648275.336,-232.422,-818.359,53.223,-116.211,0.000
1728648275.340,-155.762,-860.352,89.844,-61.523,0.000
1728648275.344,-94.238,-951.660,55.176,-36.133,0.000
1728648275.348,-97.656,-1000.000,26.855,-38.574,0.000
1728648275.351,-132.812,-997.559,8.301,-53.223,0.000
1728648275.355,-174.316,-1000.000,-10.742,-34.668,0.000
1728648275.359,-133.301,-1000.000,2.441,-15.137,0.000
1728648275.363,-10.254,-1000.000,44.922,4.883,0.000
1728648275.367,-33.691,-1000.000,65.430,-13.184,0.000
1728648275.371,-73.242,-1000.000,74.707,-12.695,0.000
1728648275.375,-118.164,-1000.000,64.941,-26.367,0.000
1728648275.379,-166.016,-1000.000,23.438,-55.176,0.000
1728648275.383,-61.523,-1000.000,21.484,6.348,0.000
1728648275.387,22.949,-1000.000,27.832,41.504,0.000
1728648275.391,-20.020,-1000.000,11.719,27.344,0.000
1728648275.394,-140.625,-1000.000,6.348,17.090,0.000
1728648275.398,-103.516,-1000.000,33.203,16.602,0.000
1728648275.402,14.648,-1000.000,35.645,24.902,0.000
1728648275.406,20.020,-1000.000,34.668,38.086,0.000
1728648275.410,7.812,-1000.000,75.195,44.434,0.000
1728648275.414,-55.664,-1000.000,86.426,32.715,0.000
1728648275.418,-71.777,-997.559,62.012,42.480,0.000
1728648275.422,31.738,-1000.000,55.176,62.988,0.000
1728648275.426,101.074,-967.285,66.895,83.496,0.000
1728648275.430,132.324,-853.516,70.801,115.234,0.000
1728648275.433,58.105,-755.859,39.551,77.148,0.000
1728648275.437,0.000,-701.172,38.086,40.039,0.000
1728648275.441,99.609,-613.281,31.250,85.449,0.000
1728648275.445,178.711,-492.188,-34.668,132.812,0.000
1728648275.449,148.926,-391.113,-20.996,115.723,0.000
1728648275.453,67.871,-263.184,53.223,67.871,0.000
1728648275.457,39.551,-129.395,69.336,44.434,0.000
1728648275.461,121.094,-7.324,37.109,68.359,0.000
1728648275.465,194.824,105.469,39.551,95.215,0.000
1728648275.469,180.664,209.473,59.082,100.586,0.000
1728648275.472,100.586,317.383,37.109,62.012,0.000
1728648275.476,73.242,416.992,14.160,31.738,0.000
1728648275.480,150.391,584.961,-0.977,63.965,0.000
1728648275.484,220.703,811.035,-15.625,95.215,0.000
1728648275.488,214.355,953.613,-17.090,88.867,0.000
1728648275.492,143.066,968.262,-0.488,64.453,0.000
1728648275.496,69.824,964.844,14.648,23.926,0.000
1728648275.500,91.797,969.238,30.762,17.090,0.000
1728648275.504,117.676,968.262,28.809,33.203,0.000
1728648275.508,145.508,968.262,19.531,30.762,0.000
1728648275.512,121.582,968.262,23.438,18.555,0.000
1728648275.515,41.016,968.262,11.230,-15.625,0.000
1728648275.519,47.363,968.262,-8.301,-32.227,0.000
1728648275.523,77.148,968.262,-17.578,-16.602,0.000
1728648275.527,40.527,968.262,-31.738,-37.598,0.000
1728648275.531,-6.836,968.262,-31.738,-66.406,0.000
1728648275.535,-75.195,968.262,-16.602,-85.938,0.000
1728648275.539,-62.988,968.262,-17.090,-75.684,0.000
1728648275.543,20.508,968.262,-20.996,-62.988,0.000
1728648275.547,13.184,968.262,-5.371,-78.125,0.000
1728648275.551,-29.785,968.262,-5.371,-82.520,0.000
1728648275.555,0.000,968.262,-67.383,-81.055,0.000
1728648275.559,0.000,968.262,-93.262,-77.637,0.000
1728648275.562,0.000,968.262,-36.621,-58.105,0.000
1728648275.566,0.000,968.262,17.578,-53.711,0.000
1728648275.570,0.000,968.262,41.504,-66.406,0.000
1728648275.574,0.000,967.773,16.113,-64.453,0.000
1728648275.578,0.000,967.285,-39.062,-44.434,0.000
1728648275.582,0.000,968.750,-41.992,-18.066,0.000
1728648275.586,0.000,940.430,-24.414,-14.160,0.000
1728648275.590,0.000,881.836,-5.371,-9.277,0.000
1728648275.594,0.000,827.637,4.883,-25.879,0.000
1728648275.598,0.000,787.598,-11.719,-44.922,0.000
1728648275.601,9.277,771.484,-18.066,-24.902,0.000
1728648275.605,73.242,728.516,-26.367,4.395,0.000
1728648275.609,62.012,652.344,-33.203,0.488,0.000
1728648275.613,-25.879,597.168,-30.762,-21.484,0.000
1728648275.617,-25.879,572.754,-40.527,-19.043,0.000
1728648275.621,44.922,564.453,-37.598,20.508,0.000
1728648275.625,105.469,535.156,-44.922,44.434,0.000
1728648275.629,108.887,511.719,-33.691,38.086,0.000
1728648275.633,33.691,500.488,-12.207,34.668,0.000
1728648275.637,-7.324,483.398,-1.465,38.574,0.000
1728648275.641,69.336,488.281,8.789,53.711,0.000
1728648275.644,93.262,480.957,-27.344,40.039,0.000
1728648275.648,54.688,471.191,-36.133,20.508,0.000
1728648275.652,-3.418,463.867,-20.996,3.418,0.000
1728648275.656,-30.762,446.777,-30.273,-6.836,0.000
1728648275.660,54.688,435.059,-36.621,19.043,0.000
1728648275.664,114.746,415.527,-35.156,39.062,0.000
1728648275.668,89.844,404.297,-27.344,40.527,0.000
1728648275.672,21.484,396.484,-28.809,21.973,0.000
1728648275.676,-11.230,384.277,-41.992,6.348,0.000
1728648275.680,36.621,379.395,-22.949,29.785,0.000
1728648275.684,88.867,360.352,-22.461,43.457,0.000
1728648275.687,121.094,360.352,-40.039,56.152,0.000
1728648275.691,68.359,361.816,-37.598,48.828,0.000
1728648275.695,-24.414,321.289,-16.113,2.441,0.000
1728648275.699,15.625,306.152,5.371,3.906,0.000
1728648275.703,94.238,303.711,15.625,38.086,0.000
1728648275.707,91.797,297.363,20.020,51.758,0.000
1728648275.711,49.805,309.570,2.441,29.785,0.000
1728648275.715,-12.695,319.336,-14.648,9.277,0.000
1728648275.719,37.598,308.594,-14.160,28.320,0.000
1728648275.723,80.078,288.086,-20.996,38.574,0.000
1728648275.726,75.195,275.391,-33.203,40.039,0.000
1728648275.730,63.965,269.043,-14.648,43.945,0.000
1728648275.734,-21.973,256.348,0.488,14.648,0.000
1728648275.738,4.395,244.629,-4.395,20.020,0.000
1728648275.742,92.773,238.281,-20.020,61.035,0.000
1728648275.746,107.910,229.004,-29.785,65.430,0.000
1728648275.750,75.684,226.562,-33.203,43.457,0.000
1728648275.754,0.000,235.352,-40.039,22.949,0.000
1728648275.758,-3.418,229.004,-49.805,24.902,0.000
1728648275.762,72.754,218.750,-49.805,41.992,0.000
1728648275.766,82.031,212.891,-22.949,37.598,0.000
1728648275.770,43.945,207.520,-13.672,26.855,0.000
1728648275.773,-20.996,197.754,-35.156,9.277,0.000
1728648275.777,-20.996,187.988,-33.691,-8.301,0.000
1728648275.781,52.734,170.898,-8.789,7.324,0.000
1728648275.785,70.801,164.551,0.977,17.578,0.000
1728648275.789,41.016,166.504,-22.461,6.348,0.000
1728648275.793,-34.180,163.574,-25.879,-20.020,0.000
1728648275.797,-60.059,152.832,-10.742,-24.414,0.000
1728648275.801,36.133,145.996,0.488,5.859,0.000
1728648275.805,84.961,137.695,-5.859,21.484,0.000
1728648275.809,58.105,134.277,-38.086,5.371,0.000
1728648275.812,-12.695,126.953,-37.598,-8.789,0.000
1728648275.816,-70.801,111.816,-37.109,-9.277,0.000
1728648275.820,21.973,110.840,-41.992,4.395,0.000
1728648275.824,105.957,101.074,-30.273,20.996,0.000
1728648275.828,66.895,101.562,-20.996,28.320,0.000
1728648275.832,0.977,110.840,-15.137,11.719,0.000
1728648275.836,-37.109,102.539,-30.762,-12.695,0.000
1728648275.840,11.719,88.867,-49.316,9.766,0.000
1728648275.844,68.848,94.727,-24.414,27.832,0.000
1728648275.848,72.266,100.098,-32.715,29.297,0.000
1728648275.851,13.672,90.820,-78.613,23.926,0.000
1728648275.855,-49.805,72.266,-58.105,-6.836,0.000
1728648275.859,-15.625,63.965,-9.277,-20.508,0.000
1728648275.863,38.574,76.172,0.977,-3.418,0.000
1728648275.867,46.875,82.520,-6.348,7.324,0.000
1728648275.871,-24.902,78.613,-10.742,-8.301,0.000
1728648275.875,-83.984,75.684,-23.926,-31.250,0.000
1728648275.879,8.789,77.148,-34.180,0.488,0.000
1728648275.883,83.496,71.777,-10.742,41.504,0.000
1728648275.887,54.199,60.547,-11.719,26.855,0.000
1728648275.891,-4.395,68.359,-29.785,-1.465,0.000
1728648275.895,-56.152,81.055,-24.902,-22.461,0.000
1728648275.898,-11.230,85.449,-14.160,-1.953,0.000
1728648275.902,54.199,84.961,-22.949,24.902,0.000
1728648275.906,66.406,78.125,-47.363,17.090,0.000
1728648275.910,29.785,72.754,-32.715,0.977,0.000
1728648275.914,-48.340,70.312,-21.484,-19.043,0.000
1728648275.918,-26.855,72.754,-51.270,-2.930,0.000
1728648275.922,66.895,70.312,-61.035,24.902,0.000
1728648275.926,75.684,62.012,-31.250,26.367,0.000
1728648275.930,16.602,58.594,-2.930,18.066,0.000
1728648275.934,-49.805,43.945,8.789,-2.930,0.000
1728648275.938,-35.645,39.062,0.000,-1.953,0.000
1728648275.941,47.363,51.758,-9.766,24.414,0.000
1728648275.945,82.520,53.223,-21.973,27.344,0.000
1728648275.949,45.410,50.781,-28.320,6.836,0.000
1728648275.953,-32.715,50.781,-22.461,-10.254,0.000
1728648275.957,-49.316,39.062,-32.715,-11.230,0.000
1728648275.961,29.297,29.297,-41.016,11.719,0.000
1728648275.965,62.012,30.762,-29.297,28.809,0.000
1728648275.969,28.809,36.621,-4.883,12.695,0.000
1728648275.973,-35.645,20.020,1.465,-9.766,0.000
1728648275.977,-54.199,4.395,-27.832,-7.324,0.000
1728648275.981,30.762,22.461,-49.805,1.953,0.000
1728648275.984,79.102,32.227,-26.367,11.719,0.000
1728648275.988,51.758,39.062,0.488,17.578,0.000
1728648275.992,-24.902,40.527,-6.836,-14.160,0.000
1728648275.996,-62.012,34.180,-20.508,-37.109,0.000
1728648276.000,16.602,33.203,-17.578,-11.719,0.000
1728648276.004,70.801,31.250,-16.602,6.348,0.000
1728648276.008,33.691,28.320,-20.508,14.648,0.000
1728648276.012,-70.312,26.855,-30.273,-8.301,0.000
1728648276.016,-94.727,26.855,-39.062,-26.855,0.000
1728648276.020,11.230,25.391,-38.574,3.418,0.000
1728648276.023,67.383,25.879,-44.434,3.906,0.000
1728648276.027,63.477,26.855,-52.246,0.977,0.000
1728648276.031,-3.418,16.602,-62.988,-7.324,0.000
1728648276.035,-57.617,7.324,-36.133,-33.691,0.000
1728648276.039,-4.883,14.648,-0.977,-22.461,0.000
1728648276.043,46.387,26.855,0.488,4.395,0.000
1728648276.047,34.180,24.414,-5.371,5.371,0.000
1728648276.051,-11.719,9.766,-11.230,-20.020,0.000
1728648276.055,-66.406,14.160,-27.344,-29.785,0.000
1728648276.059,-24.414,14.160,-41.504,-10.254,0.000
1728648276.063,47.363,8.301,-22.461,-2.441,0.000
1728648276.066,39.062,15.137,-17.578,-4.395,0.000
1728648276.070,-17.090,20.508,-28.809,-6.348,0.000
1728648276.074,-83.496,22.461,-27.832,-27.344,0.000
1728648276.078,-32.715,13.184,-35.645,-13.672,0.000
1728648276.082,53.711,13.184,-34.668,7.324,0.000
1728648276.086,61.523,22.461,-17.090,5.859,0.000
1728648276.090,-2.441,16.113,-13.672,-14.648,0.000
1728648276.094,-87.891,21.484,-8.789,-46.387,0.000
1728648276.098,-60.059,32.227,-9.277,-21.484,0.000
1728648276.102,21.973,29.785,-23.438,3.418,0.000
1728648276.105,52.246,26.855,-33.203,4.395,0.000
1728648276.109,33.691,21.973,-38.086,-3.418,0.000
1728648276.113,-43.457,20.020,-28.320,-29.785,0.000
1728648276.117,-60.547,16.113,-19.531,-22.461,0.000
1728648276.121,19.531,12.695,-21.484,4.395,0.000
1728648276.125,68.359,18.555,-26.855,23.926,0.000
1728648276.129,29.785,17.578,-25.879,24.902,0.000
1728648276.133,-49.316,15.625,-11.719,1.953,0.000
1728648276.137,-20.508,22.949,-12.207,-13.184,0.000
1728648276.141,62.012,20.996,-28.320,16.602,0.000
1728648276.145,81.055,16.113,-46.387,52.734,0.000
1728648276.148,40.039,21.973,-37.109,41.016,0.000
1728648276.152,-36.621,24.902,-4.395,9.766,0.000
1728648276.156,-60.547,20.020,-0.977,-2.441,0.000
1728648276.160,31.738,12.695,-6.836,10.254,0.000
1728648276.164,86.914,11.719,-1.465,16.113,0.000
1728648276.168,49.805,20.996,-9.277,7.812,0.000
1728648276.172,-16.113,27.344,-19.531,-9.766,0.000
1728648276.176,-36.133,28.320,-41.992,-8.789,0.000
1728648276.180,15.137,34.180,-45.898,14.648,0.000
1728648276.184,44.922,37.598,-26.855,23.438,0.000
1728648276.187,35.645,31.738,-27.344,29.297,0.000
1728648276.191,-20.020,27.344,-16.113,9.277,0.000
1728648276.195,-51.758,34.180,-13.184,-16.602,0.000
1728648276.199,12.207,40.527,-20.508,12.695,0.000
1728648276.203,59.570,32.715,-4.395,22.461,0.000
1728648276.207,47.852,29.785,9.277,4.883,0.000
1728648276.211,-4.395,31.250,8.789,-4.883,0.000
1728648276.215,-63.477,26.855,3.418,-20.996,0.000
1728648276.219,2.441,21.484,-15.137,2.930,0.000
1728648276.223,82.031,24.414,-52.246,43.457,0.000
1728648276.226,67.871,24.414,-39.551,36.621,0.000
1728648276.230,-4.883,20.020,-3.418,-6.348,0.000
1728648276.234,-64.453,19.043,-2.930,-35.156,0.000
1728648276.238,-13.672,22.949,-1.953,-12.207,0.000
1728648276.242,61.035,23.926,0.488,9.766,0.000
1728648276.246,52.734,23.926,-13.672,1.465,0.000
1728648276.250,5.859,24.414,-18.555,-16.113,0.000
1728648276.254,-68.848,14.648,-19.043,-41.992,0.000
1728648276.258,-62.012,13.184,-25.879,-37.598,0.000
1728648276.262,28.320,10.742,-29.297,7.324,0.000
1728648276.266,59.570,4.395,-37.109,13.184,0.000
1728648276.269,20.508,2.930,-10.742,-8.301,0.000
1728648276.273,-57.129,3.906,12.207,-27.344,0.000
1728648276.277,-34.668,7.324,-12.695,-19.043,0.000
1728648276.281,20.020,7.324,-25.879,9.277,0.000
1728648276.285,20.996,8.301,-18.555,4.395,0.000
1728648276.289,34.180,9.766,-24.902,-7.324,0.000
1728648276.293,-39.551,2.930,-14.160,-24.902,0.000
1728648276.297,-38.574,4.395,-1.953,-23.926,0.000
1728648276.301,60.059,16.113,-61.523,6.348,0.000
1728648276.305,0.000,17.090,-67.871,17.090,0.000
1728648276.309,0.000,11.719,-7.324,-1.465,0.000
1728648276.313,0.000,2.441,7.324,-37.109,0.000
1728648276.316,0.000,-5.859,11.230,-37.598,0.000
1728648276.320,0.000,-0.977,-0.977,-13.184,0.000
1728648276.324,0.000,5.371,-11.719,-8.301,0.000
1728648276.328,0.000,3.906,-2.441,1.465,0.000
1728648276.332,0.000,5.859,-14.648,-20.020,0.000
1728648276.336,0.000,13.184,-22.461,-34.180,0.000
1728648276.340,0.000,8.789,-12.695,4.883,0.000
1728648276.344,0.000,-5.371,-22.949,36.621,0.000
1728648276.348,0.000,-0.977,-34.180,38.086,0.000
1728648276.352,0.000,16.113,-21.973,5.859,0.000
1728648276.355,-17.090,13.672,-14.648,-13.184,0.000
1728648276.359,24.902,-0.977,-16.113,7.812,0.000
1728648276.363,71.289,-1.953,-11.230,29.785,0.000
1728648276.367,53.711,-0.488,-11.719,33.203,0.000
1728648276.371,-22.949,-6.348,-14.648,-0.977,0.000
1728648276.375,-63.965,-8.301,-22.949,-17.090,0.000
1728648276.379,-9.277,-4.883,-35.156,4.883,0.000
1728648276.383,56.641,-2.930,-25.391,32.227,0.000
1728648276.387,45.898,-5.371,-31.738,22.949,0.000
1728648276.391,-20.508,-10.254,-37.109,1.465,0.000
1728648276.395,-38.086,0.488,-57.617,3.418,0.000
1728648276.398,30.273,5.859,-91.797,22.461,0.000
1728648276.402,75.684,0.488,-46.875,30.273,0.000
1728648276.406,48.340,-5.859,-8.301,11.230,0.000
1728648276.410,-1.465,-10.742,-7.324,-6.348,0.000
1728648276.414,-55.176,-9.277,-0.977,-17.090,0.000
1728648276.418,-8.301,-22.461,9.277,-6.348,0.000
1728648276.422,54.199,-32.227,1.953,16.602,0.000
1728648276.426,50.293,-23.926,-8.789,24.902,0.000
1728648276.430,-2.930,-15.137,-2.441,15.625,0.000
1728648276.434,-63.477,-7.812,-9.766,-24.414,0.000
1728648276.438,-20.996,-1.953,-45.898,-7.812,0.000
1728648276.441,47.363,-1.953,-50.293,17.578,0.000
1728648276.445,54.688,-4.883,-22.949,10.742,0.000
1728648276.449,19.531,-4.883,-29.297,5.371,0.000
1728648276.453,-35.645,4.883,-45.898,-18.555,0.000
1728648276.457,-12.207,7.324,-28.809,-16.602,0.000
1728648276.461,58.105,0.488,-1.465,14.648,0.000
1728648276.465,74.707,-2.441,2.441,33.691,0.000
1728648276.469,54.688,10.254,-13.184,30.273,0.000
1728648276.473,-21.484,15.625,-26.855,4.883,0.000
1728648276.477,-26.855,0.977,-23.926,4.883,0.000
1728648276.480,43.457,-2.930,-48.340,24.902,0.000
1728648276.484,67.383,-8.301,-60.547,35.156,0.000
1728648276.488,49.805,-21.973,-14.648,23.926,0.000
1728648276.492,-26.367,-29.785,-1.953,16.113,0.000
1728648276.496,-33.691,-28.320,-12.207,28.320,0.000
1728648276.500,42.969,-25.391,0.977,23.926,0.000
1728648276.504,71.289,-16.113,-15.625,27.344,0.000
1728648276.508,57.129,-10.742,-41.016,45.898,0.000
1728648276.512,-19.531,-13.184,-20.996,7.812,0.000
1728648276.516,-56.152,-12.695,5.859,-18.555,0.000
1728648276.520,21.973,-10.254,2.930,23.926,0.000
1728648276.523,60.059,-4.883,-11.230,35.645,0.000
1728648276.527,52.246,-13.184,-16.602,16.602,0.000
1728648276.531,-21.484,-28.809,-19.531,0.977,0.000
1728648276.535,-47.852,-30.273,-34.668,-11.230,0.000
1728648276.539,49.316,-26.367,-40.039,16.602,0.000
1728648276.543,87.891,-28.320,-39.551,30.273,0.000
1728648276.547,65.918,-18.555,-31.250,17.578,0.000
1728648276.551,-5.371,-1.953,-29.297,-3.906,0.000
1728648276.555,-31.250,-14.160,-21.973,-2.930,0.000
1728648276.559,43.945,-25.879,-7.324,32.715,0.000
1728648276.562,78.613,-25.879,-9.766,46.875,0.000
1728648276.566,59.082,-32.715,-20.996,12.207,0.000
1728648276.570,14.648,-38.574,-26.855,-19.531,0.000
1728648276.574,-30.762,-29.297,-31.738,-7.812,0.000
1728648276.578,20.996,-24.902,-17.578,34.668,0.000
1728648276.582,79.590,-29.297,-1.953,49.805,0.000
1728648276.586,61.035,-25.879,-0.977,38.574,0.000
1728648276.590,-0.488,-25.391,-9.277,28.809,0.000
1728648276.594,-38.574,-28.809,-13.184,4.883,0.000
1728648276.598,15.137,-34.180,-9.766,15.625,0.000
1728648276.601,70.801,-27.832,-20.996,26.367,0.000
1728648276.605,77.637,-18.555,-29.785,32.227,0.000
1728648276.609,25.391,-21.484,-22.949,29.785,0.000
1728648276.613,-33.203,-27.832,-18.066,2.930,0.000
1728648276.617,21.973,-29.785,-28.809,19.531,0.000
1728648276.621,92.773,-28.320,-36.621,55.176,0.000
1728648276.625,83.496,-29.785,-24.414,49.316,0.000
1728648276.629,27.832,-37.109,-6.836,33.203,0.000
1728648276.633,-38.086,-38.086,-14.648,8.301,0.000
1728648276.637,-4.395,-25.391,-31.250,10.254,0.000
1728648276.641,71.777,-23.438,-53.711,39.062,0.000
1728648276.644,106.445,-33.203,-57.617,45.898,0.000
1728648276.648,78.613,-28.320,-20.020,37.598,0.000
1728648276.652,-15.625,-29.297,7.324,19.043,0.000
1728648276.656,-18.066,-33.203,9.277,9.766,0.000
1728648276.660,62.988,-34.180,-0.977,24.414,0.000
1728648276.664,94.727,-38.574,-15.137,41.992,0.000
1728648276.668,75.684,-41.504,-17.090,46.875,0.000
1728648276.672,5.859,-43.457,-25.391,25.879,0.000
1728648276.676,1.953,-45.898,-32.227,17.578,0.000
1728648276.680,78.125,-45.898,-27.344,35.156,0.000
1728648276.684,101.074,-43.945,-31.250,53.223,0.000
1728648276.687,76.172,-49.805,-35.645,57.617,0.000
1728648276.691,0.977,-47.852,-26.855,24.902,0.000
1728648276.695,-10.254,-53.711,-10.742,21.484,0.000
1728648276.699,59.570,-64.941,-5.371,45.898,0.000
1728648276.703,102.051,-60.547,-23.926,40.527,0.000
1728648276.707,82.031,-49.805,-54.688,40.527,0.000
1728648276.711,-9.277,-41.992,-36.621,32.715,0.000
1728648276.715,-24.414,-48.340,-16.602,23.438,0.000
1728648276.719,68.359,-54.199,-3.906,38.086,0.000
1728648276.723,105.957,-53.223,-2.441,55.664,0.000
1728648276.727,81.055,-42.969,-34.180,63.965,0.000
1728648276.730,7.324,-32.715,-46.875,32.227,0.000
1728648276.734,-7.812,-34.668,-59.570,13.672,0.000
1728648276.738,42.969,-46.387,-45.410,32.227,0.000
1728648276.742,77.148,-57.617,-10.254,48.340,0.000
1728648276.746,83.496,-43.945,-23.926,57.617,0.000
1728648276.750,11.230,-28.320,-21.484,33.691,0.000
1728648276.754,-36.133,-36.621,-3.906,4.883,0.000
1728648276.758,36.133,-46.875,-17.090,36.621,0.000
1728648276.762,86.914,-41.016,-21.484,55.176,0.000
1728648276.766,88.379,-38.574,-22.949,52.734,0.000
1728648276.770,26.855,-41.992,-18.066,43.945,0.000
1728648276.773,-50.781,-47.852,-0.488,20.020,0.000
1728648276.777,-11.230,-49.316,-7.324,24.902,0.000
1728648276.781,71.289,-49.805,-27.344,61.035,0.000
1728648276.785,70.801,-41.992,-36.621,61.035,0.000
1728648276.789,7.812,-42.969,-23.926,25.391,0.000
1728648276.793,-43.457,-51.758,-13.184,1.953,0.000
1728648276.797,6.836,-49.316,-6.348,15.625,0.000
1728648276.801,66.895,-41.016,-15.625,36.621,0.000
1728648276.805,64.941,-40.527,-32.227,52.734,0.000
1728648276.809,24.414,-37.598,-22.461,41.992,0.000
1728648276.813,-41.504,-34.180,-24.414,15.137,0.000
1728648276.816,-17.578,-24.414,-38.086,34.180,0.000
1728648276.820,79.102,-27.344,-23.438,49.805,0.000
1728648276.824,103.516,-39.551,-23.926,40.527,0.000
1728648276.828,42.969,-41.016,-38.086,41.016,0.000
1728648276.832,-48.340,-41.016,-27.344,18.066,0.000
1728648276.836,-20.996,-31.250,-43.945,21.484,0.000
1728648276.840,78.613,-25.879,-48.828,48.340,0.000
1728648276.844,86.914,-29.297,-20.020,52.734,0.000
1728648276.848,45.410,-32.715,-9.277,37.109,0.000
1728648276.852,-24.414,-24.414,-33.691,11.230,0.000
1728648276.855,-19.043,-21.484,-29.785,12.695,0.000
1728648276.859,69.336,-20.508,1.465,36.621,0.000
1728648276.863,75.684,-18.555,-8.301,41.992,0.000
1728648276.867,32.227,-23.926,-35.156,30.273,0.000
1728648276.871,-27.344,-20.996,-28.809,7.812,0.000
1728648276.875,-50.781,-21.484,-15.625,9.766,0.000
1728648276.879,45.898,-19.531,-39.551,34.180,0.000
1728648276.883,93.262,-14.160,-63.965,42.480,0.000
1728648276.887,51.758,-16.113,-47.363,40.527,0.000
1728648276.891,-13.184,-21.484,-12.207,15.625,0.000
1728648276.895,-10.254,-28.320,-7.324,18.555,0.000
1728648276.898,63.477,-24.902,-20.020,33.203,0.000
1728648276.902,75.684,-17.090,-22.461,26.855,0.000
1728648276.906,58.594,-27.832,-35.156,24.414,0.000
1728648276.910,-15.137,-37.598,-31.738,4.395,0.000
1728648276.914,-42.969,-30.273,-47.363,-8.301,0.000
1728648276.918,46.875,-25.391,-58.594,20.020,0.000
1728648276.922,79.590,-19.043,-35.156,23.438,0.000
1728648276.926,67.871,-17.578,-25.879,15.137,0.000
1728648276.930,13.672,-17.578,-21.973,10.742,0.000
1728648276.934,-52.734,-22.461,-29.785,11.230,0.000
1728648276.937,-11.719,-19.531,-53.711,48.340,0.000
1728648276.941,76.660,-16.602,-65.430,53.711,0.000
1728648276.945,72.266,-20.508,-47.363,35.156,0.000
1728648276.949,-8.301,-26.855,-32.227,22.461,0.000
1728648276.953,-37.598,-20.020,-34.668,14.160,0.000
1728648276.957,24.902,-21.484,-28.809,26.367,0.000
1728648276.961,88.379,-34.180,-24.414,41.016,0.000
1728648276.965,92.285,-34.668,-26.367,39.062,0.000
1728648276.969,34.180,-32.227,-11.719,20.508,0.000
1728648276.973,-41.504,-39.062,-8.301,-5.859,0.000
1728648276.976,12.207,-44.922,-20.996,10.742,0.000
1728648276.980,76.660,-38.086,-32.715,35.156,0.000
1728648276.984,82.520,-25.879,-53.711,54.688,0.000
1728648276.988,33.691,-20.508,-68.359,35.156,0.000
1728648276.992,-51.270,-23.438,-40.039,-1.465,0.000
1728648276.996,-0.488,-32.715,-10.742,10.742,0.000
1728648277.000,78.613,-36.621,-7.324,31.738,0.000
1728648277.004,81.055,-25.391,-17.090,30.273,0.000
1728648277.008,39.551,-18.066,-22.949,14.648,0.000
1728648277.012,-19.531,-22.461,-18.066,-3.906,0.000
1728648277.016,1.465,-27.344,-20.020,6.836,0.000
1728648277.019,70.801,-29.785,-44.434,38.086,0.000
1728648277.023,82.031,-34.668,-57.129,53.223,0.000
1728648277.027,61.523,-26.855,-41.504,36.621,0.000
1728648277.031,-4.883,-21.484,-25.879,5.859,0.000
1728648277.035,-9.277,-27.832,-30.762,6.348,0.000
1728648277.039,74.707,-21.484,-18.066,39.551,0.000
1728648277.043,102.051,-15.137,3.906,50.293,0.000
1728648277.047,52.734,-28.320,3.418,33.203,0.000
1728648277.051,-22.461,-29.785,4.395,2.930,0.000
1728648277.055,-39.062,-26.367,-6.836,5.371,0.000
1728648277.059,42.969,-20.508,-30.762,38.086,0.000
1728648277.062,99.609,-19.531,-43.457,44.434,0.000
1728648277.066,79.102,-22.949,-48.340,24.414,0.000
1728648277.070,0.488,-18.555,-46.387,22.949,0.000
1728648277.074,-1.953,-20.508,-39.551,28.320,0.000
1728648277.078,73.730,-26.855,-11.230,41.992,0.000
1728648277.082,78.613,-28.809,7.812,45.410,0.000
1728648277.086,61.035,-16.602,2.930,32.715,0.000
1728648277.090,-5.371,-7.324,-8.301,7.812,0.000
1728648277.094,-43.457,-19.043,-24.414,7.324,0.000
1728648277.098,53.223,-20.508,-30.762,47.363,0.000
1728648277.102,115.234,-23.438,-20.508,56.152,0.000
1728648277.105,88.379,-19.531,-26.855,45.898,0.000
1728648277.109,-1.953,-15.137,-34.180,20.020,0.000
1728648277.113,-44.922,-29.785,-27.832,-7.324,0.000
1728648277.117,32.715,-34.180,-14.648,12.207,0.000
1728648277.121,92.773,-33.691,5.371,40.527,0.000
1728648277.125,69.824,-36.621,10.742,31.738,0.000
1728648277.129,-5.859,-29.297,0.488,-0.977,0.000
1728648277.133,-41.992,-29.785,-22.461,-10.254,0.000
1728648277.137,18.555,-27.832,-31.738,26.367,0.000
1728648277.141,72.266,-38.086,-21.973,44.922,0.000
1728648277.145,66.895,-33.203,-12.207,36.133,0.000
1728648277.148,11.719,-35.156,-6.348,26.367,0.000
1728648277.152,-48.828,-35.156,-29.297,4.395,0.000
1728648277.156,17.578,-18.555,-56.152,24.414,0.000
1728648277.160,90.820,-24.414,-35.156,40.527,0.000
1728648277.164,79.102,-30.273,-2.441,36.133,0.000
1728648277.168,32.715,-35.156,-3.906,24.902,0.000
1728648277.172,-33.203,-35.156,-37.109,6.836,0.000
1728648277.176,3.418,-22.949,-35.156,18.555,0.000
1728648277.180,78.613,-16.602,-6.836,49.805,0.000
1728648277.184,65.918,-23.926,0.977,44.434,0.000
1728648277.188,24.414,-20.020,-5.371,19.043,0.000
1728648277.191,-40.039,-7.324,-21.973,-10.742,0.000
1728648277.195,-1.465,-13.672,-52.246,-2.930,0.000
1728648277.199,74.219,-12.207,-47.363,29.785,0.000
1728648277.203,60.547,-11.230,-8.301,34.668,0.000
1728648277.207,25.879,-18.555,13.672,21.484,0.000
1728648277.211,-27.344,-17.090,10.254,4.395,0.000
1728648277.215,-22.949,-19.043,-3.418,4.395,0.000
1728648277.219,53.223,-19.531,0.488,26.855,0.000
1728648277.223,88.379,-14.648,-4.395,35.156,0.000
1728648277.227,37.598,-12.695,-23.926,19.531,0.000
1728648277.230,-29.785,-22.949,-27.832,-7.812,0.000
1728648277.234,-24.414,-25.879,-10.254,-10.254,0.000
1728648277.238,28.320,-17.578,2.441,20.508,0.000
1728648277.242,62.012,-13.672,2.930,24.414,0.000
1728648277.246,55.664,-9.766,-6.348,6.836,0.000
1728648277.250,-21.973,-2.441,-16.113,5.371,0.000
1728648277.254,-27.344,5.859,-24.414,13.184,0.000
1728648277.258,41.504,9.277,-27.344,19.043,0.000
1728648277.262,35.156,2.930,-3.906,18.066,0.000
1728648277.266,45.898,-0.977,8.789,24.414,0.000
1728648277.270,0.977,8.301,-8.789,6.348,0.000
1728648277.273,-66.406,18.066,-10.254,-15.137,0.000
1728648277.277,10.742,20.508,3.418,4.395,0.000
1728648277.281,80.078,27.832,3.906,31.738,0.000
1728648277.285,77.637,36.621,-18.555,39.551,0.000
1728648277.289,0.977,43.457,-37.598,10.742,0.000
1728648277.293,-63.965,49.316,-28.320,-10.742,0.000
1728648277.297,17.090,52.734,-0.977,16.602,0.000
1728648277.301,66.895,45.898,3.418,27.344,0.000
1728648277.305,41.992,46.875,-20.996,18.066,0.000
1728648277.309,-18.555,62.988,-19.531,13.184,0.000
1728648277.312,-40.039,70.801,-5.859,0.977,0.000
1728648277.316,20.508,58.594,-13.184,0.000,0.000
1728648277.320,57.617,60.547,-5.859,4.395,0.000
1728648277.324,36.133,63.965,-0.488,2.441,0.000
1728648277.328,-3.906,58.594,-5.859,-7.324,0.000
1728648277.332,-47.363,58.594,-15.625,-20.508,0.000
1728648277.336,-13.672,67.871,-27.344,-5.371,0.000
1728648277.340,40.527,81.543,-16.113,11.230,0.000
1728648277.344,58.105,75.195,5.371,15.625,0.000
1728648277.348,8.789,61.035,5.859,7.324,0.000
1728648277.351,-65.918,62.500,-5.859,-20.020,0.000
1728648277.355,-26.855,67.871,-18.066,-8.789,0.000
1728648277.359,44.922,76.660,-37.109,25.391,0.000
1728648277.363,75.195,67.871,-31.250,27.344,0.000
1728648277.367,46.875,58.594,-14.160,-14.648,0.000
1728648277.371,-51.758,62.012,-13.184,-24.414,0.000
1728648277.375,-35.645,67.383,-0.488,-12.695,0.000
1728648277.379,43.945,65.430,-0.977,-2.441,0.000
1728648277.383,58.594,68.359,-17.090,5.859,0.000
1728648277.387,13.672,72.754,-31.738,-16.113,0.000
1728648277.391,-56.641,73.730,-40.527,-41.016,0.000
1728648277.394,-40.039,69.336,-35.645,-20.508,0.000
1728648277.398,39.551,64.453,-11.719,8.789,0.000
1728648277.402,50.781,60.059,-16.113,8.789,0.000
1728648277.406,8.301,65.430,-25.879,-0.977,0.000
1728648277.410,-47.363,62.012,-11.230,-16.113,0.000
1728648277.414,-51.758,56.641,-8.301,-18.066,0.000
1728648277.418,36.621,51.270,-20.996,10.254,0.000
1728648277.422,54.199,53.223,-46.875,14.648,0.000
1728648277.426,25.391,53.711,-61.035,7.812,0.000
1728648277.430,-53.223,50.781,-45.410,-12.695,0.000
1728648277.434,-52.734,43.945,-16.113,-20.996,0.000
1728648277.437,43.457,25.879,-4.395,4.883,0.000
1728648277.441,58.594,16.113,9.277,10.254,0.000
1728648277.445,28.809,23.926,10.742,-0.488,0.000
1728648277.449,-56.152,24.414,-17.090,-22.949,0.000
1728648277.453,-73.730,19.043,-38.086,-28.809,0.000
1728648277.457,16.602,24.902,-42.480,-11.230,0.000
1728648277.461,46.387,30.762,-37.598,15.625,0.000
1728648277.465,38.574,22.949,-18.066,13.672,0.000
1728648277.469,-28.809,8.301,-3.418,-33.691,0.000
1728648277.473,-78.613,-1.953,-5.859,-41.992,0.000
1728648277.477,0.000,-4.883,-32.715,-2.441,0.000
1728648277.480,0.000,-4.395,-33.203,9.277,0.000
1728648277.484,0.000,2.441,-22.461,-3.418,0.000
1728648277.488,0.000,9.766,-50.293,-29.297,0.000
1728648277.492,0.000,7.324,-54.688,-36.133,0.000
1728648277.496,0.000,3.418,-28.320,-1.953,0.000
1728648277.500,0.000,0.488,-5.371,11.230,0.000
1728648277.504,0.000,2.930,-5.859,-2.930,0.000
1728648277.508,0.000,5.371,-4.883,-12.695,0.000
1728648277.512,0.000,10.742,4.395,-24.902,0.000
1728648277.516,0.000,8.301,-13.672,-14.648,0.000
1728648277.520,0.000,7.324,-21.484,11.719,0.000
1728648277.523,53.711,16.602,-13.672,16.113,0.000
1728648277.527,-12.695,9.277,-53.711,3.906,0.000
1728648277.531,-83.496,-1.465,-52.246,-28.320,0.000
1728648277.535,-50.293,-6.348,-5.371,-17.090,0.000
1728648277.539,24.902,2.441,-8.301,3.418,0.000
1728648277.543,56.641,2.930,-25.879,-2.441,0.000
1728648277.547,1.953,1.465,-28.809,-19.531,0.000
1728648277.551,-83.008,0.000,-23.438,-38.086,0.000
1728648277.555,-46.387,1.953,-40.527,-19.531,0.000
1728648277.559,24.414,0.977,-41.016,1.953,0.000
1728648277.562,31.250,-4.395,-15.625,5.859,0.000
1728648277.566,-4.883,-1.465,-6.836,-8.789,0.000
1728648277.570,-64.941,3.418,-0.488,-38.574,0.000
1728648277.574,-45.410,11.230,-11.719,-19.043,0.000
1728648277.578,33.203,14.160,-40.039,6.836,0.000
1728648277.582,19.531,7.812,-36.621,1.465,0.000
1728648277.586,-5.859,-1.465,-19.531,-12.695,0.000
1728648277.590,-71.289,-3.418,-12.695,-41.992,0.000
1728648277.594,-51.270,5.859,-39.551,-34.668,0.000
1728648277.598,45.898,6.348,-61.035,4.883,0.000
1728648277.602,52.246,8.301,-28.320,9.766,0.000
1728648277.605,3.418,12.207,1.465,-7.812,0.000
1728648277.609,-67.871,10.254,0.488,-24.414,0.000
1728648277.613,-74.707,19.531,-12.207,-30.762,0.000
1728648277.617,16.602,16.113,-5.859,0.488,0.000
1728648277.621,56.641,11.230,9.766,4.883,0.000
1728648277.625,14.648,9.277,8.789,-12.695,0.000
1728648277.629,-55.176,9.277,3.418,-36.133,0.000
1728648277.633,-91.309,13.184,-16.113,-44.922,0.000
1728648277.637,0.000,6.348,-22.461,-19.531,0.000
1728648277.641,64.453,2.930,-5.859,1.953,0.000
1728648277.645,29.297,9.766,5.371,0.977,0.000
1728648277.648,-31.250,10.254,1.953,-35.156,0.000
1728648277.652,-64.453,0.000,-13.184,-40.039,0.000
1728648277.656,-20.508,-6.836,-19.531,-21.973,0.000
1728648277.660,38.574,-0.488,-11.719,-20.508,0.000
1728648277.664,38.086,6.836,-13.184,-17.090,0.000
1728648277.668,-32.715,8.789,-31.738,-30.762,0.000
1728648277.672,-76.172,2.930,-30.762,-43.457,0.000
1728648277.676,-20.996,-2.930,-14.648,-29.785,0.000
1728648277.680,24.902,0.000,3.906,-8.789,0.000
1728648277.684,34.180,2.441,-5.371,-5.371,0.000
1728648277.687,-22.949,6.348,-8.301,-17.090,0.000
1728648277.691,-99.609,6.836,-19.043,-25.391,0.000
1728648277.695,-41.992,1.953,-37.598,-17.090,0.000
1728648277.699,41.016,1.465,-22.461,-11.719,0.000
1728648277.703,38.086,18.066,-31.250,-10.742,0.000
1728648277.707,-23.926,22.949,-33.203,-31.738,0.000
1728648277.711,-80.078,5.859,0.488,-52.246,0.000
1728648277.715,-31.738,3.418,6.836,-29.785,0.000
1728648277.719,19.531,10.254,-2.930,-9.277,0.000
1728648277.723,28.320,21.973,4.883,-1.953,0.000
1728648277.726,-9.277,21.973,13.672,-9.766,0.000
1728648277.730,-69.824,13.672,9.277,-36.621,0.000
1728648277.734,-25.879,27.832,2.441,-17.090,0.000
1728648277.738,54.199,40.527,-0.977,7.324,0.000
1728648277.742,52.734,47.852,-17.578,10.742,0.000
1728648277.746,3.906,53.223,-16.602,-0.977,0.000
1728648277.750,-74.707,53.711,-17.578,-36.133,0.000
1728648277.754,-52.734,46.387,-14.160,-28.809,0.000
1728648277.758,32.227,46.875,-3.418,-8.301,0.000
1728648277.762,25.391,47.852,-0.488,-10.254,0.000
1728648277.766,-24.414,47.363,0.000,-17.090,0.000
1728648277.769,-58.594,45.410,-10.742,-38.574,0.000
1728648277.773,-50.293,46.387,-2.441,-31.250,0.000
1728648277.777,4.395,51.270,13.672,-6.836,0.000
1728648277.781,44.922,42.969,1.953,-2.930,0.000
1728648277.785,16.113,47.363,-11.719,-12.207,0.000
1728648277.789,-54.199,60.547,-9.766,-34.668,0.000
1728648277.793,-44.922,61.523,-5.371,-23.926,0.000
1728648277.797,12.207,58.594,-1.465,-7.812,0.000
1728648277.801,22.461,59.082,0.488,-8.301,0.000
1728648277.805,23.438,51.758,-18.066,-6.836,0.000
1728648277.809,-57.129,52.246,-32.227,-41.992,0.000
1728648277.812,-89.355,62.012,-29.297,-53.711,0.000
1728648277.816,15.625,61.035,-17.090,-11.230,0.000
1728648277.820,21.484,54.199,-1.465,-5.859,0.000
1728648277.824,-4.883,52.246,-9.766,-20.996,0.000
1728648277.828,-47.852,54.688,-29.297,-31.250,0.000
1728648277.832,-78.613,52.734,-23.438,-49.316,0.000
1728648277.836,-9.766,41.992,-18.555,-30.762,0.000
1728648277.840,41.504,51.758,-14.648,2.441,0.000
1728648277.844,31.738,64.941,-15.625,1.953,0.000
1728648277.848,-53.711,51.270,-3.906,-21.484,0.000
1728648277.852,0.000,48.340,10.742,-49.316,0.000
1728648277.855,0.000,56.152,-17.090,-24.414,0.000
1728648277.859,0.000,51.270,-13.672,13.184,0.000
1728648277.863,0.000,54.199,10.742,-3.906,0.000
1728648277.867,0.000,58.594,3.906,-23.926,0.000
1728648277.871,0.000,58.105,-1.465,-36.133,0.000
1728648277.875,0.000,54.688,6.348,-23.438,0.000
1728648277.879,0.000,52.246,-20.020,-3.906,0.000
1728648277.883,0.000,50.293,-41.016,2.930,0.000
1728648277.887,0.000,44.922,-5.371,3.418,0.000
1728648277.891,0.000,38.086,1.465,-27.832,0.000
1728648277.895,0.000,31.250,-12.695,-13.672,0.000
1728648277.898,8.789,25.391,0.000,6.836,0.000
1728648277.902,18.066,28.320,5.371,-4.883,0.000
1728648277.906,0.977,27.832,-1.465,-13.184,0.000
1728648277.910,-49.805,26.855,-2.930,-24.902,0.000
1728648277.914,-7.324,26.855,-8.789,-8.301,0.000
1728648277.918,34.668,27.832,-28.809,11.230,0.000
1728648277.922,30.273,36.133,-32.715,2.441,0.000
1728648277.926,-9.277,33.203,-3.906,-16.113,0.000
1728648277.930,-79.590,27.344,15.137,-40.039,0.000
1728648277.934,-48.340,22.461,5.859,-31.250,0.000
1728648277.937,10.742,23.926,-11.230,-7.324,0.000
1728648277.941,33.691,25.879,-14.160,-6.836,0.000
1728648277.945,13.184,22.949,-8.301,-13.184,0.000
1728648277.949,-74.707,27.832,-9.766,-30.762,0.000
1728648277.953,-89.844,26.855,-32.227,-47.852,0.000
1728648277.957,14.160,20.508,-51.758,-32.715,0.000
1728648277.961,44.922,22.461,-33.203,-19.043,0.000
1728648277.965,-6.348,7.812,0.488,-32.715,0.000
1728648277.969,-61.523,2.930,8.301,-52.734,0.000
1728648277.973,-80.078,12.695,-25.879,-36.133,0.000
1728648277.977,-3.418,11.230,-34.668,-18.555,0.000
1728648277.980,46.387,12.695,-16.113,-23.926,0.000
1728648277.984,14.648,21.973,-24.414,-8.301,0.000
1728648277.988,-57.617,21.973,-34.668,-22.461,0.000
1728648277.992,-61.523,10.742,-21.973,-41.016,0.000
1728648277.996,7.812,4.883,-5.859,-32.227,0.000
1728648278.000,24.414,6.836,12.207,-24.414,0.000
1728648278.004,0.488,11.719,4.883,-32.227,0.000
1728648278.008,-62.012,9.766,-20.996,-52.734,0.000
1728648278.012,-98.145,7.812,-17.090,-58.594,0.000
1728648278.016,-13.184,10.742,-9.766,-26.855,0.000
1728648278.019,20.996,10.254,-15.625,-7.324,0.000
1728648278.023,2.930,5.859,-10.254,-15.625,0.000
1728648278.027,-36.133,1.953,-32.227,-32.715,0.000
1728648278.031,-84.473,1.465,-40.039,-40.527,0.000
1728648278.035,-37.109,-0.977,-3.418,-14.648,0.000
1728648278.039,6.348,1.953,5.371,-4.395,0.000
1728648278.043,3.418,-1.953,-18.066,-2.930,0.000
1728648278.047,-34.180,-3.906,-18.066,-27.344,0.000
1728648278.051,-86.426,4.395,-8.301,-55.176,0.000
1728648278.055,-26.367,4.883,-0.977,-12.695,0.000
1728648278.059,5.859,-6.348,-14.648,10.254,0.000
1728648278.062,-11.719,-12.695,-13.672,-16.602,0.000
1728648278.066,-39.062,-9.277,8.789,-46.875,0.000
1728648278.070,-97.656,-11.719,-4.883,-89.355,0.000
1728648278.074,-50.781,-8.789,-40.527,-47.852,0.000
1728648278.078,20.996,-6.836,-50.293,3.906,0.000
1728648278.082,-7.812,-10.254,-18.066,-19.043,0.000
1728648278.086,-68.848,-9.277,12.207,-43.457,0.000
1728648278.090,-109.375,-10.254,10.742,-64.941,0.000
1728648278.094,-62.012,-8.301,-9.766,-51.758,0.000
1728648278.098,24.902,0.000,-10.254,-23.926,0.000
1728648278.101,33.203,2.441,7.324,-12.695,0.000
1728648278.105,-20.508,-2.441,-8.301,-24.902,0.000
1728648278.109,-101.562,-6.836,-32.227,-57.129,0.000
1728648278.113,-64.941,-6.836,-35.645,-37.598,0.000
1728648278.117,31.738,-2.930,-42.480,-0.977,0.000
1728648278.121,21.484,-12.207,-29.297,-18.555,0.000
1728648278.125,-40.527,-20.508,1.953,-37.598,0.000
1728648278.129,-90.332,-17.578,5.371,-59.082,0.000
1728648278.133,-81.055,-23.438,-8.789,-63.965,0.000
1728648278.137,-8.301,-20.508,-0.977,-23.438,0.000
1728648278.141,34.668,-24.902,-2.930,6.348,0.000
1728648278.144,16.113,-27.832,-25.879,0.000,0.000
1728648278.148,-46.875,-18.555,-29.785,-29.785,0.000
1728648278.152,-54.688,-4.395,-28.320,-36.133,0.000
1728648278.156,8.789,2.930,-15.137,-15.625,0.000
1728648278.160,19.531,-6.348,19.531,5.371,0.000
1728648278.164,27.344,-7.812,14.160,3.906,0.000
1728648278.168,-24.414,-14.160,-11.230,-20.996,0.000
1728648278.172,-94.238,-23.438,-23.438,-46.387,0.000
1728648278.176,-29.297,-18.066,-17.090,-36.621,0.000
1728648278.180,0.000,-2.930,8.789,-3.906,0.000
1728648278.184,0.000,8.789,-1.953,0.488,0.000
1728648278.187,0.000,-5.859,-25.879,-15.625,0.000
1728648278.191,0.000,-13.672,-63.965,-29.297,0.000
1728648278.195,0.000,-18.066,-72.266,-35.156,0.000
1728648278.199,0.000,-50.293,3.906,5.371,0.000
1728648278.203,0.000,-47.852,63.477,33.691,0.000
1728648278.207,0.000,-5.371,33.203,-3.906,0.000
1728648278.211,0.000,5.859,-48.340,-64.941,0.000
1728648278.215,0.000,-35.156,-21.973,-26.855,0.000
1728648278.219,0.000,-43.457,50.293,16.113,0.000
1728648278.223,0.000,-37.598,35.156,-0.488,0.000
1728648278.227,-27.344,-59.082,-62.012,-37.598,0.000
1728648278.230,-94.238,-40.039,-60.059,-56.641,0.000
1728648278.234,-100.586,-46.387,8.789,-74.219,0.000
1728648278.238,-30.762,-91.797,-3.906,-70.312,0.000
1728648278.242,46.387,-65.918,-13.184,2.441,0.000
1728648278.246,-17.578,-49.316,24.414,-10.742,0.000
1728648278.250,-108.887,-54.688,39.551,-47.852,0.000
1728648278.254,-34.668,-86.914,15.625,-15.137,0.000
1728648278.258,47.363,-98.145,-7.324,17.578,0.000
1728648278.262,7.324,-59.570,-15.137,-17.090,0.000
1728648278.266,-76.172,-69.336,21.484,-63.477,0.000
1728648278.270,-137.207,-127.441,79.590,-62.988,0.000
1728648278.273,-68.848,-88.867,70.312,-14.648,0.000
1728648278.277,-35.156,-56.641,0.000,-13.184,0.000
1728648278.281,-35.156,-80.566,11.719,-6.348,0.000
1728648278.285,-28.320,-79.102,55.176,10.742,0.000
1728648278.289,-156.738,-81.055,44.434,-107.422,0.000
1728648278.293,-163.086,-77.637,-38.574,-125.488,0.000
1728648278.297,-13.672,-91.309,-97.656,4.395,0.000
1728648278.301,-61.035,-44.434,5.859,-43.945,0.000
1728648278.305,-166.016,-56.641,102.051,-104.492,0.000
1728648278.309,-197.754,-95.703,98.633,-83.496,0.000
1728648278.313,-125.488,-83.496,90.332,-52.734,0.000
1728648278.316,-74.219,-67.383,48.828,-61.523,0.000
1728648278.320,-86.426,-89.844,37.598,-60.547,0.000
1728648278.324,-103.027,-104.004,53.711,-40.527,0.000
1728648278.328,-282.715,-72.266,12.207,-160.156,0.000
1728648278.332,-230.957,-171.387,51.270,-94.727,0.000
1728648278.336,-26.855,-201.660,62.500,17.578,0.000
1728648278.340,-36.621,-188.965,58.105,-26.367,0.000
1728648278.344,-163.086,-185.547,23.926,-66.895,0.000
1728648278.348,-204.102,-196.289,-31.250,-52.246,0.000
1728648278.352,-131.836,-254.395,23.438,-26.855,0.000
1728648278.355,-109.375,-282.227,63.477,-83.008,0.000
1728648278.359,-116.699,-330.566,73.730,-90.332,0.000
1728648278.363,-81.055,-348.633,78.613,-46.387,0.000
1728648278.367,-147.949,-298.340,80.078,-68.848,0.000
1728648278.371,-232.422,-267.090,57.617,-111.328,0.000
1728648278.375,-189.941,-257.324,35.156,-112.305,0.000
1728648278.379,-111.328,-313.477,37.598,-87.402,0.000
1728648278.383,-79.102,-390.625,49.805,-64.453,0.000
1728648278.387,-140.137,-472.656,0.000,-43.457,0.000
1728648278.391,-127.930,-582.520,8.789,-5.859,0.000
1728648278.395,-61.523,-596.680,62.500,8.789,0.000
1728648278.398,-45.898,-589.355,4.395,-32.715,0.000
1728648278.402,-94.238,-605.469,12.207,-49.316,0.000
1728648278.406,-241.699,-577.148,44.922,-119.141,0.000
1728648278.410,-247.070,-593.750,53.223,-124.023,0.000
1728648278.414,-103.516,-625.000,79.102,-39.062,0.000
1728648278.418,-39.062,-579.102,52.246,-27.344,0.000
1728648278.422,-38.574,-610.352,11.719,-41.016,0.000
1728648278.426,-108.398,-707.031,6.836,-47.852,0.000
1728648278.430,-166.992,-764.648,-24.902,-58.105,0.000
1728648278.434,-78.125,-738.281,-10.742,-21.973,0.000
1728648278.437,-37.598,-742.188,26.367,-12.207,0.000
1728648278.441,-80.566,-844.727,13.672,-45.898,0.000
1728648278.445,-74.707,-970.703,33.691,-39.062,0.000
1728648278.449,-118.652,-1000.000,48.340,-38.086,0.000
1728648278.453,-99.121,-996.094,23.926,-34.180,0.000
1728648278.457,-26.367,-1000.000,10.742,-6.348,0.000
1728648278.461,11.230,-1000.000,15.137,9.277,0.000
1728648278.465,-57.129,-1000.000,-3.906,-5.859,0.000
1728648278.469,-133.789,-1000.000,1.465,-19.531,0.000
1728648278.473,-94.727,-999.023,17.090,-15.137,0.000
1728648278.476,-4.883,-1000.000,5.859,0.488,0.000
1728648278.480,36.621,-992.676,21.973,43.457,0.000
1728648278.484,1.465,-938.477,-21.973,25.391,0.000
1728648278.488,-98.145,-871.582,-48.828,-29.785,0.000
1728648278.492,-125.488,-814.941,33.691,-24.414,0.000
1728648278.496,-30.273,-760.742,70.312,-11.230,0.000
1728648278.500,-1.953,-704.102,36.621,-26.855,0.000
1728648278.504,-41.016,-630.859,16.602,-46.875,0.000
1728648278.508,-99.121,-552.734,10.254,-61.035,0.000
1728648278.512,-79.590,-478.516,-7.812,-46.875,0.000
1728648278.516,-1.465,-403.809,-10.254,-27.344,0.000
1728648278.519,10.742,-321.289,15.137,-31.250,0.000
1728648278.523,-5.371,-237.305,17.578,-40.527,0.000
1728648278.527,-79.590,-175.781,-3.418,-66.406,0.000
1728648278.531,-73.242,-117.676,-46.387,-66.406,0.000
1728648278.535,16.602,-26.367,-55.664,-30.762,0.000
1728648278.539,4.883,36.133,7.324,-41.504,0.000
1728648278.543,-66.406,101.562,45.898,-73.730,0.000
1728648278.547,-120.605,241.211,43.457,-103.027,0.000
1728648278.551,-83.008,477.051,34.180,-104.980,0.000
1728648278.555,58.105,663.574,51.758,-53.223,0.000
1728648278.559,123.047,760.254,26.855,-7.324,0.000
1728648278.562,70.801,891.602,-76.172,-4.395,0.000
1728648278.566,-29.785,968.262,-52.246,-57.617,0.000
1728648278.570,-88.867,966.309,33.203,-84.961,0.000
1728648278.574,-0.977,966.797,29.297,-51.270,0.000
1728648278.578,75.684,968.750,-1.953,-30.762,0.000
1728648278.582,53.223,968.262,-7.324,-26.855,0.000
1728648278.586,14.648,968.262,6.348,-31.738,0.000
1728648278.590,-34.180,968.262,5.859,-20.020,0.000
1728648278.594,51.270,968.262,-20.508,7.324,0.000
1728648278.598,114.258,968.262,-40.039,9.766,0.000
1728648278.602,0.000,968.262,-16.602,21.484,0.000
1728648278.605,0.000,967.773,7.812,1.953,0.000
1728648278.609,0.000,966.309,-5.371,-36.133,0.000
1728648278.613,0.000,970.215,-22.461,-19.531,0.000
1728648278.617,0.000,926.270,-30.273,14.160,0.000
1728648278.621,0.000,843.262,-39.551,19.043,0.000
1728648278.625,0.000,786.133,-76.172,12.207,0.000
1728648278.629,0.000,732.422,-77.148,14.160,0.000
1728648278.633,0.000,677.734,-32.227,22.949,0.000
1728648278.637,0.000,605.469,-20.996,42.969,0.000
1728648278.641,0.000,540.527,-12.695,47.852,0.000
1728648278.645,0.000,500.000,-7.324,8.789,0.000
1728648278.648,-22.461,465.820,-3.906,-21.973,0.000
1728648278.652,8.789,433.105,-22.461,-5.371,0.000
1728648278.656,77.148,409.180,-17.578,15.137,0.000
1728648278.660,67.871,377.930,-6.836,16.113,0.000
1728648278.664,39.062,353.027,-36.621,15.137,0.000
1728648278.668,-8.301,333.984,-34.180,-14.160,0.000
1728648278.672,-30.273,307.129,-11.719,-25.391,0.000
1728648278.676,43.457,284.180,-20.508,11.230,0.000
1728648278.680,104.492,276.367,-37.598,27.344,0.000
1728648278.684,66.406,277.832,-59.570,-4.395,0.000
1728648278.688,-20.996,281.738,-63.965,-33.691,0.000
1728648278.691,-27.344,280.762,-52.246,-26.855,0.000
1728648278.695,0.000,273.926,-51.758,-4.395,0.000
1728648278.699,0.000,252.930,-24.414,10.254,0.000
1728648278.703,0.000,231.445,0.000,9.766,0.000
1728648278.707,0.000,211.914,-10.742,-29.785,0.000
1728648278.711,0.000,206.543,-18.066,-37.109,0.000
1728648278.715,0.000,209.473,-42.969,-3.418,0.000
1728648278.719,0.000,180.664,-48.828,-20.020,0.000
1728648278.723,0.000,161.621,-15.137,-13.184,0.000
1728648278.727,0.000,165.527,-31.738,-15.625,0.000
1728648278.730,0.000,145.996,-46.387,-22.461,0.000
1728648278.734,0.000,150.879,-32.715,2.441,0.000
1728648278.738,0.000,160.156,-33.691,14.160,0.000
1728648278.742,31.738,151.855,-44.922,10.742,0.000
1728648278.746,-39.062,140.625,-34.668,-19.043,0.000
1728648278.750,-41.016,123.047,-6.836,-19.043,0.000
1728648278.754,29.785,111.328,-13.184,5.859,0.000
1728648278.758,68.848,115.234,-28.320,1.465,0.000
1728648278.762,67.871,119.629,-23.926,-8.301,0.000
1728648278.766,-30.762,112.305,-20.508,-17.090,0.000
1728648278.770,-79.590,107.422,-47.852,-28.320,0.000
1728648278.773,7.324,107.910,-76.660,-13.184,0.000
1728648278.777,39.062,103.516,-48.828,5.859,0.000
1728648278.781,29.785,89.844,0.488,4.395,0.000
1728648278.785,-5.371,74.707,7.812,-17.090,0.000
1728648278.789,-76.172,67.871,5.371,-63.477,0.000
1728648278.793,-26.367,65.918,7.812,-50.781,0.000
1728648278.797,73.242,76.172,5.859,0.000,0.000
1728648278.801,58.594,78.613,-13.184,4.395,0.000
1728648278.805,7.324,54.688,-41.016,-7.324,0.000
1728648278.809,-42.480,41.016,-40.039,-30.273,0.000
1728648278.812,-15.137,41.992,-9.277,-21.484,0.000
1728648278.816,29.785,38.086,20.508,-11.719,0.000
1728648278.820,-8.789,43.457,13.672,-27.832,0.000
1728648278.824,-25.879,32.715,-8.789,-37.109,0.000
1728648278.828,-59.570,6.836,-8.789,-54.688,0.000
1728648278.832,-20.020,12.695,-7.812,-29.297,0.000
1728648278.836,56.641,45.410,-43.457,-0.977,0.000
1728648278.840,40.039,41.992,-69.336,-0.977,0.000
1728648278.844,-7.812,13.184,-31.250,-21.973,0.000
1728648278.848,-22.949,14.648,13.184,-39.551,0.000
1728648278.851,-12.207,35.645,22.461,-24.414,0.000
1728648278.855,29.297,26.367,-5.371,-6.348,0.000
1728648278.859,22.949,10.742,-20.996,-10.742,0.000
1728648278.863,-31.738,12.695,-4.883,-17.090,0.000
1728648278.867,-77.637,9.766,-8.789,-30.762,0.000
1728648278.871,-27.344,12.207,-15.625,-32.715,0.000
1728648278.875,47.363,16.602,-16.113,-3.418,0.000
1728648278.879,45.898,15.625,-27.344,5.859,0.000
1728648278.883,5.859,17.578,-23.438,-4.395,0.000
1728648278.887,-52.734,5.859,-32.715,-35.156,0.000
1728648278.890,-67.383,-4.395,-37.598,-41.992,0.000
1728648278.894,-11.230,0.977,-18.066,-1.465,0.000
1728648278.898,34.180,-7.324,-21.484,2.930,0.000
1728648278.902,21.484,-15.137,-42.969,-9.277,0.000
1728648278.906,-31.250,-18.066,-46.387,-26.855,0.000
1728648278.910,-28.809,-20.996,-51.758,-24.414,0.000
1728648278.914,57.617,-15.137,-65.918,20.508,0.000
1728648278.918,76.172,-7.812,-56.152,32.227,0.000
1728648278.922,25.879,0.977,-29.297,-0.488,0.000
1728648278.926,-39.062,10.742,-7.812,-38.086,0.000
1728648278.930,-84.961,3.418,-20.996,-35.645,0.000
1728648278.933,-16.602,3.418,-48.828,-7.324,0.000
1728648278.937,46.875,7.812,-26.855,0.977,0.000
1728648278.941,40.039,-5.371,0.000,-13.672,0.000
1728648278.945,-50.781,-1.953,-12.695,-38.574,0.000
1728648278.949,-77.148,3.906,-33.691,-33.691,0.000
1728648278.953,38.086,2.930,-22.949,6.836,0.000
1728648278.957,75.684,9.766,-16.113,19.043,0.000
1728648278.961,37.598,9.277,-41.992,0.977,0.000
1728648278.965,-56.152,13.184,-48.828,-8.789,0.000
1728648278.969,-101.074,18.066,-27.832,-33.203,0.000
1728648278.973,-7.812,22.461,-16.602,-22.461,0.000
1728648278.976,57.129,19.043,-14.160,2.441,0.000
1728648278.980,59.570,13.672,-30.273,-4.395,0.000
1728648278.984,-10.254,13.672,-48.340,-23.926,0.000
1728648278.988,-81.055,14.648,-45.410,-39.551,0.000
1728648278.992,2.930,24.414,-48.828,-13.672,0.000
1728648278.996,87.402,26.855,-41.992,20.020,0.000
1728648279.000,55.176,12.695,-18.066,-12.695,0.000
1728648279.004,-20.996,-0.488,-1.953,-44.922,0.000
1728648279.008,-69.336,1.953,-4.883,-41.504,0.000
1728648279.012,-0.977,4.395,-10.742,-21.484,0.000
1728648279.016,78.613,-19.531,-8.301,0.000,0.000
1728648279.019,89.355,-20.996,-8.301,13.184,0.000
1728648279.023,50.781,19.531,-10.254,3.418,0.000
1728648279.027,-52.246,38.086,-22.949,-23.926,0.000
1728648279.031,-41.016,41.992,-37.598,-23.926,0.000
1728648279.035,56.152,41.992,-35.156,12.207,0.000
1728648279.039,46.387,33.203,-41.992,5.371,0.000
1728648279.043,-18.555,23.438,-42.480,-23.438,0.000
1728648279.047,-53.711,18.066,-35.156,-29.297,0.000
1728648279.051,-20.996,13.672,-29.785,-29.297,0.000
1728648279.055,40.527,11.719,-19.531,-8.789,0.000
1728648279.058,60.547,13.184,-24.414,12.695,0.000
1728648279.062,37.598,16.602,-31.250,4.883,0.000
1728648279.066,-72.754,26.855,-33.691,-20.996,0.000
1728648279.070,0.000,35.156,-33.691,-20.020,0.000
1728648279.074,0.000,37.598,-20.996,14.648,0.000
1728648279.078,0.000,33.691,-15.137,12.695,0.000
1728648279.082,0.000,40.527,-12.695,-9.766,0.000
1728648279.086,0.000,50.781,-10.742,-16.602,0.000
1728648279.090,0.000,44.922,-10.742,-8.301,0.000
1728648279.094,0.000,47.852,-36.621,6.836,0.000
1728648279.098,0.000,47.363,-42.969,22.949,0.000
1728648279.101,0.000,37.109,-9.277,25.391,0.000
1728648279.105,0.000,34.668,3.418,-2.441,0.000
1728648279.109,0.000,33.203,-13.184,-20.996,0.000
1728648279.113,0.000,35.645,-28.809,-24.902,0.000
1728648279.117,54.199,43.457,-27.832,6.348,0.000
1728648279.121,66.406,54.688,-43.945,6.836,0.000
1728648279.125,-7.324,52.246,-28.809,-16.113,0.000
1728648279.129,-69.336,38.574,-13.184,-27.344,0.000
1728648279.133,-2.930,40.039,-14.160,-7.324,0.000
1728648279.137,44.922,31.250,-8.301,7.324,0.000
1728648279.141,-5.371,27.832,-10.254,-8.789,0.000
1728648279.144,-8.789,43.457,-18.555,-19.531,0.000
1728648279.148,-19.043,47.852,-24.414,-41.016,0.000
1728648279.152,17.578,46.875,-19.043,-29.785,0.000
1728648279.156,40.527,49.316,-28.320,1.465,0.000
1728648279.160,19.043,48.340,-34.180,0.977,0.000
1728648279.164,-14.648,45.410,-29.785,0.488,0.000
1728648279.168,-54.688,56.152,-33.203,4.395,0.000
1728648279.172,-6.348,47.363,-29.785,-16.113,0.000
1728648279.176,50.293,30.273,-35.156,-10.254,0.000
1728648279.180,50.781,31.250,-34.180,5.859,0.000
1728648279.183,13.672,29.785,-18.066,0.488,0.000
1728648279.187,-52.246,30.762,-2.930,4.395,0.000
1728648279.191,0.977,26.367,1.953,5.859,0.000
1728648279.195,37.109,39.062,-5.859,-17.578,0.000
1728648279.199,-5.371,60.547,-18.066,-25.879,0.000
1728648279.203,-12.207,41.016,-38.574,-40.527,0.000
1728648279.207,-49.805,31.738,-24.902,-60.059,0.000
1728648279.211,0.000,35.156,-13.672,-37.598,0.000
1728648279.215,0.000,21.484,-20.508,-3.418,0.000
1728648279.219,0.000,7.324,-32.715,16.602,0.000
1728648279.222,0.000,11.719,-56.152,19.043,0.000
1728648279.226,0.000,27.344,-50.781,-27.832,0.000
1728648279.230,0.000,32.715,-16.602,-41.504,0.000
1728648279.234,0.000,22.949,11.230,-18.066,0.000
1728648279.238,0.000,21.484,9.277,-23.926,0.000
1728648279.242,0.000,22.949,-1.953,-26.855,0.000
1728648279.246,0.000,23.438,-2.441,-34.668,0.000
1728648279.250,0.000,30.273,-16.113,-35.645,0.000
1728648279.254,0.000,22.949,-32.227,-8.789,0.000
1728648279.258,84.473,21.484,-25.879,10.254,0.000
1728648279.261,39.551,41.504,-20.996,-5.859,0.000
1728648279.265,-34.180,42.969,-20.508,-30.762,0.000
1728648279.269,-56.641,35.156,-9.766,-31.738,0.000
1728648279.273,20.508,31.250,-1.953,-9.277,0.000
1728648279.277,40.039,37.109,-3.418,9.277,0.000
1728648279.281,15.625,35.156,-20.020,-6.348,0.000
1728648279.285,-25.879,32.227,-33.691,-37.598,0.000
1728648279.289,-51.758,33.203,-14.160,-48.340,0.000
1728648279.293,14.648,24.414,-1.953,-30.273,0.000
1728648279.297,37.598,29.785,-29.297,-11.230,0.000
1728648279.301,12.695,36.621,-28.320,-9.766,0.000
1728648279.304,-27.832,30.273,4.395,-22.461,0.000
1728648279.308,-100.586,15.137,7.812,-38.086,0.000
1728648279.312,-31.738,12.695,-4.883,-9.277,0.000
1728648279.316,59.570,31.738,-13.184,0.488,0.000
1728648279.320,43.945,40.527,-41.504,-6.836,0.000
1728648279.324,-12.207,35.645,-55.664,-17.578,0.000
1728648279.328,-77.148,33.691,-36.621,-39.551,0.000
1728648279.332,-25.391,26.855,-45.898,-26.367,0.000
1728648279.336,35.645,11.230,-41.992,-2.441,0.000
1728648279.340,19.531,0.000,-12.695,-5.859,0.000
1728648279.344,-16.113,1.465,-1.465,-17.090,0.000
1728648279.347,-85.449,3.418,-8.789,-41.504,0.000
1728648279.351,-74.219,2.441,-25.879,-24.414,0.000
1728648279.355,41.016,4.883,-14.648,10.254,0.000
1728648279.359,34.180,2.441,-16.602,5.371,0.000
1728648279.363,-21.973,-9.277,-42.480,-25.391,0.000
1728648279.367,-41.504,-6.836,-33.691,-34.668,0.000
1728648279.371,-14.648,0.488,-21.973,-24.414,0.000
1728648279.375,20.508,-2.930,-22.461,-5.859,0.000
1728648279.379,-1.953,5.859,-26.855,-2.930,0.000
1728648279.383,-20.020,8.789,-50.293,-17.578,0.000
1728648279.387,-55.176,0.000,-51.758,-43.945,0.000
1728648279.390,-8.789,-9.277,-11.719,-30.273,0.000
1728648279.394,66.406,-10.254,-0.488,3.418,0.000
1728648279.398,21.484,-1.953,-18.066,-12.207,0.000
1728648279.402,-28.809,1.953,-23.926,-31.738,0.000
1728648279.406,-35.156,3.418,-14.160,-43.457,0.000
1728648279.410,-21.973,-0.488,-5.859,-40.527,0.000
1728648279.414,29.785,-3.906,-13.672,-16.602,0.000
1728648279.418,58.594,9.277,-14.160,-9.766,0.000
1728648279.422,7.324,6.836,-20.508,-23.438,0.000
1728648279.426,-78.613,0.977,-35.645,-36.133,0.000
1728648279.429,-76.172,10.254,-30.762,-27.344,0.000
1728648279.433,10.254,23.926,-15.137,-16.113,0.000
1728648279.437,51.758,42.969,-10.254,-15.625,0.000
1728648279.441,26.855,54.688,-44.922,-14.160,0.000
1728648279.445,-41.016,44.922,-65.430,-14.648,0.000
1728648279.449,-53.711,40.527,-28.809,-33.203,0.000
1728648279.453,2.441,53.223,-1.465,-34.668,0.000
1728648279.457,8.789,65.918,-0.488,-9.277,0.000
1728648279.461,8.301,67.383,-8.301,-2.441,0.000
1728648279.465,-25.879,61.523,-27.344,-29.297,0.000
1728648279.469,-57.617,56.641,-40.527,-49.316,0.000
1728648279.472,14.648,56.152,-39.551,-12.695,0.000
1728648279.476,47.363,46.875,-23.438,-3.906,0.000
1728648279.480,15.137,40.039,-10.254,-28.320,0.000
1728648279.484,-30.273,46.387,-13.184,-42.480,0.000
1728648279.488,-60.059,42.969,-11.719,-41.504,0.000
1728648279.492,12.695,41.992,-30.273,-17.090,0.000
1728648279.496,48.340,45.410,-41.992,-12.207,0.000
1728648279.500,-15.137,58.594,-13.184,-21.973,0.000
1728648279.504,-42.480,74.219,-8.789,-32.715,0.000
1728648279.508,-54.688,76.660,-28.809,-55.664,0.000
1728648279.512,-12.695,57.617,-9.766,-29.785,0.000
1728648279.515,28.320,37.598,6.836,-5.371,0.000
1728648279.519,44.922,33.691,-4.395,2.441,0.000
1728648279.523,-3.906,39.062,-7.324,-8.301,0.000
1728648279.527,-63.965,45.410,-1.465,-32.227,0.000
1728648279.531,-9.766,36.621,-21.484,-20.996,0.000
1728648279.535,42.969,29.297,-31.250,0.000,0.000
1728648279.539,25.391,34.668,-10.254,-26.855,0.000
1728648279.543,-16.602,35.156,-7.812,-42.969,0.000
1728648279.547,-73.730,36.621,-10.254,-40.527,0.000
1728648279.551,-7.812,37.598,-7.324,-31.738,0.000
1728648279.554,61.523,32.715,-27.344,-7.324,0.000
1728648279.558,35.645,32.715,-22.461,20.996,0.000
1728648279.562,1.465,39.551,8.301,6.836,0.000
1728648279.566,-40.527,50.293,11.230,-26.367,0.000
1728648279.570,7.324,57.129,6.836,-15.625,0.000
1728648279.574,55.176,61.523,-32.227,-14.160,0.000
1728648279.578,62.012,64.453,-64.453,-18.555,0.000
1728648279.582,3.906,57.129,-35.645,-10.254,0.000
1728648279.586,-63.477,35.156,-5.371,-24.902,0.000
1728648279.590,-27.344,21.973,4.395,-17.578,0.000
1728648279.593,36.133,24.414,0.977,-4.883,0.000
1728648279.597,44.434,19.531,-21.973,-0.488,0.000
1728648279.601,19.531,11.230,-41.016,-8.789,0.000
1728648279.605,-74.707,19.043,-36.621,-58.105,0.000
1728648279.609,-84.961,23.926,-21.484,-57.129,0.000
1728648279.613,24.902,17.578,-28.809,7.324,0.000
1728648279.617,83.008,11.230,-51.758,20.020,0.000
1728648279.621,27.832,14.160,-36.133,-6.836,0.000
1728648279.625,-67.871,17.090,-7.812,-34.668,0.000
1728648279.629,-80.078,14.648,0.000,-42.480,0.000
1728648279.632,-39.062,19.043,-0.488,-23.926,0.000
1728648279.636,-8.301,23.926,-9.277,-6.348,0.000
1728648279.640,20.508,28.809,-24.902,-13.184,0.000
1728648279.644,-20.020,31.738,-42.480,-50.293,0.000
1728648279.648,-63.477,21.973,-61.035,-59.570,0.000
1728648279.652,-39.551,25.879,-43.457,-32.715,0.000
1728648279.656,24.902,17.578,-5.859,-17.578,0.000
1728648279.660,19.043,15.625,4.883,-15.137,0.000
1728648279.664,-29.297,22.949,-8.789,-22.461,0.000
1728648279.668,-45.898,19.531,-15.137,-28.320,0.000
1728648279.672,0.000,15.625,-14.160,-14.648,0.000
1728648279.675,46.875,11.719,-12.695,-9.766,0.000
1728648279.679,17.578,15.137,-20.020,-5.859,0.000
1728648279.683,-41.016,21.484,-38.574,-10.742,0.000
1728648279.687,-73.242,25.391,-49.316,-47.852,0.000
1728648279.691,15.137,43.457,-28.809,-39.551,0.000
1728648279.695,55.176,60.547,2.930,-8.789,0.000
1728648279.699,29.785,61.523,8.789,-6.836,0.000
1728648279.703,-0.488,57.129,-12.207,-22.949,0.000
1728648279.707,-51.270,58.594,-25.391,-38.086,0.000
1728648279.711,-19.531,52.246,-12.207,-12.695,0.000
1728648279.715,29.785,53.223,-23.926,15.137,0.000
1728648279.718,40.039,62.012,-34.180,8.301,0.000
1728648279.722,11.230,60.547,-17.090,-8.789,0.000
1728648279.726,0.000,53.223,0.977,-24.414,0.000
1728648279.730,0.000,47.363,-2.441,2.930,0.000
1728648279.734,0.000,52.246,-11.230,21.973,0.000
1728648279.738,0.000,58.594,-4.883,1.465,0.000
1728648279.742,0.000,47.852,-27.832,-13.184,0.000
1728648279.746,0.000,48.340,-52.246,-23.926,0.000
1728648279.750,0.000,56.641,-29.297,-20.996,0.000
1728648279.754,0.000,50.781,10.742,-10.742,0.000
1728648279.758,0.000,47.852,21.973,-5.859,0.000
1728648279.761,0.000,44.922,14.160,7.812,0.000
1728648279.765,0.000,42.480,-1.465,-6.348,0.000
1728648279.769,0.000,42.480,-16.113,-11.230,0.000
1728648279.773,42.969,54.199,-17.578,10.742,0.000
1728648279.777,38.086,58.105,-16.113,15.137,0.000
1728648279.781,15.625,44.922,-9.277,-7.324,0.000
1728648279.785,-35.156,29.785,-18.066,-25.391,0.000
1728648279.789,-22.949,23.926,-27.832,-7.812,0.000
1728648279.793,57.129,22.461,-14.160,0.488,0.000
1728648279.797,62.500,19.531,-4.395,-9.277,0.000
1728648279.800,6.348,20.508,2.930,-25.879,0.000
1728648279.804,-62.012,21.973,6.348,-36.133,0.000
1728648279.808,-74.707,29.785,-9.766,-33.691,0.000
1728648279.812,32.715,30.762,-20.996,-11.230,0.000
1728648279.816,99.609,23.926,-24.902,5.859,0.000
1728648279.820,44.434,14.160,-33.691,-5.859,0.000
1728648279.824,-23.926,14.160,-46.875,-24.414,0.000
1728648279.828,-26.367,21.973,-34.668,-36.133,0.000
1728648279.832,16.113,23.438,-9.766,-9.277,0.000
1728648279.836,54.199,18.066,3.418,-0.488,0.000
1728648279.840,26.855,6.348,-4.883,-24.414,0.000
1728648279.843,-47.363,12.695,-11.719,-39.062,0.000
1728648279.847,-44.434,14.648,-20.020,-16.602,0.000
1728648279.851,7.324,9.277,-27.832,7.324,0.000
1728648279.855,57.617,19.531,-6.348,-8.789,0.000
1728648279.859,29.297,20.508,6.348,-20.508,0.000
1728648279.863,-18.066,19.043,0.488,-25.391,0.000
1728648279.867,0.000,21.484,-1.465,-20.996,0.000
1728648279.871,0.000,22.949,-14.160,-5.859,0.000
1728648279.875,0.000,23.926,-35.156,11.230,0.000
1728648279.879,0.000,23.438,-28.809,12.695,0.000
1728648279.883,0.000,23.438,-12.695,-11.719,0.000
1728648279.886,0.000,16.602,-3.906,-28.320,0.000
1728648279.890,0.000,14.160,-3.418,-17.090,0.000
1728648279.894,0.000,17.090,-16.113,4.883,0.000
1728648279.898,0.000,25.391,-22.461,0.000,0.000
1728648279.902,0.000,24.902,-10.254,-29.785,0.000
1728648279.906,0.000,16.113,-18.555,-57.617,0.000
1728648279.910,0.000,21.973,-35.645,-41.504,0.000
1728648279.914,45.898,22.461,-26.855,-3.906,0.000
1728648279.918,45.898,20.508,-26.855,1.953,0.000
1728648279.922,-14.160,23.438,-28.320,-7.812,0.000
1728648279.925,-63.477,23.438,-18.066,-21.484,0.000
1728648279.929,-13.672,32.227,-19.531,-15.625,0.000
1728648279.933,58.594,30.273,-4.883,-9.766,0.000
1728648279.937,54.199,16.602,17.578,-11.719,0.000
1728648279.941,-3.906,18.066,-4.883,-16.602,0.000
1728648279.945,-70.801,27.832,-36.133,-32.227,0.000
1728648279.949,-42.969,30.273,-35.645,-23.926,0.000
1728648279.953,26.855,24.902,-21.973,-20.508,0.000
1728648279.957,31.738,26.855,2.930,-8.301,0.000
1728648279.961,3.906,27.344,16.602,11.719,0.000
1728648279.964,-55.664,29.297,1.465,-9.277,0.000
1728648279.968,-60.059,29.785,-16.113,-11.230,0.000
1728648279.972,61.035,23.438,-8.789,11.719,0.000
1728648279.976,76.660,22.949,-1.465,17.090,0.000
1728648279.980,4.883,30.273,-6.836,13.672,0.000
1728648279.984,-49.316,32.227,-33.203,-11.719,0.000
1728648279.988,-31.738,28.320,-66.895,-29.297,0.000
1728648279.992,63.965,21.973,-52.246,-8.789,0.000
1728648279.996,46.387,27.832,-17.090,5.859,0.000
1728648280.000,-8.301,27.832,16.602,-18.066,0.000
1728648280.004,-33.691,26.367,27.344,-26.855,0.000
1728648280.007,-34.180,32.715,15.625,-15.625,0.000
1728648280.011,26.855,28.320,-6.348,-1.953,0.000
1728648280.015,43.945,23.438,-11.719,1.465,0.000
1728648280.019,28.320,22.949,-7.324,-7.812,0.000
1728648280.023,-13.672,23.438,-8.789,-13.672,0.000
1728648280.027,-59.570,30.273,-21.484,-35.156,0.000
1728648280.031,-16.113,38.086,-24.414,-20.996,0.000
1728648280.035,55.664,37.598,-17.090,2.930,0.000
1728648280.039,29.785,20.020,-6.836,15.137,0.000
1728648280.043,-26.855,6.836,-3.418,8.789,0.000
1728648280.047,-29.785,21.484,-19.531,-18.555,0.000
1728648280.050,26.367,27.344,-16.602,-5.859,0.000
1728648280.054,61.035,28.320,-17.578,7.324,0.000
1728648280.058,50.781,33.203,-33.691,-5.371,0.000
1728648280.062,-4.883,33.691,-35.645,-20.020,0.000
1728648280.066,-62.988,27.344,-28.809,-57.129,0.000
1728648280.070,-8.789,15.137,8.789,-44.434,0.000
1728648280.074,35.645,11.230,27.344,-16.602,0.000
1728648280.078,22.461,13.184,6.836,-19.531,0.000
1728648280.082,-33.203,12.207,-8.301,-27.832,0.000
1728648280.086,-89.355,18.066,-10.742,-21.484,0.000
1728648280.090,-22.949,24.902,-18.555,3.418,0.000
1728648280.093,50.293,12.207,-17.090,0.977,0.000
1728648280.097,22.461,2.930,-9.766,-12.207,0.000
1728648280.101,-27.832,5.371,-14.648,-18.066,0.000
1728648280.105,-75.195,12.695,-33.691,-41.016,0.000
1728648280.109,-5.371,20.996,-45.410,-29.785,0.000
1728648280.113,72.754,16.113,-22.461,0.000,0.000
1728648280.117,52.246,14.160,-11.719,0.000,0.000
1728648280.121,4.883,19.043,-9.277,-9.766,0.000
1728648280.125,-68.848,19.043,0.000,-34.180,0.000
1728648280.129,-36.621,20.020,-20.508,-25.391,0.000
1728648280.133,39.062,23.438,-40.527,-0.488,0.000
1728648280.136,20.996,28.320,-38.574,-11.719,0.000
1728648280.140,5.859,28.320,-19.531,-29.297,0.000
1728648280.144,-47.363,24.414,0.977,-47.363,0.000
1728648280.148,-51.758,24.414,-0.488,-39.551,0.000
1728648280.152,11.719,25.879,-5.371,-5.859,0.000
1728648280.156,19.043,34.180,1.465,1.465,0.000
1728648280.160,-37.598,43.945,-11.230,-5.371,0.000
1728648280.164,-61.035,44.434,-19.043,-39.062,0.000
1728648280.168,-6.348,47.363,-18.066,-35.645,0.000
1728648280.172,48.828,61.035,-39.551,17.578,0.000
1728648280.176,34.668,64.453,-53.711,-2.441,0.000
1728648280.179,10.742,56.641,-24.902,-32.227,0.000
1728648280.183,-69.336,51.758,5.371,-29.297,0.000
1728648280.187,-78.613,49.805,7.324,-29.785,0.000
1728648280.191,16.113,56.152,13.672,-20.996,0.000
1728648280.195,37.598,58.105,11.230,-17.578,0.000
1728648280.199,0.488,52.734,0.977,-13.672,0.000
1728648280.203,-72.754,57.129,-11.230,-33.203,0.000
1728648280.207,-62.012,53.223,-30.762,-41.016,0.000
1728648280.211,7.812,49.805,-40.039,4.883,0.000
1728648280.215,39.062,57.129,-22.949,5.371,0.000
1728648280.218,0.000,59.570,5.859,-9.766,0.000
1728648280.222,-58.594,58.105,-21.973,-23.926,0.000
1728648280.226,-59.082,62.500,-44.434,-48.828,0.000
1728648280.230,28.320,63.965,4.395,-19.043,0.000
1728648280.234,66.895,57.617,31.250,8.301,0.000
1728648280.238,29.297,54.688,3.906,9.766,0.000
1728648280.242,0.000,51.758,-22.949,-8.301,0.000
1728648280.246,0.000,43.945,-6.348,-18.555,0.000
1728648280.250,0.000,43.945,10.254,-12.207,0.000
1728648280.254,0.000,52.246,-8.301,-4.395,0.000
1728648280.258,0.000,56.641,-24.414,3.906,0.000
1728648280.261,0.000,53.223,0.488,-2.441,0.000
1728648280.265,0.000,47.363,12.207,-22.461,0.000
1728648280.269,0.000,49.316,-1.465,-15.137,0.000
1728648280.273,0.000,55.664,5.371,11.230,0.000
1728648280.277,0.000,60.059,-1.953,6.348,0.000
1728648280.281,0.000,53.223,-4.883,-2.441,0.000
1728648280.285,0.000,57.129,-6.836,-16.602,0.000
1728648280.289,-9.766,56.152,-36.621,2.441,0.000
1728648280.293,48.340,54.688,-28.320,9.766,0.000
1728648280.297,62.012,64.941,6.836,-10.742,0.000
1728648280.300,24.902,62.988,13.184,-17.090,0.000
1728648280.304,-71.289,49.805,13.184,-37.109,0.000
1728648280.308,-43.457,41.992,5.371,-20.020,0.000
1728648280.312,12.207,45.898,3.906,6.836,0.000
1728648280.316,40.527,47.852,11.230,0.000,0.000
1728648280.320,-4.883,46.875,-3.418,-18.555,0.000
1728648280.324,-81.543,50.781,-23.926,-30.762,0.000
1728648280.328,-33.203,55.664,-18.066,-33.203,0.000
1728648280.332,62.012,48.828,-1.953,-11.230,0.000
1728648280.336,69.336,42.480,-1.465,-1.953,0.000
1728648280.339,13.672,44.434,-21.973,-26.367,0.000
1728648280.343,-42.480,47.363,-13.672,-29.297,0.000
1728648280.347,-42.480,45.410,-1.953,-12.207,0.000
1728648280.351,3.418,46.387,-26.855,-1.953,0.000
1728648280.355,20.508,43.945,-28.320,-2.930,0.000
1728648280.359,16.113,37.109,-4.395,-7.324,0.000
1728648280.363,-74.219,38.086,12.207,-37.109,0.000
1728648280.367,-78.125,41.992,19.531,-40.039,0.000
1728648280.371,19.043,42.969,17.090,-11.230,0.000
1728648280.375,42.480,45.898,15.625,5.859,0.000
1728648280.379,6.836,42.480,0.977,-6.348,0.000
1728648280.382,-49.316,35.156,-12.207,-31.250,0.000
1728648280.386,-70.312,31.738,-8.301,-12.207,0.000
1728648280.390,12.207,30.762,-18.066,21.484,0.000
1728648280.394,42.969,40.527,-24.414,12.695,0.000
1728648280.398,25.391,49.805,-22.461,4.395,0.000
1728648280.402,-14.160,44.922,-39.062,-10.254,0.000
1728648280.406,-61.523,39.551,-20.508,-33.203,0.000
1728648280.410,-23.438,42.480,14.160,-8.789,0.000
1728648280.414,6.348,44.434,7.324,21.973,0.000
1728648280.418,35.156,47.852,-2.441,18.555,0.000
1728648280.421,3.906,44.434,-11.230,-5.371,0.000
1728648280.425,-41.504,50.781,-19.043,-15.625,0.000
1728648280.429,16.602,45.898,-19.043,-9.277,0.000
1728648280.433,45.410,35.156,-7.812,7.324,0.000
1728648280.437,20.996,39.551,-1.465,10.742,0.000
1728648280.441,-13.672,39.551,-12.695,-16.602,0.000
1728648280.445,-53.711,37.598,-26.855,-23.438,0.000
1728648280.449,-18.066,38.086,-20.020,-1.953,0.000
1728648280.453,29.785,31.250,-16.113,11.719,0.000
1728648280.457,41.504,38.086,-22.461,-4.395,0.000
1728648280.461,-11.230,40.527,-11.230,-23.926,0.000
1728648280.464,-47.363,34.668,-6.836,-23.926,0.000
1728648280.468,-0.488,35.645,-3.418,-16.602,0.000
1728648280.472,33.691,38.574,3.906,-24.414,0.000
1728648280.476,26.855,33.691,4.395,-6.348,0.000
1728648280.480,6.836,27.344,0.977,0.977,0.000
1728648280.484,-47.852,34.180,-17.090,-23.438,0.000
1728648280.488,-39.062,45.898,-32.227,-21.973,0.000
1728648280.492,14.648,47.363,-30.273,-21.973,0.000
1728648280.496,43.457,39.551,-20.996,-15.137,0.000
1728648280.500,7.812,29.297,-19.043,-22.949,0.000
1728648280.504,-68.848,39.062,-46.387,-47.363,0.000
1728648280.507,-50.781,46.387,-52.246,-31.250,0.000
1728648280.511,16.113,31.738,-25.879,-9.277,0.000
1728648280.515,26.367,28.320,-9.766,-19.043,0.000
1728648280.519,22.949,35.645,6.836,-26.855,0.000
1728648280.523,-34.668,37.598,1.465,-41.016,0.000
1728648280.527,-49.805,38.086,-7.324,-37.598,0.000
1728648280.531,24.414,31.250,-2.930,-11.719,0.000
1728648280.535,64.941,22.949,-10.742,10.742,0.000
1728648280.539,51.270,36.133,-13.672,20.996,0.000
1728648280.543,-21.484,42.969,-20.020,-7.324,0.000
1728648280.547,-41.504,34.180,-42.969,-28.320,0.000
1728648280.550,33.691,33.691,-35.156,4.883,0.000
1728648280.554,51.758,27.832,-3.906,37.109,0.000
1728648280.558,-4.883,22.949,10.742,2.441,0.000
1728648280.562,-32.715,32.227,-3.418,-25.879,0.000
1728648280.566,-27.832,34.668,-33.203,-16.113,0.000
1728648280.570,18.555,29.297,-27.832,-4.883,0.000
1728648280.574,64.941,30.273,-28.809,2.930,0.000
1728648280.578,39.062,28.320,-31.250,-11.230,0.000
1728648280.582,-59.570,15.625,1.465,-28.809,0.000
1728648280.586,-74.707,14.648,4.395,-26.855,0.000
1728648280.589,23.926,24.902,-0.977,-4.883,0.000
1728648280.593,62.988,20.508,2.930,22.949,0.000
1728648280.597,46.875,14.648,-25.879,17.090,0.000
1728648280.601,-8.789,19.043,-45.898,-25.391,0.000
1728648280.605,-66.406,24.902,-16.602,-35.156,0.000
1728648280.609,-20.996,27.344,19.043,-6.348,0.000
1728648280.613,41.992,25.391,-2.930,11.230,0.000
1728648280.617,29.297,35.645,-39.551,9.277,0.000
1728648280.621,1.953,39.062,-42.969,-12.695,0.000
1728648280.625,-73.730,21.973,-36.621,-41.016,0.000
1728648280.629,-47.852,16.602,-29.297,-36.133,0.000
1728648280.632,46.387,13.672,0.977,0.977,0.000
1728648280.636,49.316,19.531,26.855,17.090,0.000
1728648280.640,-16.602,30.273,18.555,1.465,0.000
1728648280.644,-57.617,13.672,-0.977,-22.461,0.000
1728648280.648,-20.508,11.719,-37.598,-20.508,0.000
1728648280.652,30.762,23.438,-39.062,-17.578,0.000
1728648280.656,45.898,23.438,0.488,-11.719,0.000
1728648280.660,12.207,25.391,11.719,-1.465,0.000
1728648280.664,-59.082,29.785,9.277,-31.250,0.000
1728648280.668,-45.898,28.809,4.395,-40.527,0.000
1728648280.671,41.504,28.320,-8.301,-0.488,0.000
1728648280.675,45.898,20.020,-4.395,0.977,0.000
1728648280.679,7.324,16.602,6.836,-11.230,0.000
1728648280.683,-66.895,18.066,-10.742,-32.715,0.000
1728648280.687,-45.898,22.461,-26.855,-28.809,0.000
1728648280.691,50.293,20.020,-13.184,-11.719,0.000
1728648280.695,44.922,19.531,-6.348,-9.277,0.000
1728648280.699,4.883,23.926,-17.578,-2.441,0.000
1728648280.703,-37.598,20.996,-12.695,-24.414,0.000
1728648280.707,-5.371,20.508,2.930,-19.531,0.000
1728648280.710,60.059,29.785,13.184,3.906,0.000
1728648280.714,62.988,32.715,11.230,9.277,0.000
1728648280.718,42.969,23.926,-7.324,12.695,0.000
1728648280.722,-20.020,26.855,-30.762,-1.465,0.000
1728648280.726,-46.875,25.391,-34.668,-20.508,0.000
1728648280.730,13.672,20.996,-21.973,-4.883,0.000
1728648280.734,47.363,24.414,-20.020,23.926,0.000
1728648280.738,28.809,17.090,-10.742,-1.953,0.000
1728648280.742,-50.293,18.066,14.160,-27.832,0.000
1728648280.746,-73.730,21.973,20.020,-12.695,0.000
1728648280.750,28.809,20.020,6.348,5.371,0.000
1728648280.753,74.219,21.484,-16.602,0.488,0.000
1728648280.757,58.594,20.508,-14.648,-7.812,0.000
1728648280.761,12.695,20.996,-20.020,-15.625,0.000
1728648280.765,-23.438,23.926,-34.180,-24.902,0.000
1728648280.769,34.668,22.949,-9.766,-5.859,0.000
1728648280.773,80.078,22.461,-15.625,24.414,0.000
1728648280.777,41.504,18.555,-26.855,22.461,0.000
1728648280.781,-23.438,7.812,-1.953,-27.832,0.000
1728648280.785,-43.457,6.836,14.648,-35.645,0.000
1728648280.789,20.996,21.973,16.602,13.184,0.000
1728648280.792,64.453,21.484,3.418,34.180,0.000
1728648280.796,41.992,18.066,-21.973,39.551,0.000
1728648280.800,7.324,26.367,-23.926,15.625,0.000
1728648280.804,-36.621,18.066,-11.719,-17.090,0.000
1728648280.808,-18.066,8.789,4.883,-22.949,0.000
1728648280.812,37.109,18.066,20.020,-17.090,0.000
1728648280.816,54.199,17.090,12.695,6.836,0.000
1728648280.820,6.836,12.207,3.418,15.625,0.000
1728648280.824,-63.965,15.625,-11.719,-10.742,0.000
1728648280.828,-8.789,21.973,-29.785,9.766,0.000
1728648280.832,68.359,23.438,-8.789,19.531,0.000
1728648280.835,59.570,23.438,25.391,13.672,0.000
1728648280.839,6.836,24.414,23.926,6.836,0.000
1728648280.843,-42.480,25.391,8.301,-7.812,0.000
1728648280.847,-3.906,27.344,7.324,7.812,0.000
1728648280.851,30.273,19.531,10.742,14.648,0.000
1728648280.855,45.898,16.113,-0.488,19.043,0.000
1728648280.859,35.156,24.902,-26.367,8.789,0.000
1728648280.863,-33.691,29.785,-22.461,2.930,0.000
1728648280.867,-25.879,24.414,-0.488,3.418,0.000
1728648280.871,41.016,23.926,3.906,0.977,0.000
1728648280.875,62.500,25.879,-8.301,12.207,0.000
1728648280.878,32.715,25.879,-2.930,19.531,0.000
1728648280.882,-40.039,28.809,1.953,10.742,0.000
1728648280.886,-44.922,29.297,-25.879,0.488,0.000
1728648280.890,45.410,25.391,-54.199,6.836,0.000
1728648280.894,79.102,27.344,-57.617,15.625,0.000
1728648280.898,43.945,28.809,-13.672,-4.883,0.000
1728648280.902,-26.367,22.461,20.508,-32.227,0.000
1728648280.906,-33.691,19.531,15.625,-29.785,0.000
1728648280.910,32.715,20.996,14.648,-0.488,0.000
1728648280.914,40.039,20.996,9.277,5.859,0.000
1728648280.918,14.160,19.043,-9.766,2.441,0.000
1728648280.921,-37.598,15.625,-19.531,-16.113,0.000
1728648280.925,-86.914,14.648,-22.949,-41.016,0.000
1728648280.929,-3.906,6.836,-22.949,-4.883,0.000
1728648280.933,57.129,8.301,-24.902,21.484,0.000
1728648280.937,28.320,14.648,-21.973,-1.953,0.000
1728648280.941,-36.133,7.812,6.348,-21.973,0.000
1728648280.945,-62.012,10.742,-3.418,-24.414,0.000
1728648280.949,18.555,14.648,-25.391,-17.090,0.000
1728648280.953,55.176,0.000,-13.184,-9.766,0.000
1728648280.957,21.484,5.859,-1.465,0.000,0.000
1728648280.960,-26.855,17.578,-19.531,-12.207,0.000
1728648280.964,-56.152,18.066,-43.945,-35.645,0.000
1728648280.968,-13.184,14.160,-33.203,-9.766,0.000
1728648280.972,-10.254,12.207,-47.363,1.953,0.000
1728648280.976,-3.906,19.531,-36.133,-19.043,0.000
1728648280.980,-16.602,7.324,8.301,-20.508,0.000
1728648280.984,-70.312,0.000,31.250,-32.715,0.000
1728648280.988,-30.762,24.414,40.039,-33.691,0.000
1728648280.992,0.000,16.113,16.113,-3.418,0.000
1728648280.996,0.000,1.465,-0.488,0.977,0.000
1728648281.000,0.000,21.484,-34.180,-38.086,0.000
1728648281.003,0.000,28.320,-65.430,-42.969,0.000
1728648281.007,0.000,26.367,-39.062,-11.230,0.000
1728648281.011,0.000,11.230,5.859,-23.438,0.000
1728648281.015,0.000,-20.020,20.508,-62.500,0.000
1728648281.019,0.000,-25.391,-16.113,-42.480,0.000
1728648281.023,0.000,4.883,-4.395,-4.883,0.000
1728648281.027,0.000,36.133,-8.789,0.488,0.000
1728648281.031,0.000,37.598,-48.340,0.000,0.000
1728648281.035,0.000,7.812,-31.250,-12.695,0.000
1728648281.039,-66.406,-6.348,-5.371,-42.969,0.000
1728648281.042,-157.227,23.926,-4.395,-118.652,0.000
1728648281.046,-81.055,-23.438,55.176,-66.406,0.000
1728648281.050,72.266,-54.199,65.430,21.484,0.000
1728648281.054,15.625,-7.324,-43.945,-20.020,0.000
1728648281.058,-42.969,14.648,-82.520,-64.453,0.000
1728648281.062,-78.125,11.719,-64.453,-71.777,0.000
1728648281.066,-68.359,-3.906,-34.668,-13.672,0.000
1728648281.070,50.781,-48.828,87.891,-4.395,0.000
1728648281.074,22.949,-87.402,96.680,-74.219,0.000
1728648281.078,-34.180,-54.688,16.602,-64.453,0.000
1728648281.082,-78.125,-30.273,-50.293,-44.434,0.000
1728648281.085,-134.766,-24.902,-39.551,-56.152,0.000
1728648281.089,-126.465,-6.836,39.062,-86.426,0.000
1728648281.093,-46.875,42.480,45.898,-50.781,0.000
1728648281.097,-42.969,34.180,39.062,-23.438,0.000
1728648281.101,-102.539,-17.090,76.172,-61.523,0.000
1728648281.105,-183.105,-24.902,31.738,-132.324,0.000
1728648281.109,-139.160,-0.977,-21.973,-83.008,0.000
1728648281.113,-43.945,7.324,-64.453,5.371,0.000
1728648281.117,-44.434,34.668,-42.969,-27.832,0.000
1728648281.121,-120.605,23.926,85.938,-58.594,0.000
1728648281.124,-145.996,-54.688,151.855,-80.078,0.000
1728648281.128,-111.816,-69.824,95.703,-102.539,0.000
1728648281.132,-74.219,-76.660,99.121,-51.270,0.000
1728648281.136,-40.039,-22.949,42.480,-17.090,0.000
1728648281.140,-97.168,19.043,28.320,-33.203,0.000
1728648281.144,-158.203,-8.301,70.312,-45.410,0.000
1728648281.148,-44.922,-2.441,112.793,27.344,0.000
1728648281.152,19.043,8.301,132.812,41.504,0.000
1728648281.156,-58.594,-36.133,56.152,-36.621,0.000
1728648281.160,-140.625,-78.613,33.203,-76.660,0.000
1728648281.163,-171.387,-13.672,63.965,-36.133,0.000
1728648281.167,-67.383,15.137,96.191,45.898,0.000
1728648281.171,-27.832,-51.270,90.820,40.527,0.000
1728648281.175,-61.035,-83.008,72.266,-2.930,0.000
1728648281.179,-115.723,-83.984,81.543,-48.340,0.000
1728648281.183,-125.488,-80.078,102.051,-47.363,0.000
1728648281.187,-24.414,-21.484,139.648,17.578,0.000
1728648281.191,-48.828,-4.883,112.305,6.348,0.000
1728648281.195,-88.867,-43.945,90.332,-20.996,0.000
1728648281.199,-57.617,-41.992,115.723,10.742,0.000
1728648281.203,-153.809,-59.082,98.145,-12.207,0.000
1728648281.206,-119.141,-98.633,83.496,-20.020,0.000
1728648281.210,-56.152,-67.383,70.312,-16.113,0.000
1728648281.214,-79.102,-50.781,82.520,-55.664,0.000
1728648281.218,-75.195,-77.148,110.840,-33.203,0.000
1728648281.222,-121.582,-69.336,76.172,-22.461,0.000
1728648281.226,-103.027,-71.777,45.410,-28.809,0.000
1728648281.230,-54.199,-82.520,48.340,-16.113,0.000
1728648281.234,-34.180,-144.531,77.637,0.977,0.000
1728648281.238,-50.781,-166.992,80.566,-5.371,0.000
1728648281.242,-118.164,-163.574,67.383,-21.973,0.000
1728648281.246,-108.887,-193.359,61.035,-13.672,0.000
1728648281.250,-28.809,-194.336,66.895,1.465,0.000
1728648281.253,-34.668,-158.203,43.945,-47.363,0.000
1728648281.257,-82.031,-146.484,39.062,-44.922,0.000
1728648281.261,-126.465,-160.156,55.664,-17.090,0.000
1728648281.265,-81.543,-133.789,48.828,3.418,0.000
1728648281.269,-16.113,-97.168,46.387,16.602,0.000
1728648281.273,-5.859,-116.211,56.641,20.508,0.000
1728648281.277,14.648,-105.957,74.219,17.090,0.000
1728648281.281,-42.969,-80.566,66.406,10.742,0.000
1728648281.285,-72.266,-61.035,37.109,-14.648,0.000
1728648281.289,-5.859,-106.934,27.832,-8.301,0.000
1728648281.293,25.879,-119.141,31.250,10.254,0.000
1728648281.296,11.719,-84.961,37.109,10.742,0.000
1728648281.300,-63.965,-67.871,9.766,-16.602,0.000
1728648281.304,-66.895,-41.992,-17.090,-8.789,0.000
1728648281.308,20.020,-24.414,-0.488,32.715,0.000
1728648281.312,34.668,-22.461,31.250,12.207,0.000
1728648281.316,20.996,-11.719,39.551,-3.906,0.000
1728648281.320,-25.391,1.953,25.879,-23.438,0.000
1728648281.324,-71.777,2.441,27.344,-53.711,0.000
1728648281.328,-7.812,6.348,33.203,-15.625,0.000
1728648281.332,36.621,25.391,5.859,-7.812,0.000
1728648281.336,-7.812,31.250,-22.949,-28.320,0.000
1728648281.339,-62.500,20.996,-24.902,-45.410,0.000
1728648281.343,-96.680,32.227,-22.949,-71.777,0.000
1728648281.347,-41.992,48.340,10.742,-43.945,0.000
1728648281.351,-14.648,30.273,30.273,-45.410,0.000
1728648281.355,-76.660,28.320,25.879,-91.797,0.000
1728648281.359,-106.445,46.875,30.273,-102.539,0.000
1728648281.363,-125.977,41.016,38.086,-109.863,0.000
1728648281.367,-100.098,52.246,7.324,-99.609,0.000
1728648281.371,-33.203,88.379,-12.207,-76.172,0.000
1728648281.375,16.602,73.730,5.371,-78.613,0.000
1728648281.378,-8.789,34.668,15.625,-94.727,0.000
1728648281.382,-83.008,58.594,-4.395,-101.074,0.000
1728648281.386,-49.316,79.590,-34.180,-80.566,0.000
1728648281.390,12.207,64.941,-34.180,-48.828,0.000
1728648281.394,28.320,45.898,-13.672,-37.109,0.000
1728648281.398,7.324,47.363,13.672,-45.410,0.000
1728648281.402,-72.754,56.641,26.367,-50.781,0.000
1728648281.406,-22.949,56.152,-1.953,-14.160,0.000
1728648281.410,72.754,48.340,-48.340,17.090,0.000
1728648281.414,0.000,26.367,-70.801,5.859,0.000
1728648281.417,0.000,6.836,-60.059,-12.207,0.000
1728648281.421,0.000,11.719,6.836,-32.715,0.000
1728648281.425,0.000,10.742,37.598,-5.859,0.000
1728648281.429,0.000,11.719,3.906,43.945,0.000
1728648281.433,0.000,34.180,-13.672,42.969,0.000
1728648281.437,0.000,61.035,-9.766,23.438,0.000
1728648281.441,0.000,79.102,-6.836,6.348,0.000
1728648281.445,0.000,65.430,-33.203,-2.930,0.000
1728648281.449,0.000,56.641,-70.312,30.273,0.000
1728648281.453,0.000,70.801,-41.016,52.734,0.000
1728648281.457,0.000,85.449,13.672,38.574,0.000
1728648281.460,19.043,96.191,10.254,15.625,0.000
1728648281.464,-23.926,99.609,-16.602,19.531,0.000
1728648281.468,63.477,99.609,-11.230,34.180,0.000
1728648281.472,117.676,95.703,10.254,42.480,0.000
1728648281.476,106.445,92.773,12.695,53.223,0.000
1728648281.480,50.293,90.332,5.371,40.039,0.000
1728648281.484,18.555,93.750,-0.488,36.621,0.000
1728648281.488,42.480,101.562,-1.465,47.852,0.000
1728648281.492,106.445,104.004,-22.461,67.383,0.000
1728648281.496,132.324,89.355,-60.547,59.570,0.000
1728648281.499,41.016,93.750,-41.504,37.598,0.000
1728648281.503,-21.973,98.145,-12.207,23.926,0.000
1728648281.507,84.961,99.121,1.953,40.039,0.000
1728648281.511,128.418,101.562,21.973,48.828,0.000
1728648281.515,96.680,94.238,23.926,38.574,0.000
1728648281.519,52.246,98.633,-12.207,25.879,0.000
1728648281.523,-12.207,108.887,-41.016,-0.977,0.000
1728648281.527,47.363,102.051,-24.902,18.555,0.000
1728648281.531,121.094,77.637,-11.719,67.383,0.000
1728648281.535,84.473,66.406,-4.883,55.664,0.000
1728648281.539,2.930,57.129,-17.090,12.695,0.000
1728648281.543,-16.113,30.273,-16.113,14.160,0.000
1728648281.546,53.711,6.836,10.254,24.414,0.000
1728648281.550,124.512,19.531,16.113,26.367,0.000
1728648281.554,119.629,48.340,3.418,29.297,0.000
1728648281.558,75.684,39.062,3.906,25.391,0.000
1728648281.562,12.695,29.785,-15.137,12.207,0.000
1728648281.566,25.879,36.621,-52.246,39.551,0.000
1728648281.570,103.516,36.133,-52.734,63.965,0.000
1728648281.574,88.867,23.926,-22.949,41.016,0.000
1728648281.578,-6.348,16.113,2.930,4.395,0.000
1728648281.582,-66.406,20.020,-0.977,-24.902,0.000
1728648281.586,7.812,28.809,0.977,-11.230,0.000
1728648281.589,94.727,32.715,0.488,29.297,0.000
1728648281.593,65.918,30.762,-2.441,42.969,0.000
1728648281.597,41.992,36.133,17.090,26.855,0.000
1728648281.601,13.184,25.391,26.855,9.766,0.000
1728648281.605,38.086,21.484,12.207,23.438,0.000
1728648281.609,96.191,30.762,-20.996,43.457,0.000
1728648281.613,60.059,25.879,-28.320,36.133,0.000
1728648281.617,31.250,1.465,1.953,12.207,0.000
1728648281.621,-5.371,0.000,13.184,-15.625,0.000
1728648281.625,4.883,21.484,11.719,-16.602,0.000
1728648281.629,51.758,38.574,10.254,9.766,0.000
1728648281.632,83.008,36.133,5.371,23.438,0.000
1728648281.636,47.363,21.484,0.488,19.043,0.000
1728648281.640,-41.016,22.461,-7.324,-20.996,0.000
1728648281.644,-13.184,11.719,-22.461,-19.043,0.000
1728648281.648,84.473,-2.441,-9.277,26.855,0.000
1728648281.652,87.891,19.531,-10.742,26.367,0.000
1728648281.656,53.223,30.273,-48.340,6.348,0.000
1728648281.660,-1.953,23.926,-62.988,-10.742,0.000
1728648281.664,-19.043,21.484,-24.902,-6.348,0.000
1728648281.668,29.297,22.949,11.719,10.254,0.000
1728648281.672,35.645,22.461,20.508,7.324,0.000
1728648281.675,39.551,24.414,17.578,3.418,0.000
1728648281.679,-7.812,23.926,-5.371,-3.906,0.000
1728648281.683,-39.551,14.648,-29.297,-21.973,0.000
1728648281.687,39.551,14.648,-34.668,-14.648,0.000
1728648281.691,63.477,25.391,-35.156,12.207,0.000
1728648281.695,51.270,15.137,-30.273,35.645,0.000
1728648281.699,3.906,20.996,-9.766,8.789,0.000
1728648281.703,-37.598,18.555,12.695,-16.602,0.000
1728648281.707,15.137,16.602,13.184,0.000,0.000
1728648281.711,74.219,37.109,-4.883,17.578,0.000
1728648281.714,61.523,40.527,-20.996,31.250,0.000
1728648281.718,9.766,30.762,-16.602,16.113,0.000
1728648281.722,-7.812,35.645,-29.785,-9.766,0.000
1728648281.726,26.855,43.945,-51.758,6.836,0.000
1728648281.730,51.270,46.875,-37.109,10.742,0.000
1728648281.734,54.199,35.156,-26.855,8.789,0.000
1728648281.738,0.000,37.598,-8.789,4.395,0.000
1728648281.742,-46.875,49.316,9.766,-12.207,0.000
1728648281.746,17.578,48.828,2.441,15.625,0.000
1728648281.750,82.031,44.434,-28.320,35.645,0.000
1728648281.754,41.016,29.785,-46.875,7.324,0.000
1728648281.757,-13.184,36.133,-42.969,-1.465,0.000
1728648281.761,-42.969,50.781,-20.020,-17.090,0.000
1728648281.765,-20.996,53.223,-7.324,-11.230,0.000
1728648281.769,41.992,55.664,-5.859,18.066,0.000
1728648281.773,37.109,52.734,-1.465,10.742,0.000
1728648281.777,15.137,45.898,-1.953,0.000,0.000
1728648281.781,-34.668,40.527,-27.832,-14.648,0.000
1728648281.785,-11.230,45.410,-56.641,3.906,0.000
1728648281.789,79.102,70.801,-47.852,41.992,0.000
1728648281.793,74.219,65.918,-31.250,23.438,0.000
1728648281.796,27.832,48.828,-16.113,-13.184,0.000
1728648281.800,-33.203,53.223,0.977,-21.973,0.000
1728648281.804,-30.762,47.852,-19.043,-17.090,0.000
1728648281.808,36.621,37.109,-25.879,9.766,0.000
1728648281.812,33.203,33.203,-18.066,28.320,0.000
1728648281.816,25.391,39.062,-34.180,7.324,0.000
1728648281.820,-10.742,57.129,-28.320,-13.672,0.000
1728648281.824,-30.762,52.246,-16.602,-15.137,0.000
1728648281.828,24.902,37.598,-20.020,-3.906,0.000
1728648281.832,53.223,46.875,-9.766,15.137,0.000
1728648281.835,45.410,54.199,5.859,6.836,0.000
1728648281.839,-20.020,44.434,1.953,-29.297,0.000
1728648281.843,-58.105,42.969,-15.625,-40.527,0.000
1728648281.847,5.371,42.480,-25.391,-21.484,0.000
1728648281.851,59.082,37.598,-21.484,10.742,0.000
1728648281.855,61.523,47.363,-32.227,18.555,0.000
1728648281.859,-2.930,48.828,-37.109,-15.625,0.000
1728648281.863,-64.941,40.039,-25.391,-50.781,0.000
1728648281.867,-20.020,38.086,-20.508,-25.391,0.000
1728648281.871,44.434,40.527,-20.508,9.766,0.000
1728648281.875,31.250,35.645,-30.762,-7.324,0.000
1728648281.878,-30.762,45.410,-19.043,-25.391,0.000
1728648281.882,-65.430,52.246,-9.277,-35.645,0.000
1728648281.886,3.418,46.387,-17.578,-12.207,0.000
1728648281.890,46.875,45.410,-22.461,19.531,0.000
1728648281.894,42.969,47.363,-27.344,9.766,0.000
1728648281.898,-8.789,55.664,-47.852,0.000,0.000
1728648281.902,-75.684,63.477,-52.246,-2.930,0.000
1728648281.906,10.254,63.965,-14.648,5.859,0.000
1728648281.910,57.617,62.988,3.906,8.789,0.000
1728648281.914,49.805,54.199,-1.465,6.836,0.000
1728648281.917,26.855,41.992,0.977,-2.441,0.000
1728648281.921,-37.598,37.598,-5.371,-37.109,0.000
1728648281.925,-5.371,33.203,-10.742,-22.461,0.000
1728648281.929,49.316,39.551,-3.418,11.230,0.000
1728648281.933,55.664,52.734,-25.391,22.461,0.000
1728648281.937,37.109,56.152,-58.594,22.949,0.000
1728648281.941,-39.551,47.852,-49.805,-14.648,0.000
1728648281.945,-24.902,45.898,-15.137,-11.719,0.000
1728648281.949,52.734,48.340,14.648,20.996,0.000
1728648281.953,44.434,45.898,10.254,12.695,0.000
1728648281.957,7.324,47.363,-21.484,-3.418,0.000
1728648281.960,-55.176,26.367,-20.508,-6.348,0.000
1728648281.964,-49.805,6.348,-4.883,-3.418,0.000
1728648281.968,18.066,19.531,-9.277,5.859,0.000
1728648281.972,39.062,40.527,-13.184,2.441,0.000
1728648281.976,25.879,46.387,-16.602,-6.348,0.000
1728648281.980,-27.344,44.922,-8.789,-11.230,0.000
1728648281.984,-33.691,59.570,-16.113,0.977,0.000
1728648281.988,27.344,64.941,-35.645,9.766,0.000
1728648281.992,41.504,50.781,-27.344,10.254,0.000
1728648281.996,15.625,49.316,-9.766,-2.930,0.000
1728648282.000,-48.828,45.898,-2.930,-34.180,0.000
1728648282.003,-68.848,39.062,-10.742,-37.598,0.000
1728648282.007,16.602,36.133,-44.434,1.465,0.000
1728648282.011,47.363,37.598,-60.059,19.043,0.000
1728648282.015,15.625,31.250,-38.086,-27.344,0.000
1728648282.019,-36.621,22.461,-8.789,-47.363,0.000
1728648282.023,-53.223,20.020,3.906,-34.668,0.000
1728648282.027,15.137,22.949,2.441,-6.836,0.000
1728648282.031,50.781,25.879,5.859,8.789,0.000
1728648282.035,31.738,21.973,9.766,-6.348,0.000
1728648282.039,-33.203,12.207,0.000,-14.648,0.000
1728648282.043,-51.270,10.742,-13.184,-21.973,0.000
1728648282.046,32.227,19.531,-18.066,-1.953,0.000
1728648282.050,73.242,29.297,-29.297,12.207,0.000
1728648282.054,57.617,22.949,-35.156,2.930,0.000
1728648282.058,-5.371,16.602,-20.508,-11.719,0.000
1728648282.062,-50.781,12.207,-5.859,-17.090,0.000
1728648282.066,15.625,5.371,-2.930,8.789,0.000
1728648282.070,52.246,18.555,-11.230,30.273,0.000
1728648282.074,61.523,34.180,-19.043,26.367,0.000
1728648282.078,27.832,33.691,-21.484,21.973,0.000
1728648282.082,-54.199,13.672,-21.973,-12.695,0.000
1728648282.085,-16.113,-5.371,-12.695,-3.906,0.000
1728648282.089,44.922,-4.883,-24.902,27.344,0.000
1728648282.093,39.062,0.977,-28.809,35.645,0.000
1728648282.097,-11.230,2.930,-4.395,22.461,0.000
1728648282.101,-46.875,7.324,2.441,-12.695,0.000
1728648282.105,19.043,12.207,0.977,-2.441,0.000
1728648282.109,71.777,22.949,-5.859,17.090,0.000
1728648282.113,66.895,26.855,-12.695,31.250,0.000
1728648282.117,29.297,20.508,-7.812,23.926,0.000
1728648282.121,-29.785,25.391,-20.020,0.977,0.000
1728648282.125,-12.207,23.438,-23.926,5.371,0.000
1728648282.128,43.457,15.137,-15.137,15.137,0.000
1728648282.132,49.805,18.066,-22.949,26.367,0.000
1728648282.136,-0.977,14.160,-32.227,-9.766,0.000
1728648282.140,-58.105,0.488,-27.832,-44.434,0.000
1728648282.144,-24.414,2.441,-19.531,-14.160,0.000
1728648282.148,25.391,13.672,-17.090,27.344,0.000
1728648282.152,50.781,20.996,-37.109,32.715,0.000
1728648282.156,18.066,20.508,-37.598,28.809,0.000
1728648282.160,-66.406,17.090,-7.812,-2.441,0.000
1728648282.164,-11.719,21.973,4.883,-12.695,0.000
1728648282.167,57.129,29.297,-3.418,9.277,0.000
1728648282.171,57.129,24.414,-14.160,11.719,0.000
1728648282.175,33.203,13.672,-18.066,-1.465,0.000
1728648282.179,-37.598,14.160,-27.832,-29.785,0.000
1728648282.183,-38.086,12.695,-23.926,-32.227,0.000
1728648282.187,20.020,8.301,-18.555,-3.418,0.000
1728648282.191,33.691,7.812,-30.273,-9.766,0.000
1728648282.195,21.973,-0.488,-34.180,-24.902,0.000
1728648282.199,-40.527,0.488,-24.902,-20.020,0.000
1728648282.203,-59.570,7.812,9.766,-11.230,0.000
1728648282.207,7.324,16.602,19.043,-9.277,0.000
1728648282.210,57.129,16.602,-5.859,-9.766,0.000
1728648282.214,48.828,8.301,-20.020,-10.254,0.000
1728648282.218,-14.648,11.719,-26.367,-12.695,0.000
1728648282.222,-54.199,6.836,-28.809,-16.113,0.000
1728648282.226,3.906,-0.977,-5.859,-13.184,0.000
1728648282.230,56.641,-1.953,13.184,-10.254,0.000
1728648282.234,44.434,0.488,7.812,5.859,0.000
1728648282.238,-23.438,5.859,-22.949,-9.766,0.000
1728648282.242,-62.012,5.371,-54.688,-25.391,0.000
1728648282.246,6.836,8.789,-22.949,0.488,0.000
1728648282.249,53.711,7.324,10.254,2.930,0.000
1728648282.253,24.414,-9.277,-3.906,-21.973,0.000
1728648282.257,-41.016,-11.230,-16.602,-32.227,0.000
1728648282.261,-94.727,-10.742,-21.973,-56.641,0.000
1728648282.265,-12.207,-1.953,-22.949,-22.461,0.000
1728648282.269,62.012,9.766,-51.758,27.832,0.000
1728648282.273,8.789,1.953,-15.137,13.184,0.000
1728648282.277,-41.016,-5.859,25.391,-17.578,0.000
1728648282.281,-52.246,10.742,-9.766,-15.625,0.000
1728648282.285,0.488,28.320,-18.066,-17.090,0.000
1728648282.288,41.016,11.230,0.000,-3.906,0.000
1728648282.292,4.395,-2.441,-18.555,-27.832,0.000
1728648282.296,-37.598,7.324,-30.273,-34.180,0.000
1728648282.300,-90.332,-0.488,-20.996,-35.156,0.000
1728648282.304,-60.059,1.465,-6.348,-43.457,0.000
