timestamps,TP9,AF7,AF8,TP10,Right AUX
1728698985.509,-4.395,-16.113,-21.484,-6.836,0.000
1728698985.513,-27.832,-20.508,-20.996,-29.297,0.000
1728698985.517,-42.969,-20.996,-22.949,-36.621,0.000
1728698985.521,-6.836,-20.020,-25.391,-2.930,0.000
1728698985.525,3.418,-18.066,-24.414,-1.953,0.000
1728698985.529,-3.418,-13.672,-21.973,-7.324,0.000
1728698985.533,-19.531,-21.484,-22.949,-36.133,0.000
1728698985.537,-37.598,-29.297,-23.926,-55.664,0.000
1728698985.541,-3.906,-26.855,-20.996,-10.742,0.000
1728698985.545,17.578,-22.949,-20.508,6.836,0.000
1728698985.549,1.953,-26.367,-28.809,-18.066,0.000
1728698985.552,-32.227,-27.832,-33.691,-50.781,0.000
1728698985.556,-51.758,-26.367,-24.902,-62.012,0.000
1728698985.560,-20.996,-27.344,-24.414,-19.531,0.000
1728698985.564,2.930,-26.855,-33.691,-3.906,0.000
1728698985.568,-0.977,-20.020,-33.203,-13.672,0.000
1728698985.572,-36.621,-21.484,-35.156,-37.109,0.000
1728698985.576,-66.895,-26.855,-33.691,-59.570,0.000
1728698985.580,-27.832,-30.273,-26.855,-19.531,0.000
1728698985.584,-0.977,-31.738,-27.344,8.301,0.000
1728698985.588,-5.371,-26.855,-24.902,6.836,0.000
1728698985.592,-32.715,-24.414,-24.902,-15.625,0.000
1728698985.596,-63.477,-21.973,-25.879,-43.457,0.000
1728698985.599,-31.738,-20.996,-23.926,-14.160,0.000
1728698985.603,1.465,-20.020,-23.438,5.859,0.000
1728698985.607,5.371,-17.578,-20.508,0.977,0.000
1728698985.611,-14.160,-14.648,-20.020,-18.066,0.000
1728698985.615,-47.852,-17.090,-21.973,-46.875,0.000
1728698985.619,-24.902,-25.879,-24.902,-14.648,0.000
1728698985.623,9.766,-29.785,-26.855,14.160,0.000
1728698985.627,10.254,-25.879,-31.250,1.953,0.000
1728698985.631,-15.137,-19.043,-31.250,-22.461,0.000
1728698985.635,-50.293,-21.484,-23.926,-51.758,0.000
1728698985.639,-36.133,-22.949,-21.484,-20.020,0.000
1728698985.642,-6.348,-20.508,-25.879,7.812,0.000
1728698985.646,10.742,-16.602,-24.902,-7.812,0.000
1728698985.650,-6.348,-18.555,-24.902,-27.832,0.000
1728698985.654,-47.363,-19.531,-24.414,-53.711,0.000
1728698985.658,-35.156,-19.043,-29.297,-33.203,0.000
1728698985.662,8.789,-25.879,-30.273,6.348,0.000
1728698985.666,11.719,-25.879,-23.926,11.719,0.000
1728698985.670,3.418,-23.926,-27.344,-4.395,0.000
1728698985.674,-34.668,-18.555,-28.320,-44.434,0.000
1728698985.678,-43.457,-20.508,-27.832,-39.062,0.000
1728698985.682,5.859,-23.926,-27.344,11.230,0.000
1728698985.685,19.531,-18.555,-29.297,21.484,0.000
1728698985.689,0.000,-19.531,-31.738,-5.859,0.000
1728698985.693,-47.363,-25.879,-29.785,-42.969,0.000
1728698985.697,-59.082,-25.879,-25.879,-44.434,0.000
1728698985.701,-9.277,-22.461,-21.484,-1.465,0.000
1728698985.705,12.695,-27.344,-18.555,11.230,0.000
1728698985.709,-9.277,-30.762,-20.508,-9.277,0.000
1728698985.713,-47.852,-27.344,-26.855,-41.992,0.000
1728698985.717,-56.152,-26.855,-26.855,-49.316,0.000
1728698985.721,-13.184,-27.832,-26.367,-12.207,0.000
1728698985.725,12.207,-23.438,-24.902,8.789,0.000
1728698985.728,3.418,-24.414,-20.020,3.418,0.000
1728698985.732,-36.621,-33.691,-24.414,-33.691,0.000
1728698985.736,-58.594,-33.203,-23.926,-55.664,0.000
1728698985.740,-21.484,-20.996,-20.996,-20.508,0.000
1728698985.744,5.371,-15.625,-21.973,3.906,0.000
1728698985.748,-7.812,-16.602,-23.438,-7.812,0.000
1728698985.752,-33.691,-15.137,-25.391,-35.645,0.000
1728698985.756,-50.781,-15.625,-19.531,-44.922,0.000
1728698985.760,-26.367,-20.508,-18.066,-13.184,0.000
1728698985.764,5.371,-16.602,-20.020,8.789,0.000
1728698985.767,-2.441,-18.066,-16.602,3.418,0.000
1728698985.771,-33.203,-28.320,-16.113,-21.484,0.000
1728698985.775,-62.012,-23.438,-19.043,-46.387,0.000
1728698985.779,-36.621,-23.926,-21.484,-20.020,0.000
1728698985.783,-0.488,-26.855,-20.020,5.859,0.000
1728698985.787,-9.277,-25.879,-26.367,-4.883,0.000
1728698985.791,-33.203,-30.762,-31.250,-29.297,0.000
1728698985.795,-64.453,-29.785,-29.785,-60.547,0.000
1728698985.799,-40.527,-23.926,-23.926,-24.414,0.000
1728698985.803,-9.277,-24.414,-21.484,14.160,0.000
1728698985.807,-16.602,-28.320,-19.531,4.395,0.000
1728698985.810,-23.438,-29.297,-17.578,-17.578,0.000
1728698985.814,-50.293,-30.273,-16.113,-47.852,0.000
1728698985.818,-51.758,-35.645,-17.090,-38.574,0.000
1728698985.822,-20.996,-34.180,-24.902,-5.859,0.000
1728698985.826,-11.230,-29.785,-24.902,-7.324,0.000
1728698985.830,-27.832,-24.902,-27.832,-34.668,0.000
1728698985.834,-57.617,-21.973,-29.297,-65.918,0.000
1728698985.838,-41.992,-23.438,-24.902,-48.828,0.000
1728698985.842,0.977,-16.113,-25.391,-8.789,0.000
1728698985.846,7.324,-18.555,-25.879,-4.883,0.000
1728698985.849,-13.184,-28.809,-25.391,-15.625,0.000
1728698985.853,-48.340,-25.879,-25.391,-53.711,0.000
1728698985.857,-53.711,-23.438,-28.320,-49.805,0.000
1728698985.861,-11.230,-31.738,-28.809,2.930,0.000
1728698985.865,2.441,-25.391,-25.879,6.836,0.000
1728698985.869,-16.113,-20.020,-29.297,-16.113,0.000
1728698985.873,-47.363,-25.391,-31.250,-48.340,0.000
1728698985.877,-50.781,-22.461,-29.785,-49.805,0.000
1728698985.881,-10.254,-18.555,-28.809,1.465,0.000
1728698985.884,5.371,-20.996,-26.367,6.836,0.000
1728698985.888,-11.230,-20.996,-28.320,-15.137,0.000
1728698985.892,-44.434,-26.367,-29.785,-38.574,0.000
1728698985.896,-46.387,-28.809,-28.809,-39.551,0.000
1728698985.900,-14.648,-22.949,-29.297,1.465,0.000
1728698985.904,10.254,-20.508,-26.367,16.113,0.000
1728698985.908,14.160,-21.484,-25.879,11.230,0.000
1728698985.912,-28.320,-21.484,-30.273,-32.715,0.000
1728698985.916,-57.129,-22.461,-31.738,-63.965,0.000
1728698985.920,-14.648,-20.508,-29.785,-18.555,0.000
1728698985.924,17.090,-20.020,-25.879,8.789,0.000
1728698985.927,5.371,-20.508,-26.855,-2.930,0.000
1728698985.931,-16.602,-18.066,-26.367,-37.109,0.000
1728698985.935,-36.621,-19.531,-25.879,-49.316,0.000
1728698985.939,-7.812,-21.973,-29.785,-7.324,0.000
1728698985.943,12.695,-17.090,-26.367,7.324,0.000
1728698985.947,14.160,-19.043,-19.531,4.395,0.000
1728698985.951,-9.277,-26.855,-18.066,-12.207,0.000
1728698985.955,-55.176,-27.344,-21.484,-43.945,0.000
1728698985.959,-18.555,-29.785,-19.531,-8.789,0.000
1728698985.963,15.625,-26.855,-15.137,20.996,0.000
1728698985.967,5.371,-23.926,-15.625,9.766,0.000
1728698985.971,-17.090,-22.949,-18.066,-15.625,0.000
1728698985.974,-46.875,-22.949,-23.926,-48.340,0.000
1728698985.978,-14.160,-27.344,-26.367,-16.113,0.000
1728698985.982,21.484,-26.367,-24.414,17.578,0.000
1728698985.986,11.719,-18.066,-22.461,10.254,0.000
1728698985.990,-10.742,-15.625,-20.996,-11.230,0.000
1728698985.994,-46.387,-31.250,-19.043,-44.922,0.000
1728698985.998,-33.203,-39.062,-21.973,-14.160,0.000
1728698986.002,7.812,-26.855,-29.785,12.207,0.000
1728698986.006,6.836,-27.344,-30.762,-7.812,0.000
1728698986.010,-11.719,-29.297,-26.855,-25.879,0.000
1728698986.014,-39.551,-22.461,-28.320,-51.758,0.000
1728698986.017,-42.480,-23.438,-33.691,-41.016,0.000
1728698986.021,-3.906,-26.367,-29.297,-4.395,0.000
1728698986.025,3.906,-21.973,-28.320,-0.488,0.000
1728698986.029,-13.672,-22.461,-28.320,-20.020,0.000
1728698986.033,-44.922,-25.879,-23.926,-52.734,0.000
1728698986.037,-49.316,-25.391,-25.391,-42.480,0.000
1728698986.041,-9.766,-24.902,-22.949,0.000,0.000
1728698986.045,0.488,-27.344,-30.762,-4.395,0.000
1728698986.049,-20.020,-26.367,-35.645,-33.691,0.000
1728698986.053,-52.734,-29.297,-31.250,-65.430,0.000
1728698986.057,-58.594,-27.832,-29.785,-50.781,0.000
1728698986.060,-19.043,-24.902,-30.273,-2.441,0.000
1728698986.064,1.953,-23.926,-26.855,-7.324,0.000
1728698986.068,-2.441,-23.926,-22.461,-21.484,0.000
1728698986.072,-30.762,-23.926,-27.344,-49.316,0.000
1728698986.076,-47.363,-20.020,-28.320,-47.363,0.000
1728698986.080,-21.973,-15.137,-25.879,2.441,0.000
1728698986.084,17.578,-18.066,-21.973,30.273,0.000
1728698986.088,22.949,-16.602,-20.020,13.672,0.000
1728698986.092,-26.367,-13.184,-26.855,-37.109,0.000
1728698986.096,-52.246,-15.137,-29.297,-45.898,0.000
1728698986.100,-7.812,-17.090,-24.902,2.930,0.000
1728698986.103,26.367,-17.090,-25.879,28.809,0.000
1728698986.107,19.043,-17.090,-20.996,18.555,0.000
1728698986.111,-13.672,-18.555,-16.602,-15.137,0.000
1728698986.115,-43.457,-16.602,-21.484,-35.645,0.000
1728698986.119,-16.113,-19.531,-28.809,0.488,0.000
1728698986.123,12.207,-16.113,-32.227,22.461,0.000
1728698986.127,9.277,-10.742,-28.809,12.207,0.000
1728698986.131,-21.973,-13.184,-20.508,-23.438,0.000
1728698986.135,-51.270,-17.090,-18.066,-45.898,0.000
1728698986.139,-17.090,-18.066,-18.066,-9.766,0.000
1728698986.142,18.066,-22.461,-20.508,11.719,0.000
1728698986.146,16.113,-20.508,-21.484,17.578,0.000
1728698986.150,-11.719,-21.484,-23.926,-5.859,0.000
1728698986.154,-51.270,-17.090,-29.785,-48.340,0.000
1728698986.158,-24.414,-20.996,-28.320,-15.137,0.000
1728698986.162,18.066,-25.879,-29.785,13.672,0.000
1728698986.166,13.184,-18.066,-36.621,3.906,0.000
1728698986.170,-4.883,-17.578,-37.109,-19.043,0.000
1728698986.174,-28.320,-20.508,-39.551,-46.875,0.000
1728698986.178,-1.465,-20.508,-40.527,-2.441,0.000
1728698986.182,35.156,-21.484,-24.414,36.621,0.000
1728698986.185,13.672,-30.273,-15.625,12.695,0.000
1728698986.189,-23.926,-34.180,-19.043,-20.020,0.000
1728698986.193,-66.406,-40.527,-12.207,-55.664,0.000
1728698986.197,-62.012,-46.875,-7.812,-41.992,0.000
1728698986.201,-23.926,-44.922,-8.301,-12.695,0.000
1728698986.205,-17.090,-48.828,-3.906,-11.230,0.000
1728698986.209,-41.992,-50.781,1.953,-23.926,0.000
1728698986.213,-81.055,-55.176,4.883,-55.664,0.000
1728698986.217,-75.195,-59.570,1.953,-50.781,0.000
1728698986.221,-33.691,-55.176,3.906,-6.348,0.000
1728698986.224,-20.996,-56.152,11.719,3.906,0.000
1728698986.228,-31.738,-57.129,12.695,-9.766,0.000
1728698986.232,-61.523,-54.199,9.766,-41.016,0.000
1728698986.236,-62.012,-55.176,14.160,-22.949,0.000
1728698986.240,-26.855,-62.500,18.066,17.578,0.000
1728698986.244,-20.996,-60.547,19.531,6.836,0.000
1728698986.248,-28.809,-54.199,18.555,5.859,0.000
1728698986.252,-59.570,-57.617,16.602,-20.996,0.000
1728698986.256,-67.383,-58.105,11.719,-27.344,0.000
1728698986.259,-15.137,-52.734,7.324,10.742,0.000
1728698986.263,12.207,-49.316,2.441,13.672,0.000
1728698986.267,-2.930,-45.410,0.000,-0.977,0.000
1728698986.271,-40.039,-45.898,0.488,-27.344,0.000
1728698986.275,-57.617,-49.316,2.930,-35.645,0.000
1728698986.279,-21.484,-50.781,5.371,2.441,0.000
1728698986.283,11.719,-43.945,-7.324,23.926,0.000
1728698986.287,6.348,-40.527,-20.508,8.301,0.000
1728698986.291,-33.691,-40.527,-15.625,-31.738,0.000
1728698986.295,-57.617,-45.410,-8.301,-49.316,0.000
1728698986.299,-26.367,-50.781,-2.930,-6.836,0.000
1728698986.302,-8.789,-40.039,1.465,14.160,0.000
1728698986.306,-15.137,-32.715,4.395,4.883,0.000
1728698986.310,-26.855,-34.668,5.859,-15.625,0.000
1728698986.314,-46.387,-35.156,6.348,-45.898,0.000
1728698986.318,-32.227,-36.133,-14.160,-25.879,0.000
1728698986.322,-3.906,-37.109,-28.809,-3.418,0.000
1728698986.326,0.000,-37.598,-19.531,-4.395,0.000
1728698986.330,-29.297,-39.062,-12.695,-38.574,0.000
1728698986.334,-58.594,-40.039,-15.625,-71.777,0.000
1728698986.337,-34.180,-39.551,-28.320,-30.273,0.000
1728698986.341,-2.441,-40.527,-18.555,4.395,0.000
1728698986.345,-4.395,-35.156,-8.301,-7.324,0.000
1728698986.349,-42.480,-32.715,-25.879,-36.133,0.000
1728698986.353,-63.965,-35.645,-24.414,-59.570,0.000
1728698986.357,-33.203,-36.133,-7.324,-34.180,0.000
1728698986.361,-6.348,-29.297,-3.906,-5.371,0.000
1728698986.365,8.301,-23.438,1.953,-5.859,0.000
1728698986.369,-3.418,-21.484,-19.531,-9.766,0.000
1728698986.373,-38.086,-21.484,-44.922,-31.250,0.000
1728698986.377,-39.062,-29.297,-20.508,-22.949,0.000
1728698986.381,-8.301,-27.832,2.441,4.395,0.000
1728698986.384,10.254,-25.391,6.836,8.301,0.000
1728698986.388,-0.488,-23.926,7.324,1.465,0.000
1728698986.392,-44.922,-22.949,12.207,-30.762,0.000
1728698986.396,-40.039,-26.367,-7.324,-19.043,0.000
1728698986.400,10.742,-22.461,-38.574,23.438,0.000
1728698986.404,12.695,-18.555,-28.320,12.207,0.000
1728698986.408,-4.395,-19.531,-9.277,-9.766,0.000
1728698986.412,-33.691,-21.484,0.488,-26.855,0.000
1728698986.416,-45.898,-20.996,1.465,-33.691,0.000
1728698986.420,-10.254,-19.043,-11.719,-18.555,0.000
1728698986.424,0.977,-15.137,-16.602,-14.160,0.000
1728698986.427,-13.672,-15.625,-20.020,-28.320,0.000
1728698986.431,-39.062,-19.531,-25.879,-45.898,0.000
1728698986.435,-50.293,-22.949,-24.414,-38.574,0.000
1728698986.439,-20.996,-24.414,-25.391,-8.789,0.000
1728698986.443,0.977,-21.484,-30.273,2.930,0.000
1728698986.447,-5.371,-22.461,-36.133,-15.625,0.000
1728698986.451,-37.598,-24.902,-42.480,-57.617,0.000
1728698986.455,-47.363,-20.020,-41.016,-65.918,0.000
1728698986.459,-13.672,-22.461,-35.645,-19.531,0.000
1728698986.463,9.277,-22.461,-35.156,0.000,0.000
1728698986.467,10.254,-20.020,-30.273,-2.930,0.000
1728698986.470,-20.996,-22.949,-25.391,-21.484,0.000
1728698986.474,-49.316,-20.996,-29.297,-38.086,0.000
1728698986.478,-16.602,-19.531,-35.156,-5.859,0.000
1728698986.482,5.371,-23.926,-39.551,0.977,0.000
1728698986.486,-19.043,-22.949,-38.086,-20.020,0.000
1728698986.490,-33.691,-24.902,-31.738,-42.480,0.000
1728698986.494,-50.293,-26.367,-30.273,-65.430,0.000
1728698986.498,-37.109,-21.484,-36.621,-35.156,0.000
1728698986.502,7.812,-21.484,-39.062,2.441,0.000
1728698986.506,14.648,-18.555,-42.480,-2.441,0.000
1728698986.509,-21.973,-10.742,-49.805,-35.156,0.000
1728698986.513,-43.945,-10.254,-32.715,-45.410,0.000
1728698986.517,-22.461,-20.020,-25.879,-4.395,0.000
1728698986.521,11.230,-21.973,-51.270,33.691,0.000
1728698986.525,3.906,-26.367,-71.777,15.137,0.000
1728698986.529,-32.227,-26.855,-51.758,-25.879,0.000
1728698986.533,-79.102,-33.691,-21.973,-81.055,0.000
1728698986.537,-69.824,-48.340,-23.438,-81.055,0.000
1728698986.541,-39.551,-34.668,-35.645,-46.387,0.000
1728698986.545,-29.297,5.859,-39.551,-28.320,0.000
1728698986.549,-27.832,-4.883,-62.012,-27.344,0.000
1728698986.552,-47.363,-41.992,-49.805,-51.270,0.000
1728698986.556,-37.598,-37.598,-13.672,-24.414,0.000
1728698986.560,-42.969,-10.254,-39.062,-24.414,0.000
1728698986.564,-22.949,9.277,-33.691,-29.785,0.000
1728698986.568,-6.348,-19.531,6.836,-21.973,0.000
1728698986.572,-73.730,-17.578,-12.207,-68.848,0.000
1728698986.576,-94.727,-21.973,-100.098,-82.520,0.000
1728698986.580,-12.695,-45.898,-77.637,-12.207,0.000
1728698986.584,20.996,-38.574,3.418,33.203,0.000
1728698986.588,-2.930,-28.809,12.207,23.926,0.000
1728698986.591,-45.410,-6.836,12.207,-32.715,0.000
1728698986.595,-65.430,-23.438,5.371,-60.059,0.000
1728698986.599,-47.363,-36.621,-19.043,-48.340,0.000
1728698986.603,-40.039,-16.602,-9.766,-35.645,0.000
1728698986.607,-45.410,-58.105,6.348,-24.902,0.000
1728698986.611,-113.770,-79.102,-24.902,-84.473,0.000
1728698986.615,-129.883,-52.246,-64.453,-97.656,0.000
1728698986.619,-25.391,-96.191,-79.102,-13.672,0.000
1728698986.623,-5.371,-121.094,-45.898,6.348,0.000
1728698986.627,-24.902,-103.027,-22.949,-11.719,0.000
1728698986.630,-54.688,-148.438,-30.273,-54.688,0.000
1728698986.634,-114.258,-148.926,-15.137,-104.492,0.000
1728698986.638,-109.375,-174.805,-22.461,-88.379,0.000
1728698986.642,-99.121,-188.477,-67.383,-71.289,0.000
1728698986.646,-104.492,-199.219,-68.848,-56.152,0.000
1728698986.650,-131.836,-324.219,-25.879,-88.379,0.000
1728698986.654,-161.133,-333.496,0.000,-117.676,0.000
1728698986.658,-141.113,-317.871,-17.090,-78.125,0.000
1728698986.662,-111.816,-386.230,-15.625,-62.500,0.000
1728698986.666,-118.652,-442.383,7.812,-67.383,0.000
1728698986.669,-182.129,-468.750,-11.719,-119.629,0.000
1728698986.673,-198.242,-535.645,-13.672,-153.809,0.000
1728698986.677,-113.770,-603.516,-73.242,-76.172,0.000
1728698986.681,-80.566,-643.555,-101.562,-48.828,0.000
1728698986.685,-144.531,-693.848,8.301,-103.027,0.000
1728698986.689,-203.125,-750.000,55.176,-161.133,0.000
1728698986.693,-186.035,-839.844,72.266,-154.785,0.000
1728698986.697,-145.508,-944.824,49.316,-116.211,0.000
1728698986.701,-104.492,-987.305,18.555,-74.219,0.000
1728698986.704,-96.191,-999.512,-21.973,-59.082,0.000
1728698986.708,-81.543,-1000.000,-36.621,-65.918,0.000
1728698986.712,-100.098,-1000.000,3.906,-92.773,0.000
1728698986.716,-109.863,-1000.000,-2.441,-72.754,0.000
1728698986.720,-64.941,-1000.000,-4.883,-27.832,0.000
1728698986.724,-58.594,-1000.000,7.324,-23.926,0.000
1728698986.728,-75.195,-1000.000,3.906,-44.434,0.000
1728698986.732,-86.914,-1000.000,-6.836,-70.312,0.000
1728698986.736,-76.660,-1000.000,-34.668,-38.574,0.000
1728698986.740,-29.785,-1000.000,-37.109,2.441,0.000
1728698986.744,0.977,-1000.000,-20.996,8.789,0.000
1728698986.748,-6.348,-1000.000,-24.902,-3.418,0.000
1728698986.751,-37.109,-1000.000,-34.180,-36.133,0.000
1728698986.755,-41.992,-1000.000,-39.062,-20.020,0.000
1728698986.759,19.043,-1000.000,-52.246,27.832,0.000
1728698986.763,62.988,-1000.000,-35.156,36.621,0.000
1728698986.767,45.410,-1000.000,11.230,16.113,0.000
1728698986.771,15.625,-1000.000,28.320,-7.812,0.000
1728698986.775,15.625,-1000.000,13.672,11.230,0.000
1728698986.779,59.570,-1000.000,13.184,63.477,0.000
1728698986.783,83.008,-1000.000,29.785,58.594,0.000
1728698986.787,93.750,-1000.000,18.066,45.410,0.000
1728698986.791,68.359,-1000.000,-8.789,28.809,0.000
1728698986.794,53.223,-994.141,20.020,31.738,0.000
1728698986.798,91.309,-1000.000,27.344,67.871,0.000
1728698986.802,104.004,-955.566,12.207,78.613,0.000
1728698986.806,105.469,-772.949,43.945,90.820,0.000
1728698986.810,80.078,-565.918,51.270,66.895,0.000
1728698986.814,65.430,-320.312,49.805,48.828,0.000
1728698986.818,97.656,-77.148,47.852,80.566,0.000
1728698986.822,111.816,140.625,35.156,93.750,0.000
1728698986.826,100.098,346.680,31.250,85.938,0.000
1728698986.830,70.312,518.066,24.414,68.848,0.000
1728698986.834,51.270,669.434,23.926,60.547,0.000
1728698986.837,73.242,807.129,34.668,81.543,0.000
1728698986.841,99.609,914.062,45.898,91.309,0.000
1728698986.845,94.238,967.773,34.668,71.289,0.000
1728698986.849,54.688,966.797,17.578,27.832,0.000
1728698986.853,17.578,967.285,20.996,3.906,0.000
1728698986.857,41.992,968.750,25.391,42.480,0.000
1728698986.861,77.148,968.262,13.672,70.801,0.000
1728698986.865,72.754,968.262,1.953,59.570,0.000
1728698986.869,32.715,968.262,10.742,25.391,0.000
1728698986.873,-4.395,968.262,22.949,-6.836,0.000
1728698986.876,4.883,968.262,16.113,18.555,0.000
1728698986.880,41.992,968.262,0.977,52.246,0.000
1728698986.884,55.176,968.262,3.418,47.852,0.000
1728698986.888,30.273,968.262,13.672,25.391,0.000
1728698986.892,-7.812,968.262,-5.371,2.441,0.000
1728698986.896,5.371,968.262,-16.113,29.297,0.000
1728698986.900,40.527,967.773,5.371,58.594,0.000
1728698986.904,28.809,966.797,8.301,40.527,0.000
1728698986.908,4.395,969.727,2.930,21.484,0.000
1728698986.912,-28.809,934.570,-4.883,-13.672,0.000
1728698986.916,-20.996,877.930,-8.789,-2.930,0.000
1728698986.919,19.043,839.355,-9.766,30.762,0.000
1728698986.923,34.180,800.781,-31.738,34.180,0.000
1728698986.927,22.461,764.160,-36.133,17.578,0.000
1728698986.931,-23.926,724.121,-17.578,-30.762,0.000
1728698986.935,-25.879,687.012,-24.902,-24.414,0.000
1728698986.939,19.043,650.391,-27.344,20.020,0.000
1728698986.943,28.320,611.328,-9.277,30.273,0.000
1728698986.947,3.906,581.055,-11.230,4.883,0.000
1728698986.951,-25.879,546.875,-17.578,-35.645,0.000
1728698986.955,-17.090,518.066,-15.625,-24.414,0.000
1728698986.958,20.508,496.094,-12.695,20.996,0.000
1728698986.962,28.809,467.285,-15.137,17.090,0.000
1728698986.966,12.207,437.012,-15.137,-12.695,0.000
1728698986.970,-35.645,405.762,-7.324,-41.992,0.000
1728698986.974,-46.875,381.836,-14.160,-41.992,0.000
1728698986.978,-7.812,363.770,-18.555,-0.977,0.000
1728698986.982,10.742,346.680,-21.973,10.254,0.000
1728698986.986,14.160,329.102,-22.949,9.277,0.000
1728698986.990,-24.414,306.641,-31.250,-25.879,0.000
1728698986.994,-51.758,283.203,-41.016,-49.316,0.000
1728698986.997,-17.090,265.625,-36.133,-0.488,0.000
1728698987.001,10.742,251.953,-26.855,20.020,0.000
1728698987.005,0.488,238.770,-14.160,8.789,0.000
1728698987.009,-25.879,222.656,-18.066,-18.555,0.000
1728698987.013,-37.598,210.938,-28.320,-25.879,0.000
1728698987.017,-11.719,205.566,-43.457,2.441,0.000
1728698987.021,10.254,195.312,-58.105,3.906,0.000
1728698987.025,0.000,179.199,-48.340,-23.438,0.000
1728698987.029,-31.738,158.691,-18.066,-45.898,0.000
1728698987.033,-50.293,145.508,5.371,-45.898,0.000
1728698987.036,-11.719,134.766,5.371,-11.230,0.000
1728698987.040,19.531,129.395,-10.742,-1.465,0.000
1728698987.044,12.207,125.000,-22.461,-4.395,0.000
1728698987.048,-23.438,109.863,-22.461,-13.672,0.000
1728698987.052,-53.223,107.910,-28.809,-39.551,0.000
1728698987.056,4.883,104.492,-26.367,2.441,0.000
1728698987.060,32.715,99.121,-30.762,29.297,0.000
1728698987.064,1.953,89.355,-41.992,-0.488,0.000
1728698987.068,-17.578,76.660,-27.344,-24.902,0.000
1728698987.072,-41.504,70.312,-20.996,-42.969,0.000
1728698987.075,-32.227,59.570,-29.785,-6.348,0.000
1728698987.079,7.812,60.059,-34.668,31.738,0.000
1728698987.083,20.508,59.570,-45.898,23.438,0.000
1728698987.087,-15.625,53.223,-35.156,-15.137,0.000
1728698987.091,-55.176,43.457,-11.230,-42.969,0.000
1728698987.095,-42.969,37.598,-9.277,-17.578,0.000
1728698987.099,-4.395,46.387,-17.578,8.301,0.000
1728698987.103,8.789,44.922,-16.602,9.766,0.000
1728698987.107,-12.695,37.598,-13.672,-14.648,0.000
1728698987.111,-38.574,33.203,-24.414,-50.781,0.000
1728698987.115,-29.297,31.250,-24.902,-31.738,0.000
1728698987.118,4.395,28.320,-20.996,4.883,0.000
1728698987.122,15.625,22.949,-29.297,0.488,0.000
1728698987.126,-5.371,22.949,-24.414,-16.602,0.000
1728698987.130,-44.434,20.020,-14.648,-47.852,0.000
1728698987.134,-39.062,16.113,-15.625,-35.156,0.000
1728698987.138,4.395,19.043,-32.227,21.973,0.000
1728698987.142,25.391,20.508,-28.809,21.484,0.000
1728698987.146,14.160,18.066,-4.395,3.418,0.000
1728698987.150,-27.344,14.160,0.977,-26.367,0.000
1728698987.154,-47.852,3.418,-13.672,-34.668,0.000
1728698987.158,0.488,0.488,-18.555,12.207,0.000
1728698987.161,16.113,8.301,-4.883,21.484,0.000
1728698987.165,-15.625,7.812,-11.719,-6.348,0.000
1728698987.169,-32.715,-4.395,-24.414,-35.156,0.000
1728698987.173,-43.457,-2.930,-32.227,-36.621,0.000
1728698987.177,-10.254,4.883,-27.832,1.953,0.000
1728698987.181,14.160,-4.395,-17.090,20.020,0.000
1728698987.185,7.324,-5.859,-45.898,9.766,0.000
1728698987.189,-15.625,-4.883,-57.129,-21.973,0.000
1728698987.193,-35.645,-6.348,-27.832,-43.457,0.000
1728698987.197,-7.324,-6.348,-17.578,-5.859,0.000
1728698987.201,19.043,-3.418,-26.855,15.137,0.000
1728698987.204,10.254,-0.977,-40.527,0.000,0.000
1728698987.208,-20.020,-3.418,-37.598,-19.531,0.000
1728698987.212,-43.457,-6.836,-28.809,-38.086,0.000
1728698987.216,-20.508,-10.742,-15.625,-1.953,0.000
1728698987.220,18.555,-10.742,-22.461,24.902,0.000
1728698987.224,31.250,-8.301,-37.109,9.766,0.000
1728698987.228,-0.977,-9.277,-19.043,-14.648,0.000
1728698987.232,-44.922,-10.742,-18.066,-40.039,0.000
1728698987.236,-20.020,-12.695,-30.273,-9.277,0.000
1728698987.240,16.113,-10.742,-24.902,14.160,0.000
1728698987.244,14.648,-10.254,-20.996,-0.488,0.000
1728698987.247,-8.301,-9.766,-28.809,-24.902,0.000
1728698987.251,-44.434,-7.812,-40.039,-46.875,0.000
1728698987.255,-17.090,-11.719,-30.762,-15.625,0.000
1728698987.259,21.484,-9.277,-13.184,13.672,0.000
1728698987.263,2.930,-12.207,-8.789,4.883,0.000
1728698987.267,-18.555,-16.602,-10.254,-12.207,0.000
1728698987.271,-44.434,-18.555,-21.973,-29.785,0.000
1728698987.275,-27.344,-21.484,-33.203,-7.812,0.000
1728698987.279,6.836,-15.137,-34.668,5.371,0.000
1728698987.283,6.836,-18.555,-29.785,0.488,0.000
1728698987.286,-13.184,-16.602,-28.320,-15.625,0.000
1728698987.290,-45.410,-11.719,-27.344,-48.828,0.000
1728698987.294,-32.227,-17.578,-38.086,-25.879,0.000
1728698987.298,5.859,-13.184,-40.527,9.277,0.000
1728698987.302,4.883,-7.812,-31.738,0.000,0.000
1728698987.306,-6.348,-14.160,-25.879,-11.719,0.000
1728698987.310,-25.391,-18.066,-40.527,-22.461,0.000
1728698987.314,-33.691,-23.438,-52.246,-27.344,0.000
1728698987.318,-8.301,-27.832,-25.391,-8.789,0.000
1728698987.322,-14.648,-24.902,-16.113,-11.719,0.000
1728698987.325,-28.320,-25.391,-14.648,-18.066,0.000
1728698987.329,-50.781,-25.391,-9.277,-40.039,0.000
1728698987.333,-50.781,-35.156,-20.020,-39.062,0.000
1728698987.337,0.488,-32.227,-32.715,2.441,0.000
1728698987.341,15.625,-18.555,-33.203,3.906,0.000
1728698987.345,2.930,-16.602,-36.621,-5.371,0.000
1728698987.349,-29.785,-17.578,-41.992,-32.715,0.000
1728698987.353,-53.711,-20.996,-55.664,-44.922,0.000
1728698987.357,-28.809,-15.137,-69.824,-13.672,0.000
1728698987.361,-0.488,-16.113,-50.781,2.930,0.000
1728698987.365,-3.906,-14.648,-25.391,-2.930,0.000
1728698987.368,-41.504,-9.766,-14.160,-46.875,0.000
1728698987.372,-56.152,-26.855,-14.648,-60.547,0.000
1728698987.376,-16.113,-30.273,-21.484,-9.277,0.000
1728698987.380,13.672,-22.949,-21.484,14.160,0.000
1728698987.384,8.789,-25.391,-22.949,4.883,0.000
1728698987.388,-28.809,-30.273,-23.926,-31.738,0.000
1728698987.392,-46.875,-26.855,-34.180,-54.688,0.000
1728698987.396,-16.113,-25.879,-45.410,-16.113,0.000
1728698987.400,8.789,-24.414,-38.086,8.789,0.000
1728698987.403,17.578,-17.090,-25.391,6.348,0.000
1728698987.407,-17.090,-23.926,-27.832,-17.578,0.000
1728698987.411,-42.480,-23.438,-37.598,-42.969,0.000
1728698987.415,-15.137,-20.996,-36.133,-10.254,0.000
1728698987.419,-1.953,-23.438,-36.133,12.695,0.000
1728698987.423,-1.465,-23.926,-32.227,4.883,0.000
1728698987.427,-14.160,-23.438,-33.203,-12.207,0.000
1728698987.431,-42.969,-16.602,-21.973,-36.621,0.000
1728698987.435,-26.367,-14.648,-15.137,-9.277,0.000
1728698987.439,1.465,-14.160,-23.926,12.695,0.000
1728698987.442,10.254,-10.254,-18.066,4.395,0.000
1728698987.446,-9.766,-14.648,-17.090,-16.113,0.000
1728698987.450,-49.805,-21.484,-20.020,-42.969,0.000
1728698987.454,-32.715,-20.020,-34.668,-16.602,0.000
1728698987.458,5.371,-12.695,-36.133,16.113,0.000
1728698987.462,5.371,-11.230,-22.949,8.301,0.000
1728698987.466,-13.184,-16.113,-18.555,-16.602,0.000
1728698987.470,-51.270,-17.090,-35.645,-56.641,0.000
1728698987.474,-53.223,-14.160,-57.129,-42.969,0.000
1728698987.478,-10.742,-15.625,-39.551,-1.953,0.000
1728698987.482,11.230,-21.484,-7.812,0.977,0.000
1728698987.485,-2.441,-15.137,-1.465,-21.484,0.000
1728698987.489,-45.410,-10.742,-8.301,-54.688,0.000
1728698987.493,-51.270,-19.531,-11.719,-39.062,0.000
1728698987.497,-5.859,-22.461,-13.672,6.348,0.000
1728698987.501,1.953,-13.672,-18.555,2.441,0.000
1728698987.505,-24.414,-14.160,-26.367,-19.043,0.000
1728698987.509,-46.387,-20.996,-30.273,-47.363,0.000
1728698987.513,-47.852,-22.461,-36.621,-42.969,0.000
1728698987.517,-10.742,-16.113,-35.645,-2.930,0.000
1728698987.521,4.395,-11.230,-35.156,0.488,0.000
1728698987.525,-11.230,-7.812,-33.691,-8.789,0.000
1728698987.528,-39.062,-9.766,-31.250,-43.457,0.000
1728698987.532,-63.965,-17.578,-47.852,-64.453,0.000
1728698987.536,-31.250,-11.719,-46.875,-25.879,0.000
1728698987.540,-4.883,-13.672,-25.879,-10.742,0.000
1728698987.544,-12.695,-15.137,-18.555,-19.531,0.000
1728698987.548,-41.504,-13.184,-21.484,-47.852,0.000
1728698987.552,-46.387,-21.484,-18.066,-58.105,0.000
1728698987.556,12.695,-27.832,-6.348,12.207,0.000
1728698987.560,32.715,-21.973,-11.719,28.320,0.000
1728698987.564,-3.906,-13.672,-36.621,-18.555,0.000
1728698987.568,-25.879,-6.836,-45.410,-49.316,0.000
1728698987.571,-41.992,-14.160,-38.574,-58.105,0.000
1728698987.575,-13.672,-16.602,-30.273,-2.441,0.000
1728698987.579,35.645,-9.277,-27.344,33.691,0.000
1728698987.583,29.785,-6.348,-35.645,21.484,0.000
1728698987.587,-3.418,2.441,-34.180,-12.207,0.000
1728698987.591,-29.785,1.465,-35.156,-40.039,0.000
1728698987.595,-9.277,-4.883,-36.621,-7.324,0.000
1728698987.599,41.992,4.883,-26.367,29.785,0.000
1728698987.603,46.387,4.395,-28.320,36.621,0.000
1728698987.607,19.531,3.418,-37.598,-0.977,0.000
1728698987.611,-16.113,0.977,-35.645,-41.504,0.000
1728698987.614,-12.207,-6.348,-46.875,-14.160,0.000
1728698987.618,22.461,-0.977,-59.570,16.113,0.000
1728698987.622,21.484,-4.395,-44.434,7.324,0.000
1728698987.626,9.766,-11.230,-27.832,-14.648,0.000
1728698987.630,-20.020,-15.137,-22.461,-36.621,0.000
1728698987.634,-30.273,-15.625,-25.879,-16.113,0.000
1728698987.638,8.301,-12.207,-24.902,8.301,0.000
1728698987.642,20.020,-8.301,-30.762,-3.906,0.000
1728698987.646,8.789,-10.742,-30.762,-9.277,0.000
1728698987.650,-20.020,-12.207,-46.875,-27.832,0.000
1728698987.654,-21.484,-10.742,-76.660,-26.855,0.000
1728698987.657,11.230,-10.254,-50.293,13.184,0.000
1728698987.661,12.207,-11.719,-17.578,9.766,0.000
1728698987.665,-1.953,-16.113,-3.906,-18.066,0.000
1728698987.669,-37.598,-22.949,-3.906,-44.922,0.000
1728698987.673,-31.738,-19.531,-12.695,-31.250,0.000
1728698987.677,12.695,-13.672,-19.531,12.207,0.000
1728698987.681,21.484,-10.254,-29.297,9.766,0.000
1728698987.685,4.883,-6.836,-28.320,-17.090,0.000
1728698987.689,-33.691,-6.348,-20.020,-52.246,0.000
1728698987.693,-65.918,-10.254,-18.555,-48.340,0.000
1728698987.696,-20.020,-15.625,-19.531,-5.371,0.000
1728698987.700,3.906,-10.742,-24.902,3.906,0.000
1728698987.704,0.488,-5.859,-46.875,-0.488,0.000
1728698987.708,-38.086,-8.301,-50.781,-34.668,0.000
1728698987.712,-59.570,-13.672,-26.855,-55.176,0.000
1728698987.716,-3.906,-11.230,-20.508,-5.371,0.000
1728698987.720,37.109,-6.348,-33.691,-0.977,0.000
1728698987.724,20.020,-16.113,-30.273,-11.230,0.000
1728698987.728,-27.344,-27.832,-20.020,-25.879,0.000
1728698987.732,-38.086,-25.879,-20.020,-50.293,0.000
1728698987.735,-6.836,-23.438,-43.457,-6.348,0.000
1728698987.739,20.996,-22.949,-53.223,20.508,0.000
1728698987.743,23.926,-20.996,-33.691,11.719,0.000
1728698987.747,-7.324,-21.484,-24.414,-21.973,0.000
1728698987.751,-44.434,-25.879,-13.672,-57.129,0.000
1728698987.755,-13.184,-20.020,-13.184,-16.602,0.000
1728698987.759,11.719,-14.648,-22.461,18.555,0.000
1728698987.763,-4.883,-24.902,-21.484,11.719,0.000
1728698987.767,-19.531,-25.391,-21.973,-20.020,0.000
1728698987.771,-51.758,-22.949,-24.414,-53.711,0.000
1728698987.774,-28.809,-23.926,-41.992,-18.066,0.000
1728698987.778,8.301,-22.949,-44.434,11.719,0.000
1728698987.782,-6.348,-27.832,-31.738,0.977,0.000
1728698987.786,-27.344,-24.902,-29.297,-30.273,0.000
1728698987.790,-46.875,-22.461,-34.668,-61.035,0.000
1728698987.794,-25.391,-23.438,-48.828,-29.785,0.000
1728698987.798,3.418,-22.949,-30.762,5.859,0.000
1728698987.802,-0.977,-23.438,-19.043,-1.465,0.000
1728698987.806,-23.926,-16.113,-43.457,-34.668,0.000
1728698987.810,-55.664,-21.484,-46.875,-68.359,0.000
1728698987.813,-44.922,-23.438,-25.391,-42.480,0.000
1728698987.817,-10.254,-16.602,-7.324,-0.977,0.000
1728698987.821,8.789,-16.113,3.906,3.906,0.000
1728698987.825,0.488,-8.789,-5.859,-7.812,0.000
1728698987.829,-27.344,-7.812,-18.555,-29.785,0.000
1728698987.833,-28.809,-13.184,-17.578,-22.949,0.000
1728698987.837,-5.859,-11.719,-19.043,1.953,0.000
1728698987.841,-6.348,-8.789,-12.207,5.859,0.000
1728698987.845,-18.555,-18.555,-5.371,-9.766,0.000
1728698987.849,-60.059,-20.508,-16.602,-59.570,0.000
1728698987.853,-65.918,-23.438,-22.949,-66.406,0.000
1728698987.856,-17.090,-25.879,-39.551,-20.020,0.000
1728698987.860,-4.395,-16.113,-46.875,-21.973,0.000
1728698987.864,-39.062,-23.438,-19.531,-39.551,0.000
1728698987.868,-76.172,-33.691,-3.418,-66.406,0.000
1728698987.872,-63.477,-37.598,-16.113,-47.363,0.000
1728698987.876,-28.809,-31.250,-36.621,-0.977,0.000
1728698987.880,-22.461,-18.066,-21.484,-1.953,0.000
1728698987.884,-22.949,-19.043,-17.578,-20.020,0.000
1728698987.888,-45.410,-28.809,-23.438,-47.852,0.000
1728698987.892,-65.918,-26.367,-8.301,-54.199,0.000
1728698987.896,-21.484,-25.879,-6.836,-12.207,0.000
1728698987.900,12.695,-24.902,-9.766,7.324,0.000
1728698987.903,0.000,-19.531,-16.113,-8.789,0.000
1728698987.907,-31.738,-20.020,-22.949,-41.992,0.000
1728698987.911,-52.246,-19.531,-15.137,-62.988,0.000
1728698987.915,-32.715,-20.020,-4.395,-22.949,0.000
1728698987.919,-14.648,-18.555,-6.348,4.883,0.000
1728698987.923,-20.508,-19.531,-20.020,-9.277,0.000
1728698987.927,-46.875,-22.461,-24.414,-48.340,0.000
1728698987.931,-64.941,-27.344,-18.555,-51.758,0.000
1728698987.935,-31.738,-25.879,-26.367,3.418,0.000
1728698987.939,0.000,-20.020,-27.832,29.785,0.000
1728698987.942,-5.371,-16.113,-25.391,0.977,0.000
1728698987.946,-35.645,-20.508,-27.344,-41.504,0.000
1728698987.950,-72.754,-31.738,-17.578,-62.500,0.000
1728698987.954,-48.828,-33.203,-14.160,-32.227,0.000
1728698987.958,5.371,-22.949,-17.090,8.789,0.000
1728698987.962,-2.441,-15.137,-27.344,5.859,0.000
1728698987.966,-40.039,-16.113,-39.551,-26.855,0.000
1728698987.970,-56.152,-16.113,-30.762,-46.875,0.000
1728698987.974,-22.949,-16.602,-28.809,-13.672,0.000
1728698987.978,7.324,-16.602,-50.781,10.742,0.000
1728698987.982,-12.695,-20.508,-50.781,-0.977,0.000
1728698987.985,-32.715,-21.484,-22.461,-27.344,0.000
1728698987.989,-52.246,-19.531,-10.254,-49.805,0.000
1728698987.993,-41.016,-28.809,-19.043,-20.020,0.000
1728698987.997,7.812,-28.320,-25.879,7.324,0.000
1728698988.001,12.207,-25.391,-28.809,-0.977,0.000
1728698988.005,-13.184,-27.832,-26.367,-8.789,0.000
1728698988.009,-40.039,-24.414,-15.137,-36.621,0.000
1728698988.013,-43.945,-21.973,-15.625,-30.762,0.000
1728698988.017,-11.719,-19.531,-22.949,-4.883,0.000
1728698988.021,3.906,-19.043,-26.367,8.789,0.000
1728698988.025,-7.812,-18.555,-33.691,10.742,0.000
1728698988.028,-35.645,-22.461,-28.320,-28.320,0.000
1728698988.032,-33.203,-23.438,-28.809,-33.203,0.000
1728698988.036,-17.090,-20.508,-34.180,1.953,0.000
1728698988.040,-0.977,-20.020,-35.645,7.812,0.000
1728698988.044,-6.836,-20.020,-41.504,-4.883,0.000
1728698988.048,-45.898,-25.391,-31.738,-28.320,0.000
1728698988.052,-38.574,-28.320,-23.438,-22.949,0.000
1728698988.056,-5.859,-29.785,-30.273,18.555,0.000
1728698988.060,4.883,-26.855,-23.438,19.531,0.000
1728698988.064,-8.789,-26.367,-5.859,-2.441,0.000
1728698988.067,-45.410,-27.344,0.488,-36.133,0.000
1728698988.071,-53.223,-21.484,-12.695,-48.340,0.000
1728698988.075,-12.207,-20.508,-28.809,-3.418,0.000
1728698988.079,2.441,-21.484,-34.180,6.836,0.000
1728698988.083,1.465,-18.066,-22.461,-2.441,0.000
1728698988.087,-27.344,-20.020,-13.672,-36.133,0.000
1728698988.091,-51.270,-27.832,-15.137,-56.152,0.000
1728698988.095,-17.578,-25.391,-6.348,-1.465,0.000
1728698988.099,2.441,-18.555,-2.441,16.113,0.000
1728698988.103,-7.812,-18.066,-10.742,1.465,0.000
1728698988.106,-33.203,-18.555,-24.902,-37.598,0.000
1728698988.110,-52.734,-19.043,-53.223,-54.199,0.000
1728698988.114,-19.531,-14.160,-59.082,-6.348,0.000
1728698988.118,4.395,-18.555,-27.344,12.207,0.000
1728698988.122,-9.766,-21.973,-9.277,7.812,0.000
1728698988.126,-42.969,-23.438,-12.207,-31.250,0.000
1728698988.130,-62.012,-30.273,-15.625,-70.801,0.000
1728698988.134,-27.344,-23.438,-16.602,-25.391,0.000
1728698988.138,2.930,-25.391,-19.531,19.043,0.000
1728698988.142,13.672,-24.414,-28.809,23.926,0.000
1728698988.145,-2.930,-20.020,-25.879,1.465,0.000
1728698988.149,-41.016,-20.020,-21.973,-38.574,0.000
1728698988.153,-28.320,-21.973,-20.996,-13.672,0.000
1728698988.157,7.812,-25.391,-14.160,20.996,0.000
1728698988.161,-1.465,-28.809,-22.949,-7.812,0.000
1728698988.165,-27.344,-21.484,-48.828,-39.062,0.000
1728698988.169,-53.223,-15.625,-51.270,-47.852,0.000
1728698988.173,-26.367,-18.066,-22.461,-13.184,0.000
1728698988.177,10.742,-17.090,-8.789,13.672,0.000
1728698988.181,6.348,-22.461,-10.254,11.719,0.000
1728698988.184,-16.113,-28.320,-12.207,7.812,0.000
1728698988.188,-52.734,-21.484,-16.113,-36.133,0.000
1728698988.192,-58.105,-21.973,-26.367,-24.414,0.000
1728698988.196,-1.953,-23.926,-32.715,36.621,0.000
1728698988.200,23.926,-19.043,-24.414,38.574,0.000
1728698988.204,-13.672,-18.555,-16.113,4.395,0.000
1728698988.208,-50.781,-24.902,-9.766,-48.828,0.000
1728698988.212,-45.410,-30.273,-12.207,-35.645,0.000
1728698988.216,-11.230,-25.391,-25.879,10.742,0.000
1728698988.220,21.484,-19.043,-35.156,19.043,0.000
1728698988.223,14.160,-14.648,-28.809,16.113,0.000
1728698988.227,-36.621,-21.973,-27.832,-34.668,0.000
1728698988.231,-51.758,-22.461,-36.133,-54.199,0.000
1728698988.235,-23.438,-20.020,-35.645,-12.207,0.000
1728698988.239,-23.926,-23.438,-24.902,-10.742,0.000
1728698988.243,-43.945,-20.020,-14.648,-29.785,0.000
1728698988.247,-66.895,-26.855,-0.977,-55.664,0.000
1728698988.251,-81.543,-32.227,0.000,-60.547,0.000
1728698988.255,-47.852,-24.414,-22.461,-31.738,0.000
1728698988.259,-22.949,-19.531,-41.016,-24.414,0.000
1728698988.263,-21.973,-24.414,-35.156,-20.996,0.000
1728698988.267,-58.594,-24.902,-22.949,-57.129,0.000
1728698988.270,-80.566,-19.043,-25.391,-75.195,0.000
1728698988.274,-37.598,-23.926,-29.297,-27.344,0.000
1728698988.278,-12.207,-27.344,-15.625,-2.930,0.000
1728698988.282,-24.414,-24.414,-27.344,-16.602,0.000
1728698988.286,-50.293,-23.926,-62.988,-49.316,0.000
1728698988.290,-66.406,-24.902,-41.504,-61.523,0.000
1728698988.294,-38.086,-22.949,-18.066,-26.367,0.000
1728698988.298,-11.719,-22.949,-20.508,-15.137,0.000
1728698988.302,-14.160,-25.391,-18.555,-27.832,0.000
1728698988.306,-32.715,-27.344,-13.672,-43.457,0.000
1728698988.310,-51.270,-32.227,-16.602,-68.848,0.000
1728698988.313,-29.785,-28.809,-17.578,-47.363,0.000
1728698988.317,-2.930,-21.484,-22.461,-9.766,0.000
1728698988.321,0.000,-13.672,-35.645,-6.836,0.000
1728698988.325,-29.785,-15.137,-30.762,-32.715,0.000
1728698988.329,-67.383,-20.020,-14.648,-61.035,0.000
1728698988.333,-32.715,-19.531,-6.348,-29.297,0.000
1728698988.337,1.953,-24.902,-12.207,0.000,0.000
1728698988.341,-9.277,-30.273,-23.926,-14.160,0.000
1728698988.345,-24.902,-21.973,-27.832,-41.016,0.000
1728698988.349,-48.828,-20.508,-29.297,-63.965,0.000
1728698988.353,-36.133,-26.367,-33.691,-33.691,0.000
1728698988.356,-12.695,-23.926,-36.621,-5.859,0.000
1728698988.360,-9.766,-15.625,-55.176,-6.836,0.000
1728698988.364,-18.555,-13.672,-54.199,-27.832,0.000
1728698988.368,-59.082,-18.555,-20.508,-68.359,0.000
1728698988.372,-52.246,-26.855,-6.836,-44.922,0.000
1728698988.376,-1.953,-27.344,-12.695,2.441,0.000
1728698988.380,1.953,-24.902,-14.648,-2.441,0.000
1728698988.384,-14.648,-22.461,-18.555,-27.832,0.000
1728698988.388,-35.645,-18.066,-26.855,-55.176,0.000
1728698988.392,-32.715,-24.414,-32.715,-47.363,0.000
1728698988.396,9.277,-22.949,-27.344,6.348,0.000
1728698988.399,20.508,-16.602,-38.574,18.555,0.000
1728698988.403,6.348,-10.254,-45.898,-10.742,0.000
1728698988.407,-24.902,-10.254,-37.598,-48.340,0.000
1728698988.411,-36.621,-16.602,-27.344,-45.898,0.000
1728698988.415,3.906,-15.137,-11.230,3.906,0.000
1728698988.419,30.273,-14.648,-8.301,14.648,0.000
1728698988.423,20.020,-18.066,-18.066,-0.977,0.000
1728698988.427,-21.973,-22.949,-29.297,-37.109,0.000
1728698988.431,-36.133,-23.926,-29.297,-37.109,0.000
1728698988.435,6.348,-16.602,-26.367,8.789,0.000
1728698988.438,22.949,-14.160,-20.996,20.996,0.000
1728698988.442,9.277,-18.066,-20.996,18.555,0.000
1728698988.446,-20.020,-17.090,-26.367,-21.973,0.000
1728698988.450,-33.203,-16.113,-34.180,-40.527,0.000
1728698988.454,2.441,-17.578,-48.828,4.883,0.000
1728698988.458,20.020,-16.602,-44.922,11.230,0.000
1728698988.462,12.207,-16.113,-27.832,0.000,0.000
1728698988.466,-21.484,-14.160,-14.648,-28.809,0.000
1728698988.470,-52.734,-17.578,-24.902,-53.711,0.000
1728698988.474,-13.672,-15.137,-42.969,-7.812,0.000
1728698988.477,26.855,-10.742,-20.020,16.602,0.000
1728698988.481,9.277,-22.949,-8.789,0.977,0.000
1728698988.485,-32.227,-21.484,-22.949,-32.715,0.000
1728698988.489,-47.852,-17.578,-16.113,-54.688,0.000
1728698988.493,-11.719,-19.531,-17.090,-17.090,0.000
1728698988.497,24.902,-18.066,-22.949,10.254,0.000
1728698988.501,14.648,-18.066,-17.578,-3.906,0.000
1728698988.505,-21.973,-15.625,-19.531,-37.598,0.000
1728698988.509,-38.574,-11.719,-25.879,-67.383,0.000
1728698988.513,-12.695,-12.207,-33.203,-28.320,0.000
1728698988.516,14.160,-9.766,-45.410,9.277,0.000
1728698988.520,13.672,-18.555,-48.828,-1.465,0.000
1728698988.524,-8.301,-24.414,-30.762,-26.855,0.000
1728698988.528,-48.340,-23.926,-23.926,-59.570,0.000
1728698988.532,-35.645,-26.855,-22.461,-27.832,0.000
1728698988.536,1.953,-20.508,-20.508,11.230,0.000
1728698988.540,3.418,-23.438,-26.367,-2.930,0.000
1728698988.544,-13.184,-31.738,-31.738,-24.414,0.000
1728698988.548,-37.598,-29.297,-38.086,-52.734,0.000
1728698988.552,-25.879,-21.484,-35.645,-37.598,0.000
1728698988.555,11.719,-16.113,-29.785,11.230,0.000
1728698988.559,26.855,-15.625,-28.320,17.578,0.000
1728698988.563,2.441,-15.625,-25.879,-7.324,0.000
1728698988.567,-45.898,-20.020,-20.508,-40.039,0.000
1728698988.571,-51.270,-27.344,-20.020,-29.785,0.000
1728698988.575,-14.160,-26.855,-28.320,12.695,0.000
1728698988.579,-4.883,-23.926,-33.203,10.254,0.000
1728698988.583,-15.625,-21.484,-26.367,-22.949,0.000
1728698988.587,-41.504,-19.043,-22.461,-56.641,0.000
1728698988.591,-45.410,-20.020,-24.414,-44.922,0.000
1728698988.594,0.977,-21.973,-20.020,0.000,0.000
1728698988.598,14.648,-21.484,-25.391,8.789,0.000
1728698988.602,3.906,-21.973,-22.461,5.859,0.000
1728698988.606,-32.715,-23.438,-9.766,-33.691,0.000
1728698988.610,-55.664,-21.484,-9.766,-60.547,0.000
1728698988.614,-16.602,-17.090,-20.508,-16.602,0.000
1728698988.618,7.324,-12.695,-33.203,13.672,0.000
1728698988.622,-6.348,-11.719,-28.320,-0.488,0.000
1728698988.626,-37.598,-8.789,-28.809,-46.387,0.000
1728698988.630,-53.223,-11.230,-34.180,-63.965,0.000
1728698988.634,-15.625,-19.043,-25.879,-19.531,0.000
1728698988.638,8.301,-18.555,-28.809,19.043,0.000
1728698988.641,-13.672,-20.508,-25.879,-2.930,0.000
1728698988.645,-34.668,-23.438,-2.441,-46.875,0.000
1728698988.649,-41.504,-20.508,1.953,-54.199,0.000
1728698988.653,-4.395,-12.695,-6.836,-13.672,0.000
1728698988.657,17.578,-7.812,-13.184,4.883,0.000
1728698988.661,0.977,-14.160,-20.508,-5.859,0.000
1728698988.665,-22.949,-10.742,-24.902,-22.461,0.000
1728698988.669,-44.434,-13.672,-20.020,-42.969,0.000
1728698988.673,-24.414,-20.996,-18.066,-9.766,0.000
1728698988.677,10.742,-20.020,-21.484,13.184,0.000
1728698988.681,-1.953,-21.973,-21.484,7.324,0.000
1728698988.684,-26.367,-18.066,-30.762,-11.719,0.000
1728698988.688,-48.340,-18.066,-39.551,-53.711,0.000
1728698988.692,-27.344,-21.973,-50.781,-33.691,0.000
1728698988.696,7.324,-18.555,-50.781,-0.977,0.000
1728698988.700,4.883,-21.484,-20.020,-10.742,0.000
1728698988.704,-27.344,-25.879,-5.859,-42.969,0.000
1728698988.708,-75.195,-20.996,-12.207,-80.078,0.000
1728698988.712,-57.129,-22.461,-16.602,-44.922,0.000
1728698988.716,-4.395,-25.391,-27.832,-3.418,0.000
1728698988.720,-0.977,-21.973,-28.809,-7.324,0.000
1728698988.724,-24.902,-16.602,-34.668,-26.855,0.000
1728698988.727,-56.641,-17.090,-43.945,-46.387,0.000
1728698988.731,-61.035,-23.438,-32.715,-32.715,0.000
1728698988.735,-15.625,-26.855,-24.414,4.883,0.000
1728698988.739,16.113,-23.438,-29.297,12.695,0.000
1728698988.743,0.000,-14.648,-30.273,-9.277,0.000
1728698988.747,0.000,-5.371,-29.297,-53.711,0.000
1728698988.751,0.000,-9.766,-26.855,-51.758,0.000
1728698988.755,0.000,-18.066,-16.602,-18.555,0.000
1728698988.759,0.000,-20.996,-27.832,-14.160,0.000
1728698988.763,0.000,-18.555,-35.156,-21.484,0.000
1728698988.767,0.000,-10.742,-20.508,-59.082,0.000
1728698988.770,0.000,-17.578,-17.578,-40.527,0.000
1728698988.774,0.000,-26.855,-18.066,1.465,0.000
1728698988.778,0.000,-19.043,-27.344,-7.324,0.000
1728698988.782,0.000,-15.137,-41.992,-13.672,0.000
1728698988.786,0.000,-20.996,-30.273,-43.945,0.000
1728698988.790,-41.016,-22.461,-18.555,-44.434,0.000
1728698988.794,-10.742,-16.113,-21.973,3.906,0.000
1728698988.798,3.418,-9.766,-19.531,7.324,0.000
1728698988.802,2.930,-12.207,-14.648,-8.301,0.000
1728698988.806,-29.297,-15.137,-28.320,-36.621,0.000
1728698988.809,-49.805,-17.090,-38.086,-52.734,0.000
1728698988.813,-14.160,-27.344,-21.973,-3.906,0.000
1728698988.817,9.766,-27.832,-13.672,23.926,0.000
1728698988.821,2.930,-17.578,-2.930,-0.488,0.000
1728698988.825,-41.504,-11.230,-2.441,-43.945,0.000
1728698988.829,-48.340,-19.531,-5.859,-46.875,0.000
1728698988.833,-13.184,-18.066,-8.789,-3.906,0.000
1728698988.837,4.883,-15.137,-16.602,14.648,0.000
1728698988.841,11.230,-19.531,-15.625,8.789,0.000
1728698988.845,-15.137,-20.996,-23.438,-19.531,0.000
1728698988.848,-51.758,-21.973,-43.945,-42.969,0.000
1728698988.852,-22.949,-23.438,-48.340,-15.137,0.000
1728698988.856,17.578,-26.367,-35.645,16.602,0.000
1728698988.860,7.812,-20.508,-38.574,1.465,0.000
1728698988.864,-16.602,-19.531,-51.758,-26.855,0.000
1728698988.868,-48.340,-26.367,-42.969,-49.805,0.000
1728698988.872,-35.645,-22.949,-22.949,-15.137,0.000
1728698988.876,-9.277,-20.020,-29.297,10.742,0.000
1728698988.880,-8.301,-22.949,-23.926,-0.488,0.000
1728698988.884,-36.621,-21.973,-27.344,-20.020,0.000
1728698988.887,-62.500,-25.879,-50.781,-48.340,0.000
1728698988.891,-27.832,-29.785,-37.598,-25.391,0.000
1728698988.895,4.395,-28.320,-19.531,-1.953,0.000
1728698988.899,11.230,-20.996,-23.926,-16.113,0.000
1728698988.903,-9.766,-21.973,-22.461,-34.668,0.000
1728698988.907,-41.016,-18.066,-56.152,-50.781,0.000
1728698988.911,-34.180,-9.766,-80.566,-37.598,0.000
1728698988.915,-1.953,-22.461,-28.320,-13.184,0.000
1728698988.919,9.277,-31.738,9.766,-2.441,0.000
1728698988.923,-15.625,-27.832,-0.488,-23.438,0.000
1728698988.927,-47.363,-24.414,-17.578,-61.035,0.000
1728698988.930,-60.547,-18.066,-27.344,-59.570,0.000
1728698988.934,-17.090,-10.742,-33.203,-9.766,0.000
1728698988.938,20.020,-19.043,-56.641,23.438,0.000
1728698988.942,-3.906,-27.344,-44.434,-5.371,0.000
1728698988.946,-47.852,-25.879,-12.207,-55.664,0.000
1728698988.950,-41.504,-24.414,-9.277,-38.574,0.000
1728698988.954,-12.695,-28.809,-6.348,-0.977,0.000
1728698988.958,-35.156,-22.949,-48.340,-39.551,0.000
1728698988.962,-60.547,-13.672,-50.293,-47.852,0.000
1728698988.965,-68.359,-25.391,-27.832,-46.875,0.000
1728698988.969,-70.801,-27.344,-41.504,-52.246,0.000
1728698988.973,-27.344,-35.645,-24.414,-2.930,0.000
1728698988.977,-7.324,-6.836,-1.465,5.371,0.000
1728698988.981,-9.277,5.371,-22.461,-8.789,0.000
1728698988.985,-31.250,-39.551,-34.180,-27.832,0.000
1728698988.989,-65.918,-32.227,-33.691,-63.477,0.000
1728698988.993,-21.484,3.906,-26.367,-15.625,0.000
1728698988.997,14.648,-19.531,-35.156,17.090,0.000
1728698989.001,-3.418,-41.504,-45.898,-15.625,0.000
1728698989.005,-41.016,-26.367,-15.625,-34.668,0.000
1728698989.009,-66.406,-14.160,-22.461,-42.480,0.000
1728698989.012,-39.551,17.090,-58.594,-14.648,0.000
1728698989.016,0.488,-28.320,-70.312,2.441,0.000
1728698989.020,11.719,-63.477,-41.016,3.418,0.000
1728698989.024,-39.062,-1.465,-8.301,-37.109,0.000
1728698989.028,-85.938,22.949,-9.766,-84.473,0.000
1728698989.032,-29.785,-35.156,-29.297,-3.906,0.000
1728698989.036,11.230,-42.969,-44.434,41.504,0.000
1728698989.040,7.324,-38.574,-7.812,18.066,0.000
1728698989.044,-46.387,-69.336,13.184,-32.715,0.000
1728698989.048,-84.961,-62.988,-2.441,-71.777,0.000
1728698989.052,-75.684,-57.129,-26.855,-52.246,0.000
1728698989.055,-34.668,-102.051,-36.621,2.930,0.000
1728698989.059,-18.555,-122.559,-86.914,14.160,0.000
1728698989.063,-55.664,-103.027,-167.480,-42.969,0.000
1728698989.067,-71.777,-177.734,-121.582,-75.195,0.000
1728698989.071,-63.477,-204.102,-23.926,-60.059,0.000
1728698989.075,-30.273,-189.453,18.555,-20.020,0.000
1728698989.079,-54.688,-244.141,12.695,-39.551,0.000
1728698989.083,-66.895,-295.410,-3.418,-55.664,0.000
1728698989.087,-49.805,-344.727,-8.301,-49.316,0.000
1728698989.091,-57.129,-363.281,-36.621,-44.922,0.000
1728698989.095,-45.898,-411.133,-63.965,-31.250,0.000
1728698989.098,-60.059,-442.871,-62.988,-47.363,0.000
1728698989.102,-83.008,-481.934,-46.387,-57.617,0.000
1728698989.106,-121.582,-562.012,-44.922,-87.402,0.000
1728698989.110,-107.910,-607.910,-51.270,-94.727,0.000
1728698989.114,-45.898,-621.094,-69.336,-62.988,0.000
1728698989.118,-11.719,-685.059,-44.922,-32.715,0.000
1728698989.122,-25.879,-753.418,-23.438,-36.621,0.000
1728698989.126,-85.449,-756.836,-42.969,-87.891,0.000
1728698989.130,-82.520,-839.355,-47.852,-72.754,0.000
1728698989.134,-35.156,-920.410,-52.734,-20.020,0.000
1728698989.138,1.465,-957.031,-53.223,-1.465,0.000
1728698989.141,-2.441,-997.559,-49.805,-15.625,0.000
1728698989.145,-61.035,-1000.000,-76.660,-62.988,0.000
1728698989.149,-56.152,-999.512,-55.664,-48.828,0.000
1728698989.153,-12.695,-1000.000,-8.789,2.930,0.000
1728698989.157,-6.348,-1000.000,-4.395,1.953,0.000
1728698989.161,-2.930,-1000.000,-13.184,-11.719,0.000
1728698989.165,0.000,-1000.000,-8.789,-49.805,0.000
1728698989.169,0.000,-1000.000,-20.020,-59.082,0.000
1728698989.173,0.000,-1000.000,-18.066,-0.977,0.000
1728698989.177,0.000,-1000.000,-4.883,12.207,0.000
1728698989.180,0.000,-1000.000,-11.230,-7.324,0.000
1728698989.184,0.000,-1000.000,-14.648,-39.062,0.000
1728698989.188,0.000,-1000.000,-15.137,-38.574,0.000
1728698989.192,0.000,-1000.000,-14.648,25.879,0.000
1728698989.196,0.000,-1000.000,-14.648,38.086,0.000
1728698989.200,0.000,-1000.000,-2.930,19.531,0.000
1728698989.204,0.000,-999.512,9.277,-0.488,0.000
1728698989.208,0.000,-1000.000,3.418,-20.020,0.000
1728698989.212,7.812,-998.535,0.000,13.184,0.000
1728698989.216,48.828,-953.613,11.230,41.504,0.000
1728698989.219,60.547,-892.578,15.625,32.227,0.000
1728698989.223,34.668,-850.098,18.066,4.883,0.000
1728698989.227,-3.418,-796.875,22.461,-15.625,0.000
1728698989.231,28.809,-731.445,13.672,20.020,0.000
1728698989.235,78.125,-665.039,-3.906,58.105,0.000
1728698989.239,75.195,-584.473,-3.418,56.641,0.000
1728698989.243,44.922,-483.887,7.812,28.809,0.000
1728698989.247,10.254,-379.883,16.113,-2.441,0.000
1728698989.251,26.855,-257.812,34.180,21.484,0.000
1728698989.255,56.152,-120.605,38.086,51.270,0.000
1728698989.258,60.547,14.648,18.066,48.340,0.000
1728698989.262,53.223,155.273,0.000,31.738,0.000
1728698989.266,14.648,297.363,1.465,-3.906,0.000
1728698989.270,16.113,459.961,12.695,12.207,0.000
1728698989.274,55.176,615.723,17.090,54.199,0.000
1728698989.278,49.316,723.633,-1.953,46.387,0.000
1728698989.282,21.484,809.570,-21.484,10.742,0.000
1728698989.286,-5.371,878.906,-35.645,-28.320,0.000
1728698989.290,-9.766,926.270,-26.855,-34.668,0.000
1728698989.294,22.949,954.590,15.625,0.488,0.000
1728698989.298,41.016,960.938,20.996,16.602,0.000
1728698989.301,26.855,967.285,1.465,0.488,0.000
1728698989.305,-7.324,968.262,1.465,-29.785,0.000
1728698989.309,-12.695,967.773,-7.812,-25.879,0.000
1728698989.313,25.391,968.262,-22.461,24.902,0.000
1728698989.317,41.016,968.262,-23.438,44.434,0.000
1728698989.321,15.625,968.262,-13.672,19.531,0.000
1728698989.325,-21.973,967.773,5.371,-20.996,0.000
1728698989.329,-35.156,966.797,3.906,-37.109,0.000
1728698989.333,-2.441,970.215,-6.348,-7.812,0.000
1728698989.336,13.672,944.336,-2.930,5.859,0.000
1728698989.340,-6.836,898.438,-28.320,-0.488,0.000
1728698989.344,-39.551,876.953,-48.340,-23.438,0.000
1728698989.348,-42.480,845.703,-16.113,-30.762,0.000
1728698989.352,6.348,799.805,7.812,8.789,0.000
1728698989.356,32.227,769.531,-6.348,24.902,0.000
1728698989.360,18.066,738.281,-5.859,15.625,0.000
1728698989.364,-16.602,699.707,4.883,-16.602,0.000
1728698989.368,-41.504,660.156,-3.906,-41.992,0.000
1728698989.372,-15.625,632.324,-9.277,-5.859,0.000
1728698989.376,18.066,611.328,-12.695,19.043,0.000
1728698989.380,10.742,577.637,-21.973,1.953,0.000
1728698989.383,-17.090,541.016,-24.414,-29.785,0.000
1728698989.387,-31.250,516.113,-32.227,-41.504,0.000
1728698989.391,-1.465,493.164,-33.203,-5.371,0.000
1728698989.395,22.949,467.773,-10.742,17.090,0.000
1728698989.399,23.926,440.918,8.301,8.301,0.000
1728698989.403,-10.742,412.109,3.418,-34.180,0.000
1728698989.407,-56.152,378.906,-2.930,-68.359,0.000
1728698989.411,-27.832,357.910,-3.418,-20.996,0.000
1728698989.415,7.812,347.656,-14.648,8.301,0.000
1728698989.419,8.789,331.543,-16.113,-3.418,0.000
1728698989.423,-12.695,311.523,-21.973,-26.855,0.000
1728698989.426,-45.410,290.039,-49.316,-59.570,0.000
1728698989.430,-35.645,271.484,-44.922,-16.113,0.000
1728698989.434,4.883,255.859,-23.926,24.902,0.000
1728698989.438,1.465,247.559,-23.438,1.953,0.000
1728698989.442,-19.043,229.004,-31.250,-15.137,0.000
1728698989.446,-38.574,210.449,-33.691,-43.457,0.000
1728698989.450,-34.668,204.590,-24.902,-30.273,0.000
1728698989.454,16.602,195.312,-23.438,15.625,0.000
1728698989.458,35.156,179.688,-18.555,25.879,0.000
1728698989.462,-6.348,170.898,-2.441,-4.883,0.000
1728698989.466,-57.617,153.320,-1.465,-48.828,0.000
1728698989.469,-39.062,133.789,-12.695,-37.109,0.000
1728698989.473,8.789,133.301,-11.719,5.859,0.000
1728698989.477,9.277,128.418,-7.812,14.160,0.000
1728698989.481,-13.672,117.676,-10.254,-4.395,0.000
1728698989.485,-51.758,107.422,-14.648,-55.176,0.000
1728698989.489,-53.711,100.098,-24.902,-63.965,0.000
1728698989.493,-11.719,90.332,-24.902,-10.742,0.000
1728698989.497,9.277,85.938,-37.109,5.859,0.000
1728698989.501,-2.441,85.449,-45.898,-8.789,0.000
1728698989.505,-38.086,70.312,-35.156,-54.688,0.000
1728698989.509,-60.059,58.594,-18.555,-60.059,0.000
1728698989.512,-21.973,60.547,-1.953,-20.020,0.000
1728698989.516,1.465,57.129,-1.465,-15.625,0.000
1728698989.520,-9.766,51.758,-7.324,-12.695,0.000
1728698989.524,-36.621,50.781,-21.484,-30.273,0.000
1728698989.528,-55.664,49.316,-39.062,-43.457,0.000
1728698989.532,-20.508,49.805,-44.434,-13.672,0.000
1728698989.536,4.395,48.828,-41.992,-1.465,0.000
1728698989.540,-7.812,41.504,-34.668,-14.648,0.000
1728698989.544,-42.480,32.227,-30.762,-41.016,0.000
1728698989.548,-67.871,24.902,-24.414,-56.641,0.000
1728698989.551,-25.391,16.113,-7.812,-20.996,0.000
1728698989.555,3.418,25.391,-3.418,-4.883,0.000
1728698989.559,-11.230,29.297,-14.648,-14.160,0.000
1728698989.563,-32.715,18.066,-42.480,-32.715,0.000
1728698989.567,-38.086,14.648,-48.828,-40.039,0.000
1728698989.571,-7.812,11.719,-28.809,-6.348,0.000
1728698989.575,-0.488,21.484,-23.926,-1.465,0.000
1728698989.579,-9.766,16.113,-20.508,-5.371,0.000
1728698989.583,-21.973,7.324,-15.625,-23.438,0.000
1728698989.587,-48.340,1.953,-25.879,-57.617,0.000
1728698989.590,-32.227,0.977,-40.527,-25.879,0.000
1728698989.594,-16.113,13.672,-36.133,-0.977,0.000
1728698989.598,-10.254,3.906,-19.531,-7.812,0.000
1728698989.602,-20.508,-0.977,-12.695,-34.180,0.000
1728698989.606,-49.805,0.488,-14.648,-69.824,0.000
1728698989.610,-30.273,-2.441,-15.137,-25.879,0.000
1728698989.614,1.953,-0.977,-15.625,17.578,0.000
1728698989.618,2.441,0.488,-18.555,10.254,0.000
1728698989.622,-2.441,0.000,-34.668,-2.930,0.000
1728698989.626,-37.109,0.977,-48.340,-45.410,0.000
1728698989.630,-29.785,4.395,-37.598,-35.645,0.000
1728698989.633,17.090,3.906,-31.250,1.953,0.000
1728698989.637,19.531,-0.488,-39.062,5.859,0.000
1728698989.641,-3.418,-0.488,-31.738,-9.766,0.000
1728698989.645,-46.875,2.441,-8.301,-47.852,0.000
1728698989.649,-30.762,-4.883,-9.277,-33.691,0.000
1728698989.653,23.438,-11.230,-20.996,9.277,0.000
1728698989.657,20.020,-11.230,-29.297,18.066,0.000
1728698989.661,4.883,-12.207,-36.133,3.418,0.000
1728698989.665,-39.551,-6.836,-37.109,-43.457,0.000
1728698989.669,-45.898,-1.953,-40.039,-32.227,0.000
1728698989.672,23.438,-8.301,-28.809,21.484,0.000
1728698989.676,37.109,-11.230,-26.367,18.555,0.000
1728698989.680,17.090,-9.766,-36.621,1.465,0.000
1728698989.684,-14.648,-7.324,-50.293,-26.855,0.000
1728698989.688,-30.762,-4.395,-45.410,-27.344,0.000
1728698989.692,4.883,-5.371,-21.973,12.695,0.000
1728698989.696,28.320,-2.930,-11.230,26.367,0.000
1728698989.700,17.090,-4.883,-14.160,29.297,0.000
1728698989.704,-16.602,-11.719,-14.648,-4.883,0.000
1728698989.707,-27.344,-9.277,-5.371,-20.508,0.000
1728698989.711,15.137,-6.836,-11.719,28.809,0.000
1728698989.715,33.203,-5.859,-23.438,32.715,0.000
1728698989.719,17.578,-7.812,-13.184,7.812,0.000
1728698989.723,-17.090,-13.184,-18.555,-21.484,0.000
1728698989.727,-38.574,-10.742,-35.645,-37.109,0.000
1728698989.731,-10.254,-4.395,-34.180,-4.883,0.000
1728698989.735,21.973,-9.766,-21.484,22.949,0.000
1728698989.739,8.789,-18.555,-18.555,1.953,0.000
1728698989.743,-23.438,-18.555,-18.555,-35.156,0.000
1728698989.747,-42.969,-11.719,-13.672,-49.805,0.000
1728698989.751,-16.602,-14.160,-16.113,-16.602,0.000
1728698989.754,11.719,-11.719,-28.809,6.348,0.000
1728698989.758,4.395,-6.836,-37.109,-1.953,0.000
1728698989.762,-22.949,-11.719,-33.691,-26.367,0.000
1728698989.766,-55.176,-16.602,-33.203,-51.270,0.000
1728698989.770,-23.438,-17.090,-32.227,-20.020,0.000
1728698989.774,19.531,-14.160,-28.809,17.090,0.000
1728698989.778,10.742,-7.812,-25.391,12.695,0.000
1728698989.782,-18.066,-2.441,-19.043,-19.043,0.000
1728698989.786,-39.551,-12.207,-14.160,-44.922,0.000
1728698989.790,-15.137,-24.414,-22.949,-11.719,0.000
1728698989.794,3.906,-16.602,-33.691,12.695,0.000
1728698989.797,-6.348,-7.324,-34.180,-1.953,0.000
1728698989.801,-7.812,-15.625,-20.996,-17.090,0.000
1728698989.805,-27.344,-20.020,-2.441,-30.273,0.000
1728698989.809,-21.484,-13.672,-5.859,-8.301,0.000
1728698989.813,20.020,-9.277,-19.043,16.113,0.000
1728698989.817,36.621,-12.695,-10.254,30.762,0.000
1728698989.821,15.137,-16.113,-13.184,7.812,0.000
1728698989.825,-49.316,-10.742,-35.156,-62.500,0.000
1728698989.829,-54.688,-10.254,-39.551,-57.129,0.000
1728698989.833,6.348,-15.625,-30.273,6.348,0.000
1728698989.837,26.367,-19.043,-30.273,21.484,0.000
1728698989.841,9.766,-20.508,-32.715,7.324,0.000
1728698989.845,-29.785,-23.926,-31.738,-39.062,0.000
1728698989.849,-29.785,-24.902,-34.668,-35.645,0.000
1728698989.852,16.113,-12.207,-50.293,14.648,0.000
1728698989.856,19.531,-6.348,-57.129,9.277,0.000
1728698989.860,-3.418,-7.812,-40.039,-6.836,0.000
1728698989.864,-25.879,-19.043,-30.273,-39.062,0.000
1728698989.868,-27.344,-20.508,-32.715,-43.945,0.000
1728698989.872,-4.395,-10.742,-29.785,-4.395,0.000
1728698989.876,7.324,-14.648,-20.508,1.953,0.000
1728698989.880,-5.371,-21.484,-37.598,-8.301,0.000
1728698989.884,-38.574,-20.508,-55.664,-33.691,0.000
1728698989.888,-50.781,-15.625,-35.156,-47.852,0.000
1728698989.891,-13.184,-20.020,-10.742,-18.555,0.000
1728698989.895,3.906,-23.438,-2.930,3.418,0.000
1728698989.899,-13.184,-20.508,-11.719,-1.465,0.000
1728698989.903,-34.668,-17.090,-18.066,-31.738,0.000
1728698989.907,-46.387,-17.090,-20.020,-39.551,0.000
1728698989.911,-19.531,-13.672,-19.531,7.324,0.000
1728698989.915,15.625,-16.602,-24.414,28.320,0.000
1728698989.919,8.789,-20.020,-35.156,17.578,0.000
1728698989.923,-27.832,-16.113,-28.320,-18.555,0.000
1728698989.927,-46.875,-17.090,-24.902,-46.387,0.000
1728698989.931,-20.020,-14.648,-39.551,-10.254,0.000
1728698989.934,6.836,-15.137,-40.039,6.348,0.000
1728698989.938,-2.441,-16.602,-18.066,-16.602,0.000
1728698989.942,-44.922,-14.648,-9.277,-38.086,0.000
1728698989.946,-64.941,-13.184,-18.066,-57.617,0.000
1728698989.950,-45.410,-10.742,-28.320,-35.156,0.000
1728698989.954,-9.277,-11.230,-39.062,6.348,0.000
1728698989.958,16.113,-10.254,-47.363,14.160,0.000
1728698989.962,-17.090,-12.695,-37.109,-18.066,0.000
1728698989.966,-61.523,-16.113,-9.277,-57.129,0.000
1728698989.970,-27.832,-20.020,7.812,-26.367,0.000
1728698989.973,9.766,-16.602,7.324,1.953,0.000
1728698989.977,5.859,-9.766,-1.465,-11.719,0.000
1728698989.981,-9.277,-17.578,-15.625,-25.879,0.000
1728698989.985,-60.547,-24.414,-27.832,-50.781,0.000
1728698989.989,-53.223,-20.508,-30.762,-36.133,0.000
1728698989.993,-11.230,-18.066,-31.738,-19.531,0.000
1728698989.997,-4.883,-21.484,-23.926,-24.414,0.000
1728698990.001,-24.414,-22.461,-26.367,-43.457,0.000
1728698990.005,-59.082,-23.438,-30.273,-79.590,0.000
1728698990.009,-48.828,-20.508,-31.250,-56.152,0.000
1728698990.012,-10.742,-13.672,-34.180,-9.766,0.000
1728698990.016,-2.441,-15.625,-27.344,-10.254,0.000
1728698990.020,-18.555,-16.113,-55.176,-24.902,0.000
1728698990.024,-43.457,-14.160,-71.777,-59.570,0.000
1728698990.028,-45.898,-16.602,-33.691,-49.316,0.000
1728698990.032,-15.625,-16.602,-18.066,4.395,0.000
1728698990.036,2.441,-14.648,-23.926,-2.441,0.000
1728698990.040,-12.207,-18.066,-14.648,-35.156,0.000
1728698990.044,-47.363,-27.832,-9.277,-64.453,0.000
1728698990.048,-57.129,-26.367,-12.695,-62.012,0.000
1728698990.051,-18.066,-19.531,-19.531,-16.602,0.000
1728698990.055,3.906,-11.230,-25.391,-6.348,0.000
1728698990.059,-12.695,-12.207,-31.738,-24.414,0.000
1728698990.063,-45.410,-23.438,-35.645,-51.758,0.000
1728698990.067,-53.711,-22.949,-40.527,-48.340,0.000
1728698990.071,-12.695,-19.043,-35.645,-4.883,0.000
1728698990.075,4.395,-13.184,-25.879,10.742,0.000
1728698990.079,-13.672,-17.578,-20.020,5.371,0.000
1728698990.083,-36.621,-18.555,-16.113,-31.738,0.000
1728698990.087,-44.434,-16.602,-19.043,-42.480,0.000
1728698990.090,-17.090,-19.043,-22.949,3.418,0.000
1728698990.094,-1.953,-20.996,-33.691,12.207,0.000
1728698990.098,-0.977,-18.066,-27.344,-0.488,0.000
1728698990.102,-29.785,-14.160,-15.137,-30.762,0.000
1728698990.106,-56.152,-17.090,-17.090,-52.246,0.000
1728698990.110,-17.090,-18.066,-22.949,-11.230,0.000
1728698990.114,6.836,-14.160,-28.809,7.324,0.000
1728698990.118,6.348,-16.602,-28.809,-2.441,0.000
1728698990.122,-10.742,-20.996,-28.320,-20.508,0.000
1728698990.126,-40.527,-17.090,-24.414,-41.992,0.000
1728698990.130,-23.926,-11.719,-20.996,-15.137,0.000
1728698990.133,17.090,-11.230,-17.090,23.438,0.000
1728698990.137,17.090,-12.207,-17.578,16.113,0.000
1728698990.141,-20.020,-11.719,-29.297,-23.926,0.000
1728698990.145,-48.340,-11.719,-32.715,-49.316,0.000
1728698990.149,-27.832,-13.672,-21.484,-14.160,0.000
1728698990.153,7.324,-11.719,-25.391,9.277,0.000
1728698990.157,3.906,-10.742,-31.738,-2.930,0.000
1728698990.161,-19.531,-7.812,-32.227,-20.508,0.000
1728698990.165,-43.945,-9.277,-36.133,-46.387,0.000
1728698990.169,-28.809,-16.602,-34.668,-15.625,0.000
1728698990.173,9.277,-18.555,-25.391,18.555,0.000
1728698990.177,6.348,-15.137,-13.184,4.883,0.000
1728698990.180,-14.160,-15.137,-14.160,-9.766,0.000
1728698990.184,-57.617,-17.090,-15.137,-41.992,0.000
1728698990.188,-59.082,-19.043,-14.160,-26.855,0.000
1728698990.192,-5.859,-18.555,-20.508,21.973,0.000
1728698990.196,4.883,-18.555,-23.926,14.160,0.000
1728698990.200,-8.301,-16.113,-22.949,0.000,0.000
1728698990.204,-30.762,-17.090,-20.996,-28.320,0.000
1728698990.208,-36.621,-20.508,-26.855,-36.133,0.000
1728698990.212,4.395,-20.020,-33.691,9.766,0.000
1728698990.216,23.926,-19.043,-32.715,27.832,0.000
1728698990.220,0.977,-23.926,-27.832,7.812,0.000
1728698990.223,-26.367,-28.320,-14.648,-22.461,0.000
1728698990.227,-22.461,-24.902,-9.277,-12.695,0.000
1728698990.231,12.207,-14.648,-18.555,17.578,0.000
1728698990.235,22.949,-6.836,-25.391,8.301,0.000
1728698990.239,5.371,-13.672,-23.438,-16.113,0.000
1728698990.243,-24.414,-16.113,-20.996,-52.246,0.000
1728698990.247,-33.203,-12.207,-19.531,-46.875,0.000
1728698990.251,-1.465,-14.160,-19.531,8.789,0.000
1728698990.255,19.043,-17.090,-21.973,19.531,0.000
1728698990.259,13.184,-11.719,-31.250,6.348,0.000
1728698990.262,-24.414,-13.672,-42.969,-31.738,0.000
1728698990.266,-41.016,-14.648,-36.621,-51.758,0.000
1728698990.270,0.977,-5.371,-18.066,1.465,0.000
1728698990.274,19.531,-5.859,-10.254,13.672,0.000
1728698990.278,-3.418,-7.812,-20.996,-17.090,0.000
1728698990.282,-30.273,-7.812,-24.414,-40.527,0.000
1728698990.286,-49.316,-11.719,-25.879,-51.270,0.000
1728698990.290,-23.438,-9.766,-28.809,-10.254,0.000
1728698990.294,8.789,-6.348,-24.902,11.230,0.000
1728698990.298,-3.906,-14.648,-35.156,-2.441,0.000
1728698990.302,-27.832,-16.602,-33.203,-24.414,0.000
1728698990.305,-52.246,-14.648,-28.320,-52.734,0.000
1728698990.309,-36.621,-22.949,-32.227,-30.273,0.000
1728698990.313,-0.488,-24.414,-20.508,6.836,0.000
1728698990.317,8.789,-18.066,-14.648,16.602,0.000
1728698990.321,-14.160,-20.996,-28.809,-12.207,0.000
1728698990.325,-48.828,-24.414,-38.574,-56.152,0.000
1728698990.329,-24.902,-25.391,-30.273,-24.414,0.000
1728698990.333,8.789,-24.414,-22.461,5.859,0.000
1728698990.337,-3.906,-24.414,-25.879,-13.672,0.000
1728698990.341,-20.996,-19.531,-19.043,-30.762,0.000
1728698990.344,-49.805,-13.672,-12.695,-60.547,0.000
1728698990.348,-37.598,-17.578,-15.625,-35.156,0.000
1728698990.352,5.859,-11.230,-19.043,6.348,0.000
1728698990.356,13.672,-5.859,-20.996,6.836,0.000
1728698990.360,-3.418,-11.230,-13.672,-7.812,0.000
1728698990.364,-39.062,-14.160,-19.531,-32.715,0.000
1728698990.368,-37.109,-17.578,-28.320,-24.902,0.000
1728698990.372,-0.977,-22.949,-26.855,2.930,0.000
1728698990.376,-5.371,-23.926,-23.438,0.000,0.000
1728698990.380,-19.531,-18.066,-25.391,-21.973,0.000
1728698990.383,-34.180,-16.113,-29.297,-54.199,0.000
1728698990.387,-36.133,-15.625,-22.461,-39.062,0.000
1728698990.391,0.000,-14.648,-15.137,7.324,0.000
1728698990.395,10.254,-17.090,-16.113,10.742,0.000
1728698990.399,-6.836,-13.184,-22.949,-10.254,0.000
1728698990.403,-37.598,-15.137,-28.320,-44.922,0.000
1728698990.407,-46.387,-23.926,-29.785,-37.109,0.000
1728698990.411,-14.160,-20.508,-34.180,0.000,0.000
1728698990.415,12.207,-16.113,-32.715,5.371,0.000
1728698990.419,6.348,-19.043,-22.949,-2.441,0.000
1728698990.422,-22.949,-15.625,-11.719,-24.902,0.000
1728698990.426,-42.480,-17.090,-9.766,-28.320,0.000
1728698990.430,-13.672,-22.949,-17.090,8.301,0.000
1728698990.434,9.277,-17.578,-19.043,23.438,0.000
1728698990.438,-5.371,-15.137,-24.414,1.953,0.000
1728698990.442,-38.574,-17.578,-29.785,-36.133,0.000
1728698990.446,-48.828,-17.578,-33.691,-47.852,0.000
1728698990.450,-23.438,-17.090,-36.621,-3.418,0.000
1728698990.454,4.883,-11.230,-39.551,14.160,0.000
1728698990.458,4.395,-11.230,-45.898,-8.789,0.000
1728698990.461,-25.391,-14.160,-42.969,-38.086,0.000
1728698990.465,-51.758,-16.602,-27.344,-60.059,0.000
1728698990.469,-30.273,-21.973,-11.230,-25.879,0.000
1728698990.473,0.488,-20.508,-10.254,0.977,0.000
1728698990.477,1.953,-16.602,-15.137,-4.395,0.000
1728698990.481,-22.461,-15.137,-25.879,-26.855,0.000
1728698990.485,-40.039,-13.672,-29.297,-48.828,0.000
1728698990.489,-14.648,-15.137,-19.043,-8.301,0.000
1728698990.493,15.625,-19.043,-17.090,17.578,0.000
1728698990.497,11.230,-18.066,-22.461,0.977,0.000
1728698990.501,-20.996,-20.996,-18.066,-26.367,0.000
1728698990.504,-58.594,-30.273,-18.555,-51.758,0.000
1728698990.508,-35.156,-32.227,-15.137,-15.625,0.000
1728698990.512,-0.977,-27.832,-11.230,25.391,0.000
1728698990.516,3.418,-31.738,-19.043,13.184,0.000
1728698990.520,-13.184,-39.551,-26.367,-16.113,0.000
1728698990.524,-55.176,-30.762,-27.832,-43.457,0.000
1728698990.528,-31.250,-22.949,-23.438,-21.484,0.000
1728698990.532,12.207,-19.531,-38.574,6.348,0.000
1728698990.536,9.766,-18.555,-51.758,-0.977,0.000
1728698990.540,-17.090,-21.484,-35.645,-17.578,0.000
1728698990.544,-53.223,-22.949,-21.973,-46.387,0.000
1728698990.548,-47.363,-24.414,-20.508,-28.809,0.000
1728698990.551,-10.742,-25.879,-19.043,-2.930,0.000
1728698990.555,5.859,-22.461,-23.926,5.859,0.000
1728698990.559,-6.836,-22.949,-34.668,1.953,0.000
1728698990.563,-53.223,-24.414,-33.203,-50.781,0.000
1728698990.567,-50.781,-21.973,-20.020,-32.227,0.000
1728698990.571,13.184,-22.949,-13.184,22.461,0.000
1728698990.575,19.043,-14.160,-24.414,-0.977,0.000
1728698990.579,-16.602,-13.672,-28.320,-41.504,0.000
1728698990.583,-40.039,-20.020,-30.273,-65.918,0.000
1728698990.587,-46.387,-16.602,-34.180,-54.688,0.000
1728698990.591,-20.508,-15.625,-30.273,-10.254,0.000
1728698990.594,-3.906,-19.043,-34.668,-1.465,0.000
1728698990.598,-11.230,-20.020,-36.621,-14.648,0.000
1728698990.602,-43.457,-23.438,-35.645,-42.480,0.000
1728698990.606,-55.664,-28.809,-51.758,-46.387,0.000
1728698990.610,-15.625,-23.926,-50.781,-9.766,0.000
1728698990.614,-2.930,-18.555,-31.738,-1.465,0.000
1728698990.618,-6.348,-15.137,-22.461,-8.301,0.000
1728698990.622,-32.227,-14.160,-23.926,-39.551,0.000
1728698990.626,-48.340,-11.719,-34.180,-45.898,0.000
1728698990.630,-5.371,-7.324,-38.574,2.441,0.000
1728698990.633,17.090,-14.160,-28.809,15.625,0.000
1728698990.637,6.348,-21.484,-23.438,-1.465,0.000
1728698990.641,-33.203,-20.020,-20.508,-37.109,0.000
1728698990.645,-58.594,-27.344,-9.766,-47.363,0.000
1728698990.649,-9.766,-31.738,0.488,-1.465,0.000
1728698990.653,20.020,-21.484,-6.836,11.719,0.000
1728698990.657,6.348,-17.090,-19.531,0.000,0.000
1728698990.661,-16.113,-17.090,-23.926,-13.672,0.000
1728698990.665,-41.992,-18.066,-31.250,-29.297,0.000
1728698990.669,-17.578,-18.066,-28.809,4.883,0.000
1728698990.673,15.137,-23.926,-17.090,25.879,0.000
1728698990.676,6.836,-21.484,-20.508,16.113,0.000
1728698990.680,-22.949,-18.555,-29.297,-12.207,0.000
1728698990.684,-53.711,-20.508,-25.879,-56.152,0.000
1728698990.688,-25.879,-17.578,-18.066,-27.832,0.000
1728698990.692,18.066,-15.625,-11.719,13.184,0.000
1728698990.696,16.113,-12.207,-7.812,3.906,0.000
1728698990.700,-12.207,-9.277,-17.578,-23.438,0.000
1728698990.704,-39.551,-8.789,-18.066,-46.387,0.000
1728698990.708,-28.320,-9.766,-15.137,-26.367,0.000
1728698990.712,9.277,-11.719,-16.602,9.277,0.000
1728698990.715,10.742,-8.301,-13.184,7.324,0.000
1728698990.719,-12.695,-12.695,-20.508,-20.508,0.000
1728698990.723,-39.062,-17.578,-19.043,-59.570,0.000
1728698990.727,-30.762,-20.508,-12.695,-36.133,0.000
1728698990.731,12.695,-20.020,-15.625,10.742,0.000
1728698990.735,16.602,-14.648,-25.879,16.113,0.000
1728698990.739,-9.277,-22.461,-34.180,2.930,0.000
1728698990.743,-45.898,-29.297,-26.855,-40.527,0.000
1728698990.747,-35.156,-30.762,-13.672,-31.738,0.000
1728698990.751,3.906,-27.832,-14.160,8.301,0.000
1728698990.755,11.230,-22.949,-17.578,6.836,0.000
1728698990.758,-3.906,-23.438,-29.785,-7.324,0.000
1728698990.762,-39.062,-20.508,-35.156,-47.363,0.000
1728698990.766,-42.969,-20.020,-27.832,-47.852,0.000
1728698990.770,-1.465,-20.508,-30.273,3.418,0.000
1728698990.774,13.672,-14.160,-34.180,12.207,0.000
1728698990.778,0.977,-13.672,-27.832,1.953,0.000
1728698990.782,-33.691,-23.438,-15.625,-33.691,0.000
1728698990.786,-56.641,-29.785,-13.672,-51.270,0.000
1728698990.790,-15.137,-20.508,-20.508,-3.906,0.000
1728698990.794,11.719,-21.973,-27.344,12.207,0.000
1728698990.797,0.977,-28.809,-34.668,0.000,0.000
1728698990.801,-30.762,-24.902,-37.109,-29.785,0.000
1728698990.805,-36.621,-22.949,-41.504,-40.527,0.000
1728698990.809,1.465,-24.902,-41.016,0.488,0.000
1728698990.813,13.672,-25.391,-30.273,11.230,0.000
1728698990.817,5.859,-23.926,-18.555,-4.883,0.000
1728698990.821,-19.531,-21.484,-4.395,-37.598,0.000
1728698990.825,-52.246,-26.367,-4.395,-49.316,0.000
1728698990.829,-30.762,-29.785,-19.043,-2.441,0.000
1728698990.832,10.742,-27.344,-28.320,20.020,0.000
1728698990.836,14.648,-21.484,-26.367,-0.488,0.000
1728698990.840,-10.254,-13.672,-39.062,-26.855,0.000
1728698990.844,-45.898,-12.207,-50.293,-45.410,0.000
1728698990.848,-26.855,-24.902,-34.180,-20.020,0.000
1728698990.852,15.625,-25.879,-21.973,5.371,0.000
1728698990.856,4.395,-16.113,-20.996,-4.395,0.000
1728698990.860,-20.020,-14.160,-18.555,-29.785,0.000
1728698990.864,-41.016,-15.137,-16.113,-52.734,0.000
1728698990.868,-31.250,-16.602,-18.066,-20.508,0.000
1728698990.872,5.371,-14.648,-24.414,16.113,0.000
1728698990.876,4.395,-14.648,-29.297,7.324,0.000
1728698990.879,-23.926,-11.230,-24.902,-18.066,0.000
1728698990.883,-49.805,-13.184,-23.926,-50.293,0.000
1728698990.887,-38.086,-20.020,-20.996,-27.344,0.000
1728698990.891,-2.930,-16.113,-25.391,6.348,0.000
1728698990.895,-3.418,-13.672,-28.320,-0.977,0.000
1728698990.899,-28.809,-16.602,-21.484,-23.438,0.000
1728698990.903,-49.316,-23.438,-22.949,-52.734,0.000
1728698990.907,-34.180,-22.461,-26.855,-30.762,0.000
1728698990.911,3.418,-18.555,-25.879,0.488,0.000
1728698990.915,12.695,-21.973,-13.672,3.906,0.000
1728698990.919,-6.836,-21.484,-3.906,1.465,0.000
1728698990.922,-47.852,-15.137,-13.184,-44.434,0.000
1728698990.926,-51.758,-13.672,-26.367,-46.387,0.000
1728698990.930,-6.836,-14.648,-18.066,12.695,0.000
1728698990.934,12.207,-18.555,-23.926,17.578,0.000
1728698990.938,-6.836,-21.973,-34.668,-6.348,0.000
1728698990.942,-49.805,-20.020,-28.809,-31.738,0.000
1728698990.946,-57.617,-17.578,-42.969,-34.668,0.000
1728698990.950,-1.953,-18.066,-49.316,5.371,0.000
1728698990.954,13.184,-22.461,-26.855,4.883,0.000
1728698990.958,-3.906,-22.949,-33.203,-7.324,0.000
1728698990.962,-25.391,-16.602,-57.129,-28.320,0.000
1728698990.965,-46.387,-18.066,-17.578,-36.621,0.000
1728698990.969,-9.277,-28.809,9.277,3.418,0.000
1728698990.973,21.484,-26.367,-7.812,14.648,0.000
1728698990.977,11.719,-20.508,-8.301,12.207,0.000
1728698990.981,-27.344,-18.555,-0.977,-23.438,0.000
1728698990.985,-51.758,-19.043,-6.836,-42.480,0.000
1728698990.989,-18.555,-21.484,-11.719,-0.488,0.000
1728698990.993,2.441,-23.926,-22.461,11.230,0.000
1728698990.997,-1.465,-26.855,-29.297,-3.906,0.000
1728698991.001,-29.785,-23.926,-19.043,-36.133,0.000
1728698991.005,-53.223,-23.438,-14.648,-48.340,0.000
1728698991.008,-14.648,-30.762,-17.090,-7.812,0.000
1728698991.012,-1.465,-29.785,-23.438,6.348,0.000
1728698991.016,-13.184,-23.438,-36.621,-10.742,0.000
1728698991.020,-20.508,-21.973,-43.457,-34.668,0.000
1728698991.024,-43.457,-19.043,-43.457,-42.969,0.000
1728698991.028,-20.508,-16.602,-38.574,-12.695,0.000
1728698991.032,11.719,-20.508,-27.832,13.184,0.000
1728698991.036,0.977,-24.414,-18.066,13.672,0.000
1728698991.040,-32.715,-20.508,-23.926,-17.578,0.000
1728698991.044,-58.105,-24.414,-34.180,-62.012,0.000
1728698991.047,-19.531,-25.391,-28.320,-32.715,0.000
1728698991.051,20.508,-22.461,-30.762,-6.348,0.000
1728698991.055,11.719,-17.578,-34.180,-11.230,0.000
1728698991.059,-11.719,-21.484,-20.020,-18.066,0.000
1728698991.063,-42.969,-28.320,-9.277,-50.781,0.000
1728698991.067,-27.344,-20.996,-14.648,-20.508,0.000
1728698991.071,-0.488,-13.672,-38.574,11.719,0.000
1728698991.075,7.812,-14.160,-49.805,-6.836,0.000
1728698991.079,11.230,-11.719,-29.785,-18.555,0.000
1728698991.083,-33.203,-15.137,-9.766,-32.227,0.000
1728698991.086,-38.574,-25.391,6.348,-4.883,0.000
1728698991.090,-4.395,-21.484,0.000,19.043,0.000
1728698991.094,8.301,-17.578,-17.090,11.719,0.000
1728698991.098,7.812,-17.090,-38.086,-4.883,0.000
1728698991.102,-24.414,-15.625,-42.480,-51.270,0.000
1728698991.106,-34.180,-17.090,-9.277,-46.387,0.000
1728698991.110,-2.441,-21.484,-10.742,-5.859,0.000
1728698991.114,6.836,-23.438,-21.484,-3.418,0.000
1728698991.118,-6.348,-26.367,-16.602,-16.113,0.000
1728698991.122,-50.293,-26.367,-22.461,-48.340,0.000
1728698991.126,-51.270,-23.926,-20.508,-44.922,0.000
1728698991.129,2.930,-21.484,-17.578,1.465,0.000
1728698991.133,18.555,-19.531,-39.551,13.184,0.000
1728698991.137,17.090,-21.484,-43.457,3.906,0.000
1728698991.141,-36.133,-22.461,-17.090,-41.992,0.000
1728698991.145,-63.477,-29.785,-14.648,-50.293,0.000
1728698991.149,-11.719,-29.785,-31.738,3.418,0.000
1728698991.153,14.160,-23.926,-27.832,8.789,0.000
1728698991.157,-0.977,-23.438,-2.930,-3.418,0.000
1728698991.161,-33.203,-28.809,-9.277,-32.715,0.000
1728698991.165,-48.828,-28.809,-33.691,-45.410,0.000
1728698991.168,-13.184,-24.414,-23.438,4.883,0.000
1728698991.172,14.648,-19.531,-13.184,21.973,0.000
1728698991.176,-0.977,-23.438,-20.508,5.371,0.000
1728698991.180,-30.762,-25.391,-6.836,-23.438,0.000
1728698991.184,-47.363,-22.461,-2.441,-47.852,0.000
1728698991.188,-16.602,-22.949,-33.691,-29.785,0.000
1728698991.192,16.602,-20.020,-47.852,-14.160,0.000
1728698991.196,6.348,-25.879,-30.273,-15.625,0.000
1728698991.200,-22.949,-28.320,-25.879,-31.250,0.000
1728698991.204,-48.340,-23.926,-28.320,-52.734,0.000
1728698991.207,-27.832,-22.949,-15.625,-27.832,0.000
1728698991.211,4.883,-27.832,-17.578,-3.906,0.000
1728698991.215,3.418,-24.902,-43.457,-6.836,0.000
1728698991.219,-15.625,-22.949,-37.598,-33.691,0.000
1728698991.223,-47.852,-22.949,-27.832,-64.453,0.000
1728698991.227,-24.902,-19.531,-47.363,-20.508,0.000
1728698991.231,18.066,-22.949,-31.250,14.160,0.000
1728698991.235,1.953,-25.879,-10.254,-4.395,0.000
1728698991.239,-29.785,-25.879,-3.906,-24.414,0.000
1728698991.243,-55.176,-24.414,-6.348,-41.992,0.000
1728698991.247,-37.109,-22.949,-22.949,-12.695,0.000
1728698991.250,14.160,-23.438,-35.645,9.277,0.000
1728698991.254,18.555,-17.578,-39.062,-13.672,0.000
1728698991.258,-3.418,-14.648,-39.551,-18.066,0.000
1728698991.262,-40.527,-21.484,-43.457,-38.086,0.000
1728698991.266,-38.086,-21.484,-42.969,-25.391,0.000
1728698991.270,9.277,-18.066,-40.527,15.625,0.000
1728698991.274,11.719,-24.902,-16.602,8.789,0.000
1728698991.278,-12.695,-29.785,-0.488,-22.461,0.000
1728698991.282,-40.527,-24.902,-0.977,-52.734,0.000
1728698991.286,-35.645,-28.320,-3.418,-28.809,0.000
1728698991.290,-4.395,-22.461,-7.812,10.254,0.000
1728698991.294,9.766,-17.578,-8.301,14.160,0.000
1728698991.297,0.488,-28.809,-20.996,-2.930,0.000
1728698991.301,-57.617,-26.855,-36.133,-44.434,0.000
1728698991.305,-57.617,-17.578,-29.297,-33.691,0.000
1728698991.309,-5.859,-1.953,-34.668,9.766,0.000
1728698991.313,-5.859,-5.371,-56.152,-11.230,0.000
1728698991.317,-20.020,-18.555,-34.180,-21.484,0.000
1728698991.321,-50.293,-30.273,-14.648,-39.062,0.000
1728698991.325,-37.598,-24.902,-23.926,-46.875,0.000
1728698991.329,17.578,-11.230,-22.461,-3.418,0.000
1728698991.333,30.762,-19.043,-10.742,6.836,0.000
1728698991.337,18.555,-14.160,-13.184,-2.441,0.000
1728698991.340,-27.344,-8.301,-37.109,-38.574,0.000
1728698991.344,-48.828,-18.066,-42.969,-57.617,0.000
1728698991.348,0.000,-14.160,-25.879,-16.602,0.000
1728698991.352,5.371,-8.789,-16.602,8.789,0.000
1728698991.356,-18.555,-3.906,-54.199,-14.648,0.000
1728698991.360,-38.086,-24.414,-90.820,-47.852,0.000
1728698991.364,-62.500,-17.578,-50.293,-64.941,0.000
1728698991.368,-64.453,1.465,-17.578,-59.570,0.000
1728698991.372,-38.574,-10.254,-2.441,-22.461,0.000
1728698991.376,-14.648,-18.066,-5.371,-10.254,0.000
1728698991.379,-39.062,-10.254,-47.363,-44.434,0.000
1728698991.383,-40.527,-8.789,-38.574,-36.621,0.000
1728698991.387,11.230,-8.789,-15.625,12.695,0.000
1728698991.391,-7.324,-13.184,-28.320,0.488,0.000
1728698991.395,-51.758,-15.137,-37.109,-41.992,0.000
1728698991.399,-102.051,11.719,-21.484,-76.172,0.000
1728698991.403,-142.090,-25.391,-18.555,-117.188,0.000
1728698991.407,-113.770,0.000,-28.809,-100.586,0.000
1728698991.411,-14.648,18.555,-22.949,-21.973,0.000
1728698991.415,11.719,-17.578,-72.754,-2.930,0.000
1728698991.419,-105.957,18.066,-90.332,-105.957,0.000
1728698991.422,-112.305,-8.301,11.719,-123.535,0.000
1728698991.426,-55.664,-27.832,46.387,-54.688,0.000
1728698991.430,-91.309,7.812,-8.301,-62.012,0.000
1728698991.434,-103.027,-18.066,-33.691,-70.801,0.000
1728698991.438,-96.680,-42.969,-43.457,-97.168,0.000
1728698991.442,-127.441,3.906,-50.781,-119.141,0.000
1728698991.446,-145.020,-25.879,-31.738,-92.285,0.000
1728698991.450,-110.352,-58.594,-20.020,-73.242,0.000
1728698991.454,-103.516,-42.969,-49.316,-93.750,0.000
1728698991.458,-118.652,-81.055,-90.820,-119.141,0.000
1728698991.461,-124.512,-87.402,-75.684,-130.371,0.000
1728698991.465,-149.414,-137.207,-47.852,-135.254,0.000
1728698991.469,-159.668,-153.320,-47.363,-104.004,0.000
1728698991.473,-80.078,-141.113,-38.086,-57.617,0.000
1728698991.477,-27.344,-156.738,-55.176,-48.828,0.000
1728698991.481,-84.473,-146.973,-74.707,-104.004,0.000
1728698991.485,-97.656,-166.016,-73.242,-99.609,0.000
1728698991.489,-73.242,-171.387,-77.637,-38.574,0.000
1728698991.493,-40.039,-223.633,-66.895,-20.508,0.000
1728698991.497,-63.965,-283.691,-56.641,-60.059,0.000
1728698991.501,-154.297,-256.348,-60.059,-130.859,0.000
1728698991.504,-123.535,-272.461,-45.410,-98.633,0.000
1728698991.508,-21.484,-375.977,-44.434,-7.324,0.000
1728698991.512,-17.090,-385.254,-65.918,-0.977,0.000
1728698991.516,-40.527,-413.086,-83.008,-12.695,0.000
1728698991.520,-96.680,-454.102,-85.449,-77.148,0.000
1728698991.524,-100.586,-491.211,-72.754,-101.562,0.000
1728698991.528,-24.902,-503.906,-54.199,-29.297,0.000
1728698991.532,-26.367,-530.273,-67.383,-5.859,0.000
1728698991.536,-29.785,-598.145,-53.711,-9.277,0.000
1728698991.539,-37.598,-613.770,-30.762,-51.758,0.000
1728698991.543,-82.031,-655.762,-28.809,-78.613,0.000
1728698991.547,-47.363,-682.129,-40.039,-47.363,0.000
1728698991.551,14.160,-703.125,-52.734,-20.508,0.000
1728698991.555,13.184,-746.094,-53.711,-12.695,0.000
1728698991.559,-27.344,-786.133,-61.523,-41.016,0.000
1728698991.563,-47.852,-813.477,-65.430,-66.406,0.000
1728698991.567,-4.395,-826.660,-53.223,-21.484,0.000
1728698991.571,25.391,-841.797,-32.227,5.371,0.000
1728698991.575,17.578,-857.422,-23.438,-5.859,0.000
1728698991.578,-33.691,-859.863,-23.438,-30.762,0.000
1728698991.582,-50.781,-866.699,-10.254,-48.340,0.000
1728698991.586,-12.695,-853.027,-9.766,-10.254,0.000
1728698991.590,26.367,-829.102,-22.461,19.043,0.000
1728698991.594,48.828,-820.312,-34.668,21.484,0.000
1728698991.598,26.367,-802.246,-33.203,1.953,0.000
1728698991.602,-4.395,-768.066,-27.344,-24.414,0.000
1728698991.606,19.531,-720.215,-11.719,4.395,0.000
1728698991.610,69.336,-660.156,13.672,39.062,0.000
1728698991.614,85.449,-587.891,12.207,53.223,0.000
1728698991.618,91.309,-535.156,5.859,56.641,0.000
1728698991.622,60.547,-469.238,20.020,26.367,0.000
1728698991.625,58.594,-384.277,43.457,48.828,0.000
1728698991.629,102.539,-293.945,67.871,94.727,0.000
1728698991.633,107.910,-166.992,85.449,85.938,0.000
1728698991.637,92.285,-46.875,79.102,65.918,0.000
1728698991.641,42.480,55.664,45.410,20.996,0.000
1728698991.645,53.711,167.969,36.621,39.551,0.000
1728698991.649,103.027,280.762,47.363,86.426,0.000
1728698991.653,103.027,349.609,54.688,82.031,0.000
1728698991.657,75.684,407.227,51.758,59.082,0.000
1728698991.661,39.062,459.961,41.504,20.996,0.000
1728698991.665,31.738,497.559,39.062,33.691,0.000
1728698991.668,60.547,538.574,30.762,71.777,0.000
1728698991.672,66.895,564.941,26.367,64.453,0.000
1728698991.676,48.340,585.938,28.320,46.875,0.000
1728698991.680,21.973,602.539,-9.766,17.578,0.000
1728698991.684,19.043,617.188,-34.668,21.484,0.000
1728698991.688,47.363,623.535,3.418,54.199,0.000
1728698991.692,41.992,618.652,41.016,55.176,0.000
1728698991.696,24.414,606.934,42.969,42.480,0.000
1728698991.700,4.395,584.961,24.902,7.324,0.000
1728698991.704,-16.113,572.266,7.324,-8.301,0.000
1728698991.708,20.020,557.617,5.371,40.527,0.000
1728698991.711,40.527,538.574,-3.418,51.758,0.000
1728698991.715,23.438,527.832,-29.297,36.621,0.000
1728698991.719,-5.371,509.277,-31.250,10.254,0.000
1728698991.723,-33.691,483.398,0.488,-7.324,0.000
1728698991.727,27.344,462.891,10.254,42.969,0.000
1728698991.731,67.383,438.477,0.488,63.477,0.000
1728698991.735,37.598,419.922,3.906,34.668,0.000
1728698991.739,20.020,403.809,14.160,6.348,0.000
1728698991.743,-9.277,379.395,3.906,-9.277,0.000
1728698991.747,9.277,367.676,-8.789,18.066,0.000
1728698991.751,47.363,356.934,-13.672,36.621,0.000
1728698991.754,44.922,333.008,-22.949,26.855,0.000
1728698991.758,3.418,309.082,-11.719,-11.230,0.000
1728698991.762,-35.156,291.016,5.859,-36.621,0.000
1728698991.766,-0.977,287.109,-0.488,7.324,0.000
1728698991.770,38.574,272.461,-13.184,33.203,0.000
1728698991.774,31.250,247.070,-17.578,32.227,0.000
1728698991.778,1.953,243.164,-24.414,2.441,0.000
1728698991.782,-31.250,235.840,-32.715,-37.598,0.000
1728698991.786,-15.137,210.938,-20.020,-12.695,0.000
1728698991.790,10.254,199.219,-8.301,9.277,0.000
1728698991.793,3.906,188.477,-12.207,-6.348,0.000
1728698991.797,-18.066,174.805,-10.254,-26.367,0.000
1728698991.801,-37.598,174.805,-23.926,-55.176,0.000
1728698991.805,-20.508,167.480,-39.062,-32.715,0.000
1728698991.809,15.137,156.250,-30.273,11.230,0.000
1728698991.813,29.785,146.484,-24.902,4.883,0.000
1728698991.817,1.953,138.672,-38.574,-12.695,0.000
1728698991.821,-34.668,129.395,-43.457,-44.434,0.000
1728698991.825,-36.621,125.488,-33.203,-33.203,0.000
1728698991.829,-6.348,122.559,-28.809,1.465,0.000
1728698991.833,7.324,109.863,-24.902,3.906,0.000
1728698991.836,-6.348,97.168,-24.902,-14.160,0.000
1728698991.840,-37.598,86.426,-19.531,-63.965,0.000
1728698991.844,-41.016,75.684,-15.625,-54.199,0.000
1728698991.848,-2.441,71.777,-37.109,-0.488,0.000
1728698991.852,17.578,67.871,-48.828,13.184,0.000
1728698991.856,2.930,66.895,-38.086,-18.555,0.000
1728698991.860,-35.645,61.035,-13.672,-57.617,0.000
1728698991.864,-44.922,56.152,-7.324,-48.340,0.000
1728698991.868,-9.766,63.965,-20.020,-5.371,0.000
1728698991.872,-4.395,57.129,-34.180,3.418,0.000
1728698991.875,-14.648,41.992,-43.945,-8.789,0.000
1728698991.879,-43.945,41.504,-32.715,-42.969,0.000
1728698991.883,-58.105,36.133,-19.531,-63.965,0.000
1728698991.887,-5.371,29.785,-34.180,-17.090,0.000
1728698991.891,20.996,33.203,-40.039,5.859,0.000
1728698991.895,0.000,34.180,-41.016,-10.254,0.000
1728698991.899,-35.156,28.320,-38.086,-32.715,0.000
1728698991.903,-62.500,17.090,-29.297,-57.129,0.000
1728698991.907,-29.297,12.207,-20.020,-13.184,0.000
1728698991.911,0.000,10.742,-16.602,11.719,0.000
1728698991.914,0.000,17.090,-42.969,-3.906,0.000
1728698991.918,-21.973,16.113,-50.293,-22.461,0.000
1728698991.922,-67.871,13.184,-26.367,-64.941,0.000
1728698991.926,-52.734,7.812,-13.672,-49.805,0.000
1728698991.930,-21.973,3.906,-16.602,-14.160,0.000
1728698991.934,-7.812,12.695,-17.578,-11.230,0.000
1728698991.938,-22.461,7.324,-7.324,-31.250,0.000
1728698991.942,-58.594,3.906,-14.160,-58.105,0.000
1728698991.946,-49.316,6.348,-21.973,-33.203,0.000
1728698991.949,0.488,4.883,-23.438,1.465,0.000
1728698991.953,5.371,6.348,-33.203,-2.441,0.000
1728698991.957,-43.457,-1.465,-45.898,-36.621,0.000
1728698991.961,-68.359,-3.906,-44.434,-69.824,0.000
1728698991.965,-41.016,-9.277,-25.879,-35.156,0.000
1728698991.969,-3.418,-10.254,-38.086,-8.789,0.000
1728698991.973,8.301,-0.977,-57.617,-18.066,0.000
1728698991.977,-16.113,-4.883,-57.129,-25.879,0.000
1728698991.981,-64.453,-12.695,-59.570,-61.035,0.000
1728698991.985,-39.551,-11.719,-38.574,-40.527,0.000
1728698991.989,9.277,-22.949,-18.555,3.906,0.000
1728698991.993,10.254,-28.809,-9.766,-2.930,0.000
1728698991.996,-0.977,-18.066,-10.254,-19.531,0.000
1728698992.000,-46.875,-17.090,-25.879,-56.641,0.000
1728698992.004,-59.570,-15.625,-30.273,-50.293,0.000
1728698992.008,-14.648,-18.066,-28.320,-7.812,0.000
1728698992.012,17.578,-16.602,-26.855,0.488,0.000
1728698992.016,-11.230,-13.672,-29.785,-18.066,0.000
1728698992.020,-47.852,-22.461,-41.504,-50.781,0.000
1728698992.024,-39.062,-23.438,-45.410,-47.852,0.000
1728698992.028,-3.906,-15.625,-26.367,-7.812,0.000
1728698992.032,13.184,-13.184,-25.879,0.977,0.000
1728698992.036,0.977,-16.602,-41.504,-11.230,0.000
1728698992.040,-36.133,-27.832,-38.086,-40.527,0.000
1728698992.043,-41.504,-32.227,-26.855,-46.875,0.000
1728698992.047,-3.418,-25.879,-28.320,-20.508,0.000
1728698992.051,13.672,-22.461,-34.180,-17.578,0.000
1728698992.055,0.977,-21.484,-41.504,-20.996,0.000
1728698992.059,-41.016,-27.832,-42.480,-50.781,0.000
1728698992.063,-62.012,-37.109,-27.832,-66.406,0.000
1728698992.067,-28.320,-37.598,-32.227,-29.297,0.000
1728698992.071,1.465,-28.320,-49.316,-10.742,0.000
1728698992.075,-21.484,-19.043,-57.129,-19.531,0.000
1728698992.079,-58.594,-25.391,-55.664,-50.293,0.000
1728698992.083,-68.848,-28.809,-44.434,-56.152,0.000
1728698992.086,-24.414,-24.414,-29.297,-12.207,0.000
1728698992.090,3.418,-29.297,-39.062,1.953,0.000
1728698992.094,-8.301,-21.973,-55.664,-12.695,0.000
1728698992.098,-38.086,-12.695,-45.410,-45.410,0.000
1728698992.102,-57.617,-20.508,-27.344,-54.199,0.000
1728698992.106,-14.648,-25.879,-22.949,-23.438,0.000
1728698992.110,10.742,-22.949,-26.855,-12.695,0.000
1728698992.114,0.977,-27.832,-26.855,-13.672,0.000
1728698992.118,-42.480,-28.320,-30.273,-47.363,0.000
1728698992.122,-71.777,-14.160,-41.992,-73.730,0.000
1728698992.126,-39.062,-16.113,-50.293,-29.297,0.000
1728698992.129,3.906,-24.902,-37.598,9.277,0.000
1728698992.133,13.184,-21.484,-21.973,6.348,0.000
1728698992.137,-16.113,-18.555,-16.602,-22.949,0.000
1728698992.141,-60.059,-20.508,-15.625,-57.617,0.000
1728698992.145,-36.133,-24.902,-12.695,-18.555,0.000
1728698992.149,11.719,-24.414,-34.668,24.902,0.000
1728698992.153,7.324,-22.461,-54.199,9.277,0.000
1728698992.157,-14.648,-23.438,-34.180,-21.484,0.000
1728698992.161,-53.711,-23.438,-20.508,-59.082,0.000
1728698992.165,-43.457,-24.902,-7.812,-35.645,0.000
1728698992.168,0.488,-29.785,-3.418,7.324,0.000
1728698992.172,7.324,-26.367,-20.020,5.859,0.000
1728698992.176,-15.137,-19.531,-34.180,-20.020,0.000
1728698992.180,-54.688,-16.602,-18.555,-55.664,0.000
1728698992.184,-45.898,-14.160,-11.230,-38.086,0.000
1728698992.188,-19.043,-10.742,-21.484,-7.324,0.000
1728698992.192,-8.301,-17.578,-20.020,-0.977,0.000
1728698992.196,-6.836,-20.996,-21.973,-9.277,0.000
1728698992.200,-49.805,-22.949,-25.879,-55.176,0.000
1728698992.204,-48.828,-20.996,-20.996,-47.852,0.000
1728698992.208,-7.324,-12.695,-21.973,-6.836,0.000
1728698992.211,9.277,-15.137,-30.273,3.906,0.000
1728698992.215,4.395,-15.625,-24.902,4.883,0.000
1728698992.219,-38.574,-20.020,-15.137,-38.086,0.000
1728698992.223,-51.758,-28.809,-28.809,-46.875,0.000
1728698992.227,-13.672,-21.484,-34.668,-3.418,0.000
1728698992.231,2.930,-17.578,-24.902,1.953,0.000
1728698992.235,4.395,-19.531,-41.504,-5.371,0.000
1728698992.239,-23.926,-14.160,-41.992,-32.715,0.000
1728698992.243,-45.410,-13.672,-27.832,-51.758,0.000
1728698992.247,-9.766,-22.461,-11.230,-20.508,0.000
1728698992.250,10.742,-27.344,-4.395,-9.766,0.000
1728698992.254,-3.906,-23.438,-14.160,-15.137,0.000
1728698992.258,-40.039,-19.531,-11.230,-40.039,0.000
1728698992.262,-70.312,-9.766,-12.695,-62.988,0.000
1728698992.266,-24.414,-8.301,-31.250,-20.508,0.000
1728698992.270,13.184,-20.508,-28.320,1.953,0.000
1728698992.274,-8.789,-23.438,-13.672,-5.371,0.000
1728698992.278,-35.645,-20.508,-18.066,-37.109,0.000
1728698992.282,-49.805,-17.578,-20.996,-51.270,0.000
1728698992.286,-22.461,-16.602,-27.344,-18.066,0.000
1728698992.289,4.883,-12.207,-38.086,-9.277,0.000
1728698992.293,7.324,-13.184,-39.062,-8.301,0.000
1728698992.297,-19.043,-19.043,-32.227,-26.367,0.000
1728698992.301,-58.594,-17.578,-27.832,-56.152,0.000
1728698992.305,-29.785,-13.672,-38.574,-28.809,0.000
1728698992.309,12.207,-21.973,-49.805,8.789,0.000
1728698992.313,0.977,-27.832,-47.363,5.859,0.000
1728698992.317,-26.367,-23.926,-41.992,-22.461,0.000
1728698992.321,-50.293,-25.391,-28.320,-51.758,0.000
1728698992.324,-25.391,-17.578,-15.137,-20.020,0.000
1728698992.328,12.207,-11.719,-6.836,9.766,0.000
1728698992.332,1.953,-11.719,3.906,-9.277,0.000
1728698992.336,-17.090,-11.230,0.977,-43.457,0.000
1728698992.340,-42.480,-13.672,-2.441,-58.105,0.000
1728698992.344,-27.832,-10.254,-3.906,-16.113,0.000
1728698992.348,10.742,2.441,-20.996,21.484,0.000
1728698992.352,19.043,5.371,-29.297,24.902,0.000
1728698992.356,11.719,2.930,-19.531,8.301,0.000
1728698992.360,-29.785,2.441,-20.996,-31.738,0.000
1728698992.364,-21.973,1.953,-21.484,-25.391,0.000
1728698992.368,24.902,6.348,-17.090,14.648,0.000
1728698992.371,30.273,5.371,-7.812,21.973,0.000
1728698992.375,6.348,-2.441,10.742,-6.348,0.000
1728698992.379,-29.785,-3.418,10.742,-50.781,0.000
1728698992.383,-26.367,-1.465,1.953,-35.156,0.000
1728698992.387,3.418,-0.977,-12.695,15.625,0.000
1728698992.391,17.578,-2.441,-20.020,21.973,0.000
1728698992.395,20.508,-0.488,-12.695,8.789,0.000
1728698992.399,-12.207,-2.441,-11.719,-26.367,0.000
1728698992.403,-31.738,-2.441,-4.883,-35.645,0.000
1728698992.407,8.301,-8.789,-6.348,8.789,0.000
1728698992.411,32.227,-15.625,-15.137,32.227,0.000
1728698992.414,7.812,-4.883,-14.160,13.184,0.000
1728698992.418,-19.531,-11.230,-12.695,-26.855,0.000
1728698992.422,-31.738,-16.113,-16.113,-40.039,0.000
1728698992.426,-7.812,-7.324,-17.090,-6.348,0.000
1728698992.430,23.926,-5.859,-12.207,15.625,0.000
1728698992.434,14.648,-10.254,-19.043,13.672,0.000
1728698992.438,-27.344,-12.207,-22.949,-31.738,0.000
1728698992.442,-41.992,-12.695,-5.859,-40.527,0.000
1728698992.446,-8.301,-10.742,-5.859,6.348,0.000
1728698992.450,20.996,-10.742,-13.672,24.902,0.000
1728698992.454,28.320,-14.648,-16.602,22.949,0.000
1728698992.457,-8.789,-10.742,-18.066,-10.254,0.000
1728698992.461,-40.039,-11.230,-13.184,-34.668,0.000
1728698992.465,-1.465,-17.090,-5.859,-2.441,0.000
1728698992.469,28.320,-20.508,-4.395,15.625,0.000
1728698992.473,14.160,-20.020,-8.301,-0.488,0.000
1728698992.477,-12.207,-19.531,-31.738,-19.043,0.000
1728698992.481,-36.621,-20.508,-41.504,-40.527,0.000
1728698992.485,-17.578,-18.555,-32.715,-14.648,0.000
1728698992.489,13.184,-17.090,-25.879,19.531,0.000
1728698992.493,18.066,-16.602,-14.160,12.207,0.000
1728698992.497,-0.488,-17.090,-20.020,-15.625,0.000
1728698992.500,-27.832,-18.066,-32.715,-52.734,0.000
1728698992.504,0.977,-24.414,-30.762,-21.484,0.000
1728698992.508,32.715,-22.949,-27.832,18.555,0.000
1728698992.512,29.785,-14.648,-23.438,13.672,0.000
1728698992.516,0.488,-12.695,-39.062,-12.207,0.000
1728698992.520,-29.297,-13.672,-53.223,-31.738,0.000
1728698992.524,-14.160,-23.438,-38.574,-5.859,0.000
1728698992.528,16.113,-28.809,-23.926,18.066,0.000
1728698992.532,16.602,-24.414,-22.461,8.789,0.000
1728698992.536,-4.395,-20.996,-23.438,-16.602,0.000
1728698992.539,-37.109,-18.555,-23.438,-52.734,0.000
1728698992.543,-30.273,-23.926,-31.738,-26.367,0.000
1728698992.547,8.789,-28.809,-25.391,10.742,0.000
1728698992.551,27.832,-14.648,-25.391,2.441,0.000
1728698992.555,18.066,-12.207,-50.781,-3.906,0.000
1728698992.559,-21.484,-23.926,-39.062,-32.227,0.000
1728698992.563,-29.297,-29.785,-15.625,-27.344,0.000
1728698992.567,14.160,-28.809,-14.648,22.461,0.000
1728698992.571,14.160,-21.484,-15.625,18.555,0.000
1728698992.575,-10.254,-18.555,-19.043,-7.812,0.000
1728698992.579,-37.598,-23.926,-24.414,-27.832,0.000
1728698992.582,-39.062,-26.367,-22.949,-16.602,0.000
1728698992.586,8.301,-18.066,-30.762,23.438,0.000
1728698992.590,22.461,-12.207,-43.457,22.949,0.000
1728698992.594,-0.977,-8.789,-32.227,6.836,0.000
1728698992.598,-35.645,-11.719,-9.277,-29.297,0.000
1728698992.602,-46.875,-16.113,-10.742,-47.852,0.000
1728698992.606,-6.836,-17.090,-7.324,-2.441,0.000
1728698992.610,26.367,-24.414,-8.789,22.461,0.000
1728698992.614,7.812,-25.391,-24.902,6.348,0.000
1728698992.618,-39.551,-27.344,-24.414,-38.086,0.000
1728698992.621,-47.852,-23.438,-24.902,-44.922,0.000
1728698992.625,-8.301,-13.672,-25.879,-5.859,0.000
1728698992.629,11.719,-11.719,-22.949,0.488,0.000
1728698992.633,0.488,-13.672,-28.320,-13.672,0.000
1728698992.637,-18.066,-19.531,-31.250,-31.250,0.000
1728698992.641,-39.062,-21.973,-38.086,-41.992,0.000
1728698992.645,-18.066,-17.578,-38.086,-19.531,0.000
1728698992.649,0.488,-18.555,-28.809,-2.441,0.000
1728698992.653,2.930,-22.461,-23.926,-3.418,0.000
1728698992.657,-2.441,-22.461,-16.602,-10.254,0.000
1728698992.660,-38.574,-21.973,-21.973,-41.504,0.000
1728698992.664,-35.645,-25.391,-44.922,-22.949,0.000
1728698992.668,-23.926,-19.531,-51.758,-4.883,0.000
1728698992.672,-17.090,-23.438,-21.973,-6.836,0.000
1728698992.676,-21.973,-31.250,-2.441,-21.973,0.000
1728698992.680,-47.852,-28.809,-7.324,-59.570,0.000
1728698992.684,-22.461,-27.344,-13.672,-20.996,0.000
1728698992.688,-0.488,-28.320,-24.414,15.137,0.000
1728698992.692,1.465,-25.391,-30.762,1.465,0.000
1728698992.696,-17.090,-22.461,-22.461,-17.578,0.000
1728698992.699,-48.340,-22.949,-12.695,-41.504,0.000
1728698992.703,-26.855,-26.367,-21.484,-15.137,0.000
1728698992.707,2.930,-25.879,-28.320,11.230,0.000
1728698992.711,5.859,-19.531,-28.809,0.977,0.000
1728698992.715,-2.930,-17.090,-45.898,-16.113,0.000
1728698992.719,-26.855,-17.578,-62.500,-41.016,0.000
1728698992.723,-25.391,-17.090,-47.363,-27.832,0.000
1728698992.727,6.836,-24.414,-24.902,-11.719,0.000
1728698992.731,11.230,-24.902,-11.719,-9.766,0.000
1728698992.735,-2.930,-16.602,4.395,-22.949,0.000
1728698992.739,-44.434,-23.926,2.930,-62.012,0.000
1728698992.743,-44.434,-26.367,-14.648,-51.270,0.000
1728698992.746,-1.953,-23.438,-18.066,-6.836,0.000
1728698992.750,7.324,-23.438,-21.484,-5.371,0.000
1728698992.754,-9.277,-25.391,-30.762,-27.344,0.000
1728698992.758,-43.945,-26.367,-35.645,-54.199,0.000
1728698992.762,-57.129,-29.297,-27.832,-43.945,0.000
1728698992.766,-14.648,-24.902,-18.066,-6.348,0.000
1728698992.770,3.906,-21.973,-17.578,-6.836,0.000
1728698992.774,-11.719,-25.879,-34.180,-18.066,0.000
1728698992.778,-35.645,-20.508,-51.270,-35.156,0.000
1728698992.782,-40.527,-30.762,-33.203,-28.809,0.000
1728698992.786,-8.301,-31.738,-14.160,2.930,0.000
1728698992.789,-10.254,-15.625,-18.066,0.000,0.000
1728698992.793,-10.742,-19.531,-19.531,-14.160,0.000
1728698992.797,-30.762,-21.484,-25.391,-42.480,0.000
1728698992.801,-63.477,-11.719,-27.832,-54.199,0.000
1728698992.805,-30.273,-22.949,-21.484,-1.465,0.000
1728698992.809,1.953,-32.227,-33.203,20.020,0.000
1728698992.813,-0.488,-23.926,-40.527,-10.254,0.000
1728698992.817,-35.156,-18.555,-20.996,-41.504,0.000
1728698992.821,-59.082,-20.508,-11.719,-61.523,0.000
1728698992.825,-37.598,-22.461,-38.574,-34.180,0.000
1728698992.829,-3.906,-19.531,-34.668,-7.324,0.000
1728698992.832,3.418,-24.902,-20.996,-17.090,0.000
1728698992.836,-27.832,-21.484,-40.527,-43.945,0.000
1728698992.840,-60.059,-13.184,-19.043,-58.105,0.000
1728698992.844,-38.574,-14.160,-7.324,-25.879,0.000
1728698992.848,-3.418,-20.508,-20.020,4.883,0.000
1728698992.852,-2.930,-23.926,-23.926,6.836,0.000
1728698992.856,-33.203,-22.461,-34.180,-30.273,0.000
1728698992.860,-65.918,-26.855,-33.203,-65.918,0.000
1728698992.864,-30.273,-27.344,-21.484,-25.391,0.000
1728698992.868,13.672,-17.578,-16.113,11.719,0.000
1728698992.872,7.324,-14.648,-24.414,5.859,0.000
1728698992.875,-14.648,-17.090,-31.738,-12.207,0.000
1728698992.879,-41.504,-15.137,-33.691,-41.504,0.000
1728698992.883,-30.762,-14.648,-37.598,-22.461,0.000
1728698992.887,13.184,-14.160,-28.809,18.555,0.000
1728698992.891,11.719,-12.695,-24.902,9.277,0.000
1728698992.895,-3.418,-13.672,-17.578,-15.625,0.000
1728698992.899,-28.809,-17.090,-21.484,-43.945,0.000
1728698992.903,-32.227,-20.508,-30.762,-37.598,0.000
1728698992.907,4.395,-21.973,-26.367,1.953,0.000
1728698992.911,16.602,-17.578,-28.809,4.883,0.000
1728698992.914,-5.859,-12.207,-22.949,-8.301,0.000
1728698992.918,-41.992,-14.160,-16.602,-34.668,0.000
1728698992.922,-38.574,-17.090,-23.926,-29.297,0.000
1728698992.926,5.371,-15.625,-27.832,5.371,0.000
1728698992.930,21.484,-15.137,-19.043,11.230,0.000
1728698992.934,5.859,-11.230,-20.996,-3.418,0.000
1728698992.938,-39.551,-13.184,-36.621,-45.410,0.000
1728698992.942,-44.434,-22.949,-32.227,-27.832,0.000
1728698992.946,-4.883,-21.973,-29.785,9.766,0.000
1728698992.950,1.465,-23.926,-35.645,6.836,0.000
1728698992.954,7.812,-23.926,-27.344,2.441,0.000
1728698992.957,-21.484,-18.555,-21.484,-38.574,0.000
1728698992.961,-47.363,-17.090,-35.156,-48.828,0.000
1728698992.965,-5.859,-13.672,-44.434,-6.836,0.000
1728698992.969,19.043,-8.789,-29.297,8.301,0.000
1728698992.973,17.090,-6.836,-20.508,-1.953,0.000
1728698992.977,-31.738,0.000,-22.949,-42.969,0.000
1728698992.981,-46.387,-0.977,-22.461,-50.781,0.000
1728698992.985,-1.465,-14.648,-22.461,-3.906,0.000
1728698992.989,11.230,-18.066,-20.508,7.812,0.000
1728698992.993,0.000,-17.578,-15.625,-12.207,0.000
1728698992.997,-28.320,-16.602,-18.066,-37.598,0.000
1728698993.000,-41.992,-15.137,-43.945,-45.410,0.000
1728698993.004,-9.277,-10.254,-41.016,-9.277,0.000
1728698993.008,22.461,-12.207,-18.066,6.836,0.000
1728698993.012,13.184,-20.020,-17.090,-3.906,0.000
1728698993.016,-17.578,-10.742,-9.766,-27.832,0.000
1728698993.020,-46.387,-9.766,-21.484,-52.246,0.000
1728698993.024,-31.738,-18.555,-38.086,-20.508,0.000
1728698993.028,6.836,-17.578,-13.184,2.930,0.000
1728698993.032,11.719,-16.113,0.488,8.789,0.000
1728698993.035,-22.949,-11.230,-18.066,-21.484,0.000
1728698993.039,-63.965,-19.043,-31.250,-64.453,0.000
1728698993.043,-36.621,-30.762,-19.531,-17.090,0.000
1728698993.047,16.602,-22.461,-8.301,21.484,0.000
1728698993.051,13.672,-14.648,-10.254,9.766,0.000
1728698993.055,-24.414,-17.090,-16.113,-20.020,0.000
1728698993.059,-54.688,-16.602,-21.973,-56.641,0.000
1728698993.063,-32.715,-18.555,-20.996,-28.320,0.000
1728698993.067,0.000,-17.090,-20.996,5.859,0.000
1728698993.071,-1.465,-9.277,-28.809,-7.324,0.000
1728698993.074,-10.742,-11.719,-32.715,-18.555,0.000
1728698993.078,-44.922,-18.555,-47.363,-36.621,0.000
1728698993.082,-35.645,-14.648,-55.664,-25.879,0.000
1728698993.086,13.672,-16.602,-49.316,8.301,0.000
1728698993.090,14.160,-17.578,-41.016,15.625,0.000
1728698993.094,-12.207,-16.113,-20.508,-12.207,0.000
1728698993.098,-42.969,-18.066,-9.277,-59.082,0.000
1728698993.102,-32.227,-16.602,-10.254,-45.898,0.000
1728698993.106,-12.207,-8.301,-8.789,-10.742,0.000
1728698993.110,-6.348,-7.812,-4.395,-2.930,0.000
1728698993.114,-4.883,-16.602,-10.254,-8.789,0.000
1728698993.118,-39.062,-18.555,-18.555,-42.969,0.000
1728698993.121,-39.062,-19.043,-15.625,-41.504,0.000
1728698993.125,-2.441,-22.461,-22.949,1.953,0.000
1728698993.129,20.020,-21.973,-35.645,18.555,0.000
1728698993.133,6.348,-17.578,-32.715,3.906,0.000
1728698993.137,-36.621,-22.461,-27.344,-26.367,0.000
1728698993.141,-50.293,-18.066,-27.832,-38.086,0.000
1728698993.145,-1.465,-12.695,-22.461,-0.488,0.000
1728698993.149,19.043,-15.137,-20.020,19.043,0.000
1728698993.153,3.906,-15.137,-33.203,-2.930,0.000
1728698993.157,-30.762,-11.230,-33.203,-41.016,0.000
1728698993.161,-60.059,-18.555,-23.926,-60.547,0.000
1728698993.164,-21.973,-32.227,-25.879,-17.578,0.000
1728698993.168,6.836,-29.297,-24.902,4.395,0.000
1728698993.172,-3.418,-27.832,-30.762,-16.602,0.000
1728698993.176,-37.109,-30.762,-28.320,-41.992,0.000
1728698993.180,-56.152,-29.297,-16.113,-51.270,0.000
1728698993.184,-13.672,-32.715,-18.066,-4.883,0.000
1728698993.188,1.953,-29.297,-32.227,22.461,0.000
1728698993.192,8.301,-15.137,-34.668,15.625,0.000
1728698993.196,-3.418,-16.602,-30.762,-14.648,0.000
1728698993.200,-33.203,-21.484,-41.504,-40.039,0.000
1728698993.204,-15.625,-17.578,-40.039,-17.578,0.000
1728698993.207,15.625,-22.461,-16.602,11.230,0.000
1728698993.211,22.949,-22.949,-9.766,19.043,0.000
1728698993.215,-15.625,-15.625,-10.254,-14.648,0.000
1728698993.219,-48.340,-20.996,-6.836,-49.316,0.000
1728698993.223,-32.715,-22.461,-13.672,-23.926,0.000
1728698993.227,3.418,-20.020,-19.043,16.602,0.000
1728698993.231,5.859,-22.461,-24.414,8.789,0.000
1728698993.235,-23.438,-18.555,-29.297,-23.438,0.000
1728698993.239,-48.828,-18.066,-26.855,-46.875,0.000
1728698993.243,-42.480,-23.438,-31.738,-27.344,0.000
1728698993.247,-7.324,-22.949,-38.574,4.883,0.000
1728698993.250,5.371,-23.926,-41.992,-6.348,0.000
1728698993.254,-20.996,-32.715,-38.086,-32.715,0.000
1728698993.258,-59.082,-32.715,-31.250,-60.547,0.000
1728698993.262,-46.387,-28.809,-31.250,-42.969,0.000
1728698993.266,-7.812,-19.043,-38.574,-9.766,0.000
1728698993.270,7.324,-13.672,-18.066,-2.930,0.000
1728698993.274,3.418,-17.090,4.883,-2.930,0.000
1728698993.278,-35.645,-17.090,-2.930,-42.969,0.000
1728698993.282,-51.270,-21.973,-18.555,-43.457,0.000
1728698993.286,-7.324,-17.090,-18.555,0.000,0.000
1728698993.289,22.949,-11.719,-10.742,14.160,0.000
1728698993.293,6.836,-15.625,-17.090,0.977,0.000
1728698993.297,-40.039,-20.020,-32.715,-32.715,0.000
1728698993.301,-49.316,-21.484,-41.504,-31.250,0.000
1728698993.305,-5.371,-23.438,-22.461,8.789,0.000
1728698993.309,13.184,-21.973,-10.254,23.438,0.000
1728698993.313,3.906,-16.113,-29.297,8.301,0.000
1728698993.317,-28.809,-21.484,-32.227,-23.926,0.000
1728698993.321,-41.992,-20.020,-23.926,-23.926,0.000
1728698993.325,-8.301,-9.766,-33.691,3.906,0.000
1728698993.329,14.160,-15.625,-32.715,7.324,0.000
1728698993.332,8.789,-15.625,-27.832,4.883,0.000
1728698993.336,-24.902,-14.648,-20.020,-27.344,0.000
1728698993.340,-43.457,-21.484,-14.160,-56.641,0.000
1728698993.344,-2.930,-23.926,-22.949,-13.184,0.000
1728698993.348,17.578,-24.414,-22.949,10.742,0.000
1728698993.352,0.977,-22.949,-25.879,-6.348,0.000
1728698993.356,-17.578,-22.461,-32.715,-39.551,0.000
1728698993.360,-36.133,-25.391,-32.715,-43.457,0.000
1728698993.364,-6.836,-23.438,-40.039,1.953,0.000
1728698993.368,18.066,-16.602,-31.738,10.254,0.000
1728698993.371,9.766,-20.508,-19.531,8.301,0.000
1728698993.375,-17.578,-26.367,-21.973,-17.090,0.000
1728698993.379,-43.945,-25.879,-21.973,-48.828,0.000
1728698993.383,-12.207,-23.438,-22.949,-6.348,0.000
1728698993.387,22.949,-20.996,-22.461,27.344,0.000
1728698993.391,15.137,-18.555,-26.855,15.625,0.000
1728698993.395,-15.137,-16.602,-29.297,-9.766,0.000
1728698993.399,-43.945,-20.020,-30.762,-30.762,0.000
1728698993.403,-16.602,-24.902,-36.133,1.465,0.000
1728698993.407,14.648,-23.438,-28.809,33.203,0.000
1728698993.410,5.859,-26.855,-34.180,24.902,0.000
1728698993.414,-20.996,-29.297,-39.062,-6.348,0.000
1728698993.418,-56.152,-26.855,-26.855,-48.828,0.000
1728698993.422,-41.504,-32.715,-21.973,-27.832,0.000
1728698993.426,0.977,-26.367,-25.879,8.789,0.000
1728698993.430,1.465,-15.137,-37.109,4.395,0.000
1728698993.434,-14.160,-8.301,-51.758,-10.742,0.000
1728698993.438,-37.109,-15.625,-49.316,-39.062,0.000
1728698993.442,-42.480,-18.555,-37.109,-26.855,0.000
1728698993.446,7.324,-18.555,-41.016,7.324,0.000
1728698993.449,16.113,-24.414,-48.340,0.977,0.000
1728698993.453,-8.789,-20.020,-35.645,-11.719,0.000
1728698993.457,-34.668,-25.391,-15.625,-46.387,0.000
1728698993.461,-37.109,-21.973,-6.348,-40.527,0.000
1728698993.465,-4.395,-22.461,0.000,2.930,0.000
1728698993.469,8.789,-22.461,-4.395,6.348,0.000
1728698993.473,-5.859,-18.555,-16.113,-20.508,0.000
1728698993.477,-41.016,-23.438,-22.949,-54.199,0.000
1728698993.481,-41.016,-26.855,-20.508,-42.969,0.000
1728698993.485,-1.465,-24.902,-25.879,-2.930,0.000
1728698993.489,9.766,-22.461,-36.621,2.930,0.000
1728698993.492,-13.672,-20.508,-36.621,-11.230,0.000
1728698993.496,-38.574,-20.996,-30.762,-46.387,0.000
1728698993.500,-44.434,-20.996,-37.598,-61.035,0.000
1728698993.504,-13.672,-16.602,-47.852,-13.672,0.000
1728698993.508,9.277,-18.066,-58.105,12.695,0.000
1728698993.512,-9.766,-17.090,-39.062,4.395,0.000
1728698993.516,-50.293,-20.508,-10.254,-37.598,0.000
1728698993.520,-69.336,-24.902,-13.184,-54.199,0.000
1728698993.524,-31.250,-26.367,-24.414,-15.625,0.000
1728698993.528,-3.906,-29.297,-15.625,-4.395,0.000
1728698993.532,-22.949,-24.902,-17.090,-20.020,0.000
1728698993.536,-47.852,-25.879,-18.555,-50.781,0.000
1728698993.539,-64.453,-29.297,-27.344,-60.059,0.000
1728698993.543,-24.902,-20.996,-46.875,-14.648,0.000
1728698993.547,10.254,-17.578,-53.223,2.441,0.000
1728698993.551,1.953,-21.973,-39.062,-16.113,0.000
1728698993.555,-35.645,-23.438,-15.625,-43.945,0.000
1728698993.559,-65.430,-27.344,-9.277,-62.500,0.000
1728698993.563,-38.574,-31.738,-19.531,-40.039,0.000
1728698993.567,1.465,-23.438,-26.855,-15.137,0.000
1728698993.571,-0.977,-19.531,-34.668,-17.090,0.000
1728698993.575,-31.738,-25.391,-35.645,-42.480,0.000
1728698993.579,-70.312,-14.160,-32.715,-68.848,0.000
1728698993.582,-41.504,-17.090,-41.016,-34.668,0.000
1728698993.586,-9.766,-20.020,-30.762,-9.766,0.000
1728698993.590,-10.742,-22.949,-26.855,-18.555,0.000
1728698993.594,-30.273,-24.902,-33.691,-42.969,0.000
1728698993.598,-62.500,-23.926,-20.996,-74.219,0.000
1728698993.602,-33.691,-27.832,-14.160,-26.367,0.000
1728698993.606,8.301,-22.949,-35.645,8.789,0.000
1728698993.610,11.230,-19.531,-47.852,-12.695,0.000
1728698993.614,-12.207,-22.461,-41.504,-26.367,0.000
1728698993.618,-46.875,-21.484,-51.758,-43.457,0.000
1728698993.622,-39.551,-18.555,-86.914,-29.297,0.000
1728698993.625,5.371,-17.090,-65.918,-0.488,0.000
1728698993.629,3.906,-18.555,-6.348,-4.883,0.000
1728698993.633,-21.973,-25.879,15.625,-24.414,0.000
1728698993.637,-34.668,-30.762,9.277,-50.781,0.000
1728698993.641,-37.109,-19.043,-9.766,-43.457,0.000
1728698993.645,1.465,-17.090,-7.812,1.953,0.000
1728698993.649,22.461,-27.832,-5.859,13.184,0.000
1728698993.653,6.348,-22.461,-37.109,-5.371,0.000
1728698993.657,-33.691,-22.461,-41.504,-34.180,0.000
1728698993.661,-48.340,-24.902,-31.250,-38.086,0.000
1728698993.664,-7.812,-21.973,-34.180,-8.301,0.000
1728698993.668,5.859,-16.113,-25.879,-3.906,0.000
1728698993.672,-10.742,-15.137,-26.367,-16.113,0.000
1728698993.676,-41.992,-22.949,-47.852,-53.223,0.000
1728698993.680,-64.941,-21.484,-53.711,-57.129,0.000
1728698993.684,-24.902,-23.438,-40.039,-7.324,0.000
1728698993.688,0.488,-24.414,-34.668,-7.324,0.000
1728698993.692,-20.996,-27.344,-32.715,-11.230,0.000
1728698993.696,-38.086,-34.668,-53.223,-30.762,0.000
1728698993.700,-46.387,-30.273,-63.965,-49.805,0.000
1728698993.704,-18.066,-31.738,-30.273,-5.859,0.000
1728698993.707,12.695,-29.297,-9.766,16.113,0.000
1728698993.711,0.488,-24.414,-17.578,1.953,0.000
1728698993.715,-24.414,-17.578,-29.297,-35.645,0.000
1728698993.719,-37.598,-19.043,-43.457,-50.293,0.000
1728698993.723,-12.207,-22.461,-35.156,-11.719,0.000
1728698993.727,18.555,-21.973,-19.043,5.859,0.000
1728698993.731,22.949,-20.508,-26.855,12.207,0.000
1728698993.735,1.465,-21.484,-41.016,-3.418,0.000
1728698993.739,-34.668,-24.902,-46.875,-16.602,0.000
1728698993.743,-20.020,-23.438,-49.805,9.277,0.000
1728698993.746,23.438,-22.949,-30.273,24.902,0.000
1728698993.750,21.484,-27.832,-25.879,14.648,0.000
1728698993.754,-9.277,-30.762,-28.809,-12.207,0.000
1728698993.758,-37.109,-22.949,-20.996,-37.109,0.000
1728698993.762,-17.578,-24.902,-11.719,-9.277,0.000
1728698993.766,15.625,-29.785,1.465,16.602,0.000
1728698993.770,9.766,-20.508,-3.418,8.789,0.000
1728698993.774,-22.949,-18.066,-14.160,-8.789,0.000
1728698993.778,-61.035,-27.832,-16.602,-37.598,0.000
1728698993.782,-27.344,-31.250,-25.879,-5.371,0.000
1728698993.785,16.113,-23.926,-33.203,28.809,0.000
1728698993.789,4.883,-20.996,-25.879,13.672,0.000
1728698993.793,-20.020,-24.414,-12.695,-10.742,0.000
1728698993.797,-47.852,-24.414,-31.250,-40.039,0.000
1728698993.801,-35.645,-16.602,-56.152,-13.672,0.000
1728698993.805,-3.418,-19.043,-37.598,23.926,0.000
1728698993.809,1.465,-25.879,-5.859,18.555,0.000
1728698993.813,-14.160,-20.020,11.230,-3.418,0.000
1728698993.817,-52.246,-20.020,-6.836,-57.129,0.000
1728698993.820,-60.547,-20.020,-15.137,-59.082,0.000
1728698993.824,-20.508,-27.344,-16.602,-12.695,0.000
1728698993.828,0.488,-27.832,-37.109,-6.348,0.000
1728698993.832,-9.766,-19.043,-42.480,-26.367,0.000
1728698993.836,-45.898,-20.996,-40.527,-52.246,0.000
1728698993.840,-58.594,-23.926,-43.457,-49.805,0.000
1728698993.844,-27.832,-27.344,-42.969,-17.090,0.000
1728698993.848,-4.883,-20.508,-24.902,-0.488,0.000
1728698993.852,-2.930,-16.113,0.488,-2.441,0.000
1728698993.856,-39.551,-27.344,-5.371,-35.156,0.000
1728698993.860,-42.969,-28.320,-46.387,-46.387,0.000
1728698993.864,-13.672,-11.230,-49.316,-11.230,0.000
1728698993.867,-6.836,-16.113,-7.324,-0.488,0.000
1728698993.871,0.488,-30.273,6.836,-8.789,0.000
1728698993.875,-25.879,-22.949,-7.812,-43.945,0.000
1728698993.879,-46.387,-18.555,-35.645,-53.711,0.000
1728698993.883,-3.906,-9.277,-37.109,-4.883,0.000
1728698993.887,34.180,-4.395,-16.113,20.508,0.000
1728698993.891,14.648,-10.742,-21.973,7.324,0.000
1728698993.895,-31.738,-15.625,-51.758,-20.996,0.000
1728698993.899,-42.480,-15.137,-44.434,-24.902,0.000
1728698993.903,-1.953,-17.090,0.000,1.465,0.000
1728698993.907,20.508,-13.184,6.836,14.160,0.000
1728698993.910,1.953,-9.766,-14.160,18.066,0.000
1728698993.914,-17.578,-13.184,-19.043,-2.441,0.000
1728698993.918,-26.367,-15.625,-10.742,-29.785,0.000
1728698993.922,-16.602,-16.602,-4.883,0.488,0.000
1728698993.926,12.695,-12.695,-33.203,33.203,0.000
1728698993.930,38.574,-13.672,-61.523,38.086,0.000
1728698993.934,6.836,-19.043,-34.668,4.883,0.000
1728698993.938,-42.480,-21.973,-9.277,-47.852,0.000
1728698993.942,-25.879,-22.461,10.254,-29.785,0.000
1728698993.946,13.184,-23.438,18.066,3.906,0.000
1728698993.950,17.578,-19.531,-0.488,2.930,0.000
1728698993.953,-4.395,-12.695,-5.859,-22.461,0.000
1728698993.957,-44.434,-17.578,0.977,-55.664,0.000
1728698993.961,-41.992,-10.254,3.418,-36.133,0.000
1728698993.965,-21.973,-11.719,-7.324,-8.789,0.000
1728698993.969,-16.113,-34.180,-8.789,-6.348,0.000
1728698993.973,-18.066,-32.227,-12.207,-20.508,0.000
1728698993.977,-28.809,-29.785,-35.156,-35.645,0.000
1728698993.981,-17.090,-17.090,-72.754,-10.742,0.000
1728698993.985,16.602,-9.277,-62.012,19.531,0.000
1728698993.989,25.879,-14.648,-25.879,8.789,0.000
1728698993.993,-26.855,-20.996,-6.348,-29.785,0.000
1728698993.996,-73.242,-28.320,16.113,-74.219,0.000
1728698994.000,-77.148,-23.926,4.395,-81.055,0.000
1728698994.004,-44.922,-22.461,-37.598,-37.598,0.000
1728698994.008,22.461,-26.855,-52.734,19.043,0.000
1728698994.012,37.598,-20.996,-54.199,43.945,0.000
1728698994.016,-18.555,-13.672,-76.660,-10.254,0.000
1728698994.020,-23.926,-27.344,-62.500,-15.625,0.000
1728698994.024,17.090,-29.297,10.254,24.414,0.000
1728698994.028,22.461,-32.227,21.973,0.977,0.000
1728698994.032,0.000,-37.598,-1.953,-13.184,0.000
1728698994.036,-28.809,-26.855,15.625,-38.086,0.000
1728698994.039,-28.320,-20.996,10.254,-38.086,0.000
1728698994.043,-30.273,-1.465,-57.129,-27.344,0.000
1728698994.047,-4.883,-1.953,-62.500,-4.883,0.000
1728698994.051,11.230,-7.812,-30.762,16.602,0.000
1728698994.055,-33.203,-23.926,-12.207,-30.273,0.000
1728698994.059,-61.523,-33.691,4.395,-43.945,0.000
1728698994.063,-23.438,-5.859,-8.301,0.000,0.000
1728698994.067,20.996,-30.273,10.254,43.457,0.000
1728698994.071,22.949,-25.391,17.578,41.504,0.000
1728698994.075,9.766,-3.418,-39.551,16.602,0.000
1728698994.078,-17.090,-9.766,-45.410,2.441,0.000
1728698994.082,-12.695,2.441,-7.812,-1.465,0.000
1728698994.086,-29.785,-8.301,-6.836,-28.320,0.000
1728698994.090,-64.941,-32.715,-9.766,-32.715,0.000
1728698994.094,-42.969,-25.391,-12.695,-26.367,0.000
1728698994.098,-11.230,-0.977,20.996,-16.602,0.000
1728698994.102,8.789,1.953,8.301,20.996,0.000
1728698994.106,-21.973,14.648,-66.895,10.254,0.000
1728698994.110,-29.785,8.301,-44.434,0.488,0.000
1728698994.114,4.883,-30.273,3.906,-3.418,0.000
1728698994.118,-50.293,-29.297,4.883,-65.430,0.000
1728698994.121,-70.801,-32.227,14.648,-71.289,0.000
1728698994.125,-44.922,-39.551,7.812,-39.062,0.000
1728698994.129,-36.621,-43.457,-2.930,-34.668,0.000
1728698994.133,-32.227,-45.898,14.648,-29.297,0.000
1728698994.137,-61.035,-52.246,-19.043,-48.340,0.000
1728698994.141,-55.664,-45.898,-48.828,-23.438,0.000
1728698994.145,-62.012,-27.832,-37.109,-19.531,0.000
1728698994.149,-27.832,-84.473,9.277,-6.836,0.000
1728698994.153,-61.035,-132.812,19.531,-42.480,0.000
1728698994.157,-108.887,-129.883,24.414,-82.031,0.000
1728698994.160,-69.336,-157.227,24.414,-27.832,0.000
1728698994.164,-43.457,-179.199,-8.301,-5.371,0.000
1728698994.168,-8.789,-207.520,-16.113,-12.695,0.000
1728698994.172,-0.977,-236.328,-35.645,-31.738,0.000
1728698994.176,-53.223,-254.883,-47.852,-70.801,0.000
1728698994.180,-95.215,-286.621,-9.766,-75.195,0.000
1728698994.184,-50.293,-348.145,27.344,-44.434,0.000
1728698994.188,-21.484,-387.207,16.113,-54.688,0.000
1728698994.192,-38.574,-415.527,18.555,-55.176,0.000
1728698994.195,-74.707,-460.449,22.461,-78.125,0.000
1728698994.199,-53.223,-495.605,6.836,-69.336,0.000
1728698994.203,-32.227,-502.930,-24.902,-37.109,0.000
1728698994.207,-60.059,-514.160,-41.504,-56.152,0.000
1728698994.211,-52.734,-569.824,-17.090,-37.598,0.000
1728698994.215,-61.523,-607.910,-6.348,-40.527,0.000
1728698994.219,-76.172,-613.281,-3.418,-47.363,0.000
1728698994.223,-41.504,-607.910,-13.184,-28.809,0.000
1728698994.227,-16.602,-621.094,-25.879,-26.367,0.000
1728698994.231,-15.625,-647.949,-24.414,-18.066,0.000
1728698994.235,-38.086,-648.438,-15.137,-53.711,0.000
1728698994.239,-59.082,-659.180,-4.883,-68.848,0.000
1728698994.242,-15.137,-659.668,-4.395,-15.137,0.000
1728698994.246,-0.488,-653.320,-25.391,3.418,0.000
1728698994.250,-16.602,-670.898,-18.066,1.953,0.000
1728698994.254,-24.414,-671.875,2.441,-30.273,0.000
1728698994.258,-40.527,-635.254,10.254,-58.105,0.000
1728698994.262,5.371,-624.023,19.531,0.000,0.000
1728698994.266,26.367,-630.859,8.301,34.668,0.000
1728698994.270,9.277,-616.211,-6.348,13.184,0.000
1728698994.274,-20.508,-586.914,-14.160,-29.785,0.000
1728698994.278,-79.102,-547.363,-48.828,-75.684,0.000
1728698994.282,-24.902,-559.570,-30.762,-25.879,0.000
1728698994.286,50.293,-569.336,27.832,36.621,0.000
1728698994.289,49.316,-530.273,33.203,34.180,0.000
1728698994.293,18.066,-499.512,3.418,0.000,0.000
1728698994.297,-6.836,-483.398,-17.578,-33.691,0.000
1728698994.301,8.301,-460.449,-10.742,-3.906,0.000
1728698994.305,42.480,-431.152,3.906,36.621,0.000
1728698994.309,39.062,-418.945,4.395,30.273,0.000
1728698994.313,3.906,-404.785,7.812,-13.672,0.000
1728698994.317,-20.508,-383.301,0.000,-36.133,0.000
1728698994.321,-6.348,-359.863,-17.578,4.883,0.000
1728698994.325,34.668,-337.891,0.977,38.574,0.000
1728698994.329,46.875,-312.988,20.508,26.367,0.000
1728698994.332,24.414,-286.133,4.395,7.324,0.000
1728698994.336,-4.883,-262.207,-2.930,-18.066,0.000
1728698994.340,15.625,-231.445,17.578,3.418,0.000
1728698994.344,59.082,-190.430,23.926,43.945,0.000
1728698994.348,51.758,-151.855,15.625,20.020,0.000
1728698994.352,37.598,-108.398,6.836,6.348,0.000
1728698994.356,1.953,-37.109,-13.672,-11.230,0.000
1728698994.360,-1.465,22.461,-15.625,3.418,0.000
1728698994.364,42.480,72.754,-17.578,44.434,0.000
1728698994.368,37.598,152.832,-31.250,36.621,0.000
1728698994.372,13.672,219.727,-11.230,10.742,0.000
1728698994.375,-20.020,273.438,-8.301,-34.180,0.000
1728698994.379,-23.438,324.219,-13.672,-23.926,0.000
1728698994.383,14.648,367.676,-17.578,27.832,0.000
1728698994.387,30.762,403.320,-34.668,28.320,0.000
1728698994.391,34.668,427.246,-20.508,8.789,0.000
1728698994.395,3.906,447.754,-3.906,-30.273,0.000
1728698994.399,-17.090,463.867,-10.742,-27.832,0.000
1728698994.403,5.371,481.445,-24.902,7.812,0.000
1728698994.407,37.109,491.699,-26.855,19.531,0.000
1728698994.411,29.785,503.906,-30.762,10.254,0.000
1728698994.414,-23.926,521.973,-36.133,-30.762,0.000
1728698994.418,-39.551,536.621,-32.227,-36.621,0.000
