,TP9,AF7,AF8,TP10
0,-1.8544987666121563e-10,-9.758650898463149e-11,-6.274426726295565e-11,-6.535574660863327e-11
1,-8.682573862885558e-10,-7.6895704518146e-10,3.278198928595819e-10,-8.213699807517818e-10
2,-1.2142268820342108e-08,-1.0106409461779386e-08,2.256226653165687e-09,-1.0160895075685021e-08
3,-9.044347162469557e-08,-7.87892208776603e-08,1.512052075499628e-08,-7.803425169355526e-08
4,-5.124214744106246e-07,-4.6431767856663943e-07,6.943427240132411e-08,-4.502826097268003e-07
5,-2.3276077818399337e-06,-2.193870553818093e-06,2.4220631443706034e-07,-2.0800037480032476e-06
6,-8.850247784778862e-06,-8.673629761303667e-06,6.378711404280473e-07,-8.03213578155397e-06
7,-2.9076465939408876e-05,-2.958687965538422e-05,1.1644221261871687e-06,-2.6743332632761763e-05
8,-8.447850453035621e-05,-8.907489902582999e-05,6.834344667180666e-07,-7.856196299981513e-05
9,-0.00022105985582618914,-0.0002409382931196035,-5.255938803074675e-06,-0.00020732163635220333
10,-0.0005286918721526093,-0.0005940129545016347,-2.94280259251669e-05,-0.0004986637790818264
11,-0.001169672353486196,-0.0013508251814757662,-0.0001026317415351451,-0.001106343709564575
12,-0.002418028704121961,-0.002862026372903971,-0.0002905783883013564,-0.0022868579833954256
13,-0.0047105765511861655,-0.005698188097541619,-0.0007207287797952103,-0.004441630623444193
14,-0.008710062669164508,-0.01073947947902065,-0.001621487761211626,-0.008164916619390223
15,-0.015380019113771428,-0.019282739436888637,-0.003375150300280133,-0.014294678321492114
16,-0.026070011049001092,-0.03316430325034126,-0.006584423335969191,-0.023963091692780807
17,-0.042608849463695246,-0.05489538280516457,-0.012150636393370823,-0.03864306491403677
18,-0.06740192277130927,-0.08780446630916494,-0.02136025469592091,-0.06018722870491379
19,-0.10352722466200152,-0.13617810128159913,-0.03597513658505576,-0.09085617388891995
20,-0.15482302358395789,-0.20538792562194086,-0.05832106902974174,-0.13333309707708035
21,-0.22595851023836025,-0.30198857763866654,-0.09136816723724907,-0.19072229414150366
22,-0.3224774667596421,-0.4337689506692693,-0.13879553382480297,-0.266529073207118
23,-0.450804087366631,-0.6097386403692755,-0.20503113038616247,-0.36461877810466337
24,-0.6181999218500156,-0.8400326171596403,-0.29525641283070536,-0.4891530398570011
25,-0.8326615550483898,-1.1357199392991109,-0.4153644079659044,-0.64450235573577
26,-1.1027503543127917,-1.5085064850718053,-0.5718602209231739,-0.8351357512826049
27,-1.4373482837599698,-1.9703269375275934,-0.7716948392031191,-1.065490365929961
28,-1.8453374577352262,-2.5328276222180652,-1.0220267615779268,-1.3398257916226655
29,-2.3352054519562184,-3.206749265392418,-1.32991113642199,-1.662069263449408
30,-2.914583326162705,-4.001227286273777,-1.7019223172715765,-2.035657890669513
31,-3.589728577508663,-4.923036390788351,-2.143722374384361,-2.4633830900805678
32,-4.364970686913919,-5.975815158078527,-2.659594517959522,-2.9472407172343957
33,-5.242142365290058,-7.159313971558609,-3.251966039450536,-3.4882888012165014
34,-6.2200245397833624,-8.4687150014054,-3.9209496870110314,-4.086513786419123
35,-7.293837163890082,-9.894075352948,-4.663935037161402,-4.74070587230239
36,-8.454810404071692,-11.419943507462923,-5.475262094636833,-5.448344245294809
37,-9.689871405471793,-13.02519473786487,-6.346008065779818,-6.205493416275859
38,-10.981480333485468,-14.683123254555898,-7.2639150050199355,-7.0067124432231775
39,-12.30764584779402,-16.361817655617255,-8.213481028621475,-7.844979606649246
40,-13.642144448072674,-18.02483206338577,-9.176231026037026,-8.711636353192656
41,-14.954960372170987,-19.632148730000505,-10.13117435012227,-9.596356136655395
42,-16.212952783603985,-21.141409694174875,-11.055446734639428,-10.487146043605396
43,-17.380745189923864,-22.509376520857263,-11.925121810217085,-11.370391360264131
44,-18.421818765069823,-23.69355971900745,-12.716164513441196,-12.230954813434884
45,-19.299777429671526,-24.653944598825834,-13.405485345375865,-13.052342477011294
46,-19.97973921870114,-25.354729488717414,-13.972042359181605,-13.81694688957923
47,-20.429796662865204,-25.765986317658093,-14.397928550867759,-14.506374903245622
48,-20.622479709922423,-25.865153227858073,-14.669377561655855,-15.101863573413926
49,-20.53614870352194,-25.638274191170833,-14.777621103914148,-15.584782523746206
50,-20.156242775503873,-25.08091135073114,-14.719537478284778,-15.93721591585106
51,-19.47631085509657,-24.198671300983246,-14.498041206770212,-16.142611441599996
52,-18.49875866799992,-23.00730593082698,-14.122178042390807,-16.186477496363977
53,-17.23525544788269,-21.5323706444267,-13.606906008047558,-16.057102997011697
54,-15.706758577035266,-19.808446571825968,-12.972560598027535,-15.746267694353934
55,-13.94313239559802,-17.877957387914652,-12.24402005147993,-15.249905205706348
56,-11.98235828571657,-15.789634103980344,-11.44960421473807,-14.5686774761139
57,-9.869355622801587,-13.596701190181992,-10.61975750803767,-13.708418849767543
58,-7.654455913112708,-11.354873135036186,-9.7855820746061,-12.680410903091557
59,-5.3915939572495155,-9.120260918933308,-8.977300220949722,-11.501455538189843
60,-3.1362985687154965,-6.947292036579566,-8.22273422574807,-10.19372302960061
61,-0.9435800080091539,-4.886745486128314,-7.545895143167162,-8.78436289751593
62,1.1341794366835363,-2.9839947970835348,-6.965769217647943,-7.304877833503554
63,3.0492220801845873,-1.2775385148640508,-6.495380665886822,-5.790273701743284
64,4.760192526415307,0.2021204029604355,-6.1411932695379505,-4.278011296344882
65,6.233600360524225,1.4332057413870873,-5.902891836426239,-2.8067974962888558
66,7.444888313633612,2.4029916762265464,-5.77355995578423,-1.4152640476987322
67,8.379048312877112,3.107723342556007,-5.740244771616846,-0.14059073363543106
68,9.030754036554194,3.5521597822183884,-5.7848747507214275,0.9828645647739775
69,9.404007296757653,3.7487830921935297,-5.8854742683496255,1.9248639708660333
70,9.511324861175291,3.716732319496678,-6.017600559019448,2.660452147935196
71,9.372520282626901,3.480531240382194,-6.155914926233257,3.170924418787682
72,9.01315991844615,3.068685318181777,-6.2757916943355845,3.444549979897799
73,8.462792074357216,2.512224930044868,-6.3548655334418775,3.4770110528162896
74,7.753061616071,1.8432695107487065,-6.374420871167488,3.2715324815950844
75,6.9158286933097575,1.0936809875525666,-6.320536207895402,2.8386914691902074
76,5.981408815383447,0.29386520345535944,-6.184911241128998,2.1959129981682595
77,4.977042581337942,-0.5282323129497818,-5.965325115961966,1.3666721732902194
78,3.9256872269617435,-1.3479040779617721,-5.665698693404467,0.37943944259243617
79,2.8451998774578704,-2.1442147810803034,-5.2957605582924625,-0.7335822624311256
80,1.747955231184054,-2.9002895827787025,-4.870343305946164,-1.9378685974347216
81,0.6409102190056793,-3.6033681229941927,-4.40836120967424,-3.1980650668618678
82,-0.47390290192501533,-4.244647604525989,-3.93154073543411,-4.479485362040743
83,-1.5985033232656183,-4.818947686447172,-3.462990332301232,-5.74954184585071
84,-2.7377827236760814,-5.3242364397753015,-3.0257047255922163,-6.9790349941124115
85,-3.898115616744111,-5.761060250440049,-2.641101415901153,-8.143234111709752
86,-5.085867700301897,-6.131921375803785,-2.3276832215667023,-9.222691131458653
87,-6.30591685981854,-6.440645274562804,-2.099910853296965,-10.203742674445628
88,-7.560299378658191,-6.691776217636733,-1.9673541511610015,-11.07867233631178
89,-8.847084231777268,-6.890034566183758,-1.934170749595885,-11.845524375244114
90,-10.159561742791482,-7.03986277010702,-1.9989378572733134,-12.507580311389603
91,-11.485810709535567,-7.145079925737612,-2.154838306241813,-13.072530038970163
92,-12.808681716944044,-7.208656795258071,-2.3901779402807883,-13.551387659460575
93,-14.106205554505408,-7.232614820370585,-2.6891896260620527,-13.957218454981449
94,-15.352406291010178,-7.21804421580635,-3.0330613975691425,-14.30375646584636
95,-16.518470504041343,-7.165228182790272,-3.4011136544543206,-14.604001380314369
96,-17.57419943160317,-7.073853307298565,-3.772043715555255,-14.868888135464712
97,-18.48965096758225,-6.9432808589826855,-4.125155420482634,-15.106122039772018
98,-19.236864986508476,-6.7728505369109,-4.441496519703774,-15.319265666314097
99,-19.791559229452318,-6.562187386314688,-4.704836365038077,-15.507150939874567
100,-20.134684448845395,-6.3114841393788375,-4.902429913286836,-15.663670939615276
101,-20.25373633520833,-6.021734725140729,-5.025530126855032,-15.777981875068837
102,-20.143737295901673,-5.694899737091724,-5.069628590849376,-15.835117931924465
103,-19.807822004032978,-5.333990648722642,-5.034422630471548,-15.816992190065399
104,-19.25738532940672,-4.943066090344993,-4.923525442720125,-15.703727769246743
105,-18.511778029465624,-4.527140108273961,-4.7439526085075565,-15.475236962221759
106,-17.597562787734777,-4.092008727923087,-4.505432398610616,-15.112944494065006
107,-16.547369385011383,-3.644007127733105,-4.219597261016036,-14.60153598622962
108,-15.398411447632888,-3.189714996374348,-3.8991186963520663,-13.930605609714378
109,-14.190747172083867,-2.735631926250547,-3.5568471087037556,-13.096078498305038
110,-12.965381329279676,-2.2878475166584717,-3.205012519882069,-12.101293842174696
111,-11.762314874035349,-1.8517318712186914,-2.8545324940472856,-10.957653069959797
112,-10.618650851418275,-1.4316710100598768,-2.5144617594396665,-9.684763131834828
113,-9.566861016037025,-1.0308683790756177,-2.1916054658377258,-8.31003620888303
114,-8.633306896052591,-0.6512282976927984,-1.890305995111851,-6.867742568965255
115,-7.837092959158158,-0.29333044034459865,-1.6124024041689324,-5.397550733848923
116,-7.1893092036901765,0.04350303060013567,-1.3573522099244866,-3.9426261678448893
117,-6.692697485571771,0.3610534634518385,-1.1224972184532425,-2.547393539193502
118,-6.3417517518806275,0.661977293127133,-0.9034484842972177,-1.2550953199824044
119,-6.123238475300234,0.9495211107870921,-0.6945602695481624,-0.10529858770548185
120,-6.017101331381985,1.227202066236498,-0.48945937874563666,0.8684894149512264
121,-5.997694394159236,1.4984777088196857,-0.28159471547855763,1.6409388532904547
122,-6.035271838936245,1.7664298274459196,-0.06477266548875363,2.1966033291509
123,-6.097649928929665,2.033485540586178,0.16635308231008428,2.5310930626688277
124,-6.151949681462869,2.301195839370347,0.41586361523117166,2.651625644054347
125,-6.1663264060566325,2.5700872534390142,0.6862486454423123,2.5769027306324457
126,-6.111595447587484,2.8395966277210367,0.9781848840110698,2.3363028681484206
127,-5.962671722547646,3.108092631898062,1.290424773785954,1.9684236499467163
128,-8.267114963170118e-11,-7.775382740727968e-12,-1.0279036948708103e-10,-3.2111120584537345e-11
129,-1.7020951377779505e-09,-1.0772071204832106e-10,-1.672924747563013e-09,-1.6579277824262178e-10
130,-1.886764656607844e-08,-1.875060765408162e-09,-1.96463297149831e-08,-2.2774385017790243e-09
131,-1.3750639243459914e-07,-1.848317803754936e-08,-1.4710758918261918e-07,-1.757688669535651e-08
132,-7.50065310626294e-07,-1.2925373670405884e-07,-8.255716945494243e-07,-1.0465855617611902e-07
133,-3.276475571846065e-06,-6.960366587266322e-07,-3.706041360230493e-06,-5.045741753818679e-07
134,-1.198204890002215e-05,-3.0462818433013293e-06,-1.3900045809213686e-05,-2.053537043971371e-06
135,-3.786709500052893e-05,-1.1251552523910555e-05,-4.493702937818352e-05,-7.250805937489149e-06
136,-0.00010593083220158564,-3.606237788906233e-05,-0.00012819013912878532,-2.2673748818134393e-05
137,-0.0002673012294585834,-0.00010248889891638057,-0.00032870308868136836,-6.38235331894243e-05
138,-0.0006177090918046209,-0.00026277095860882844,-0.0007691090232114902,-0.00016387220546848253
139,-0.001323577737025388,-0.0006164272486908462,-0.0016627958729649311,-0.0003880519060444644
140,-0.0026566249867544358,-0.0013386682584099006,-0.0033568843910188953,-0.0008554472866787624
141,-0.005037384568833163,-0.002717790985106024,-0.006385165953179065,-0.0017697162258231425
142,-0.009087488390338195,-0.005201395682977418,-0.011530898306146637,-0.003459843843187617
143,-0.01568995142408632,-0.009450524619660733,-0.019899055913447875,-0.006431627456539381
144,-0.026056050327090508,-0.016400171383855175,-0.032996898078104055,-0.011430290010349594
145,-0.0417966249797919,-0.027324004884957568,-0.05282035332434588,-0.019514389846535665
146,-0.06499465392269849,-0.043900481700369275,-0.08194172847584082,-0.03214075591525764
147,-0.09827471267600589,-0.06827669109503243,-0.12359199795370883,-0.051259220867203435
148,-0.14486349388394837,-0.10312527938653526,-0.18172892922144818,-0.07941421052450644
149,-0.20863417875834608,-0.1516887554317823,-0.26108102043172465,-0.11984783916131728
150,-0.2941264381601916,-0.21780463677988154,-0.3671569599533152,-0.17659640943120547
151,-0.4065335181256067,-0.30590453545033675,-0.5062110081586972,-0.2545696662098266
152,-0.5516484285152494,-0.4209806049047044,-0.6851561725610735,-0.3596003683010173
153,-0.7357627060296199,-0.5685137954755067,-0.9114190042963629,-0.49845103906828786
154,-0.9655134162162138,-0.7543599850472091,-1.1927321785524447,-0.6787652182235943
155,-1.2476767523231647,-0.9845921247718696,-1.536863720962421,-0.9089519815804397
156,-1.5889096024207414,-1.2652990055671378,-1.9512850142871756,-1.1979947439985308
157,-1.9954437228514217,-1.6023440819415116,-2.4427837132145402,-1.5551783003369801
158,-2.4727407220493354,-2.0010908795016586,-3.0170324753366464,-1.9897317921959967
159,-3.0251199209243005,-2.466104598452773,-3.6781296992266665,-2.5103899541267247
160,-3.6553751295615085,-3.0008422403594186,-4.428133669096302,-3.124880711574865
161,-4.364400054104616,-3.607345632195034,-5.266615895247812,-3.839353879258339
162,-5.150844874471441,-4.285952975907402,-6.190262275430921,-4.65777302708167
163,-6.010828031564584,-5.035045076524762,-7.192551595585038,-5.581299990719863
164,-6.937727132301612,-5.850842306001958,-8.263539732443862,-6.607708215247622
165,-7.922071068973152,-6.727267673501131,-9.389774952295896,-7.730866259749221
166,-8.951552042112795,-7.6558899548265265,-10.554365149636523,-8.940335457320698
167,-10.011171320217887,-8.625958456153064,-11.737211963213731,-10.22112524926578
168,-11.083526383048293,-9.624537480067294,-12.915419491143382,-11.553645702958837
169,-12.149239729786911,-10.636743990634175,-14.0638769076172,-12.913889229507989
170,-13.187521331015464,-11.646086642078217,-15.156004776875887,-14.273862902379912
171,-14.176847889234658,-12.63489868117426,-16.16464459197527,-15.602279683251927
172,-15.095733340018073,-13.584851673993283,-17.06306056310807,-16.86550195815578
173,-15.923557081943525,-14.477531888574795,-17.826012720537324,-18.028714765355055
174,-16.641410016963643,-15.295056806927164,-18.430852013628506,-19.057289660492472
175,-17.232914282713924,-16.020705955555606,-18.85858226417926,-19.918284169257497
176,-17.68497107724755,-16.63953831899249,-19.09483139982811,-20.582007359449577
177,-17.98839245165866,-17.138968187103366,-19.130675678918397,-21.023570521947214
178,-18.13837734175475,-17.509272365591606,-18.963265560761123,-21.22433464331553
179,-18.134799139115316,-17.744004059408304,-18.596209991628193,-21.173164368780238
180,-17.98228135818464,-17.840292177111632,-18.039686627681704,-20.86740223096708
181,-17.690048965506985,-17.79900911322885,-17.31025831162295,-20.313487278389545
182,-17.271555203207758,-17.624795210554385,-16.43039050245129,-19.527158651221114
183,-16.743896668069933,-17.32593412481939,-15.427679806495105,-18.533206315735907
184,-16.127042272069918,-16.914080174851954,-14.333819683219899,-17.364756780727383
185,-15.44291364663643,-16.403846174028516,-13.18334508011959,-16.06210939643688
186,-14.714364624767951,-15.812267647259826,-12.012212237815787,-14.671166781484065
187,-13.96411478058487,-15.15816604666732,-10.856282128045482,-13.241529082402586
188,-13.213695942641136,-14.461438945804039,-9.74978468483232,-11.824344394298468
189,-12.482470764400453,-13.742308802342489,-8.72384509124418,-10.470025355237352
190,-11.786778807466597,-13.020563589978774,-7.805152137440484,-9.225953490856531
191,-11.139258471767004,-12.31482253132573,-7.01484200035947,-8.1342974199535
192,-10.548382983292301,-11.641858575794108,-6.3676591831260145,-7.23006782203631
193,-10.018236140925264,-11.01600645172128,-5.871440794850978,-6.539520812011589
194,-9.548539313108273,-10.448681272151154,-5.526951985610744,-6.0790022725723825
195,-9.13492607233663,-9.948027869776443,-5.328080380551685,-5.85429974651872
196,-8.769445807345914,-9.518715284756315,-5.262376905610302,-5.8605374099374625
197,-8.441263703674757,-9.161884189848863,-5.311910556696555,-6.082615827012985
198,-8.137512674637588,-8.875247710098629,-5.454386597553269,-6.496164346288786
199,-7.844244029417458,-8.653338493996822,-5.664462463385626,-7.06894281175135
200,-7.547418491717827,-8.487887617461112,-5.915184346116658,-7.762603065124825
201,-7.233877872101418,-8.368314613635498,-6.179460799294832,-8.534701214861368
202,-6.892240159823784,-8.282303169538816,-6.431488301382404,-9.340839936647136
203,-6.513666661790414,-8.216434068665023,-6.648047765932161,-10.136816576851976
204,-6.092458561635631,-8.156845711031233,-6.809600425675416,-10.880657494588988
205,-5.626451292870604,-8.089892678644837,-6.901125757513388,-11.534431322915264
206,-5.11718776744419,-8.002773971025128,-6.912662137064076,-12.06575267804623
207,-4.569865040242723,-7.884104489426656,-6.839531208242124,-12.44891183900872
208,-3.9930626107951452,-7.724406120864995,-6.682247818028649,-12.665593272749073
209,-3.398273421537217,-7.516498530174153,-6.446137154205407,-12.705174527369547
210,-2.799269900352637,-7.255774658598845,-6.1406980259741495,-12.564624816167598
211,-2.2113464485796515,-6.940351879629123,-5.778765103753603,-12.248047478893833
212,-1.6504860857018302,-6.5710964218270105,-5.375532739174457,-11.765930501933488
213,-1.132502218443074,-6.15152541990716,-4.9475084156265865,-11.134182882497468
214,-0.6722065631349021,-5.687597083670946,-4.511464725566242,-10.373040853800576
215,-0.2826511870109295,-5.18740436992864,-4.083455070249378,-9.505926703109779
216,0.025513284203369308,-4.660790890055421,-3.6779502177021133,-8.558334765516893
217,0.24452952208310266,-4.118909665092907,-3.307141015053343,-7.55680558052214
218,0.369851636667807,-3.573746110496131,-2.980437819903367,-6.528031976935686
219,0.4002768134639332,-3.037626713477071,-2.7041809151712974,-5.498121999772252
220,0.33788897031202686,-2.522734471579365,-2.4815598655564157,-4.492024981779553
221,0.18782403104012144,-2.0406512185422496,-2.312725026753686,-3.533110280036394
222,-0.04212324789669943,-1.6019451828196871,-2.195062554574564,-2.6428745110743277
223,-0.34202181724156966,-1.2158192403837882,-2.1235960093897126,-1.8407434059061627
224,-0.7004197051956648,-0.8898312956947546,-2.0914732318860962,-1.1439293020773895
225,-1.1050103694281013,-0.629693355018331,-2.0904962603047372,-0.5673051021698887
226,-1.5433053687295142,-0.43915071771628944,-2.1116541984282207,-0.12326026505937335
227,-2.0032685348100148,-0.31993796504003275,-2.1456235613605146,0.17848645792744675
228,-2.4738693072422886,-0.2718046242955076,-2.1832073079819656,0.33113030064732984
229,-2.9455178483911313,-0.2926008275443389,-2.215692049042324,0.33107816282907465
230,-3.410351759760327,-0.37841201978610917,-2.235112299996326,0.178284664066649
231,-3.862353411866608,-0.5237316503525666,-2.2344203534214087,-0.12340218696512391
232,-4.297287788675697,-0.7216615476456504,-2.2075694023586476,-0.5659240595103309
233,-4.712462942104824,-0.9641310033426307,-2.1495249290178062,-1.136768011808793
234,-5.106328091538177,-1.2421271376268386,-2.0562242120051986,-1.8188398630555898
235,-5.477937303480142,-1.5459305759705206,-1.9245057308799085,-2.5904970128614813
236,-5.826318555534547,-1.8653516625448738,-1.75202932740139,-3.4257753345854827
237,-6.149797781554156,-2.189963359260859,-1.537204787737114,-4.2948343425706295
238,-6.445334264253833,-2.509327742034036,-1.279141758130476,-5.1646318467379855
239,-6.707926814499031,-2.813213722905625,-0.9776283697612557,-5.999824526427959
240,-6.930149168715621,-3.0918042831726855,-0.6331402284577247,-6.7638750958701
241,-7.101867853580288,-3.3358919451878437,-0.24687593941070285,-7.420330972010187
242,-7.210186527381637,-3.537061201291824,0.17918954755597266,-7.934224807286874
243,-7.239647851073037,-3.6878559891429155,0.6422464797019993,-8.273535182788809
244,-7.172707814382948,-3.7819290568792807,1.1386021243467381,-8.410637323791338
245,-6.990478938289705,-3.8141684526956534,1.6636592772255343,-8.323669595669624
246,-6.673718930042775,-3.7807948698747422,2.211936789812237,-7.997741995839181
247,-6.204021431992273,-3.679422749848608,2.7771441571166724,-7.425917612644461
248,-5.565146886403992,-3.5090783931160274,3.352316825898088,-6.60990654933557
249,-4.744415662571648,-3.270170083524451,3.9300120300646144,-5.560423364623899
250,-3.7340738355743746,-2.9644082745903324,4.502557584322004,-4.297172918610734
251,-2.5325355853466966,-2.5946777542850787,5.062339275712197,-2.8484449365610085
252,-1.1454061108665166,-2.1648677754573544,5.602107267513999,-1.2503141587016338
253,0.4138041305851574,-1.6796698245015147,6.115278899800099,0.45453965692811615
254,2.1233490432510385,-1.1443556033838789,6.596214599426468,2.218359587715605
255,3.9533550571213705,-0.5645497316466591,7.040445041769077,3.990136715413856
256,-8.653937700976372e-11,-4.501921250865342e-11,-9.779789968641786e-11,-2.5933534826524284e-10
257,-1.2243230052290573e-09,-6.495533287237946e-10,-2.094543169039771e-09,-1.5820609830830515e-09
258,-1.4412125325893098e-08,-7.426803574841503e-09,-2.325347175603971e-08,-2.035047996386313e-08
259,-1.0667229071161781e-07,-5.453507315596303e-08,-1.7085366329046988e-07,-1.46675837028265e-07
260,-5.945275578989122e-07,-3.013017812224655e-07,-9.415317886328507e-07,-8.014178334018466e-07
261,-2.6604714779622938e-06,-1.3369862577385925e-06,-4.163931117261742e-06,-3.514192448898152e-06
262,-9.984431925040589e-06,-4.978572323934541e-06,-1.5443213987277097e-05,-1.2918428001843267e-05
263,-3.2417478599651357e-05,-1.6051785380760846e-05,-4.955150998076869e-05,-4.110666619875341e-05
264,-9.319399825399783e-05,-4.587082610536811e-05,-0.00014078810689331338,-0.0001159258622295983
265,-0.00024155067678719176,-0.00011833123132795803,-0.00036067585445211174,-0.0002951813977941184
266,-0.0005727101028866332,-0.0002796499697810417,-0.0008452448877448009,-0.0006888132633868893
267,-0.001256943084212652,-0.000612837557586206,-0.001833503780461412,-0.001491065858456129
268,-0.002578803056096601,-0.0012579694347883271,-0.003717631676019846,-0.003024305238119466
269,-0.004986741883193354,-0.002439255042652622,-0.007104236269066783,-0.005795645025669667
270,-0.009152228947902883,-0.004499723181458224,-0.01288501624417375,-0.010566715989000724
271,-0.016036333839504778,-0.007943993573861522,-0.02231448076176643,-0.018435919899650134
272,-0.026960513022812643,-0.013489024209926185,-0.03709189188369783,-0.030931120350121525
273,-0.04367710237596475,-0.02212196451984273,-0.05944400327515944,-0.050109123660539136
274,-0.0684337761152684,-0.035163404735979835,-0.09220416523546082,-0.07865636649436984
275,-0.10402504367696745,-0.05433352073163568,-0.13888185902866584,-0.11998316800997069
276,-0.15382291070451226,-0.08181786539197934,-0.20371492646261746,-0.178301905807058
277,-0.22177830777279442,-0.1203287614711042,-0.2916951534223007,-0.258677738973361
278,-0.3123850511441555,-0.1731572766688027,-0.4085570387382879,-0.36703952486220653
279,-0.43059905585479874,-0.24420963773404328,-0.560720011190565,-0.5101384985419585
280,-0.5817073833218372,-0.3380208846068902,-0.755176265565094,-0.6954435292782561
281,-0.7711444314242167,-0.45973791986324986,-0.9993196419450857,-0.9309641998049119
282,-1.0042561374665002,-0.615064216926946,-1.300715147728694,-1.2249966499989724
283,-1.28601729519906,-0.8101594805144428,-1.6668132184840325,-1.5857916904475906
284,-1.6207117269490463,-1.0514895070095807,-2.104617034775461,-2.021150092813353
285,-2.011589735379779,-1.3456241777992566,-2.620314729075811,-2.5379559499060167
286,-2.4605214859608564,-1.6989846947648104,-3.218890973129471,-3.1416653911227623
287,-2.9676682904043568,-2.11754457378556,-3.9037343689185366,-3.8357744397663565
288,-3.531195682412786,-2.6064923911309705,-4.676258566186355,-4.6212956304338375
289,-4.147052405051466,-3.1698677310274066,-5.535556329906274,-5.4962775949621445
290,-4.80883775849907,-3.8101851613968867,-6.478106814692685,-6.455404267409061
291,-5.507776260118106,-4.528064289998446,-7.497556644152463,-7.489710339686429
292,-6.232813387309676,-5.321886820345767,-8.584594393666528,-8.586446679481947
293,-6.970839614483318,-6.187503719520655,-9.726935201645853,-9.729123774497559
294,-7.707042290676291,-7.118016669800111,-10.90942734760984,-10.897752839285339
295,-8.425376524178265,-8.103657465124922,-12.114286120186504,-12.069293511282943
296,-9.109137619859082,-9.131786585111769,-13.321452924923607,-13.21830444036834
297,-9.741609346338107,-10.187027747686914,-14.509070254569872,-14.317779450948102
298,-10.306755131285172,-11.251548941221406,-15.654056620458888,-15.340138343437806
299,-10.789913865067822,-12.305492632203638,-16.73276027882391,-16.258328823251865
300,-11.178458996087425,-13.32754898404243,-17.721666740696808,-17.046985634936373
301,-11.462379425575845,-14.29565654428804,-18.598132585793323,-17.683585300739008
302,-11.63474361112711,-15.18780555733736,-19.341116906960984,-18.149530697034297
303,-11.692014192659764,-15.982910499378852,-19.931881688171107,-18.43109940865576
304,-11.634189131704156,-16.661711312736344,-20.354633495740917,-18.520194120928924
305,-11.46475626468799,-17.207657725206946,-20.597080980341612,-18.414842394960946
306,-11.19046063180973,-17.607728420642555,-20.65088581733208,-18.119407064686936
307,-10.82089701747256,-17.853136905130317,-20.511988826710972,-17.64448613997495
308,-10.367952776359928,-17.939878821172915,-20.180798051212502,-17.006501147150697
309,-9.84513716508381,-17.869081238237996,-19.66223135137209,-16.226993324354524
310,-9.266842065096352,-17.647123087945314,-18.965612267955187,-15.33166621714848
311,-8.647584479015384,-17.28550721169657,-18.10442405380841,-14.349229588906589
312,-8.001283004330483,-16.80047799696953,-17.09593241534443,-13.31011196409178
313,-7.340618480754022,-16.212393505386906,-15.960692281225436,-12.245117080940775
314,-6.676523190822341,-15.544876297874543,-14.721957690596247,-11.184102443729838
315,-6.017833730507904,-14.823781671931643,-13.40501673408518,-10.15475600870723
316,-5.371130509349271,-14.07603459334543,-12.03647551388518,-9.181539598382697
317,-4.740772662532798,-13.328396294080903,-10.643516354480747,-8.284855390240864
318,-4.129122053548897,-12.606227611813036,-9.25315587585685,-7.480475322296715
319,-3.5369352594870085,-11.932318229124625,-7.891527886756931,-6.779253806439173
320,-2.9638892565469956,-11.325848745558307,-6.5832143284514,-6.187123324516976
321,-2.4091959760187693,-10.801545912090592,-5.350644858169701,-5.7053520121382135
322,-1.8722537450907524,-10.369080559517839,-4.213582367803646,-5.331024130274513
323,-1.3532802321384065,-10.032743393947984,-3.1887080446761735,-5.05768975806758
324,-0.8538721365050398,-9.791416944990859,-2.289315664467737,-4.876120554172639
325,-0.37744153679901066,-9.638843841827132,-1.5251207769438389,-4.7751046677270255
326,0.07051252003784393,-9.564173558040995,-0.9021863834553228,-4.74221634933639
327,0.4823264018868196,-9.55275293760845,-0.422962662442592,-4.764504051782043
328,0.8483025239739755,-9.587111162277706,-0.08643426497677942,-4.829054071935479
329,1.1570461191287211,-9.648078171540455,0.11163534128740735,-4.92340348266696
330,1.395989710668194,-9.715967671972715,0.17837692907577027,-5.035794383232233
331,1.5520721217896003,-9.77175236878817,0.12342385839801087,-5.155279460688224
332,1.6125270689831783,-9.798160296127643,-0.041524026917569554,-5.271704550137593
333,1.5657284218648906,-9.780627113466451,-0.30315991713434665,-5.37560610779434
334,1.402035563058441,-9.70804962032865,-0.6470329454088001,-5.458069177524172
335,1.1145829277119441,-9.573299769094296,-1.0579969635754585,-5.5105942798825165
336,0.6999624544987599,-9.373475101904807,-1.5206309798037074,-5.525019382334223
337,0.1587557104477467,-9.109879543538883,-2.0196204557160025,-5.493536096618352
338,-0.5041168700620785,-8.787746486130212,-2.540091688083167,-5.408827759699332
339,-1.2792497769736488,-8.415732742966776,-3.067894121319183,-5.264342053028467
340,-2.152816207586141,-8.005225968839301,-3.5898279196412886,-5.054693264175873
341,-3.1068358459168155,-7.5695185810523435,-4.093816736228028,-4.776170794014268
342,-4.1196289533141615,-7.122907466519011,-4.569028301361486,-4.427312866336508
343,-5.16642952542003,-6.679780690284644,-5.005947820352637,-4.009489530799885
344,-6.220123578788243,-6.253750223287244,-5.396410714755485,-3.5274290544281217
345,-7.252075143665148,-5.856883829712788,-5.733601687576129,-2.9896180037690288
346,-8.23300229252853,-5.499080211515713,-6.01202657010777,-2.4085087367681703
347,-9.133868089121034,-5.187619909754836,-6.22746234188869,-1.8004784194584202
348,-9.92675601780385,-4.9269110027569125,-6.37688955904014,-1.1855004335882038
349,-10.585705326375868,-4.718434217413148,-6.458410445562816,-0.5865105717211693
350,-11.087487875463237,-4.560877762591947,-6.471155149392562,-0.02847516236522161
351,-11.412313752263474,-4.45043917827917,-6.415178090907357,0.46280580265636845
352,-11.544457411411347,-4.381260889755557,-6.291345965232192,0.8621024100373482
353,-11.472799023659581,-4.3459587818528185,-6.101218960568843,1.146285198677276
354,-11.191276688545788,-4.336199400904836,-5.846927355545279,1.2958849962188046
355,-10.699244127968324,-4.343281300645315,-5.531046975882601,1.2965748175704246
356,-10.001725571261058,-4.358679173612129,-5.156478894736487,1.1404641610229338
357,-9.109555345007927,-4.3745151053205715,-4.726340834900826,0.8271018705774569
358,-8.039385108498632,-4.3839289111166995,-4.243879391782044,0.3640975212048745
359,-6.813537887604143,-4.381328472040522,-3.7124128777074685,-0.23270796772261704
360,-5.4596863321717,-4.3625107870351565,-3.1353138963645435,-0.9395650002915826
361,-4.0103339861349445,-4.324654576292971,-2.5160385616400816,-1.7256425575295993
362,-2.5020835401384436,-4.266195078749931,-1.8582056918244612,-2.5543373527806468
363,-0.9746851465183842,-4.18660044418561,-1.1657246601944362,-3.385007746292309
364,0.5301294489563847,-4.086076039128556,-0.44296530619832736,-4.175042859338418
365,1.970005860237996,-3.9652274557196137,0.305042095177465,-4.882149503127143
366,3.303481206361845,-3.8247147141724525,1.0723938566700857,-5.466718901125651
367,4.491598751019225,-3.6649291859034383,1.8521081753346134,-5.894123498649995
368,5.499553143200737,-3.48572152030312,2.6359529467524228,-6.1367928538646455
369,6.2982843328195655,-3.2862038947028025,3.414331616558707,-6.175926897077523
370,6.86593084662282,-3.064643742142726,4.176251803023146,-6.002724476944292
371,7.189051453951488,-2.8184592093764413,4.90939834834624,-5.6190336624985715
372,7.263529078666442,-2.5443193088249902,5.600327063994388,-5.037366009292691
373,7.095082320430172,-2.2383443773674307,6.234787953821207,-4.280257439375637
374,6.699327941608705,-1.896395349273963,6.7981775601848895,-3.379000858789628
375,6.1013613816964165,-1.5144338194444718,7.276109860108859,-2.3718174071916804
376,5.334850533840553,-1.0889293089096874,7.655084482005695,-1.3015713435501306
377,4.44066878326309,-0.617285933908801,7.923220606020727,-0.21316559060143628
378,3.465124347564692,-0.09825819947103566,8.071015535640248,0.8492214871600112
379,2.4578717056785426,0.46767489062610257,8.09207949467282,1.8448839440577403
380,1.4696148618299247,1.0780067200864563,7.983793725168295,2.7391441044055767
381,0.5497292339786835,1.7279968569730566,7.747838373030582,3.505548605938274
382,-0.25606248383766084,2.410582614502832,7.390540568104925,4.127556743044541
383,-0.9078259600417147,3.116422830331644,6.923001615230549,4.599603198912027
384,-9.654200459506976e-11,-1.2712590005330733e-10,-7.83602885371658e-11,4.768870536850552e-10
385,1.2443609110776875e-09,-2.1257662700681505e-09,-1.3843916499978966e-09,7.065029405138879e-10
386,1.1380882711802403e-08,-2.4002971478324906e-08,-1.668779526704951e-08,1.2265018440083939e-08
387,8.223113998467722e-08,-1.7460631974010405e-07,-1.2887080666147505e-07,9.537019562587527e-08
388,4.3422474369224867e-07,-9.536720987460317e-07,-7.429968555985922e-07,5.270258838138172e-07
389,1.824023548818723e-06,-4.178100663965382e-06,-3.414739666903306e-06,2.344249414780225e-06
390,6.343712148130867e-06,-1.5343119025877762e-05,-1.3069482463907826e-05,8.674117194976712e-06
391,1.8820672056357406e-05,-4.873516107442818e-05,-4.298491311914701e-05,2.758199186782513e-05
392,4.8667831838488655e-05,-0.00013708009859766235,-0.00012440768236538928,7.711449239341198e-05
393,0.00011142356870176733,-0.00034777099177977654,-0.00032287223560346115,0.00019301780249337947
394,0.00022840724769707886,-0.0008076162190920136,-0.0007630119394320223,0.000438766200368079
395,0.0004221063083728975,-0.0017376140122877899,-0.0016629785082553999,0.0009163455931234879
396,0.0007045386381508902,-0.0034985598677239123,-0.003378714365465711,0.0017749461843943647
397,0.0010559672571017226,-0.006647507370948169,-0.006457516027840401,0.0032135326101773156
398,0.0013921158022364773,-0.012004277858141812,-0.011699652630849372,0.005472898263828625
399,0.0015191046862226408,-0.02072637641232279,-0.02022619633856587,0.008812959825331264
400,0.0010765839225698411,-0.034389686493969486,-0.03355046360082501,0.013472003810272321
401,-0.0005293482840702528,-0.05507110419323195,-0.05364941164932719,0.01960555722198757
402,-0.004200774312092274,-0.08542775002263212,-0.0830299757461157,0.02720366976408506
403,-0.011226466541326295,-0.12876567066815453,-0.12478385517614332,0.03598613856220124
404,-0.02335942418736164,-0.1890892739994489,-0.18262303484132295,0.04527627019548336
405,-0.04288720142875152,-0.2711215036114423,-0.26088773441970675,0.053855133754308955
406,-0.07268726379441035,-0.38028439678426584,-0.36451882947502673,0.05980068553876236
407,-0.11625813857127082,-0.522630443035516,-0.49898815295069904,0.06031951333193032
408,-0.17771625124561571,-0.7047172017080358,-0.6701823541696801,0.051582988165026246
409,-0.26174840423867524,-0.9334207857340795,-0.8842388663746006,0.02858380452354157
410,-0.37351137869774637,-1.2156878477579198,-1.1473357533725506,-0.014968055445476337
411,-0.5184731301825805,-1.5582302708747147,-1.46544056649055,-0.08668937010668662
412,-0.7021944673779563,-1.9671716286988146,-1.844026738795875,-0.19548809099352976
413,-0.9300554651932583,-2.447659382124147,-2.287769359966088,-0.3514313571299899
414,-1.2069366417376095,-3.003461472071468,-2.800235157746447,-0.5655052754530027
415,-1.5368706282802098,-3.6365701171904594,-3.3835838590420546,-0.8492606456761486
416,-1.922685057457462,-4.346838733500204,-4.038299483271775,-1.214345992176528
417,-2.3656613714876045,-5.131679477128498,-4.762970367384715,-1.671936978588231
418,-2.8652366678361423,-5.985848500726846,-5.55413571637734,-2.232079783361685
419,-3.418776364108053,-6.901343425562771,-6.406214158808192,-2.9029748348614075
420,-4.021443990237427,-7.867432744958603,-7.311526044457682,-3.6902360207941074
421,-4.666190809627833,-8.870830132134229,-8.260416078498869,-4.596168553348367
422,-5.343882062812607,-9.896018209591155,-9.241476566263305,-5.619114744340264
423,-6.04356866357763,-10.92571666801734,-10.241864588537238,-6.752920396583738
424,-6.752903314841643,-11.941479210083033,-11.24769953885585,-7.986573952288608
425,-7.458688808455041,-12.92439330007104,-12.244521310471344,-9.304065850483363
426,-8.147534429781357,-13.855847014539187,-13.217784591903012,-10.68450622309944
427,-8.806584787176037,-14.718319354819963,-14.153361574894689,-12.102525984837204
428,-9.424275265237524,-15.496145202105913,-15.038024172467795,-13.528969964769756
429,-9.991060701541546,-16.176204413011742,-15.8598776953124,-14.931872243407996
430,-10.500060020416027,-16.748486865106024,-16.608720869318205,-16.277684356797632
431,-10.947560065163795,-17.20649158559995,-17.276311909297267,-17.532707468796662
432,-11.333327266302287,-17.54742811455979,-17.856526778007442,-18.664661611028624
433,-11.660685837147792,-17.77220120849558,-18.34540324711181,-19.6443095837356
434,-11.936335526825276,-17.88517492651249,-18.741072341903624,-20.447042009424163
435,-12.169899574646397,-17.89372790533104,-19.04358657899162,-21.05432422801212
436,-12.37321338135577,-17.80762705394698,-19.254661494604775,-21.454906671280767
437,-12.559385140488638,-17.638260864845858,-19.377352848102234,-21.645708046016637
438,-12.741679806848728,-17.39778495719359,-19.415696151313785,-21.63229541151318
439,-12.932295813368016,-17.098240433012375,-19.374337518612965,-21.428905969349536
440,-13.141118160950223,-16.750709335157453,-19.25818495183999,-21.057981437983692
441,-13.374540520561258,-16.36457047654902,-19.072106890084946,-20.54921563521987
442,-13.634451430884322,-15.946912954284794,-18.82070008539134,-19.938147631348823
443,-13.917474956803773,-15.502154030165036,-18.508141847219736,-19.264364620499805
444,-14.214544058148121,-15.031893342851443,-18.13813299321799,-18.569407663195346
445,-14.510866110430522,-14.535017674371376,-17.713928436115587,-17.894497599713606
446,-14.786315487376005,-14.008051042553582,-17.238443436278477,-17.278215059180713
447,-15.016259518079833,-13.445725333726,-16.714416317532926,-16.754276512420756
448,-15.17279318244605,-12.84172870010704,-16.14460372967215,-16.34954658684142
449,-15.226326772925434,-12.189574110375613,-15.531982624145366,-16.082415934559695
450,-15.147441688379388,-11.483520137514557,-14.87993382456295,-15.96165404548709
451,-14.9089047854918,-10.719471183944576,-14.192384911041312,-15.985819070100087
452,-14.48771354060584,-9.89578532479129,-13.473894592603768,-16.143273033026656
453,-13.86703426359108,-9.013924633133662,-12.729666365663268,-16.41281286454935
454,-13.037895062717661,-8.078894683794262,-11.96548576508016,-16.764887668739966
455,-12.00050453277679,-7.099435893767652,-11.187582626490164,-17.163333021862098
456,-10.765086126048805,-6.087948162375526,-10.40242716592123,-17.567517101962334
457,-9.352145738799171,-5.0601503286940295,-9.61647586764531,-17.93476355785938
458,-7.792124639269341,-4.034495593261372,-8.835889420434304,-18.22289533486064
459,-6.124429138200689,-3.031381694570385,-8.06624936805683,-18.392733777678284
460,-4.395869703307096,-2.072208956370876,-7.31230179277138,-18.41038981063624
461,-2.6585827201447447,-1.1783494201833653,-6.57775466008606,-18.2491983668988
462,-0.9675447756033714,-0.3700955033302913,-5.865150434631258,-17.89117276344528
463,0.6221804166858792,0.33434328422985005,-5.175828005833037,-17.327889770589522
464,2.0583009962532173,0.9197320879084654,-4.509979030146764,-16.560756273688266
465,3.294089513263403,1.3745372066337331,-3.8667947723187774,-15.600651360168602
466,4.290937334051426,1.6914472735659458,-3.244691350643601,-14.466980410802003
467,5.020511099926536,1.8676652932999929,-2.6415944625283423,-13.18621772364564
468,5.466374078908077,1.9049650023729088,-2.055259417152434,-11.790048460210157
469,5.624967010365536,1.809521777915879,-1.4835987540597717,-10.313247494446308
470,5.5058820702198386,1.5915430677288303,-0.9249881876134717,-8.791449724804812
471,5.131407348120594,1.2647349593077142,-0.37852248514689174,-7.258972589480116
472,4.535364879645726,0.8456492625531917,0.15580346795959593,-5.74684563681709
473,3.761309752659395,0.35295905142430156,0.6770068194419648,-4.281184575179665
474,2.860197840840445,-0.19328999149213702,1.183132081792676,-2.8820189286756244
475,1.8876625674075806,-0.7724094033562247,1.6713701449808165,-1.5626459031769286
476,0.9010643184762812,-1.3637432740282005,2.138272108283451,-0.32954099879669135
477,-0.04351166619454886,-1.9472628264401073,2.5800406758149412,0.8171879140388169
478,-0.8941326781726934,-2.5040644304282926,2.9928750067711216,1.882858320712693
479,-1.605605966008413,-3.016765622361777,3.373339927283096,2.8768748445982264
480,-2.1416325628514805,-3.4698030366971517,3.718727640935608,3.8111161464608423
481,-2.4764142363663875,-3.849643601495578,4.027379801354439,4.698186995767748
482,-2.5956372428121433,-4.1449252595143795,4.298940242069274,5.5496831059484935
483,-2.4967973219368185,-4.346545587034025,4.534513693968999,6.374612631877465
484,-2.188871963137539,-4.447716007231099,4.736713091542314,7.1781034812343965
485,-1.6913855405583533,-4.443996244737864,4.909586910859982,7.9605015499081215
486,-1.0329477271821186,-4.333318830030963,5.05842759143857,8.716933097205489
487,-0.2493737044816883,-4.1160076310858065,5.189471639267748,9.43736724075015
488,0.6184855112237334,-3.794788396716885,5.309510692717851,10.107174625935693
489,1.5270634777614913,-3.3747839196638214,5.425440039374545,10.708138560933138
490,2.4324088645619457,-2.863482360791688,5.543776281699535,11.21983886132138
491,3.292393001642754,-2.2706649485964188,5.670178733054078,11.621298868961308
492,4.068677091609843,-1.6082789737713217,5.809009441237234,11.892765476172706
493,4.728344250034662,-0.8902437501221241,5.962964471703032,12.017481606832144
494,5.245128974354827,-0.13218091379725316,6.132804389361978,11.98331152689756
495,5.600206592538146,0.6489342731243296,6.3172051700086955,11.784090778805655
496,5.782535291361799,1.435197522592508,6.5127425650682635,11.420593798772707
497,5.788771295120949,2.208266030273441,6.714013865900184,10.901041203317392
498,5.622801721732419,2.94989823227073,6.913891722820826,10.241103486790779
499,5.294958421316081,3.6425204050084603,7.103895841798009,9.463395601345669
500,4.820988798203244,4.269793560174765,7.274660685854296,8.596494734103985
501,4.220866112212782,4.817151995918499,7.416471259188109,7.673548724158082
502,3.5175220922048096,5.272285144443275,7.519835003739383,6.73057173991527
503,2.735579605969953,5.625536971338651,7.576055861520574,5.804545175059547
504,1.9001534194369205,5.870201899039596,7.577776598134545,4.931453301213324
505,1.0357741141777956,6.002702510604771,7.51945736429452,4.144385055427616
506,0.16547528373336082,6.022641551976544,7.397762084037126,3.471825456404133
507,-0.689931339122628,5.932728289999413,7.211829484080442,2.93624406915607
508,-1.5123829735689451,5.73858651059154,6.963412321680418,2.5530647415577117
509,-2.286898425918951,5.44845780940925,6.656876339047305,2.330072470844682
510,-3.0017304793502197,5.07281895134886,6.299059156852115,2.267281544743383
511,-3.64836045757526,4.623935704999313,5.898997985857599,2.357256255774028
512,-8.761475030174653e-11,-4.093736704148321e-11,-6.414140297988525e-11,-6.758628752427654e-11
513,-1.6949571701351627e-09,-9.135530757486449e-10,-1.3705793734075274e-09,-1.1219328304308003e-09
514,-1.8995293047131874e-08,-1.038242953825835e-08,-1.4911655106014846e-08,-1.2562932799730276e-08
515,-1.3904957372670234e-07,-7.82411259804505e-08,-1.0769492394278342e-07,-9.21622874668261e-08
516,-7.631275958523869e-07,-4.419274507481893e-07,-5.843993791021765e-07,-5.059270205966713e-07
517,-3.357593074302949e-06,-2.00173838995458e-06,-2.5502661017560977e-06,-2.2284371311308287e-06
518,-1.2378186982974464e-05,-7.597234087971621e-06,-9.353261710570428e-06,-8.221491572106076e-06
519,-3.946313072418932e-05,-2.492140852621937e-05,-2.973930355988352e-05,-2.619894004684613e-05
520,-0.00011141681479407385,-7.231868592703759e-05,-8.38919046305687e-05,-7.378337069963094e-05
521,-0.00028380686008011146,-0.00018904087566119334,-0.00021374097087290109,-0.00018696674093007576
522,-0.0006620651989764281,-0.00045164744512033817,-0.0004988997308735963,-0.0004325093506084983
523,-0.00143178957255432,-0.00099806087321176,-0.0010793012207270622,-0.0009244264319090601
524,-0.002899447981887816,-0.002060349737344955,-0.002185158671753391,-0.0018442209889899855
525,-0.005543881273005697,-0.004006714036408502,-0.004174452733845121,-0.0034642405926125787
526,-0.01007784621388139,-0.00739249129722117,-0.0075778921299807685,-0.006173559159057731
527,-0.017517400980751448,-0.013019321892625006,-0.013151181648471134,-0.010505963595237304
528,-0.029255360290879613,-0.022000850059116894,-0.02193426615059659,-0.01716968079279038
529,-0.047133552070921264,-0.03583239673710825,-0.0353167378915808,-0.02707819480139842
530,-0.07350739265755761,-0.0564608681693323,-0.055107606112909636,-0.04138086279654503
531,-0.11129543086625657,-0.08634982229508115,-0.08360610895782297,-0.061491291053182184
532,-0.16400599817272424,-0.12853329092917284,-0.12366836134036129,-0.08911091134512927
533,-0.23573290913816508,-0.18665091384554922,-0.17876271281168693,-0.1262451272888929
534,-0.3311123649141365,-0.26495644529912266,-0.25300518855910686,-0.17520980163440994
535,-0.45523399145631493,-0.368291935843205,-0.35116574528231054,-0.23862652135566498
536,-0.613500563499587,-0.5020209574345621,-0.4786365633580543,-0.31940571650886834
537,-0.8114336270175455,-0.67191609934058,-0.6413551944504355,-0.42071708812068437
538,-1.0544260088263897,-0.8839985014405152,-0.8456777915366237,-0.5459468289882644
539,-1.3474469078253508,-1.1443302408426002,-1.0982004365590088,-0.6986409230232767
540,-1.694710492251935,-1.4587637620072662,-1.405529403748752,-0.8824336230173
541,-2.0993241342706828,-1.8326560589384624,-1.7740039301940231,-1.1009602736223012
542,-2.5629370121358432,-2.2705588089868716,-2.209377818438352,-1.3577541305723844
543,-3.085413334481641,-2.7758989382127606,-2.716469182692284,-1.6561277030786759
544,-3.6645565263169755,-3.350666938485069,-3.298791032812717,-1.9990402723973153
545,-4.295911134647519,-3.995132363697802,-3.958179135495175,-2.388954355889078
546,-4.972667763657457,-4.707606965909208,-4.694437392542119,-2.827684772784121
547,-5.685692916556358,-5.484275568757044,-5.505024248820121,-3.316244573506702
548,-6.423700149405486,-6.319112790971786,-6.38480563944899,-3.854692644425069
549,-7.173571576320747,-7.203900081173549,-7.325900002461752,-4.441988714544123
550,-7.9208298366797365,-8.128352369356087,-8.317638459836465,-5.075863145665601
551,-8.650250700299448,-9.080357329688455,-9.346658329249285,-5.752711248842457
552,-9.3465962324882,-10.046323236503019,-10.397141007340034,-6.467524408856457
553,-9.99543859999543,-11.011624158895932,-11.451196675241357,-7.213872184101594
554,-10.584035887733506,-11.96112425522644,-12.489389166594558,-7.983949995335421
555,-11.102214283012627,-12.87975670349799,-13.491385638547603,-8.76870563864389
556,-11.543206076959411,-13.75312789718461,-14.436708009310198,-9.558054653177805
557,-11.904390322536225,-14.568114499387233,-15.305556581386298,-10.341189854148883
558,-12.187882842514606,-15.313420194477503,-16.079670600995588,-11.10698445592264
559,-12.400924866202315,-15.98006065580741,-16.743185502047922,-11.844481511514697
560,-12.55602537488417,-16.561749216107472,-17.283442534858516,-12.543455167780474
561,-12.670821688901503,-17.05516160586356,-17.691704284234127,-13.195021821769712
562,-12.767636018770718,-17.460065435229367,-17.963730409641457,-13.792272052708979
563,-12.872722013999235,-17.77930838234628,-18.100172591904585,-14.33088760896135
564,-13.01521352110372,-18.01866793369886,-18.10675605222647,-14.809702201340986
565,-13.225806161784744,-18.186574587436517,-17.994226067743437,-15.231160905410572
566,-13.535219406379817,-18.29372904876327,-17.778050136066696,-15.601631389989254
567,-13.972501455510605,-18.352641192071278,-17.477878608880765,-15.931521955737587
568,-14.563250965433355,-18.37712340300723,-17.11677823124268,-16.23516750736712
569,-15.327838501854536,-18.381772590574112,-16.720264210453827,-16.530455635734523
570,-16.27971675310623,-18.381473513832756,-16.315167361821114,-16.83818072401606
571,-17.423911945520278,-18.39095155813644,-15.928383201107469,-17.18113327681874
572,-18.755789081315314,-18.424396530330597,-15.585558580863147,-17.58295270591193
573,-20.260179764243688,-18.495171241443977,-15.30977730568603,-18.066792510455233
574,-21.910952660559932,-18.61561024574896,-15.12030812694695,-18.653865183015068
575,-23.671092582726395,-18.796905605202507,-15.031476425831674,-19.36194877614752
576,-25.493334742749674,-19.049068514737616,-15.051715362725405,-20.203946954718013
577,-27.321376387266927,-19.380948888869366,-15.182844289352982,-21.18659907734693
578,-29.091659742960594,-19.800290657973324,-15.419612613990827,-22.309435970635235
579,-30.735689419646267,-20.31379957881984,-15.7495365345232,-23.56407004193214
580,-32.18281596415844,-20.92720336258092,-16.153044348580412,-24.933894606330263
581,-33.363387060889195,-21.645290652104688,-16.6039337222619,-26.394246562794415
582,-34.212140649891886,-22.47192498113337,-17.070131833686073,-27.913059329127783
583,-34.67169124978411,-23.41004113262728,-17.51473727164871,-29.45200067266026
584,-34.69594302830138,-24.46164305364819,-17.8973114580307,-30.96805506655377
585,-34.25325164129953,-25.627833562353647,-18.17537749418594,-32.415475451934796
586,-33.32915285160627,-26.908915534385493,-18.306075831130812,-33.747998129848405
587,-31.928480969775237,-28.304611268481256,-18.247919007536986,-34.92119006616882
588,-30.076715736091128,-29.81445059747515,-17.962581884597853,-35.89478263153998
589,-27.820423289041894,-31.43837836455365,-17.416659569616733,-36.63484109338783
590,-25.22669521503739,-33.17762741702109,-16.583323172906915,-37.11562535019244
591,-22.381537926066283,-35.035893478387045,-15.443804523233142,-37.32101388759259
592,-19.38722025343404,-37.02083231049127,-13.988645644656222,-37.24538871583985
593,-16.358646872851423,-39.145876916721846,-12.218657230641702,-36.89391271949495
594,-13.418885279401843,-41.43234340043825,-10.145541811922385,-36.282170624938814
595,-10.69403066400953,-43.911759946856066,-7.792150493837196,-35.43518824667791
596,-8.30764241614777,-46.62831696932064,-5.192355655940887,-34.38588877399368
597,-6.375024599475069,-49.64130125335939,-2.39053494342836,-33.173086201098684
598,-4.997647538263729,-53.027346441619926,0.5593259343957926,-31.839151192070638
599,-4.258016153171873,-56.88230923968164,3.594892166752123,-30.4275107563071
600,-4.215281137062915,-61.322567132273655,6.647068780660053,-28.98015773971947
601,-4.901860651570953,-66.48553023507543,9.641874608158291,-27.535347757195925
602,-6.32129325317446,-72.52916788163155,12.5025427559533,-26.12564910198849
603,-8.447478952545223,-79.63037044677829,15.15177636597425,-24.77648580156995
604,-11.225387937063093,-87.9819997467815,17.51407857765943,-23.50527699057375
605,-14.573230324203067,-97.78852812154375,19.51807040481678,-22.321229995162412
606,-18.38599123958525,-109.2602274373967,21.098710819382433,-21.22579360585216
607,-22.54014988214322,-122.60594402223073,22.19933958028525,-20.213725959877014
608,-26.899325267930582,-138.02458159636282,22.77347405420625,-19.274682212011534
609,-31.32053057966592,-155.6955074488124,22.78630468464143,-18.39518446716828
610,-35.660677077272894,-175.7681917350398,22.215848191034958,-17.56080370066274
611,-39.78295059808977,-198.35147912886035,21.053731810197956,-16.758363462665912
612,-43.562690479757315,-223.50296911485324,19.305595287594727,-15.977970074122013
613,-46.89243215454709,-251.21903928997472,16.99110968441856,-15.214684529013152
614,-49.68582886764162,-281.42607940188327,14.143623391720908,-14.469676854056589
615,-51.880241574192745,-313.973508025015,10.809456020257656,-13.750742397429493
616,-53.43787439804645,-348.6291157993598,7.046869866475873,-13.072108642903498
617,-54.345430259037855,-385.0772176849828,2.924756044361706,-12.453517143730354
618,-54.61236064718397,-422.9200020829331,-1.4789223497023474,-11.918623995277864
619,-54.26787774884439,-461.68233914065905,-6.078884806045785,-11.49281956665797
620,-53.35697897031602,-500.8201582634132,-10.784439956068514,-11.200619603291406
621,-51.93579698427324,-539.7323320203922,-15.501499737682462,-11.062821278329011
622,-50.06662790112677,-577.7758185193258,-20.13465935276107,-11.093645891194832
623,-47.81300327612909,-614.2836269706701,-24.589304155141818,-11.298102148476096
624,-45.235157821847054,-648.5849929173417,-28.773707237549573,-11.669798746577053
625,-42.38620545767818,-680.0269923772821,-32.60108314917065,-12.189411980673725
626,-39.30927503478702,-707.9966994819995,-35.991563389162586,-12.823974368199599
627,-36.035778567960485,-731.942910246793,-38.874057890209954,-13.527096354867567
628,-32.584895020926055,-751.3964236093288,-41.18796384172886,-14.240168902794226
629,-28.964258365789416,-765.9878942410581,-42.88467955526435,-14.894524921091424
630,-25.171746879803486,-775.4623504058064,-43.928877635627806,-15.41446727433958
631,-21.198188429166574,-779.6896008548175,-44.2994896501941,-15.721005651369044
632,-17.030730085874655,-778.6699303499905,-43.990354932136086,-15.736088718497806
633,-12.656574750877704,-772.5346939743945,-43.010490065983696,-15.387075858117601
634,-8.06676569311242,-761.5416540295398,-41.38394359958287,-14.611167652086815
635,-3.259703182114643,-746.0651470696566,-39.1492127485624,-13.359508121268751
636,1.7558952107317793,-726.5814092843192,-36.358214918048056,-11.60068524989413
637,6.958830349047018,-703.6496132673432,-33.074825823485355,-9.323388732445114
638,12.314227327566414,-677.8893664680867,-29.37301642890455,-6.538033102593722
639,17.77340817728176,-649.9555810931514,-25.33464112273826,-3.277217239065486
640,-1.8421604830692382e-10,7.932984791691378e-09,9.609461026725698e-11,-3.0399183204911248e-09
641,-2.3512376310074893e-09,5.587785836059305e-08,1.7367933984924877e-09,-1.539130417893743e-09
642,-2.639163544286328e-08,7.137847006411461e-07,2.0348710241254815e-08,-4.48380858206237e-08
643,-1.91564875875036e-07,5.2286615110280404e-06,1.5353594971612793e-07,-3.481296311191429e-07
644,-1.0368371162857499e-06,2.8973974833332324e-05,8.666582422794343e-07,-1.8531479873854934e-06
645,-4.50136680880232e-06,0.0001288140988498646,3.909626567215597e-06,-8.039384683259379e-06
646,-1.637170441618308e-05,0.00047993314285591627,1.4725067340962146e-05,-2.910402232844435e-05
647,-5.1487829578394034e-05,0.0015467497053875778,4.7766481392636626e-05,-9.09792303909301e-05
648,-0.0001433519208132931,0.004414068997541152,0.00013659919549296155,-0.00025128204584376663
649,-0.0003598577450524526,0.011360982088030071,0.0003507066388310631,-0.000624769067837363
650,-0.000826380838561371,0.026763121615665537,0.0008203009016309271,-0.0014195361547438212
651,-0.001756445924922891,0.058401910801033435,0.0017691462582002722,-0.002984076811343558
652,-0.003488667901451824,0.1192379126123112,0.0035536873145473767,-0.0058640470107988365
653,-0.006526983396961238,0.22967827987753145,0.006705077897311412,-0.010866558229625517
654,-0.011579705032243346,0.4203328289411536,0.011969439968328145,-0.01912858053054927
655,-0.019591867175489223,0.7352159850842523,0.020341049432177134,-0.03218561240360749
656,-0.031764807872151184,1.2353055888271849,0.03308312214611893,-0.05203491984796074
657,-0.049556738857204845,2.0023176625218073,0.05173118588434942,-0.08118594805187651
658,-0.07465809391499524,3.142493209002274,0.07807433081033961,-0.12268896601845714
659,-0.10893556082721789,4.790124802682393,0.11410967727618682,-0.18013072476098924
660,-0.15433910000408754,7.110483642547355,0.1619652108258449,-0.2575858804616297
661,-0.2127671762687391,10.301749854194181,0.22378607914195153,-0.35951254010267936
662,-0.2858873712337406,14.595516671348934,0.3015801869494253,-0.49058289442965447
663,-0.3749127358755338,20.25543805458061,0.3970210742149494,-0.6554425073722854
664,-0.4803387771278457,27.57363263393172,0.5112099732286258,-0.858397350068221
665,-0.6016514589782398,36.86454165661229,0.6444044201920963,-1.1030327307874577
666,-0.7370224054534191,48.45606832058728,0.795727132650766,-1.3917749663555623
667,-0.8830129054372973,62.67798835085615,0.9628749561605828,-1.725412819276624
668,-1.0343125818689738,79.8478119795096,1.1418523030386665,-2.1026013114056283
669,-1.1835412169711477,100.2544808478984,1.3267557524759939,-2.5193766738616015
670,-1.3211427137595542,124.14048749794733,1.5096359945984923,-2.9687152929765257
671,-1.4353983186022337,151.68319910137586,1.680460444096584,-3.4401742197669685
672,-1.512581850908929,182.97633231705524,1.8271953716963272,-3.9196524312584557
673,-1.5372729765811846,218.0126537545766,1.9360211028820464,-4.389312843823237
674,-1.4928357354294777,256.6690504028104,1.9916880360694533,-4.827701230874366
675,-1.3620590871314242,298.69511920892546,1.9780147520867175,-5.210092306578612
676,-1.1279446240918396,343.7063490874003,1.8785217583020812,-5.5090821460047446
677,-0.7746144864439104,391.1828128449843,1.6771850687311203,-5.695433268253543
678,-0.2883006689783439,440.4740467758842,1.3592830337741184,-5.7391623822983435
679,0.3416338125154315,490.8104867566924,0.9122985432414985,-5.610843763158704
680,1.121700032802654,541.3214633074017,0.3268284183153494,-5.283084406600521
681,2.053378360924468,591.0593602173584,-0.40255589304028955,-4.7321102708469835
682,3.132369444031586,639.0291388045806,-1.2765559315296728,-3.939389488563637
683,4.3480641538310385,684.2220497755688,-2.2905608058765425,-2.8932063412797504
684,5.683288296146916,725.6520308327348,-3.43428165615378,-1.5900930165519942
685,7.114365668076463,762.3930415782576,-4.691648948782652,-0.036022547003807505
686,8.611526367360467,793.6154449264617,-6.041002121557251,1.7527301932800177
687,10.139667147287065,818.6195147455406,-7.455585105380227,3.7491444111347496
688,11.65944837139475,836.8642444892671,-8.904343500405021,5.915494971665125
689,13.128689434765763,847.9898425677643,-10.353000539413522,8.203927290285057
690,14.504003107549059,851.8326215911916,-11.765370416635921,10.557585610644946
691,15.742590754572957,848.4313958480152,-13.104850264775447,12.912283850046352
692,16.804106320519907,838.0249737490046,-14.336017354670933,15.198675747060092
693,17.652488410415383,821.0408359242482,-15.42624724206268,17.34484790572433
694,18.25765756124271,798.0755921843751,-16.347262751936423,19.27923009747944
695,18.596980105489198,769.8682798761131,-17.076523646407534,20.933690822592006
696,18.656410793913096,737.2679653568381,-17.598372906737687,22.246667456646712
697,18.431242915051392,701.1974171338248,-17.90486748562117,23.166167737973176
698,17.926416154520954,662.6148071557312,-17.996238374714533,23.6524771569022
699,17.156357527413032,622.4754595502638,-17.88094565416929,23.680412708065752
700,16.14435791418192,581.6955959895055,-17.57531746092551,23.240980858317762
701,14.921514245244765,541.1198374887836,-17.10278608538502,22.342322947031057
702,13.525293378499523,501.4939250022223,-16.49275831766882,21.009866603925342
703,11.997796429971,463.44374562251664,-15.779179395498502,19.285642419882873
704,10.383820059779069,427.46132238649415,-14.998869051224244,17.226771309770605
705,8.728822735292747,393.89797907565304,-14.189722781053844,14.903175289310052
706,7.076908313579626,362.96445883330006,-13.388880136085186,12.394609901705962
707,5.46893615550142,334.73738420226516,-12.630963530132242,9.787158460077034
708,3.940856659484593,309.17112589177503,-11.946485354111921,7.169361335017483
709,2.5223546521682954,286.1139111841593,-11.360508579895734,4.628178522488367
710,1.23586192180069,265.326867071754,-10.891627805878482,2.24499618210541
711,0.09597612943208804,246.50465502871896,-10.551315744277161,0.09189009107780506
712,-0.8907018250893434,229.29641419505222,-10.34365652121575,-1.771652264692652
713,-1.7253245098876597,213.3258696506164,-10.265463766862924,-3.301370605181506
714,-2.4161837397560264,198.2096689523401,-10.30675980408647,-4.470085352781238
715,-2.9777795552593127,183.5732580843625,-10.451573309619492,-5.268661451052863
716,-3.429641224337481,169.06387427634237,-10.678997291743322,-5.706029003942034
717,-3.79497871875312,154.36049714311073,-10.964437555690752,-5.808261776334006
718,-4.099247222845117,139.18083604318883,-11.280974522214619,-5.616769382114924
719,-4.368705868833791,123.2856292152137,-11.600758803094713,-5.185711349179474
720,-4.629045371126374,106.4806716763065,-11.896363697869901,-4.578785102008152
721,-4.9041484746477275,88.61707368630562,-12.142025677063604,-3.865575423973336
722,-5.215033320791851,69.5902738208936,-12.314716332757163,-3.1176752764949125
723,-5.579014486736483,49.338301286951385,-12.39500493999854,-2.4047991695731024
724,-6.009101002026853,27.839705036708047,-12.367687999449037,-1.7911073386496315
725,-6.513636219770077,5.111461117542219,-12.222179121841046,-1.331945179870157
726,-7.096171849288904,-18.792955424272655,-11.952667740783355,-1.0711752702353674
727,-7.75555807044522,-43.78527380985349,-11.558067281307455,-1.0392429941861174
728,-8.486223711358127,-69.74395952950118,-11.041781965845853,-1.252070601662859
729,-9.278614993834271,-96.515721731466,-10.411326409716152,-1.7108228373134884
730,-10.119758436453285,-123.91720273459688,-9.67783392990987,-2.4025332881829264
731,-10.993912941516546,-151.73708499263012,-8.855488751849455,-3.301526761587022
732,-11.883277595137,-179.73884172258335,-7.960914704315782,-4.371525510781975
733,-12.768724633072411,-207.66431916380446,-7.012549083827067,-5.5682862530537705
734,-13.630530800484674,-235.23827100626602,-6.030025430462279,-6.842586312830567
735,-14.449084365953498,-262.1738821950046,-5.0335832406044885,-8.143359522467868
736,-15.205548945236862,-288.1792243512051,-4.043516535748382,-9.420779644564687
737,-15.882468826560665,-312.96449107859206,-3.0796673490457303,-10.629097867063983
738,-16.46430345663633,-336.2497770938693,-2.1609653975528103,-11.729063587774352
739,-16.937881180488322,-357.77309587854506,-1.3050121013358564,-12.689789641839711
740,-17.29276424528735,-377.29828692259156,-0.5277059583636016,-13.489964707384443
741,-17.521518731389794,-394.6224435328237,0.15709316998228126,-14.11836248389552
742,-17.61988475827685,-409.5825021517709,0.7378615883819063,-14.573646570171103
743,-17.58684430471623,-422.0606667117717,1.2056695700447198,-14.863519743814832
744,-17.424586568528873,-431.9883985994786,1.5543955572135648,-15.00331057060081
745,-17.138373954969698,-439.34877353491663,1.7808907785837682,-15.014128548771348
746,-16.736315458334012,-444.1770898978799,1.8850866312723502,-14.920745413817725
747,-16.22905805303634,-446.55969958868445,1.8700360911822833,-14.749375956892859
748,-15.62941035189501,-446.6311171709428,1.741880182018734,-14.525532816215355
749,-14.951915833100589,-444.5695433037578,1.5097313906162508,-14.272119450770377
750,-14.212394922963021,-440.5910057201422,1.1854680783239957,-14.007901748973385
751,-13.427475911046834,-434.9423777466044,0.7834373494545067,-13.746466125380486
752,-12.614133809678926,-427.8935729068351,0.3200681988119469,-13.495730306719944
753,-11.78925395016437,-419.7292392958187,-0.18659849729927971,-13.258027034000218
754,-10.969233527302817,-410.740283572746,-0.7174520502343679,-13.030733924259065
755,-10.169629977574063,-401.21554825720517,-1.2529110728629753,-12.807377203293616
756,-9.40486057545975,-391.4339432632688,-1.773561464796537,-12.579099009520396
757,-8.687953450051541,-381.6573010228904,-2.2608125790744147,-12.336347546272721
758,-8.030346781847188,-372.1241806739146,-2.6975488819086793,-12.070631871911337
759,-7.441730330534021,-363.04479871951986,-3.0687528554243806,-11.7761768291354
760,-6.9299218303068635,-354.5972092672177,-3.3620738991592316,-11.451321983289093
761,-6.500770211781926,-346.9248021728936,-3.568317763024832,-11.099527812406423
762,-6.158078328323418,-340.13513405440773,-3.6818318775606964,-10.729884440717193
763,-5.903540000091888,-334.30005492337716,-3.700764001081545,-10.357057717540238
764,-5.736689722094109,-329.45704726892865,-3.6271749898024748,-10.000654056030926
765,-5.654867935712599,-325.611652847958,-3.466991219210818,-9.684033848571456
766,-5.6532096232656555,-322.7408274813656,-3.229788218706813,-9.432650407816483
767,-5.724668261382181,-320.7970367416283,-2.9284043091103613,-9.272033483636667
768,-1.4310488227058725e-11,2.9589389217405256e-09,-1.1106160886895434e-10,-4.698420613719206e-10
769,-1.0834646024296632e-11,2.333359618426157e-09,-2.039938980927906e-09,-7.116117881338281e-10
770,1.1840376782709443e-11,7.751973011622927e-08,-2.2684954783084735e-08,-1.5114999749183542e-08
771,1.4263643069230707e-11,5.42255792172365e-07,-1.6578734467896473e-07,-1.0802425885039159e-07
772,-6.976198244683451e-12,2.982689154695116e-06,-9.057003537484992e-07,-6.006977093663579e-07
773,1.53264966632647e-11,1.3176215389327534e-05,-3.9639754482977325e-06,-2.685042911736406e-06
774,-7.508095794092329e-11,4.8709479440243966e-05,-1.4519522826570694e-05,-1.0059224129806424e-05
775,1.1615783169048545e-10,0.00015581286264753846,-4.592305762186768e-05,-3.263350615979915e-05
776,-9.874732820483464e-11,0.00044128342714849095,-0.00012840326401923898,-9.380351352434896e-05
777,6.974405117701376e-11,0.0011271360269962752,-0.0003232979591655221,-0.0002433362749509145
778,-7.75259834947741e-11,0.0026347507595589474,-0.0007440277438534176,-0.0005780765718873337
779,1.0544403444759502e-10,0.00570469210358928,-0.0015844727874279266,-0.0012728113598822967
780,-1.5754606525843716e-10,0.011555204919708151,-0.0031548490779932693,-0.002623204292643832
781,-1.4639818456188552e-09,0.02208028362295692,-0.00592483054733012,-0.005102134362020724
782,-1.7590349220542415e-08,0.04008444041994909,-0.010573577852698746,-0.009429577713225923
783,-1.3200362999863787e-07,0.06954913670186377,-0.018046356702823965,-0.016654887028169956
784,-7.470774478340881e-07,0.11592187931969586,-0.02961722285668717,-0.0282486130362677
785,-3.390861002870692e-06,0.1864158730418416,-0.04695652107585379,-0.04619942409222419
786,-1.289494660811165e-05,0.2903029614538993,-0.07220052182005633,-0.07310984509069925
787,-4.23965103247884e-05,0.43917722242673984,-0.10801856064723385,-0.11228266292912574
788,-0.00012335495047932412,0.6471613818957681,-0.1576710094450352,-0.16778792823179944
789,-0.00032344367426495667,0.931022844120665,-0.22504991304006414,-0.24449858360656476
790,-0.0007754619581746908,1.3101643101906946,-0.31469370938083907,-0.3480817752877418
791,-0.0017201950874257044,1.8064536869282837,-0.4317682489161099,-0.48493310139607293
792,-0.0035652742740106963,2.443863114924485,-0.5820080567009698,-0.6620434177052876
793,-0.006960742320002885,3.247894429130958,-0.7716138403064068,-0.8867920206002234
794,-0.012890357003061056,4.244780868360388,-1.007104118169882,-1.1666659807578572
795,-0.022775988399944352,5.460468429754749,-1.29512036604588,-1.508912040241025
796,-0.03859081333517146,6.919396455390298,-1.6421865287774124,-1.9201340104054978
797,-0.06297540660927113,8.643113063949603,-2.054425614704787,-2.4058546605920315
798,-0.09934903540479255,10.648776264363839,-2.5372388119483533,-2.970066089231856
799,-0.15200641697580142,12.94760664393923,-3.0949562101300683,-3.614796901684304
800,-0.22618798959089845,15.54336925223387,-3.730472456947529,-4.339727553771556
801,-0.32810970933134753,18.43097299907201,-4.444884906640998,-5.141886953171192
802,-0.4649371857385247,21.595281416971506,-5.237155270028553,-6.0154626711410035
803,-0.644689159947143,25.010230884821524,-6.103817839512826,-6.951753619774697
804,-0.876057477468699,28.638346920210324,-7.038757625022303,-7.939286882199092
805,-1.168134897163181,32.43073808401485,-8.033080118052881,-8.964110080584486
806,-1.5300482273030644,36.32762690321757,-9.075091018179796,-10.010257542495104
807,-1.970501841192863,40.2594516609753,-10.150399442122612,-11.0603739828336
808,-2.4972450162805457,44.14854084326046,-11.242152267026736,-12.096464793882138
809,-3.1164849744944036,47.91132743114102,-12.331400761027037,-13.100728530978959
810,-3.8322752683989973,51.461035402290634,-13.397593819379855,-14.056416497319447
811,-4.645915669066024,54.71073693619889,-14.419185154462344,-14.948657277849092
812,-5.55540437509572,57.5766506676466,-15.374334811075956,-15.765182193182984
813,-6.554985825262632,59.98152774905352,-16.241678599881837,-16.49689119722686
814,-7.634837181073442,61.8579581593227,-17.001132897405686,-17.1382082863298
815,-8.78093339571301,63.15142276776392,-17.63469734080842,-17.687189956104856
816,-9.975124354443828,63.82292121671145,-18.12721493416001,-18.145368759179142
817,-11.19544784125991,63.851019087322406,-18.467048482515107,-18.517334732819524
818,-12.416689096559619,63.23318319318912,-18.64663437602365,-18.81007878587584
819,-13.61118203130427,61.98630737676019,-18.662879548887812,-19.03214275821257
820,-14.749829560463612,60.146373843372,-18.517374767121396,-19.192639024365022
821,-15.803302363955067,57.76724262066063,-18.216406868669086,-19.30021721012446
822,-16.743358281043463,54.91861124788902,-17.770763663763532,-19.362064851140918
823,-17.544210157947354,51.68323614705216,-17.195337153026642,-19.38303164070091
824,-18.1838599070296,48.15355040132192,-16.50854266235833,-19.364961735103634
825,-18.64531188270931,44.42784991663242,-15.731582543785494,-19.306305469398474
826,-18.917580229378764,40.60624561688461,-14.887592433447438,-19.20206084587227
827,-18.99641275538818,36.786594784784974,-14.000715053061896,-19.04406822310341
828,-18.8846680110917,33.06062568141221,-13.095150643374904,-18.82165067725127
829,-18.592301860840585,29.510458980703074,-12.194233994325911,-18.522560612770402
830,-18.135943918831625,26.20570461857259,-11.319585557461915,-18.134163354206162
831,-17.53807119580213,23.2012777340806,-10.49037852973875,-17.64476334816393
832,-16.825814305598634,20.53603202458064,-9.722755590336174,-17.044961080493227
833,-16.02945854540665,18.23225775750514,-9.029418918422849,-16.328920247806042
834,-15.180725882112572,16.29603821837925,-8.419406010801163,-15.495426603581016
835,-14.31094246677067,14.7184050471824,-7.898052410045863,-14.548631948325097
836,-13.44920805959819,13.4771860090838,-7.4671313483107395,-13.498398732439572
837,-12.62068765440948,12.53939854065956,-7.12514998833319,-12.360190760546768
838,-11.845141011275608,11.864014634883702,-6.867772910646183,-11.154491681935498
839,-11.135792888876638,11.404905841630839,-6.68833635361774,-9.905772246878215
840,-10.498626096812496,11.11377526318962,-6.57841224503927,-8.641066530213815
841,-9.932152414191984,10.942893086532933,-6.528379975774875,-7.38825335031695
842,-9.42768465014298,10.847475568060357,-6.527966584122848,-6.174168434634496
843,-8.970098878789207,10.787579602572308,-6.566722351630492,-5.022693235790758
844,-8.539041580243575,10.729426157330469,-6.634407969291694,-3.9529751852316943
845,-8.110504529546917,10.64611111473206,-6.721280134199007,-2.9779308648019307
846,-7.6586633024060635,10.517708274912895,-6.818273283782749,-2.103167440899506
847,-7.157855318135474,10.330814312595557,-6.917084996723315,-1.3264300414327002
848,-6.584562264413584,10.077623611413301,-7.0101806121432935,-0.6376450564187344
849,-5.919260555868047,9.754652374159189,-7.09073852670068,-0.019584623171736464
850,-5.148012502651164,9.361250974498441,-7.152561306230301,0.5508708001568263
851,-4.263689316488851,8.898053024778886,-7.18997916382223,1.100943285320659
852,-3.26674347332834,8.365505617367676,-7.197771392418128,1.6597575067223207
853,-2.165479953867373,7.762611485947593,-7.171127971756312,2.25588282572604
854,-0.9758109535862161,7.0859888274154095,-7.105667931146838,2.914796296135533
855,0.2794859554523681,6.329323582913944,-6.9975236147984665,3.656458820126823
856,1.5719530581287127,5.483252271981018,-6.84349144111094,4.493195336788063
857,2.8689992140026472,4.535675737159148,-6.641240887577523,5.428054078652599
858,4.135703676259567,3.4724681073960535,-6.389565065162483,6.4537899713715134
859,5.336757662505914,2.2785123315168914,-6.088649109860068,7.552575543084659
860,6.438417739975748,0.9389686667598081,-5.740327422861093,8.69649175903643
861,7.4103470522746,-0.5593356658558093,-5.3482981027563,9.848794948470593
862,8.227230764515491,-2.2265145186729884,-4.9182631645069765,10.965898669536468
863,8.870069953302465,-4.068346234198784,-4.457966449312821,11.999955231609205
864,9.327082245851487,-6.085218195352784,-3.977107361013146,12.901875231751472
865,9.594165947522857,-8.27137998937346,-3.487117260846609,13.624587920770363
866,9.674915046244706,-10.61456731665979,-3.0007958690874763,14.126323453556152
867,9.580203072949077,-13.096030231674689,-2.531816500151652,14.373691063125184
868,9.32738193756828,-15.690969554380565,-2.094120421730299,14.344335783543508
869,8.939165477413557,-18.36935516570138,-1.7012310702741629,14.028979571227186
870,8.44228468732536,-21.0970739272078,-1.3655273235809822,13.432689689532594
871,7.866011400767679,-23.83733190149996,-1.0975208202714426,12.575265506732263
872,7.240649141816755,-26.55222003201191,-0.9051849471999182,11.490691946980073
873,6.5960845530206305,-29.20434240007241,-0.793382426374594,10.225669899893793
874,5.960481280780236,-31.758405249705643,-0.7634344281220159,8.837296801142875
875,5.359182088075001,-34.182669833092675,-0.8128670206317647,7.390030040259235
876,4.813865841116182,-36.45018516159012,-0.9353608285934675,5.952117022560323
877,4.341985509243504,-38.53973358987657,-1.1209175186953697,4.591715088666454
878,3.9564928335180496,-40.43644380465514,-1.3562428320996003,3.3729485308274842
879,3.665836061746909,-42.1320487182588,-1.6253312662510027,2.3521571569865674
880,3.4742002757097064,-43.624788426094156,-1.9102232361049176,1.5745801474561991
881,3.3819461995605455,-44.918980480063645,-2.191892735572517,1.0716914756282934
882,3.3861938121849424,-46.02429742386029,-2.4512132765727763,0.8593604242503303
883,3.48149200020592,-46.95480696138696,-2.669943125737793,0.9369562719978157
884,3.6605151646415295,-47.727839668188956,-2.8316683036003205,1.287453686008732
885,3.914731881242084,-48.362755837694166,-2.9226437710747715,1.8785295334862882
886,4.234998945401516,-48.87968389904909,-2.9324796339971724,2.6645772933439065
887,4.612045367938544,-49.29830131695669,-2.854629515901553,3.5895060410483506
888,5.036823941221544,-49.63672223035505,-2.6866516686027646,4.590141054794813
889,5.500721439227935,-49.91054780723716,-2.4302288836776795,5.600004928261209
890,5.995631104225326,-50.13212330712146,-2.090949766314365,6.553234483980388
891,6.513901915472554,-50.31003269065891,-1.6778703394843915,7.388381124049419
892,7.048187648034064,-50.44884739706101,-1.202890115491623,8.051851926449446
893,7.59122475819701,-50.54913154878922,-0.6799894999495166,8.500775372101202
894,8.135571626805541,-50.60769236774808,-0.12438451573312258,8.705117527790355
895,8.673342692754474,-50.61805286357408,0.448340564600824,8.648928660362813
896,-8.460672155392211e-11,-2.1115246872332829e-10,-1.1641781943789407e-10,-1.4359571761016453e-10
897,-1.795714773954862e-09,-7.900890447819315e-10,-2.274887485372364e-09,-1.4609537570683557e-09
898,-2.016293195416414e-08,-1.1264708746366436e-08,-2.5997388092943472e-08,-1.6574587297160706e-08
899,-1.4895055983401544e-07,-8.056601120220502e-08,-1.9423321185181655e-07,-1.1866357593345932e-07
900,-8.221574979238482e-07,-4.411273421797827e-07,-1.0875824215149927e-06,-6.30805088814123e-07
901,-3.6272647581960155e-06,-1.942322444303875e-06,-4.878736980194362e-06,-2.688768168352163e-06
902,-1.3369260783321902e-05,-7.180389360257563e-06,-1.831773994813066e-05,-9.587656603875253e-06
903,-4.2488894049273515e-05,-2.3014632002878322e-05,-5.9383697774139484e-05,-2.9512826162864718e-05
904,-0.00011926474332628757,-6.545737913995528e-05,-0.00017014729173462457,-8.028593125440014e-05
905,-0.00030135292018305173,-0.00016823453854247097,-0.0004388005028280934,-0.00019657516532390267
906,-0.0006961199172008912,-0.00039640418558337917,-0.0010336128197222859,-0.00043961965109582795
907,-0.0014890157689645734,-0.0008664061066726615,-0.00225068810327817,-0.00090902101450268
908,-0.002981037037997762,-0.0017736071439559515,-0.004575945866309835,-0.0017559168304829528
909,-0.005636168629689551,-0.003428022682481081,-0.008760061283186035,-0.0031970426902026166
910,-0.010139429517480598,-0.00629831950036228,-0.015903515582825448,-0.005529947717803603
911,-0.017465568932009453,-0.011063661441386222,-0.02754765504622448,-0.009150683269421136
912,-0.028957396059939227,-0.018672264525152485,-0.04576677856083409,-0.014576233191863039
913,-0.046411180600171555,-0.030404814797557984,-0.07325561216078731,-0.022474445259865132
914,-0.07216472216891046,-0.04793993758843087,-0.11340585606485105,-0.03370399631158887
915,-0.10918186062629713,-0.07341785874200506,-0.17036461744787426,-0.049366144018507904
916,-0.16112569981582991,-0.10949714124307204,-0.2490664593075701,-0.07086886596107857
917,-0.23241183153870812,-0.15939816273747792,-0.35522973949658443,-0.10000286079959063
918,-0.32823241939058456,-0.22692557274926536,-0.49530739808282226,-0.1390278579140018
919,-0.45454206232309596,-0.31646016100308694,-0.6763829576232218,-0.19076675771877646
920,-0.6179968639580581,-0.4329076817033504,-0.9060047051055156,-0.2587039285812351
921,-0.8258391586801507,-0.5815879591497883,-1.19195487075524,-0.3470823165084427
922,-1.0857221190744766,-0.768042421114819,-1.541955705084182,-0.46099171415810286
923,-1.4054712410044263,-0.9977333483043608,-1.9633198965501917,-0.6064378310236684
924,-1.7927835854197773,-1.2756056742327933,-2.4625579342111585,-0.7903790982776501
925,-2.2548704716044448,-1.6054836559080128,-3.044959210464777,-1.0207158538458536
926,-2.798054610499941,-1.9892811058016326,-3.714166636847531,-1.3062152193296983
927,-3.427337838219733,-2.4260146055113623,-4.471766417282874,-1.6563549954981085
928,-4.145960076832122,-2.910623336724594,-5.316915564256852,-2.081071897386643
929,-4.954973490844966,-3.4326155938864353,-6.246029864705193,-2.5904038327232586
930,-5.852857769715567,-3.974580244421658,-7.252554157532579,-3.194023015017589
931,-6.835202946198046,-4.510621125764265,-8.326834715076666,-3.900666084933982
932,-7.8944851112987715,-5.004793848945497,-9.456109970917208,-4.717478213991163
933,-9.019957788102541,-5.409647254625003,-10.624630828986412,-5.649298980359768
934,-10.197677535410785,-5.664994498637896,-11.813915606984068,-6.697927345987278
935,-11.410676555860334,-5.697058948146502,-13.00313782556162,-7.8614105181938
936,-12.63928774949653,-5.418154063558409,-14.169638101431712,-9.133406473562335
937,-13.861619037883951,-4.727060465017617,-15.289544801343661,-10.502672556321883
938,-15.05416437262736,-3.5102537001548315,-16.33848223425844,-11.952732672309407
939,-16.192529344846154,-1.644110593761812,-17.292340239044908,-13.461772838540403
940,-17.2522405828929,1.001820451265935,-18.128075296369413,-15.002808341351919
941,-18.20960100797776,4.560457880040362,-18.82451093849571,-16.544154766166606
942,-19.042548230682108,9.161777605143115,-19.36310447004765,-18.050219163998985
943,-19.731471385469472,14.926478394331118,-19.728647987682606,-19.482607056525342
944,-20.25994271439871,21.95892684926792,-19.909874459736304,-20.801517085783434
945,-20.61532413194623,30.339666630383487,-19.899944005687768,-21.96737007623567
946,-20.789215515272165,40.11784807268081,-19.69679109335971,-22.94259568503584
947,-20.777720076679085,51.303991886604926,-19.303319542154114,-23.693480214242886
948,-20.5815123164287,63.86353849212403,-18.727438381054515,-24.191965778021768
949,-20.205705108833126,77.71164778409918,-17.98193731569792,-24.41728524538636
950,-19.659523823074068,92.70969843770625,-17.08420557023531,-24.357320018606934
951,-18.95580640533169,108.66388872755051,-16.055802210601872,-24.009578671779504
952,-18.110358428332518,125.3262614131616,-14.92188987719081,-23.38171328478641
953,-17.141200645468654,142.3983655346426,-13.710547421802671,-22.49151585831823
954,-16.067752970223417,159.53763237745457,-12.451980442234188,-21.36636816368058
955,-14.910002494781633,176.3663887600641,-11.177652225546284,-20.042152942147617
956,-13.687703724356538,192.48326773517104,-9.919360999698572,-18.561670379284344
957,-12.419656444468039,207.47661589124993,-8.708292363272143,-16.972638809419863
958,-11.12310069796706,220.93934970980465,-7.57407789099425,-15.325389936676288
959,-9.813259745019288,232.48459220712843,-6.5438918686369485,-13.670393980892985
960,-8.503051386985934,241.7613356587848,-5.641617707802601,-12.055766668962596
961,-7.2029765492155375,248.4693342111689,-4.8871139007080275,-10.524916190947632
962,-5.921182405709642,252.3724366200588,-4.2956065588492764,-9.114482935422002
963,-4.663686358401315,253.30962539277303,-3.8772318364690452,-7.85270786631217
964,-3.4347375108311655,251.20313216470882,-3.6367469371693546,-6.758337484811063
965,-2.23728442178268,246.06314434361693,-3.5734229543460136,-5.84013636868304
966,-1.073512294623699,237.9887963934248,-3.6811264443505376,-5.097035031055557
967,0.05459040447770898,227.16533950874577,-3.948589418417226,-4.518894833470582
968,1.1446765260453557,213.8575932293608,-4.359859528174669,-4.087826702087001
969,2.1935348433029165,198.399988318202,-4.894914008979962,-3.7799600892619094
970,3.1966695550420634,181.18369828937875,-5.5304129967192655,-3.5675263642352735
971,4.147993766969739,162.64151490330582,-6.240560766615775,-3.4210991617965374
972,5.03965872657467,143.23123995670346,-6.998037847689952,-3.311825032489278
973,5.86203208913932,123.41843428295915,-7.77496328431965,-3.2134816477237798
974,6.603829191063663,103.65938080300309,-8.543844905453783,-3.1042174824175928
975,7.252391732148108,84.3850817957155,-9.278476498037433,-2.967854719186164
976,7.794099079246367,65.98702488613725,-9.954744280262725,-2.7946737448789363
977,8.21488930691907,48.805324999687116,-10.551310773475164,-2.5816399251036457
978,8.50086073110591,33.11969057418287,-11.05015168035737,-2.3320779229630273
979,8.638920515075311,19.14348367331952,-11.43693017502852,-2.0548421964490546
980,8.617445128038256,7.020958122093171,-11.70120258656365,-1.7630710563863299
981,8.426917924717918,-3.1724199537389177,-11.836459182927419,-1.4726429792542357
982,8.06051159560869,-11.426826926280205,-11.840012863259986,-1.2004753594506081
983,7.514587295007785,-17.79250441874032,-11.712756171523727,-0.9628160328232979
984,6.789087476632032,-22.372242798195987,-11.45881236963518,-0.7736757140443988
985,5.887805487452475,-25.312479509330057,-11.085108978791975,-0.6435349399454309
986,4.818521487015269,-26.793587439834905,-10.600902300645897,-0.5784329360023992
987,3.593000970523632,-27.01991140346292,-10.017279503465204,-0.5795100688347808
988,2.226858756126102,-26.210059946031375,-9.34666156772379,-0.6430332509649223
989,0.7392974061139064,-24.58788200794716,-8.602326366759929,-0.7608888974858476
990,-0.8472656576724219,-22.374461673180306,-7.797966828348316,-0.9214852051361823
991,-2.5076639136882553,-19.781358386487106,-6.947294764908464,-1.1109687738110354
992,-4.214519163334291,-17.005213475732933,-6.063696765457154,-1.3146333842538505
993,-5.938828197819258,-14.223744502467923,-5.159944699097578,-1.518383239337159
994,-7.650576741772841,-11.593063575317213,-4.247960145450958,-1.710110230786444
995,-9.319360695279775,-9.246188802234256,-3.3386296907912327,-1.8808544641895608
996,-10.914997891169033,-7.292572303371496,-2.4416667519017374,-2.02563815062988
997,-12.40811746579806,-5.818444001298978,-1.5655154721897544,-2.1438928384639806
998,-13.77071793456024,-4.88776657980124,-0.7172931636172288,-2.239436206985137
999,-14.976688665734684,-4.543610485876083,0.09723061659738157,-2.3199942560937608
1000,-16.002292288762643,-4.8097847383413495,0.8736184918559434,-2.3963046833880117
1001,-16.8266074380097,-5.6925947595696265,1.6087120108161856,-2.4808746318677573
1002,-17.43193200172472,-7.18263754761426,2.3005392342995394,-2.586497927287664
1003,-17.804146710710178,-9.256582688051058,2.9481827214667846,-2.7246608726773567
1004,-17.9330375467492,-11.87892086348563,3.5516097940598277,-2.903979271445311
1005,-17.81257328063257,-15.003686842507125,4.111470144360779,-3.1288110600341845
1006,-17.441131748033925,-18.576179430867867,4.628869300364618,-3.3981779434828105
1007,-16.821665613307516,-22.534706178868934,5.105129609957149,-3.705106304485218
1008,-15.961795811584498,-26.812376264506277,5.541552873465733,-4.036464085604841
1009,-14.873819119551985,-31.338952826762007,5.939200413948696,-4.373329316521635
1010,-13.574615901317788,-36.0427584765003,6.298707139224069,-4.691881237746292
1011,-12.085445359773729,-40.85260779740995,6.620145878159903,-4.964760614296493
1012,-10.431618689802276,-45.69972133599144,6.9029566380192815,-5.1628058073444905
1013,-8.6420451772872,-50.51955949049717,7.145952124619239,-5.257038702629996
1014,-6.748652147012324,-55.25350414366897,7.347405764284606,-5.2207523016541115
1015,-4.785686301212487,-59.85031210539409,7.505221857284956,-5.031541235432717
1016,-2.7889109926462825,-64.2672682373184,7.61718006345863,-4.673118496169171
1017,-0.7947209199818591,-68.47097714629504,7.6812391065284435,-4.136775986339437
1018,1.1607978629444626,-72.43774975211612,7.695878352647763,-3.4223719624524773
1019,3.0428293976598306,-76.15356320489062,7.66045148712517,-2.538762960105645
1020,4.8187737631794985,-79.61359763449116,7.575524303727197,-1.503638697581483
1021,6.459138820526842,-82.82137889205269,7.443168722562124,-0.34276261654191426
1022,7.938339657173643,-85.78758060128074,7.267187466431304,0.9113351000591965
1023,9.235370673034662,-88.52855945456118,7.053248124519863,2.221124237871503
1024,-7.212006654283633e-11,9.528345044190343e-11,-7.804451046508385e-11,-5.4661465804681824e-11
1025,-9.389313586254653e-10,5.660853964118731e-10,-1.6491949642338383e-09,-1.0036058586895616e-09
1026,-1.072154702089983e-08,7.3813195580983134e-09,-1.874512851838138e-08,-1.1759690927402776e-08
1027,-7.779677974430161e-08,5.4837923784355596e-08,-1.3995074788804757e-07,-8.895305504703012e-08
1028,-4.2515225084611617e-07,3.1004354830360397e-07,-7.808244855885678e-07,-5.02798561260526e-07
1029,-1.866437107181966e-06,1.4095732377559179e-06,-3.4813075857463854e-06,-2.2685020046113753e-06
1030,-6.885817225949699e-06,5.397671858857721e-06,-1.2959912939490912e-05,-8.534918435932157e-06
1031,-2.2034739461407873e-05,1.796229350638768e-05,-4.156641133923901e-05,-2.763042242073562e-05
1032,-6.263543502366207e-05,5.317475127561368e-05,-0.00011761825312502568,-7.881241043882236e-05
1033,-0.00016112426520569598,0.0001425737141585683,-0.00029919540613349666,-0.0002018143741460664
1034,-0.00038066939247377503,0.00035111679740197795,-0.0006947298601074019,-0.0004710460296188798
1035,-0.0008359092152253165,0.0008031253923703466,-0.0014912398303289238,-0.0010148334328956197
1036,-0.0017226839441910969,0.0017216072772669418,-0.0029904474692347594,-0.002039540643216822
1037,-0.0033584282053943284,0.0034841256500029705,-0.005652364605025384,-0.0038579559981444566
1038,-0.00623439029952633,0.006697525345568342,-0.010145216878221099,-0.006921049858124534
1039,-0.01108008958996013,0.01229244117909323,-0.017399780245779112,-0.011852074031211952
1040,-0.018939449314368872,0.021636697501846425,-0.028665357791798733,-0.019481869990379614
1041,-0.031256938312777253,0.036664717100148306,-0.04556381887155746,-0.030884102430406818
1042,-0.04997081273288862,0.06001795798976376,-0.07013745090170606,-0.04740891513332556
1043,-0.07760916747943876,0.09518925773971211,-0.10488586485718371,-0.07071326925725664
1044,-0.11738292774034222,0.14666177892343613,-0.15278687328998578,-0.10278601474255329
1045,-0.17326817501479344,0.22003103726311485,-0.21729619787171037,-0.1459655776856419
1046,-0.2500684500128749,0.3220964761950249,-0.3023212403213656,-0.20294804600381375
1047,-0.3534461651024566,0.46090745520304266,-0.4121651201321641,-0.2767834221885605
1048,-0.4899113742125968,0.6457477847865072,-0.5514387567646845,-0.37085795594872883
1049,-0.6667562287055967,0.8870433816823218,-0.7249407467542013,-0.488860803703472
1050,-0.8919247984196133,1.1961796132628706,-0.9375068791142791,-0.6347337956088729
1051,-1.1738106215388315,1.5852185599081023,-1.1938331376800342,-0.8126037390547801
1052,-1.5209782679714154,2.0665118098447888,-1.4982778941800334,-1.0266973124565824
1053,-1.94181003485153,2.652211234280766,-1.8546507011973368,-1.2812390672195968
1054,-2.4440843048207275,3.3536881254958226,-2.265996584373343,-1.5803332823463465
1055,-3.0344977476161805,4.180879537304088,-2.734385855637297,-1.9278304736685077
1056,-3.718149176135828,5.141589031526108,-3.260720003369374,-2.3271794172644134
1057,-4.498008258131655,6.240776691448699,-3.8445640001857146,-2.7812657973974177
1058,-5.37439712950135,7.479879518560793,-4.484014361681317,-3.292239189406467
1059,-6.3445168903802225,8.856207616524985,-5.175610624699251,-3.8613310755477706
1060,-7.402053447605715,10.36246323046026,-5.914295815869177,-4.488667966832942
1061,-8.53689765936607,11.986428342151795,-6.693429180210532,-5.173085410332933
1062,-9.735012735103664,13.710861779563666,-7.504852087833444,-5.911950643919513
1063,-10.978477127675083,15.5136387305214,-8.339005739771178,-6.701003769777122
1064,-12.245723733346361,17.368154336423846,-9.185097204412163,-7.534229293769615
1065,-13.511986398150777,19.243999240400434,-10.031308640419038,-8.40377135698722
1066,-14.74995295113425,21.10789921619675,-10.865043509565075,-9.299906562924134
1067,-15.930610875054358,22.924894200107513,-11.67320319651517,-10.211087687946232
1068,-17.024258077282685,24.65971513986267,-12.442487560509543,-11.124069608625351
1069,-18.001638017957386,26.278301042666808,-13.159713200333975,-12.024125565422215
1070,-18.835146827228407,27.749384548672072,-13.812143285609322,-12.895357596866944
1071,-19.500051050138442,29.04606330384071,-14.387822530911818,-13.72109988369983
1072,-19.975649196060324,30.147267551557405,-14.875910306326983,-14.484408032186526
1073,-20.246308873509484,31.03903269274907,-15.267004175663098,-15.168621151820021
1074,-20.302314240342785,31.715489922038,-15.553445523659303,-15.757977093331496
1075,-20.140465755279624,32.17949863336471,-15.729598478129294,-16.238254687771086
1076,-19.764385579269362,32.44286080023699,-15.792093045846,-16.597410813763478
1077,-19.18449696835754,32.526078929560214,-15.74002315556431,-16.82617539758194
1078,-18.417663953881224,32.45764410095847,-15.575090039023053,-16.91856494705592
1079,-17.486497548591267,32.27286735547312,-15.301681068333595,-16.872275703802483
1080,-16.41835545112517,32.012294613096884,-14.926874006001325,-16.68892139608407
1081,-15.244082382149193,31.71977080991789,-14.460357009824188,-16.374087805215606
1082,-13.996556296784709,31.440241541774178,-13.914256181155366,-15.937186459032493
1083,-12.709120389859466,31.217398943217997,-13.30286533573908,-15.391102007851151
1084,-11.41399075796903,31.09129160916662,-12.642277109530724,-14.751641441170852
1085,-10.140733877305184,31.09602520092314,-11.94992021845543,-14.036807439768529
1086,-8.914906140493766,31.257680207971195,-11.244014165015003,-13.265931930594007
1087,-7.7569395643218515,31.592565875433507,-10.542959309810353,-12.45871827609983
1088,-6.681343849638676,32.10591455993151,-9.864686381854943,-11.634250285306365
1089,-5.696276125601359,32.79109938102926,-9.225994581362649,-10.810032226844037
1090,-4.803507102802597,33.629431031789515,-8.641910856827094,-10.001125331057647
1091,-3.998787464881485,34.590558617916,-8.12510428439615,-9.2194424579899
1092,-3.272592801616812,35.63346635140758,-7.685388532100172,-8.473253759359483
1093,-2.6112009659747155,36.708024931534766,-7.3293422116369245,-7.766942877927148
1094,-1.9980341409410514,37.75702566568693,-7.060071697023773,-7.101036471262596
1095,-1.4151805943577573,38.718598657617996,-6.8771339461774845,-6.472510870168494
1096,-0.8449992887788096,39.52889535579671,-6.776628194482438,-5.87535986591196
1097,-0.2717049591167316,40.12490148867137,-6.7514554013163,-5.30138836281495
1098,0.317167648953255,40.44723968401044,-6.79173357621251,-4.741179298050892
1099,0.9295141197954133,40.44282208149086,-6.885346464760678,-4.18516708098968
1100,1.5677055162984137,40.067221938229544,-7.018593622888169,-3.6247410301364353
1101,2.227990098284617,39.28664900232016,-7.1769026739221236,-3.053297856466971
1102,2.9002911866576673,38.079435440310135,-7.345560257232073,-2.4671638120611905
1103,3.5684163151317017,36.43696599423063,-7.510417131647836,-1.8663148205386055
1104,4.210667693951056,34.364016257727705,-7.658525024547074,-1.2548363248802983
1105,4.800819794429091,31.878494634458185,-7.778667812110989,-0.6410827689240645
1106,5.309408121216988,29.010614776324687,-7.861757096989246,-0.037518216939329545
1107,5.705255340798158,25.80155429860598,-7.9010717833344,0.5397570765400894
1108,5.9571480290230046,22.30168067551071,-7.892332353454375,1.07176619415609
1109,6.035570087053388,18.568445204764675,-7.833612600904379,1.5376521993526662
1110,5.914397657346697,14.664059773727924,-7.72510374639791,1.9158458039496111
1111,5.57246494600882,10.653078316917808,-7.568757096381748,2.1853261519773346
1112,4.994920176726279,6.6000049972746915,-7.367840481982343,2.3268911253022426
1113,4.174305014354927,2.5670444633279104,-7.126449529644061,2.3243542061931923
1114,3.1113080245321836,-1.3879034946939535,-6.849016658463049,2.165591546128302
1115,1.815161674843063,-5.212920927620688,-6.53985851981208,1.843374685976128
1116,0.3036716078112477,-8.863358833603506,-6.202796928611231,1.355940247574524
1117,-1.3971148425104272,-12.302697822346124,-5.8408800826198055,0.7072665260265124
1118,-3.2535776587547054,-15.50297157224219,-5.4562209679255105,-0.092953146874237
1119,-5.2254937410606965,-18.444767361567322,-5.049959154611804,-1.0296305131683836
1120,-7.267259341916988,-21.1168407013221,-4.6223414358060575,-2.082867657376212
1121,-9.329309686438227,-23.51540034644019,-4.172906645011236,-3.228763011744475
1122,-11.359675216879989,-25.643134663342508,-3.7007511837950378,-4.4403810614102595
1123,-13.305611915077355,-27.50805987285012,-3.204844949832221,-5.688820472463767
1124,-15.115244031153306,-29.122274644650197,-2.6843630736696,-6.944312206551875
1125,-16.73916099458641,-30.50070394676566,-2.1389976121965697,-8.1772814276406
1126,-18.131915859434407,-31.659908221091708,-1.5692153721086504,-9.359314483829785
1127,-19.25337964689587,-32.61702260837795,-0.9764332938679767,-10.463984153835884
1128,-20.06991367634963,-33.388876006771575,-0.3630909166311195,-11.46750134064099
1129,-20.555329739417683,-33.991322461974924,0.2673903898867854,-12.349177765353017
1130,-20.691615323095895,-34.43879908517351,0.910760512467182,-13.091700249964095
1131,-20.46940787791395,-34.74410670377186,1.5621939226037893,-13.681231466625839
1132,-19.888208451698045,-34.91839309557397,2.216621158140134,-14.107363606683284
1133,-18.956331182780445,-34.971304976079594,2.869108397696662,-14.362959800202047
1134,-17.690591514840772,-34.91126483439954,3.5152497532370623,-14.443923104282282
1135,-16.11574280618071,-34.745822768614595,4.151534577348868,-14.34893447238376
1136,-14.263678350915423,-34.48203201642362,4.775652857577113,-14.079199340180455
1137,-12.172423547805913,-34.12679983198355,5.386705588088788,-13.638237427965137
1138,-9.884950702690839,-33.68717246742797,5.985293652333116,-13.0317422913845
1139,-7.447856261423757,-33.17052355659877,6.573467764350536,-12.26752655077923
1140,-4.90994657677209,-32.58462823522695,7.15453271296168,-11.35555635487341
1141,-2.3207831348093895,-31.937619557656507,7.732710655226916,-10.30806550712544
1142,0.27075893004084295,-31.237837769655776,8.312679600433752,-9.139726939143152
1143,2.81786446994349,-30.493595419678584,8.899013685346421,-7.867848002533961
1144,5.277031197787392,-29.712890929978755,9.495560659747513,-6.512547489467521
1145,7.609153020267492,-28.903109359480574,10.10479860766805,-5.096867382767498
1146,9.780391773826375,-28.07075118427792,10.727217842744384,-3.6467718938986637
1147,11.762804635180313,-27.2212279374177,11.360774791332739,-2.190990747898298
1148,13.534706288327909,-26.35875763256908,12.000462334288569,-0.7606727362043322
1149,15.080758812007717,-25.486383420111355,12.638035593136449,0.6111715233609685
1150,16.391797422330253,-24.606126492156548,13.261923863408077,1.890443108742441
1151,17.464415529472387,-23.71926975790399,13.857348899452012,3.0429331652958145
1152,-2.2502477599603918e-11,1.1689721328811786e-10,-1.382754419330967e-10,1.9936655305890485e-11
1153,-2.3248457196068554e-10,2.5922978980264413e-09,-2.773870970978796e-09,5.031890117334018e-10
1154,-2.6765792674220024e-09,2.885496356928067e-08,-3.140821923579775e-08,4.59734259993156e-09
1155,-1.939143572107424e-08,2.1281429138005456e-07,-2.3293754474693118e-07,2.7359629503254778e-08
1156,-1.0756287536250864e-07,1.1753384539753087e-06,-1.2941716150957174e-06,1.1555679911190603e-07
1157,-4.863613912158358e-07,5.201939409490066e-06,-5.7583618082331155e-06,3.6065459446275827e-07
1158,-1.8740113496153944e-06,1.9282403609893946e-05,-2.1436361946788885e-05,8.107347878548091e-07
1159,-6.335317451369944e-06,6.176505587151404e-05,-6.887038694381255e-05,1.0383176249280248e-06
1160,-1.9179378740577112e-05,0.00017503375057032608,-0.00019545948499193907,-1.0685734385657983e-06
1161,-5.2777228788425535e-05,0.00044696687848708383,-0.0004990444846468247,-1.1866673298599138e-05
1162,-0.00013351942694714433,0.0010437737839148996,-0.0011632002588875376,-4.6431975292439186e-05
1163,-0.0003134105350560811,0.002256079879014799,-0.0025052253782591742,-0.00013532207313124772
1164,-0.0006878995492792168,0.004558972883925456,-0.005036136135928756,-0.00033370483305583947
1165,-0.0014214412028062577,0.008685343446816565,-0.009530305376101755,-0.000732666789847569
1166,-0.0027819766294228843,0.01571042183368624,-0.01710106338149274,-0.001472363373575819
1167,-0.005185062163871703,0.027143971416387386,-0.029277655681637014,-0.002756612158363053
1168,-0.009247763399734897,0.045025072003515486,-0.04807826436440194,-0.004868462119682889
1169,-0.01585164428993201,0.07201271899021226,-0.07607306345141031,-0.008186118976318539
1170,-0.026213146764648018,0.11146359053377038,-0.11643039432155874,-0.013198382272879155
1171,-0.04195835686199501,0.16748648494163243,-0.17293823723011087,-0.02051854704546889
1172,-0.06519763206551585,0.2449614553120031,-0.24999261001591716,-0.030895666677591128
1173,-0.09859397229006203,0.34951098358255683,-0.3525447600248395,-0.04522223829414729
1174,-0.14541755940563436,0.4874110201003049,-0.48600038165391873,-0.06453776296410282
1175,-0.20957779245341826,0.6654316208061603,-0.6560666842157382,-0.09002815760001931
1176,-0.2956236448676663,0.8906003294016556,-0.8685468350408302,-0.12302151000475738
1177,-0.4087034567076563,1.1698862683131694,-1.1290857502940976,-0.16498104817591627
1178,-0.5544764939053022,1.5098088248433892,-1.4428759338099622,-0.2174963913555316
1179,-0.7389707718386628,1.9159813973167883,-1.8143366078800067,-0.28227422128347895
1180,-0.968384679919959,2.392607371352532,-2.246783318093122,-0.36112954036780903
1181,-1.2488337004513854,2.941951802734408,-2.742108203778634,-0.4559787155588687
1182,-1.5860478369492397,3.5638177166234746,-3.300492848783284,-0.568835474029092
1183,-1.985030068435222,4.255060077991705,-3.920175744385561,-0.7018107701010419
1184,-2.4496909699454905,5.009172953465173,-4.597294635820319,-0.8571167917062829
1185,-2.9824791938347777,5.815985789961646,-5.325820397062956,-1.0370742073850174
1186,-3.5840312520196527,6.661502729867439,-6.097593876646187,-1.2441201143579792
1187,-4.2528664172034905,7.527914225667622,-6.902470961369884,-1.4808123116552052
1188,-4.9851530897151095,8.39380286618486,-7.728574507393609,-1.7498239501128272
1189,-5.774571402385569,9.234555514851333,-8.562645262693184,-2.0539217929201525
1190,-6.612293113943196,10.022982105879684,-9.390477697048778,-2.3959215800672733
1191,-7.487094133366587,10.730128512525837,-10.197420891052193,-2.7786153338055493
1192,-8.38560758095423,11.326257717841388,-10.968919539600222,-3.204667602902303
1193,-9.292716494894659,11.78196106603225,-11.691066094625947,-3.6764802086863004
1194,-10.192075592180448,12.069350602482054,-12.351132730979343,-4.196027681563791
1195,-11.066741507785824,12.163275262823229,-12.938051763992746,-4.764668092775861
1196,-11.899881422072026,12.042498634537624,-13.442815789968405,-5.38293641342613
1197,-12.675521780671959,11.690774686778921,-13.85877412485484,-6.05032996882708
1198,-13.379292749420546,11.097760533098006,-14.181809627489386,-6.76509799796701
1199,-13.99912082588272,10.25971199354414,-14.410388880708375,-7.5240495636509115
1200,-14.525822165733638,9.179918207445128,-14.545488000715427,-8.322395641324905
1201,-14.953552914268913,7.868845241292469,-14.590405140698417,-9.153641619812001
1202,-15.280080132963556,6.343974650874737,-14.550478267382852,-10.009545250619585
1203,-15.506847431496656,4.629340156779956,-14.432732449391933,-10.880152147231561
1204,-15.638822544071349,2.7547827198798833,-14.245484260622634,-11.753916448090914
1205,-15.684128940021177,0.7549601279018241,-13.997931767214276,-12.617908700211581
1206,-15.653479046712897,-1.3318393487249653,-13.699756960120181,-13.458107045354698
1207,-15.559441571220313,-3.4650194329775776,-13.360763798186522,-14.259762063621091
1208,-15.415588479229859,-5.603068178068891,-12.990569819219727,-15.007820695394098
1209,-15.235577304301435,-7.704951490335139,-12.598363239038632,-15.68739085107796
1210,-15.032230739914237,-9.731440906143087,-12.192731105230667,-16.284225794871674
1211,-14.816677415108952,-11.646314443026148,-11.78155775237918,-16.785206225802845
1212,-14.597615211977025,-13.41737875316475,-11.371986756504782,-17.17879824853697
1213,-14.38075159272348,-15.017273260800858,-10.970434109862524,-17.455467161842474
1214,-14.168464495540965,-16.424031582471198,-10.582635933014586,-17.60803013803652
1215,-13.959712997805987,-17.62139117698887,-10.213711293506057,-17.63193517926836
1216,-13.750209954739901,-18.59885757263768,-9.868220176353677,-17.525458798053656
1217,-13.532850354159777,-19.351543422987618,-9.550198612298878,-17.289820120369043
1218,-13.298370579486525,-19.879814023216102,-9.26315732445253,-16.929213942601486
1219,-13.036196625526276,-20.188779115978278,-9.010036466895848,-16.45076911048546
1220,-12.735424960386325,-20.28767556049883,-8.793116294518976,-15.864440948374853
1221,-12.38586930092388,-20.189186786444708,-8.61389093784329,-15.182847078428502
1222,-11.979100885611686,-19.908743163108852,-8.472918908619832,-14.421054829892958
1223,-11.509409301068077,-19.46384286127931,-8.369668756031563,-13.596325879594541
1224,-10.974615572998792,-18.87342592885098,-8.302380906072118,-12.727820382521916
1225,-10.376678664801718,-18.157325704221364,-8.267966995625569,-11.836259408850918
1226,-9.722049993733297,-17.3358120275803,-8.261966086104799,-10.94354176192569
1227,-9.021747022811603,-16.429230750696934,-8.278573417980382,-10.0723098278027
1228,-8.291135178086623,-15.457734599959483,-8.310752322257706,-9.245459392982218
1229,-7.549425904975722,-14.441092290263068,-8.35043402663121,-8.485590496582894
1230,-6.818916263860966,-13.398556594046081,-8.388803713421185,-7.814400316927039
1231,-6.124010905581995,-12.348768348472634,-8.41666452757291,-7.252024676867745
1232,-5.490079684890417,-11.309672415536756,-8.424864455357664,-6.816341760352829
1233,-4.942213031820087,-10.298423373453257,-8.404764365233627,-6.52225965237721
1234,-4.503942198723071,-9.33126286147789,-8.348719594834128,-6.381017632240417
1235,-4.195992504657937,-8.423356382528196,-8.250543122936286,-6.399538728252143
1236,-4.035134694075049,-7.5885842058542305,-8.105916558811211,-6.579876671814427
1237,-4.033192722482413,-6.8392880593651695,-7.912716571177787,-6.918802985189394
1238,-4.196256161643096,-6.185981982473971,-7.671229075192494,-7.407578740749186
1239,-4.524132839845869,-5.637041639658843,-7.384230923054655,-8.031950190567457
1240,-5.01006345150919,-5.1983913067213425,-7.056928028667988,-8.772397948209175
1241,-5.640706005061323,-4.873211416941,-6.696748676518914,-9.604655947113885
1242,-6.396385330403006,-4.661691773498171,-6.313000248447706,-10.500499523361693
1243,-7.251592254632799,-4.560856076032504,-5.916406082173006,-11.428782608330236
1244,-8.175708804128522,-4.564482048211791,-5.518546324955543,-12.356683598090832
1245,-9.133929816953897,-4.66313801487872,-5.131232493528317,-13.251099929617064
1246,-10.088347453883905,-4.844351256933494,-4.765850104381182,-14.080115053520041
1247,-10.999163097966605,-5.0929162091916504,-4.432707168049827,-14.814450649497976
1248,-11.825990838473942,-5.3913422967451705,-4.140428095135158,-15.428813319747436
1249,-12.529217684869993,-5.720432887636994,-3.895431918263746,-15.903049228212803
1250,-13.071387049486878,-6.059979304118819,-3.7015299682465534,-16.22303159020432
1251,-13.418572932323853,-6.389547518417678,-3.5596710327876315,-16.3812230216109
1252,-13.54171191895855,-6.689330126451593,-3.4678520063585108,-16.37687579635643
1253,-13.417858385388785,-6.941032377713756,-3.4212001938505074,-16.215856600991934
1254,-13.031325535113595,-7.128758492001957,-3.412221159549919,-15.910107370282141
1255,-12.374671773165538,-7.239863435287668,-3.431194691982752,-15.476779204544838
1256,-11.449489223339949,-7.265736030994286,-3.466692171178783,-14.937100734630754
1257,-10.26694959127356,-7.202481867794918,-3.5061819430412493,-14.315063478615354
1258,-8.848062615172632,-7.051478779169038,-3.5366853473520377,-13.636022156125518
1259,-7.223604492219698,-6.8197833398631476,-3.545444567574044,-12.92531523541995
1260,-5.433678456597293,-6.520373468095186,-3.520564164286843,-12.207008729416373
1261,-3.5268777290626616,-6.172219671895447,-3.4515907212217223,-11.502854337646543
1262,-1.5590330347563814,-5.800185926639755,-3.3299993174178653,-10.83153269058168
1263,0.40845668115879347,-5.434771155685718,-3.1495614180935285,-10.208225925375242
1264,2.310690630023354,-5.111714446817019,-2.90657616815125,-9.644533830273641
1265,4.081684619110062,-4.871501648670337,-2.5999557540755402,-9.148717157963137
1266,5.657068116264367,-4.758826860078036,-2.231165019364374,-8.72622307654447
1267,6.976957016744579,-4.82207704828449,-1.804025117432474,-8.38042347484852
1268,7.988871381501366,-5.112918098240399,-1.3243996630259482,-8.113479020213003
1269,8.650544460677901,-5.686062751879271,-0.799788669816546,-7.92723208443955
1270,8.932454345268733,-6.599293433940533,-0.23885986445905077,-7.824030862454143
1271,8.819905177916826,-7.913796224186714,0.34905148276816444,-7.807395246494988
1272,8.314492699478246,-9.694838055753424,0.9544441865400853,-7.8824513399681715
1273,7.434809593997079,-12.012789721950883,1.568127573093752,-8.056084111846891
1274,6.216279109125881,-14.944463818948257,2.1816510114129812,-8.336784360332437
1275,4.71004927782641,-18.574699649845886,2.787670574121713,-8.734194508644034
1276,2.9809325936820836,-22.998086230121544,3.380242488255201,-9.258385518799653
1277,1.104434572530158,-28.32067044040661,3.9550379474646764,-9.918922207937516
1278,-0.8370237568632478,-34.661452442683235,4.509477694902325,-10.723794387301622
1279,-2.7585232959555417,-42.15342936284625,5.042787473399135,-11.678304548519899
1280,-7.453813276260532e-09,-3.711139370773665e-09,-3.56481847722056e-10,-5.017316627126259e-10
1281,1.7439451201387094e-09,-6.464643010943269e-08,-3.06919035910566e-09,-5.193703421519654e-09
1282,-4.5074785590880436e-08,-7.319559594264699e-07,-3.758024420676002e-08,-5.8892699253702054e-08
1283,-3.808295007647787e-07,-5.404154898394289e-06,-2.674266587189802e-07,-4.255777066118598e-07
1284,-1.9735406522140244e-06,-2.9945905807611317e-05,-1.4409660964030385e-06,-2.2872626967179903e-06
1285,-8.511159352428397e-06,-0.00013310886086652975,-6.242430974504853e-06,-9.860076172072956e-06
1286,-3.0526094636973875e-05,-0.0004959693578355469,-2.2713591023211553e-05,-3.559060801648949e-05
1287,-9.433193511573872e-05,-0.0015984202844959137,-7.165332398332656e-05,-0.00011105396934924999
1288,-0.00025746681587194946,-0.004561551721043486,-0.00020060318287843174,-0.00030678148179544697
1289,-0.0006320894195059791,-0.011740543153839185,-0.000507560202966271,-0.0007644589757354794
1290,-0.0014177605336301044,-0.02765715547850003,-0.001177490424836626,-0.0017443538772029
1291,-0.0029426808990983197,-0.06035241996106555,-0.002534214833702445,-0.0036898494347023217
1292,-0.005713238799930216,-0.12321911343712574,-0.005109101590191056,-0.007309576447415265
1293,-0.010472031448664354,-0.23734432365852234,-0.00972665146549738,-0.013676335263139789
1294,-0.018264570287476318,-0.43435703359841643,-0.017605387209575756,-0.024340509942542877
1295,-0.030517284118682632,-0.7597358637805961,-0.030470777784236694,-0.04145400245490004
1296,-0.04912708111872906,-1.2764855953411094,-0.050675051775841355,-0.06789828879882225
1297,-0.0765623369828347,-2.0690364268739856,-0.08131687941957665,-0.10740705535080508
1298,-0.11597074648535236,-3.2471557329566143,-0.1263520899630025,-0.16467030617693032
1299,-0.1712860955686155,-4.949591774790314,-0.19068479851679115,-0.2454034563470413
1300,-0.24732428396120096,-7.347099543146717,-0.2802268284865734,-0.3563628973277534
1301,-0.3498561525459575,-10.644441046442457,-0.4019120399707437,-0.5052893984056098
1302,-0.48564673596483476,-15.080918673385229,-0.5636517213268815,-0.7007632353002512
1303,-0.6624493480787631,-20.92900089734958,-0.7742177854546608,-0.9519597986621396
1304,-0.8889453236049942,-28.490642917134913,-1.0430428287543763,-1.2683014203792038
1305,-1.1746184686554486,-38.09099277304641,-1.379930068100055,-1.6590092832189833
1306,-1.5295552917311275,-50.06930464546102,-1.79467188058628,-2.1325681113939066
1307,-1.9641609665040012,-64.76704807339868,-2.296582440415745,-2.6961252455647067
1308,-2.488785194874267,-82.51339565848248,-2.8939574147001634,-3.3548543717830532
1309,-3.1132546216116777,-103.60848014989016,-3.5934810841720872,-4.111322349956499
1310,-3.8463161707113924,-128.3050216167559,-4.39960804759214,-4.964904479693531
1311,-4.695002656749569,-156.78912315891475,-5.313952471554551,-5.911298579368686
1312,-5.663940657235194,-189.16120413420657,-6.334722024067802,-6.942190117752731
1313,-6.754630138564368,-225.4181692603002,-7.456236045470496,-8.045118532852635
1314,-7.964731646678039,-265.4379849842465,-8.668567513935292,-9.203587667149897
1315,-9.287404841775109,-308.967839149069,-9.957345890865012,-10.397450850936947
1316,-10.710744192386764,-355.61698549160656,-11.303752560127405,-11.603583716852178
1317,-12.217360839856841,-404.85521651051215,-12.684732678121435,-12.796836658458812
1318,-13.784156226740347,-456.0176669317487,-14.073436916335508,-13.951235754429579
1319,-15.3823306324178,-508.3163345550386,-15.439894563793047,-15.041377976529134
1320,-16.97766054678907,-560.8583310152627,-16.751906091757995,-16.04394587601958
1321,-18.53107047553626,-612.6704653183441,-17.976129301264795,-16.939250218622703
1322,-19.99950961702545,-662.7293458648219,-19.079319258452472,-17.7126979554446
1323,-21.33712954666042,-709.995792257371,-20.02966916463012,-18.35607838608266
1324,-22.496739841755197,-753.4520073915774,-20.798188416130277,-18.868563548016688
1325,-23.431499649186865,-792.1396995252277,-21.36004626742485,-19.257329914071196
1326,-24.09678518065765,-825.1971860164233,-21.695805947314003,-19.53772751658891
1327,-24.45215411043004,-851.8934695921663,-21.792475124199267,-19.732948512459046
1328,-24.463315341025613,-871.657362632819,-21.644304713400206,-19.873178622254873
1329,-24.10400057176381,-884.0999433149605,-21.253278714582247,-19.99424949088284
1330,-23.357631384665424,-889.0289510719114,-20.62925285812144,-20.135845257348425
1331,-22.218675447553885,-886.4541494504413,-19.789718311081923,-20.3393498735423
1332,-20.693595994409634,-876.5831780433064,-18.75918768735269,-20.645450155957228
1333,-18.801312204426736,-859.8079507982206,-17.56822259799634,-21.0916311873509
1334,-16.573111566816454,-836.682201501948,-16.25214346033953,-21.70971338589529
1335,-14.051980318093241,-807.8912936013468,-14.849481927257779,-22.523583264838713
1336,-11.291349494315961,-774.2158663238798,-13.400252739054007,-23.547261644611
1337,-8.353286125120588,-736.4912535388065,-11.944134515762478,-24.78343426945065
1338,-5.306190310398418,-695.5648617353505,-10.518657219099943,-26.222541260968327
1339,-2.2220907549696634,-652.2538138430948,-9.157497544570035,-27.842485990823068
1340,0.8263440312488789,-607.3051480477051,-7.888981577239208,-29.608983470481718
1341,3.7689383770563274,-561.3607075448717,-6.734886362017829,-31.476526808398308
1342,6.541132467113,-514.928578049928,-5.709617921076046,-33.38991116269494
1343,9.086933105922459,-468.3625448905072,-4.819823030635161,-35.28622102228231
1344,11.361532779374036,-421.8505765268951,-4.064466394020188,-37.09716141364718
1345,13.333445968288276,-375.412828461314,-3.4353755997807327,-38.75159824734922
1346,14.986033177457404,-328.90913442390837,-2.9182257420603435,-40.178168543198176
1347,16.318309924198413,-282.05544298129655,-2.4939061276865826,-41.307827197824075
1348,17.344975111363524,-234.4481973163296,-2.1401854496422357,-42.07621241102514
1349,18.095634470306845,-185.59526697184347,-1.8335706130375942,-42.425734706168825
1350,18.61323788243017,-134.95174111260468,-1.551239661440973,-42.30732247457969
1351,18.951794620792544,-81.95869324940546,-1.2729217616643969,-41.68178727034714
1352,19.173469055383798,-26.082932539752466,-0.9825979492783604,-40.52080190541373
1353,19.345196323387782,33.14423563691764,-0.6699052726654041,-38.80751120485438
1354,19.534983616661076,96.09111295392596,-0.3311439565722053,-36.53681653311873
1355,19.808084419913566,162.99425948596576,0.030189075291747133,-33.715389365573266
1356,20.2232417111252,233.93311743457429,0.40338774416839307,-30.36147489407925
1357,20.82919874101708,308.81171848673137,0.7710600253425659,-26.50454398133881
1358,21.661664393561267,387.34823766375786,1.1101664619519545,-22.184841151855643
1359,22.740902056741902,469.0727918530008,1.3935184236144618,-17.452859580595213
1360,24.070079367708246,553.333517804493,1.5916470933539575,-12.368753272832711
1361,25.63447989691034,639.3106173560672,1.674924743837557,-7.00167472644902
1362,27.401632422116702,726.0377403821318,1.6157974054951025,-1.429006244525623
1363,29.322365603850326,812.429797248943,1.3909749155363178,4.26456258838528
1364,31.332747817651516,897.3160599085094,0.9834228039841738,9.988167341244232
1365,33.35682320445394,979.477227524385,0.3840110116137382,15.646167278319643
1366,35.310014424172195,1057.6850018599541,-0.407303376200515,21.13985677833048
1367,37.10302508783238,1130.7426398715102,-1.3808505803541207,26.369517854169985
1368,38.64604994479095,1197.5249272760666,-2.5172325062765806,31.23681524219866
1369,39.85308249607873,1257.0160463535092,-3.7879277716241404,35.6475028042522
1370,40.64610626971012,1308.3438940579372,-5.156485570273834,39.51437411463211
1371,40.95896014713454,1350.8095403028324,-6.580236206887596,42.760354281551805
1372,40.74068718561625,1383.9106991361425,-8.012410698385331,45.321597948470796
1373,39.95820150745105,1407.3583121560064,-9.404533306299179,47.150433087827096
1374,38.598145000838066,1421.0856083665094,-10.708931465920942,48.21797487560451
1375,36.667845269663616,1425.2492983885118,-11.881198638191282,48.51623065485702
1376,34.19533257204127,1420.2228736204736,-12.882448426082508,48.05952735039226
1377,31.228419945432037,1406.5822997557875,-13.681212834175184,46.88511646202789
1378,27.832895723735035,1385.084705416518,-14.254863297265217,45.05284800981617
1379,24.089922325326917,1356.6409566403079,-14.590467940943745,42.64385103756043
1380,20.092771311600565,1322.2832618202287,-14.685039902141746,39.758211864636074
1381,15.943057619058038,1283.1291572913397,-14.545175941849882,36.5116988531315
1382,11.746656125465382,1240.3433692083127,-14.186128550531224,33.031640648999186
1383,7.609497576503845,1195.0991250621223,-13.630395039938872,29.452120214008
1384,3.633440235637762,1148.5404920483932,-12.905940473616806,25.908695583824745
1385,-0.087593600450363,1101.7472487542561,-12.044195352827769,22.53289680580261
1386,-3.471047472142686,1055.7036528707822,-11.077981478036168,19.446773383009674
1387,-6.44858247440385,1011.2722584604339,-10.03951950615924,16.757775520000962
1388,-8.968240162860251,969.1736718865385,-8.958659198502,14.554243790070657
1389,-10.995840311658139,929.9728314280483,-7.86144975755106,12.90175563217143
1390,-12.515576594538002,894.0720686784638,-6.769135181324283,11.8405342563203
1391,-13.529811869129063,861.710879472057,-5.6976215805529575,11.384068872854058
1392,-14.058111402544208,832.9720172067302,-4.657423448044996,11.51902809508829
1393,-14.13558858215548,807.793239323682,-3.654057288502564,12.206475557213091
1394,-13.810665642617202,785.9838041126743,-2.6888170261086723,13.384323121205943
1395,-13.142377675663157,767.2446406872103,-1.7598382897920102,14.97088716359074
1396,-12.197363020880001,751.1910081253262,-0.8633399254300126,16.869351718336336
1397,-11.04669408979829,737.3764224999292,0.005078391451771941,18.972891777796743
1398,-9.762701987031173,725.3166622423333,0.849203110422031,21.170173679743055
1399,-8.415943847635173,714.5127566707132,1.671149036606299,23.35092896775301
1400,-7.072446499156053,704.4720112519256,2.470568600157229,25.411295169197867
1401,-5.791342090184424,694.726313139186,3.244193729465687,27.25863208118975
1402,-4.622985446758597,684.8471780478343,3.985744312133298,28.815555367761718
1403,-3.607615005876097,674.4572281243363,4.686203225377584,30.022978623366065
1404,-2.774588959459405,663.2380153198235,5.3344243279853085,30.842017705951175
1405,-2.1421972466676666,650.9343112731403,5.918009898825146,31.254682650491176
1406,-1.7180200744391023,637.3551612668945,6.424370532568746,31.26335786789222
1407,-1.499776561828296,622.3721377200069,6.8418656142062835,30.889145363342394
1408,-7.655004416083375e-11,1.6679990309210255e-09,-5.198195540891031e-11,-2.7890653627377687e-10
1409,-1.5590125363946631e-09,3.0979658534160636e-08,-5.310206661561152e-10,-2.41314852966706e-09
1410,-1.7016615701319973e-08,3.5107209544851073e-07,-6.643510654262435e-09,-2.7940487321956267e-08
1411,-1.2283533429501186e-07,2.586121199892803e-06,-5.155938486954445e-08,-2.02694820809681e-07
1412,-6.639361865809327e-07,1.4294501139000744e-05,-3.031839500192442e-07,-1.0889825372836285e-06
1413,-2.8773929103915042e-06,6.336774126947456e-05,-1.4349412257610447e-06,-4.682842479594163e-06
1414,-1.0447486576440277e-05,0.00023542608916200344,-5.698493867615149e-06,-1.68045799991085e-05
1415,-3.2790131747008515e-05,0.0007563776741649712,-1.955446662110769e-05,-5.1929860735225225e-05
1416,-9.107533992304725e-05,0.002151398297991501,-5.925255100055859e-05,-0.00014145899164247399
1417,-0.00022802470533562626,0.005517878522856293,-0.00016126204337370728,-0.00034599276119856814
1418,-0.0005223114530438056,0.012950453166160652,-0.00039969086019012076,-0.0007712429906376211
1419,-0.00110799985234626,0.028150479835547578,-0.0009126471133185098,-0.0015861151291315764
1420,-0.002198997143696704,0.05724074536346218,-0.0019388547550009865,-0.0030406153966181884
1421,-0.004118067148159821,0.10979100984216887,-0.003864926886283033,-0.0054807374472523335
1422,-0.007329597423449385,0.2000425013766754,-0.007282795843077312,-0.00935754116538323
1423,-0.012474971103186351,0.34830059334687086,-0.013056113853590803,-0.015227912395597702
1424,-0.02040894432424709,0.582443681987758,-0.02239398478235258,-0.02374500011017101
1425,-0.03223475769519697,0.9394721968227424,-0.036929968751154264,-0.03563684602757291
1426,-0.04933477405696252,1.4669942301494203,-0.05880356243544374,-0.05167251199903878
1427,-0.07339235789323854,2.224515173973479,-0.0907400794584813,-0.07261596190616416
1428,-0.10639977970242606,3.284371425376248,-0.13612303938037634,-0.09916922276397444
1429,-0.15064650844903607,4.732127451770504,-0.19905119744504243,-0.13190765691982342
1430,-0.2086826552860857,6.666247060452941,-0.28437078695515455,-0.1712115994306491
1431,-0.28325364106475864,9.196857979393211,-0.3976729441758823,-0.2172000405592101
1432,-0.37720421913506125,12.443457248417003,-0.5452469667391943,-0.2696734592250462
1433,-0.4933524333748481,16.53145371900752,-0.733981943458939,-0.32807426600382106
1434,-0.6343365411066394,21.587511729368448,-0.9712120932978116,-0.39147408825880375
1435,-0.802440131345943,27.73374241219289,-1.2645044142643274,-0.4585970017395704
1436,-0.9994025770878028,35.080880955263076,-1.6213906419326716,-0.5278861482551105
1437,-1.2262237018237716,43.72068303885466,-2.0490488439481758,-0.5976179661681018
