,TP9,AF7,AF8,TP10
0,-9.836964022049656e-11,-7.296036518026954e-11,-1.0765039626505564e-10,-1.1339835048786568e-10
1,-2.1966287864864592e-09,-1.4134562407149851e-09,-2.071522525883059e-09,-2.5372414782169156e-09
2,-2.4548920211787894e-08,-1.607516573956504e-08,-2.33956262975118e-08,-2.8181285134472255e-08
3,-1.809520296150207e-07,-1.201520005013449e-07,-1.7370409231780493e-07,-2.0665072337564137e-07
4,-9.931672008489588e-07,-6.736622376896122e-07,-9.682433759469394e-07,-1.1291336471423148e-06
5,-4.3437182474723685e-06,-3.0293519456599655e-06,-4.333104289448587e-06,-4.919604595462914e-06
6,-1.582190027529378e-05,-1.141597744647319e-05,-1.626941498621154e-05,-1.7863955635052026e-05
7,-4.954085829349361e-05,-3.719356099387325e-05,-5.287722219388079e-05,-5.579870185558642e-05
8,-0.00013660882194233324,-0.000107241738979826,-0.00015227827132528244,-0.0001535824687248678
9,-0.00033821357585458116,-0.0002786985094462142,-0.000395715658797929,-0.0003797267889354305
10,-0.0007638389499326462,-0.0006624468918919625,-0.0009415055364104729,-0.0008567525566773358
11,-0.0015947527182480945,-0.0014575784648791718,-0.002075432965326127,-0.0017873523401054513
12,-0.0031127885974558517,-0.0029985533477082144,-0.004280577542163411,-0.0034862102784506415
13,-0.005734519876267116,-0.005816018909540966,-0.008328519102266702,-0.0064173468766727144
14,-0.010050908162912531,-0.010711309857051057,-0.015392497229410785,-0.011236891372533551
15,-0.01687216786879633,-0.018843561850242156,-0.027181437647572238,-0.018841006316614877
16,-0.027276885944511,-0.03182708705776011,-0.04609175011441959,-0.030418191450471498
17,-0.04266350529562092,-0.0518351560332199,-0.07537138385912617,-0.04750437133813083
18,-0.06480124682432399,-0.0817046080609601,-0.11928778439462841,-0.07203805014878771
19,-0.09587649912745659,-0.12503386963023055,-0.18328829668181298,-0.10641150356726718
20,-0.13852979620312156,-0.18626517465648657,-0.27413852345686035,-0.15351275205126788
21,-0.195877972003995,-0.27074029246202713,-0.4000215845483787,-0.21675232407451586
22,-0.271516125215028,-0.3847181723147774,-0.5705795744553683,-0.30006885274746653
23,-0.369494631320287,-0.5353428707468069,-0.7968781434262636,-0.40790829299891523
24,-0.49426739786709106,-0.7305511663920061,-1.0912763429943744,-0.5451726619453916
25,-0.6506086871173089,-0.9789114929833325,-1.4671868604581448,-0.717135380809035
26,-0.843497128803713,-1.2893892430717455,-1.9387166088836985,-0.9293214890083624
27,-1.0779671248562823,-1.671037978859092,-2.520184249945011,-1.1873523786359477
28,-1.358929734231061,-2.132621402400366,-3.2255193686515318,-1.4967564082484777
29,-1.6909671791666157,-2.68217673739442,-4.067557243283998,-1.8627487839397154
30,-2.0781071565537794,-3.326536035055987,-5.057252848281222,-2.2899863320356433
31,-2.5235851003072076,-4.070827371464385,-6.20284716447752,-2.782305126642371
32,-3.0296044230057912,-4.91798247882486,-7.509027261612033,-3.34245125146543
33,-3.597106467424048,-5.868280641224898,-8.976128235720047,-3.971817019223925
34,-4.225563138177282,-6.918960328385089,-10.599429250722533,-4.670196386228709
35,-4.912805647194875,-8.063929771927546,-12.368597108914617,-5.435573809138371
36,-5.654902347425549,-9.29360528971201,-14.267328523864437,-6.263960362748132
37,-6.4460972929689655,-10.594901524755366,-16.273236365798702,-7.149289718714348
38,-7.278819016039604,-11.951390881649521,-18.358015558377126,-8.08338467251009
39,-8.14376603739101,-13.343640515994693,-20.487911287145188,-9.056002239267704
40,-9.030071844314083,-14.749724676955887,-22.62449626360173,-10.054961846677452
41,-9.925547723292484,-16.145898695924643,-24.72574582817349,-11.066356982522233
42,-10.816997382137433,-17.507409322877542,-26.747380770669984,-12.074846204194236
43,-11.690593177375339,-18.809405396887122,-28.644429162033408,-13.064015142221095
44,-12.532300190795533,-20.02790394337465,-30.37294157636117,-14.01679735015659
45,-13.328331398892404,-21.140760500763236,-31.89178012579692,-14.915938748760556
46,-14.065614789084163,-22.128589374580653,-33.164391922202135,-15.7444881244298
47,-14.732251641792368,-22.975579902856932,-34.16047284709955,-16.486294785330696
48,-15.317944483906956,-23.67015877344227,-34.85742848968495,-17.126494053370592
49,-15.814373493429931,-24.20545580837719,-35.24154599987486,-17.651961630333894
50,-16.215501407293733,-24.5795411087823,-35.30880318544132,-18.051718875856345
51,-16.517789326142047,-24.795414520851672,-35.065258785555564,-18.31727269878676
52,-16.720309358503915,-24.860743335995178,-34.526989468878085,-18.44287627165717
53,-16.824744806421393,-24.787360024668367,-33.71956342663728,-18.42570022460726
54,-16.835274268489854,-24.59054747150898,-32.6770659759027,-18.265908159115412
55,-16.75834209500115,-24.288153376006107,-31.440717777965602,-17.966634788409678
56,-16.6023235819463,-23.89958699998311,-30.05714951778168,-17.533869296730806
57,-16.377098858690776,-23.444759319575567,-28.57641673519859,-16.97625032294785
58,-16.093554464498773,-22.943031249362527,-27.049853694321655,-16.3047821756516
59,-15.76303593076458,-22.41223374449615,-25.527874784462462,-15.532484386576972
60,-15.396778005469539,-21.8678184195067,-24.05783533926005,-14.67398845969344
61,-15.005341227347074,-21.322188320683775,-22.682060673735055,-13.745096750816373
62,-14.598084262628154,-20.784246332572067,-21.43614270331456,-12.762319016424044
63,-14.182700694709451,-20.259184205385463,-20.347588283418474,-11.74240247437217
64,5.0776172416882994e-11,-1.0316424915133047e-10,-1.4113872424032994e-10,7.334932598450928e-11
65,1.1388995560572134e-09,-2.200106770041524e-09,-3.0449785428340458e-09,1.643545817867641e-09
66,1.2410037042957132e-08,-2.4507364858155462e-08,-3.36502048132183e-08,1.792877796465582e-08
67,8.900812579346915e-08,-1.8072572044523502e-07,-2.4634086557081755e-07,1.290782813233549e-07
68,4.728882269464557e-07,-9.99349496643133e-07,-1.3515088548133766e-06,6.907992461636589e-07
69,1.9876339060808533e-06,-4.4341837447716285e-06,-5.947569439219375e-06,2.937996692537239e-06
70,6.8929534491071665e-06,-1.6499971052248623e-05,-2.1944818343632284e-05,1.0369158408700254e-05
71,2.0308901345448253e-05,-5.312894852082267e-05,-7.006000034347495e-05,3.1322002118317866e-05
72,5.194306488990944e-05,-0.00015155260494637804,-0.00019817085411349562,8.291149365683737e-05
73,0.00011720931683461381,-0.0003900649981816528,-0.0005059207869431426,0.00019599390880038208
74,0.0002361573814451915,-0.0009192221225111626,-0.0011831738868918874,0.00042025856264748694
75,0.00042829128438480116,-0.0020072751644882756,-0.002565674090428519,0.0008282244010095609
76,0.0007015297151782593,-0.004101926364476642,-0.005210563256455444,0.0015169338300548162
77,0.001034103439243499,-0.007909424918115115,-0.009993281715587702,0.0026062811501085083
78,0.0013487411486187192,-0.014490681885089144,-0.018225801830438287,0.0042328650863788465
79,0.0014788279790217994,-0.025372540994067053,-0.03179413726080872,0.0065379165675600245
80,0.0011263961945811943,-0.04267059090761501,-0.05331067832702183,0.00964748230006599
81,-0.0001879189197649218,-0.06921791650942473,-0.0862742395651964,0.013643043328316558
82,-0.0031822559518079464,-0.10869195794276029,-0.13522791441420118,0.018521336910523475
83,-0.00887664203820843,-0.1657292776333498,-0.20590209136591114,0.02414325115414725
84,-0.018659080607929597,-0.2460157582590924,-0.3053275459844166,0.030173045990824623
85,-0.03435043634031594,-0.35633791484925803,-0.44190172847715165,0.036010621253282346
86,-0.05826238091585785,-0.5045800136972386,-0.625390653436682,0.040720956112666004
87,-0.0932412248880183,-0.6996519334859751,-0.8668495816866011,0.0429660229541787
88,-0.14268954965218325,-0.9513344754993003,-1.1784482261449527,0.040945286803664514
89,-0.21055747083487658,-1.270032259421226,-1.573190492756583,0.03235133864184537
90,-0.30129614260734694,-1.6664293841305238,-2.0645245008297954,0.01434743290399964
91,-0.4197676136922512,-2.1510494545501095,-2.665845385805385,-0.016426204144912485
92,-0.57110732022128,-2.7337289991330382,-3.3899007733120055,-0.06381069800141516
93,-0.760538474397988,-3.4230212403100384,-4.248116506329603,-0.13204605684132717
94,-0.9931414890086293,-4.225555093385785,-5.249867897749753,-0.22564502766526695
95,-1.2735862008428522,-5.145381601177083,-6.401729035352703,-0.3492243196886689
96,-1.605839576721149,-6.183346191752436,-7.7067388533289645,-0.5072990579949088
97,-1.9928663195592764,-7.336529607310896,-9.163727040256349,-0.7040513541885406
98,-2.4363440071966025,-8.597802525212035,-10.766744612586582,-0.94308851210202
99,-2.936417856621228,-9.955538270988423,-12.504642559268941,-1.2272102088703865
100,-3.491522574439998,-11.393524216618173,-14.36083705604902,-1.5582066799217258
101,-4.098299548974609,-12.891105292822967,-16.31329141961747,-1.9367112143374192
102,-4.751636388999344,-14.423582615197331,-18.334733653322118,-2.3621299478842057
103,-5.444852219314978,-15.962876934082503,-20.393114938927926,-2.8326699295195943
104,-6.17004605419096,-17.478451139593723,-22.452299885219627,-3.3454826110661813
105,-6.918616889126631,-18.938469286383977,-24.47296506096092,-3.8969340394297323
106,-7.6819528815678,-20.311152598499316,-26.413669566357207,-4.483004903119732
107,-8.452273459629478,-21.566276812568923,-28.23205107968679,-5.099813293365433
108,-9.223593216469629,-22.676741195726578,-29.886093503332198,-5.744241168494922
109,-9.992761210324135,-23.620128769341406,-31.335408216855882,-6.414633049437292
110,-10.760515091226088,-24.380170701178635,-32.54247002673588,-7.111523571841487
111,-11.532477529552267,-24.948026268102392,-33.47375113687528,-7.838340307913816
112,-12.320013885168418,-25.323293676518276,-34.10070187425747,-8.602020842026768
113,-13.14086607154164,-25.514676390029674,-34.40053557200552,-9.413479464332767
114,-14.019479136664925,-25.54024410674611,-34.35678695113918,-10.287859835036128
115,-14.986944810761724,-25.42724645555065,-33.95962818933146,-11.244515942977763
116,-16.080500262504852,-25.211459864000055,-33.20594358784159,-12.306674573807783
117,-17.342540262508095,-24.93607266016276,-32.0991805876819,-13.500747992353256
118,-18.819126322845044,-24.650138884944997,-30.649009684954148,-14.855285183322842
119,-20.558006317250253,-24.406655978648484,-28.870836617535033,-16.399573102498017
120,-22.606191256681182,-24.260343927579356,-26.785215877322855,-18.161924821123918
121,-25.007170374666448,-24.26522219784052,-24.417214998109415,-20.167717519610424
122,-27.79787908376324,-24.472094631032327,-21.79577485540888,-22.43726800750891
123,-31.005564132072738,-24.926060523044868,-18.953103488761172,-24.9836548180553
124,-34.64471389046983,-25.664171806264537,-15.924130844033174,-27.810612118849107
125,-38.71423679025925,-26.713351488319265,-12.746040302718965,-30.910630061879505
126,-43.19507552446237,-28.088677570202382,-9.457880734802998,-34.26339740446491
127,-48.048437404906245,-29.792120256081038,-6.1002508431326365,-37.834714415830426
128,-2.016965792638726e-09,-1.4563848590470243e-10,-1.6958508141844232e-10,-1.3883775952159002e-10
129,-1.5276208268390103e-09,-3.1429384036171324e-09,-3.2035401360872307e-09,-3.0721630724729074e-09
130,-3.4293795730109155e-08,-3.5309985983514064e-08,-3.562453736142274e-08,-3.400710815338421e-08
131,-2.694409581679021e-07,-2.6216633356780733e-07,-2.5882622354564487e-07,-2.4825789483319027e-07
132,-1.4679960440748e-06,-1.4590888823293053e-06,-1.4114070154906596e-06,-1.3491942190288072e-06
133,-6.4672725954071295e-06,-6.51215971134225e-06,-6.177751396323598e-06,-5.841106908555221e-06
134,-2.3698102056135172e-05,-2.4355809137980786e-05,-2.268515622420824e-05,-2.1051579331260518e-05
135,-7.4708438308359e-05,-7.87526405408541e-05,-7.211656963332777e-05,-6.518035767423273e-05
136,-0.00020742780846712492,-0.0002253655448365782,-0.00020319731822635096,-0.00017758129649804707
137,-0.000517002702543059,-0.000581330821436415,-0.000516823088537305,-0.0004339106619677822
138,-0.0011749044916458805,-0.0013717126459144677,-0.001204111936246296,-0.0009658376390967024
139,-0.0024660057842688875,-0.0029967018637167848,-0.0026006781260589987,-0.0019841124554402737
140,-0.004832670334205075,-0.0061223070750269235,-0.005259051969248977,-0.003803257204715533
141,-0.008923990204883294,-0.011795790912522657,-0.010040151356047688,-0.006865997566981969
142,-0.015648191551213088,-0.021585389320464242,-0.01822363418571721,-0.011765536469434894
143,-0.026225676717484082,-0.03774195511515753,-0.031635787709040984,-0.019263634780888765
144,-0.042239543926056805,-0.06337797643058804,-0.05279210012552389,-0.03030216961598054
145,-0.06567970055594748,-0.10265679836854148,-0.08504964345153664,-0.046005505770530856
146,-0.0989760901252415,-0.16098175631949993,-0.13276179918654227,-0.06767076242683336
147,-0.145015245347353,-0.24517145281899275,-0.20142484740638697,-0.09674298291118187
148,-0.20713414014939585,-0.36360394828584275,-0.29780283535007934,-0.1347724982917354
149,-0.2890846986184112,-0.5263097483132527,-0.4300143732278419,-0.18335268191307189
150,-0.39496369017293714,-0.7449917955362747,-0.6075631201602654,-0.24403799246917313
151,-0.5291043691349148,-1.0329507585888213,-0.8412932292291434,-0.3182445525814221
152,-0.6959294028712338,-1.4048961184492694,-1.1432523815366618,-0.4071380722728428
153,-0.8997679072101473,-1.8766279745998353,-1.5264484116371275,-0.5115162356687994
154,-1.1446425770274216,-2.4645809929092435,-2.004490827160597,-0.631694454825783
155,-1.4340365451906647,-3.1852301485617245,-2.591115377191206,-0.767405079639709
156,-1.7706519412194899,-4.054367419300329,-3.2995978104382506,-0.9177206799120359
157,-2.1561746861223847,-5.086268794243008,-4.142071620908272,-1.0810117799947656
158,-2.5910607294598305,-6.292781256284203,-5.128773464933317,-1.2549483605301632
159,-3.074359611385633,-7.682369095040359,-6.267248591384724,-1.436552618081372
160,-3.6035901607155947,-9.259167292432707,-7.561556500802738,-1.6223080226606577
161,-4.174682262828682,-11.02209608895945,-9.011523551073994,-1.8083266711982462
162,-4.781995830274132,-12.964094501949972,-10.61209361514418,-1.9905732142690298
163,-5.418425083792649,-15.071530943748186,-12.352829462211496,-2.1651392182453337
164,-6.0755910475800246,-17.32384571211072,-14.217615615884714,-2.3285569622036233
165,-6.744119870980859,-19.69347274761987,-16.184607672460473,-2.478136847877986
166,-7.413997996468442,-22.146076675156365,-18.22646326325712,-2.612308359991816
167,-8.074988775561263,-24.64112611590871,-20.310876127100528,-2.730941289068585
168,-8.717089268139404,-27.132806267640042,-22.401417455815928,-2.835622081686293
169,-9.331000513653272,-29.571253861772092,-24.45866862959062,-2.929860053605154
170,-9.90858177471001,-31.904077151538385,-26.441608119911784,-3.019200046458906
171,-10.443257744186036,-34.078104056163035,-28.30919467501405,-3.1112219401281402
172,-10.930349472902364,-36.04128448074921,-30.022071053266995,-3.215412977898824
173,-11.367302706506964,-37.74465947973458,-31.544299244753404,-3.342905702467918
174,-11.753793100440259,-39.144301416474484,-32.84503041164933,-3.506082073117702
175,-12.09169442614951,-40.20312633592445,-33.90001103880483,-3.718052738086582
176,-12.384904767225146,-40.89248281123606,-34.692831004515234,-3.9920290823450157
177,-12.639035281979433,-41.19343053152237,-35.215829243705386,-4.340613964308247
178,-12.86097575093905,-41.097636439174245,-35.47058824884846,-4.775044286024007
179,-13.058360809078481,-40.60783544261896,-35.46796958027955,-5.304424104724068
180,-13.238968228402545,-39.7378254452722,-35.22766828601075,-5.9349904752675995
181,-13.41008711863617,-38.511991237465125,-34.7772934059759,-6.669455319759265
182,-13.577897029190186,-36.9643772001751,-34.15101255362743,-7.506465104718013
183,-13.746900238644342,-35.13735326790039,-33.387828383319516,-8.440215873422096
184,-13.919447083999561,-33.07994072693969,-32.52958087222141,-9.460254439459225
185,-14.09539006836558,-30.845882822366402,-31.6187894916593,-10.551487797852246
186,-14.271895375703254,-28.491558593408932,-30.696461845431628,-11.69441261540599
187,-14.443431650182474,-26.073845909332892,-29.79999932908985,-12.865565473315629
188,-14.601945255386068,-23.648040769768798,-28.96132556676971,-14.038182757971112
189,-14.737219215843426,-21.26593448051445,-28.205350120764273,-15.18304732995024
190,-14.837400604932958,-18.974138749459993,-27.54885906602513,-16.269488216177294
191,-14.889669419225203,-16.81273197399627,-26.999896827372208,-17.266490491533965
192,7.7407220639866e-11,-1.1511199405613225e-10,-2.44160588241972e-10,6.316340804159128e-11
193,1.8187425320085018e-09,-2.503371813168082e-09,-5.218996771480514e-09,1.428890396146593e-09
194,1.9963273776393714e-08,-2.8093397806667046e-08,-5.690486150467817e-08,1.5233102559244217e-08
195,1.4505302778474062e-07,-2.0845360294498064e-07,-4.1063285779956507e-07,1.0706693722431375e-07
196,7.842934972615453e-07,-1.1589769998411354e-06,-2.2206278952430345e-06,5.574782360341654e-07
197,3.3748112598845037e-06,-5.1661071001056245e-06,-9.631569025695522e-06,2.2975150340455184e-06
198,1.2068298462263566e-05,-1.929346948878896e-05,-3.5020018061292737e-05,7.816752963299598e-06
199,3.698704073135111e-05,-6.22886586333404e-05,-0.00011014308441976669,2.2606504201526647e-05
200,9.944658820622538e-05,-0.0001779825859008127,-0.0003067901870314049,5.677009824363618e-05
201,0.00023893518485420734,-0.0004584651363279129,-0.0007708044984461046,0.00012574632256354726
202,0.000520771403328466,-0.001080468295419569,-0.0017728000273475849,0.00024841601988518015
203,0.0010425399895712683,-0.002358004735972677,-0.003777629249117402,0.00044054071536112045
204,0.0019368865512977861,-0.004813446527464047,-0.007533013403530619,0.0007016727501344823
205,0.0033680392955329924,-0.009268031971576789,-0.014176205519817044,0.0009942004529443142
206,0.005519358424066838,-0.016951385087287277,-0.02535640685793494,0.0012136988724194455
207,0.008569193357241546,-0.02962807804222631,-0.04336981067666052,0.0011500399489897163
208,0.012652470476323764,-0.04973750908018951,-0.07130313172062919,0.00043888000221651446
209,0.017805931174414712,-0.08054131678895106,-0.11317972212737018,-0.0014965289296864617
210,0.02389586124366837,-0.12627015038391043,-0.1740996025996209,-0.005512544570369614
211,0.030528401177289922,-0.1922589561518983,-0.2603612980740703,-0.012819558340661289
212,0.03694402648814092,-0.285057294010836,-0.3795501613537779,-0.025060321909229008
213,0.04189959489606508,-0.41249899279422003,-0.5405759547860648,-0.04438703667630081
214,0.04354356980881723,-0.5837141961513204,-0.7536425590479879,-0.07353009590556771
215,0.03929254995874071,-0.8090670043216575,-1.0301348526670377,-0.11584960346285042
216,0.025719716411367916,-1.100003810036368,-1.3824115872386191,-0.1753597184252512
217,-0.001532178151551207,-1.4688011540619124,-1.82349781209674,-0.2567158663622571
218,-0.047799429589795626,-1.92820733794072,-2.366675642051346,-0.36515599325405546
219,-0.11939352899341407,-2.4909787477570053,-3.0249778157844593,-0.5063891232515992
220,-0.2235317118008449,-3.16931936499938,-3.8105947148963604,-0.6864272659867124
221,-0.36819114728323493,-3.974239740703269,-4.734212417423358,-0.9113600270069497
222,-0.5618798374938504,-4.91485930780888,-5.804306781072161,-1.187074986691912
223,-0.8133223623962641,-5.997682878355518,-7.026425914350783,-1.5189308775865584
224,-1.1310644773205534,-7.225888096075347,-8.40249973835475,-1.9113946406598874
225,-1.5230068223109392,-8.59866504351721,-9.930219577900901,-2.367657454449074
226,-1.9958843536838253,-10.110651621939406,-11.602531941114632,-2.889248680971339
227,-2.554714275171558,-11.751508212474917,-13.407288460908848,-3.4756700805294796
228,-3.2022407797898937,-13.505672039804454,-15.327088552077011,-4.124075096081284
229,-3.9384092274716096,-15.352325365014568,-17.33934326557841,-4.829018896553159
230,-4.759904934605475,-17.265602202966733,-19.416578733806755,-5.582303775525673
231,-5.659792194334331,-19.215046126569955,-21.526985990594863,-6.372941334742901
232,-6.627287276536007,-21.166317634213183,-23.635211133787507,-7.187247782435697
233,-7.647694829943003,-23.08213451009869,-25.703366134327613,-8.009081883335453
234,-8.702530278030325,-24.923413712366948,-27.692226678052016,-8.820226938070096
235,-9.76984170237319,-26.65056969602031,-29.56257015505107,-9.600909193540076
236,-10.824733922919368,-28.2249127379794,-31.276595395058127,-10.330436081735133
237,-11.840085783816113,-29.61008260717537,-32.79935707896668,-10.987929478347295
238,-12.787439747229909,-30.773448413649145,-34.100142873251606,-11.553122366445768
239,-13.638031392294629,-31.687405003194872,-35.153720880374294,-12.007182192228283
240,-14.363915990037224,-32.3304999083348,-35.94138929756249,-12.333521005355868
241,-14.939140840815755,-32.68833242909265,-36.451769139027455,-12.518551427631195
242,-15.340906429367662,-32.75417749174833,-36.68129398978516,-12.55234884198558
243,-15.550657298181994,-32.5293009037132,-36.63436706843288,-12.429184004126709
244,-15.555045028102803,-32.0229486913888,-36.32317412643524,-12.147896356287545
245,-15.346710630275696,-31.25201038876694,-35.767159506360464,-11.712086296077851
246,-14.924841617476018,-30.240373310870236,-34.992190706802525,-11.130114098424304
247,-14.295469564211869,-29.01800082159866,-34.029452980545415,-10.41490358183865
248,-13.471486479104295,-27.619781287361295,-32.91412903447593,-9.583559232266865
249,-12.472372038521033,-26.0842049173072,-31.683929295026047,-8.656815473477948
250,-11.323637886567152,-24.451932451429713,-30.3775451123598,-7.658345300159816
251,-10.056009131366533,-22.764322452050457,-29.033100481165945,-6.613962058219351
252,-8.70437628709789,-21.061982892603957,-27.68667719763776,-5.550752530762071
253,-7.306562567311301,-19.383408202777705,-26.370983774706392,-4.496181534791287
254,-5.901960819230579,-17.763755496519902,-25.114229977837034,-3.4772078407488096
255,-4.530100733444213,-16.233804072589177,-23.93925686262761,-2.519448434370115
256,-1.4943109189543026e-10,-1.051339797202144e-10,-5.0025063366950174e-11,-1.5098985671254427e-10
257,-3.3342495505149278e-09,-2.25734273742001e-09,-1.0364839824653978e-09,-3.3800771894246457e-09
258,-3.738054769013362e-08,-2.5446878749713226e-08,-1.2222391954456972e-08,-3.7657057986683255e-08
259,-2.766072061311944e-07,-1.898660609198201e-07,-9.49577793548475e-08,-2.7712319905743947e-07
260,-1.5256281609980987e-06,-1.0620434777155125e-06,-5.532160047923222e-07,-1.5206587899128307e-06
261,-6.71306836157025e-06,-4.7645547469916e-06,-2.5837240718219977e-06,-6.658826848152077e-06
262,-2.4631844680622595e-05,-1.7912686435364513e-05,-1.0103702447746995e-05,-2.4319994750256768e-05
263,-7.779322034240706e-05,-5.822132792455803e-05,-3.41161822417095e-05,-7.646329720040811e-05
264,-0.00021663907738809243,-0.00016747002180618654,-0.00010178723509484053,-0.00021198385584588196
265,-0.0005422598826451477,-0.00043416685618204707,-0.00027321949638466504,-0.0005281968125504834
266,-0.0012392291675216668,-0.0010294632787709735,-0.0006694819844076317,-0.0012014277111097088
267,-0.0026194577367369054,-0.002259527644639031,-0.0015156472814916034,-0.00252716941783754
268,-0.005177321447313741,-0.004636720217586219,-0.003202368482346992,-0.004969672066172299
269,-0.009655703147197364,-0.008970671358868351,-0.006368981070784406,-0.009220453159120338
270,-0.017121786748424014,-0.016478878743310835,-0.012010283865290246,-0.016264835950085727
271,-0.029050303238360355,-0.02891477614589008,-0.021607982592536632,-0.027455006729663056
272,-0.04741054563509056,-0.04870936373012674,-0.03728610729780764,-0.04458714455702592
273,-0.07475207111329502,-0.07912038625617773,-0.06198740824754335,-0.06997897818467193
274,-0.1142827313327697,-0.12438068434864649,-0.09966478540626138,-0.10654274774687351
275,-0.16993151358609687,-0.18983480855848547,-0.15547838560900587,-0.15784709884277526
276,-0.24638766980463198,-0.2820504918589938,-0.23598539862882553,-0.22816014719390995
277,-0.34910698003194085,-0.40888948267114705,-0.34930613794159904,-0.32246519993542205
278,-0.4842760977493071,-0.5795210148137355,-0.505247078961541,-0.44644075900123215
279,-0.6587270113720208,-0.804361289350347,-0.7153595484275463,-0.6063975688013853
280,-0.8797957623448183,-1.0949241081420835,-0.9929121497950952,-0.8091674263304597
281,-1.1551225504533724,-1.4635713480697303,-1.352756152905556,-1.061940954711938
282,-1.4923940580918695,-1.9231571949203812,-1.8110662381624973,-1.372054336816056
283,-1.8990330129987154,-2.48656665851528,-2.384944228327382,-1.7467279880060262
284,-2.3818443300239776,-3.1661564348080584,-3.091880624225011,-2.1927631763434694
285,-2.9466311699584575,-3.9731141545351223,-3.9490775289991653,-2.7162054921957046
286,-3.5977975500299544,-4.916759924324833,-4.972646395005589,-3.321986700256386
287,-4.33795660449608,-6.003821287617266,-6.176704351116257,-4.013558873845852
288,-5.167565257911919,-7.2377187742006495,-7.572403037852533,-4.792536827114581
289,-6.084606920963376,-8.617903557635406,-9.1669332789215,-5.658366585401092
290,-7.084343646527165,-10.139290908659053,-10.962556922441824,-6.608038653135752
291,-8.159157725809013,-11.791832708207563,-12.955723120016001,-7.635864850365996
292,-9.298499810933281,-13.560268964960299,-15.136329413374982,-8.73333636782569
293,-10.488956350108595,-15.424091955800327,-17.48718750116434,-9.88907845831887
294,-11.7144435198675,-17.357747370643708,-19.98374882922337,-11.088913845336199
295,-12.956528097693406,-19.33108505547999,-22.594135905167008,-12.316042450538191
296,-14.194868174869505,-21.310058218927985,-25.279511670472534,-13.551339507310262
297,-15.407758918225653,-23.2576551501733,-27.994802079665757,-14.77376793355319
298,-16.572761622467283,-25.135032608166835,-30.68976735775348,-15.960894631061823
299,-17.667388833595016,-26.902806174390566,-33.31039663384595,-17.089494798484512
300,-18.669814806981833,-28.522441084018325,-35.80058027578934,-18.136223795350933
301,-19.559579077871156,-29.957678302893314,-38.10399571036784,-19.078332733215163
302,-20.318251388879222,-31.17592565098046,-40.16612706509006,-19.894401817857762
303,-20.9300284906698,-32.14954305698732,-41.93632760923657,-20.56506444407151
304,-21.382237164443413,-32.85695472515337,-43.369827448999374,-21.0736949383251
305,-21.665722833335906,-33.28352892117097,-44.42958772409694,-21.40703336078114
306,-21.775108975717075,-33.422177763657245,-45.087906901999226,-21.555721783638
307,-21.70891904800317,-33.273644106818494,-45.32769461737853,-21.514728196420645
308,-21.469559741668714,-32.846459411049764,-45.14334348376177,-21.283637182123233
309,-21.063171964400038,-32.156574375601814,-44.541148657430746,-20.86679118507045
310,-20.49936337528659,-31.226681927756875,-43.53924757478556,-20.27327249187516
311,-19.790842720079112,-30.085268782171774,-42.167076870787255,-19.51672337695975
312,-18.952980743210652,-28.76544610508278,-40.464368549504066,-18.615009378744634
313,-18.00332461318465,-27.303620897694852,-38.479731497372306,-17.589737600855518
314,-16.961092526105666,-25.738076837931885,-36.26888583542299,-16.465647736136752
315,-15.84667268754574,-24.107536103734812,-33.892634829200816,-15.26989791745947
316,-14.681146642019801,-22.449772112262163,-31.41467071591415,-14.031270518538003
317,-13.485851520693416,-20.80033745235596,-28.899315972999226,-12.779324939933982
318,-12.281989920211323,-19.191462128144153,-26.409300153297213,-11.543525605865725
319,-11.09029044350303,-17.651165307960984,-24.00366523454014,-10.352374072587086
320,2.8648082610822338e-11,-1.0128613503706019e-10,-1.9892086476084885e-10,2.5738410211441122e-11
321,9.023348827949274e-10,-2.0511174269492175e-09,-4.249631040253388e-09,6.806276404975832e-10
322,9.657525402142878e-09,-2.3153382853158873e-08,-4.657384427179307e-08,7.022400799802387e-09
323,6.863083798640321e-08,-1.7232247972649665e-07,-3.3770032764043175e-07,4.740389811477816e-08
324,3.5724775256031356e-07,-9.620980728280796e-07,-1.8330937149371225e-06,2.3092092880303222e-07
325,1.453139715546571e-06,-4.309832789170518e-06,-7.973285346194008e-06,8.5625677526896e-07
326,4.7948852661051805e-06,-1.618653682883248e-05,-2.905377322881036e-05,2.452974694010607e-06
327,1.3117967087107096e-05,-5.2582777543657626e-05,-9.155350819700518e-05,5.236392216120786e-06
328,2.9983170832436173e-05,-0.0001512461829135477,-0.00025555967993787704,6.666629210328379e-06
329,5.651090201693586e-05,-0.000392289554170207,-0.0006439696772545568,-5.304286408989328e-06
330,8.23526785519567e-05,-0.0009310491320560652,-0.0014873519291037421,-6.680987052230096e-05
331,6.717583495553507e-05,-0.0020463820713806525,-0.003188255153488887,-0.0002646342671597731
332,-9.12123353563865e-05,-0.0042069310316359,-0.006408370645500537,-0.0007788521395486072
333,-0.0006055617053501583,-0.008156858214989305,-0.012181131399127873,-0.0019448801171087185
334,-0.001867396402631304,-0.015021250099991432,-0.022050818006537375,-0.004337108608950416
335,-0.004536505814980827,-0.02642986385978575,-0.038236888131104485,-0.008874927498859287
336,-0.009652267231795797,-0.044656071532059166,-0.06381915749984819,-0.016950441018460802
337,-0.01876574755423549,-0.07276568982574172,-0.10293599104626414,-0.03057537449272436
338,-0.03408939408661703,-0.11476783174437094,-0.16098423510263776,-0.052542471401879516
339,-0.05865849762872827,-0.17575710832229754,-0.24480654568122368,-0.08659399070409392
340,-0.09649555600838997,-0.2620337363638717,-0.3628491786225142,-0.13758672059702626
341,-0.1527652741165403,-0.3811857874804962,-0.5252712039909999,-0.2116393471553276
342,-0.23390446736289477,-0.5421164156165572,-0.743984540983966,-0.3162444693154608
343,-0.34770820063367963,-0.7549988175974064,-1.032603453019109,-0.46032482046792944
344,-0.5033519673149491,-1.0311431832588285,-1.4062828037290587,-0.6542122897337155
345,-0.711330268011988,-1.3827630501928363,-1.881427234530881,-0.9095297831987605
346,-0.983294724361854,-1.8226332482140335,-2.4752591186048987,-1.238959881521832
347,-1.3317794581480815,-2.363637852646473,-3.2052417758775094,-1.6558901642184218
348,-1.7698073927444447,-3.018214045603566,-4.088365426904944,-2.1739324037154413
349,-2.3103781429247956,-3.7977061254378284,-5.1403155740736945,-2.8063211882700476
350,-2.9658462853631673,-4.711652553767925,-6.374555541887403,-3.5652067138633647
351,-3.747208033955989,-5.767037239715459,-7.801365526107482,-4.4608662420363885
352,-4.663324320859163,-6.967543572584675,-9.426888798381974,-5.500868546584481
353,-5.720118159871588,-8.31285540494498,-11.252241195841114,-6.689234729364543
354,-6.919792707837715,-9.798052592144334,-13.272742393124021,-8.025645983904306
355,-8.260122342850295,-11.413149170183562,-15.477326389457858,-9.504753112641835
356,-9.733871282911215,-13.142819297441592,-17.848183711102333,-11.115642971979137
357,-11.328392242171889,-14.966349557515821,-20.36067867255751,-12.841513097992367
358,-13.025451378819756,-16.85784636772065,-22.983571645702224,-14.659597606689806
359,-14.80131580036623,-18.78671464437799,-25.679559212545485,-16.54137550283283
360,-16.627126795224083,-20.71840927771975,-28.40612540996261,-18.45307738175648
361,-18.46956640711049,-22.615445212115027,-31.116676455392856,-20.356488883258503
362,-20.291807582005728,-24.43863596078596,-33.76191094732362,-22.210030028450888
363,-22.054719675129217,-26.148515285640066,-36.291359162057475,-23.97006995152637
364,-23.718282673453654,-27.706883710476806,-38.655010311101215,-25.592418116385577
365,-25.24314642235011,-29.0784116052566,-40.804936978867204,-27.03391765907866
366,-26.592256958375163,-30.23222469837348,-42.69682269249818,-28.25405565519338
367,-27.73246221679122,-31.14339664147451,-44.29130249675806,-29.21650008528565
368,-28.636005235168053,-31.794276949982258,-45.555037774446355,-29.89047478921237
369,-29.28181547010067,-32.17559121068456,-46.46146497765718,-30.251891980614666
370,-29.656518293937744,-32.287263546632005,-46.99118231912591,-30.284176566398422
371,-29.755098493912282,-32.13892826944118,-47.131966884130684,-29.97873647159866
372,-29.581174160516756,-31.750117337832542,-46.87844434626727,-29.33505666768783
373,-29.146860824092997,-31.15013110879043,-46.23146134761241,-28.36041964573949
374,-28.47223034256329,-30.377620023997054,-45.197233646836196,-27.069279836618595
375,-27.584393474806912,-29.479922420743375,-43.78635917619995,-25.482342404001074
376,-26.516258021998905,-28.51221702197255,-42.012793122123185,-23.625416450723698
377,-25.305034496037795,-27.53655686615942,-39.89288202739769,-21.52812748244874
378,-23.990576986586266,-26.62085410873784,-37.44454629700826,-19.222582569319314
379,-22.613656981603587,-25.8378824201172,-34.68668618774149,-16.74208307042632
380,-21.21427151956637,-25.264356081165268,-31.638866156323626,-14.119973661622693
381,-19.830083840640036,-24.980132965721197,-28.32130711588075,-11.388702958756507
382,-18.495084713051828,-25.06757312644042,-24.755186778072545,-8.579151114640663
383,-17.238546442113563,-25.6110665719233,-20.963216601693023,-5.720255019773311
384,-4.3839211646851213e-10,-3.1006952739418912e-09,-1.0932856874604601e-10,-3.0281209697632477e-10
385,-9.595175404662288e-09,-6.54259884558243e-08,-2.3623513201668513e-09,-6.732288377177296e-09
386,-1.0667528999101049e-07,-7.311897491007229e-07,-2.587645537607904e-08,-7.489846950121115e-08
387,-7.846113180095818e-07,-5.404333027471809e-06,-1.8760667072066242e-07,-5.509882224455032e-07
388,-4.31693454059289e-06,-2.9946633445321544e-05,-1.018027423310047e-06,-3.028661635534781e-06
389,-1.9017751112583684e-05,-0.0001331080571271726,-4.425656095011937e-06,-1.3314418716251751e-05
390,-7.012995888092049e-05,-0.0004959699107103159,-1.611393170234277e-05,-4.893828648536722e-05
391,-0.00022345497301879584,-0.0015984196159057773,-5.0724989347025444e-05,-0.00015525086483995446
392,-0.0006301513596303907,-0.004561552376373291,-0.00014141820094707146,-0.000435471715787021
393,-0.0016027489401878917,-0.011740542607549354,-0.00035590358656583423,-0.0011008003108034313
394,-0.0037329799294789873,-0.027657156183012167,-0.0008211834485939221,-0.002546772796367288
395,-0.008061491082482795,-0.060352419261439326,-0.0017595536759152414,-0.00546162851708259
396,-0.016307898931762117,-0.12321911392717275,-0.003538868979312675,-0.010971671482827456
397,-0.031166888602721446,-0.23734432294393243,-0.006740557552555078,-0.02082732226449414
398,-0.056671933282580814,-0.4343570344231185,-0.012249020290159283,-0.03763140112591829
399,-0.09862269367684919,-0.7597358636862122,-0.02136545947517828,-0.06510795529013287
400,-0.1650654460350984,-1.276485594691125,-0.035947636597918164,-0.10840576968433649
401,-0.26680832100464624,-2.069036427667558,-0.05857469569501351,-0.17442595253567222
402,-0.41794497909670936,-3.2471557323623133,-0.09273343336629578,-0.27215803100556163
403,-0.6363518854408747,-4.949591775409874,-0.14301975221541885,-0.41300409371426894
404,-0.9441161012609268,-7.347099542437523,-0.21534684098544063,-0.6110659421621714
405,-1.3678433876007192,-10.64444104700429,-0.31714995908121507,-0.8833663117680121
406,-1.9387915745807704,-15.080918672743538,-0.45757643638678264,-1.2499724205277016
407,-2.692772686864683,-20.92900089806267,-0.647648404481956,-1.733988829252827
408,-3.6697701722652334,-28.49064291656265,-0.9003846425280699,-2.3613873496315807
409,-4.913225497363009,-38.090992773347416,-1.2308666588069461,-3.160645128135136
410,-6.468961853416955,-50.069304645952116,-1.656232917422057,-4.162168674419656
411,-8.383731684985301,-64.76704807239572,-2.195584500521637,-5.397491713775145
412,-10.70339832390321,-82.51339565920405,-2.8697862880013503,-6.898247860631058
413,-13.47078850969959,-103.60848014944497,-3.7011506807828836,-8.69493413742804
414,-16.723279999940246,-128.30502161739966,-4.712996240809936,-10.815497002509499
415,-20.490214928705555,-156.7891231591745,-5.929080916196318,-13.283787714224845
416,-24.79025337574812,-189.16120414267058,-7.372917797089049,-16.11794773456177
417,-29.628801135454733,-225.41816930830836,-9.06698954811076,-19.32879672704194
418,-34.99565918662724,-265.4379852495503,-11.031884992067075,-22.918304680861233
419,-40.863048224914564,-308.9678404321347,-13.285387339666103,-26.878234930096507
420,-47.184158567283355,-355.61699104511223,-15.841548113879968,-31.18904563516407
421,-53.89236307364925,-404.8552379183279,-18.70978396633979,-35.819133210671815
422,-60.90120820775976,-456.017740747622,-21.894035545813733,-40.72449191983979
423,-68.10526619310087,-508.3165638264585,-25.392028579597095,-45.84884922266105
424,-75.38189025406801,-560.8589782922224,-29.19467728209922,-51.12431652751099
425,-82.59386697755866,-612.6721422001622,-33.285668481411356,-56.47257034032571
426,-89.59290767613766,-662.7333688266626,-37.64126037081143,-61.806550629917986
427,-96.22386778185367,-710.0048051210731,-42.23032153739072,-67.03263323160601
428,-102.32953348759769,-753.471005826019,-47.014623611005014,-72.05320326965149
429,-107.75577171750493,-792.177630983334,-51.94938534651105,-76.7695289830176
430,-112.35680639468629,-825.269337134947,-56.98404898196415,-81.08481207292955
431,-116.00036367028584,-852.0248901169444,-62.06325342642688,-84.90727361831894
432,-118.57242322380782,-871.8876069280782,-67.12795499922694,-88.15312512426081
433,-119.98132275224461,-884.4894338493184,-72.11663609283646,-90.74927314454783
434,-120.16098808074247,-889.6672778101184,-76.9665355998577,-92.63561338113475
435,-119.07310081596124,-887.470609631241,-81.61483226140884,-93.76678608069741
436,-116.70806732635994,-878.1598263123932,-85.9997134361747,-94.11328852579118
437,-113.08471456302524,-862.1953644570488,-90.06126765606625,-93.6618716567909
438,-108.24870661766344,-840.2180646785511,-93.74215035721328,-92.41518504126971
439,-102.26974714479593,-813.0217634301945,-96.98798864085646,-90.3906757164816
440,-95.23770276649755,-781.5195022192636,-99.74751233602801,-87.61878973570353
441,-87.25784718973227,-746.7050677510177,-101.97242356270526,-84.14056818404728
442,-78.44548088348327,-709.6117897379368,-103.617043235662,-80.00476934786464
443,-68.92022287551866,-671.2706138047955,-104.63779799229943,-75.26468274668733
444,-58.800296232015825,-632.6694318578737,-104.99263251011331,-69.97482606156942
445,-48.197134945924454,-594.7154975420223,-104.64044818951325,-64.18773036274483
446,-37.21062664572578,-558.2024950217251,-103.54067829633512,-57.95102106998443
447,-25.925273490700846,-523.7834881886739,-101.6531108204185,-51.30499126032918
448,5.454123978708388e-10,2.9533465412207786e-09,1.7482969712652036e-10,4.3151749980609253e-10
449,1.0771189918785315e-08,6.341026292754963e-08,3.3227316945726677e-09,8.840781167765945e-09
450,1.2043791579505164e-07,7.078905625425276e-07,3.8455571863330195e-08,9.86274496386126e-08
451,8.829221188645102e-07,5.232498846095047e-06,2.902708427944255e-07,7.232861050458195e-07
452,4.846564065353066e-06,2.8993960106285428e-05,1.6429905898851304e-06,3.970041874096648e-06
453,2.1302858370951283e-05,0.00012887140767536045,7.45180724885021e-06,1.7445791871805422e-05
454,7.835496551454358e-05,0.0004801784160721055,2.828818710502079e-05,6.414473976296404e-05
455,0.0002488660059796582,0.0015475114806933184,9.270261370859617e-05,0.00020364838026622618
456,0.0006989155661211315,0.004416238782232171,0.00026839503050549363,0.0005717090184110048
457,0.0017682067577128313,0.011366472250825058,0.0006990581556723359,0.0014459810918601298
458,0.004090894283750745,0.02677586289096875,0.0016620085117949053,0.0033449867523813273
459,0.008762780248058209,0.058429170898563976,0.0036503490417503187,0.00716547779844903
460,0.017557202254735345,0.11929239774479652,0.007480982695660482,0.01436049526969065
461,0.033187745535949595,0.22978074695045406,0.014426841788659658,0.02715698370743721
462,0.05961123726965685,0.42051560370327495,0.026368726684255984,0.04880789777529738
463,0.10235937020307807,0.7355270276204742,0.045959405691576985,0.0838694609313397
464,0.16888166161624332,1.2358133845869028,0.07679009295083053,0.1384896267070588
465,0.26887637769532635,2.0031166589714817,0.12354685501081646,0.22068891674848093
466,0.41457971644672653,3.1437099463237095,0.19214183054672465,0.3406097073176331
467,0.6209773523675421,4.791925531352264,0.2898015002833461,0.5107049348187902
468,0.9058973427428951,7.113084805877523,0.4250920783309856,0.7458328141544561
469,1.2899406186448101,10.305435395801423,0.6078609774349989,1.0632216038795235
470,1.796206323938706,14.60066807586018,0.8490739181905667,1.482269003160443
471,2.449775098370805,20.262586830057803,1.1605301573007356,2.0241452870629
472,3.2769244854012585,27.583547179421597,1.5544439461532171,2.7111781200203375
473,4.304066626300944,36.87836320178157,2.0428887495299586,3.5660098105177775
474,5.556418512988993,48.47551048402347,2.637111614236866,4.610533902950471
475,7.056437967755314,62.70561410570393,3.3467374866540913,5.86463633230182
476,8.8220824620988,79.88739830833377,4.178895994934996,7.344785478972957
477,10.864970901531134,100.3114762243758,5.137314905014603,9.062533792169297
478,13.188548560484064,124.22256124922916,6.221433926831449,11.023009689277773
479,15.786370833837875,151.80087289934116,7.4255989666265565,13.223491018818994
480,18.64063088686833,183.1436751046056,8.738399700283615,15.652159425096059
481,21.721058404051302,218.2480095189437,10.142212152687048,18.287137483896764
482,24.9843101822412,256.9957563626249,11.61300251249224,21.095906384890164
483,28.373957526105777,299.14215808314265,13.1204385930112,24.035190430002146
484,31.82115010894342,344.30886721820445,14.628341249460252,27.051375399169512
485,35.24600203037645,391.98242492705185,16.09549021754105,30.0815014561304
486,38.559704768753065,441.518842466264,17.476778133592298,33.05483892617115
487,41.66732587084387,492.15465349542023,18.724684190804197,35.895018864043344
488,44.47120438052198,543.0244463539932,19.791016397173582,38.52265227132631
489,46.87480756872709,593.1844944837161,20.628850208936957,40.85833498070137
490,48.78687231799182,641.641706517913,21.19457297227207,42.82590266669548
491,50.12562212914831,687.3867440319445,21.44992962188336,44.35577488234985
492,50.822830326616824,729.4298333482394,21.363957000226364,45.388210666245854
493,50.827493837461034,766.8375540218525,20.91469325880607,45.87629256937664
494,50.1088913216959,798.7687419402001,20.09055598349978,45.788461858472836
495,48.65882463394771,824.5076136404651,18.891298012356817,45.11044538004906
496,46.49288266512454,843.4923070875236,17.328472553731128,43.84644361195305
497,43.650619100226685,855.3372405582356,15.425367324142051,42.01948823874292
498,40.194597080489764,859.848004938253,13.216398605862121,39.670923812708835
499,36.2083199228169,857.0279069652531,10.745987768162887,36.85901864561716
500,31.793133431663552,847.0757465690381,8.066972603684944,33.656761576676836
501,27.06424743146518,830.3749101345763,5.238632016418501,30.14895003759985
502,22.146077555991713,807.4743601852832,2.32442379677665,26.428717249057538
503,17.167149372102617,779.0625672381842,-0.6104495620834952,22.593679366266564
504,12.254832757802903,745.9358299252557,-3.501523690823237,18.741904698930362
505,7.530183608669023,708.9627380235535,-6.287479566833092,14.96791567091166
506,3.1031618950909774,669.0467290764044,-8.912357617610349,11.358929715412986
507,-0.9315296351883028,627.0887602327736,-11.327475173985087,7.991528364180442
508,-4.497781773532286,583.9520590621307,-13.492963966606517,4.928915571950616
509,-7.540438408026212,540.4307360700554,-15.378869246936805,2.2188887861649325
510,-10.026588868086433,497.22375208462495,-16.965779703549273,-0.10739786382676081
511,-11.945768021054324,454.91535807398833,-18.2449854813374,-2.0358464432099295
512,-1.3403870381089272e-10,6.977565474947396e-10,-1.1053890960946344e-10,-1.568757504229096e-10
513,-2.9613853742810845e-09,1.4804139179321884e-08,-2.450380761568912e-09,-3.4255935274269184e-09
514,-3.298697165737821e-08,1.6537521390091432e-07,-2.7571731963938017e-08,-3.761042191625945e-08
515,-2.421617683402474e-07,1.2195820858459831e-06,-2.056769636725967e-07,-2.723844230209694e-07
516,-1.3230837262755e-06,6.742387443303732e-06,-1.1499402137273646e-06,-1.4696818935785675e-06
517,-5.757981941256322e-06,2.9895571866034088e-05,-5.1535257374751325e-06,-6.324282362061797e-06
518,-2.08605724830076e-05,0.00011110266471984538,-1.9336522235122018e-05,-2.26889272885816e-05
519,-6.493744999619008e-05,0.00035706843665624,-6.264530509150511e-05,-7.005664521400951e-05
520,-0.00017793370904980378,0.0010159773979775393,-0.00017935358336162747,-0.00019074488041606437
521,-0.0004374931503618809,0.0026066619282733216,-0.0004621241146913002,-0.0004668821528604775
522,-0.0009806222578103941,0.006119837060848892,-0.0010875437075754282,-0.001043700105831867
523,-0.0020304971559520564,0.013306724453493159,-0.002366364684630211,-0.002159115442879146
524,-0.003927708418793206,0.0270649074350261,-0.00480970768959812,-0.004179370803342119
525,-0.007165345428298483,0.05192405265720097,-0.009211487430266055,-0.00764049589552518
526,-0.012427405097641068,0.09462598740534549,-0.016746450852066982,-0.01329523368349226
527,-0.02062969302399949,0.16478487470731001,-0.029082391975014166,-0.022164600436614446
528,-0.032961565470476024,0.27560352851709025,-0.048504085228628764,-0.035592410526115156
529,-0.05092571956578883,0.44461077277121586,-0.07804498918045459,-0.05530007391262796
530,-0.07637205438922208,0.6943719398323059,-0.12162067434691895,-0.08343792314972973
531,-0.11152064988613877,1.0531107996199123,-0.1841553683267937,-0.12262832605302997
532,-0.15896839022848056,1.5551680604616556,-0.2716904522338253,-0.17599500596193
533,-0.22167391786556498,2.2412114947135136,-0.39146182418896214,-0.24717254070739098
534,-0.30291652999185475,3.1581084307421587,-0.5519323212921633,-0.34029016682353974
535,-0.40622613401067637,4.358375062827957,-0.7627660811387588,-0.4599248212687403
536,-0.535283111406561,5.89913019850193,-1.034733663535478,-0.6110196758452691
537,-0.6937886472564163,7.840503836889403,-1.3795395290072487,-0.7987661023267772
538,-0.8853078076452877,10.243482411047838,-1.8095666993858275,-1.0284490148922099
539,-1.113089597920456,13.167210649539165,-2.337536974363241,-1.3052578860318695
540,-1.379870506195641,16.66581233948672,-2.9760891216285756,-1.6340683286918247
541,-1.6876704412753827,20.78483600101756,-3.737282283906225,-2.0192017347239872
542,-2.0375921632354,25.557473761892908,-4.632037559311951,-2.4641727950894174
543,-2.4296369772680997,31.00073967627451,-5.669537003474797,-2.97143667647778
544,-2.862550418303224,37.1118243667266,-6.856605454657497,-3.5421491577499564
545,-3.3337117148218267,43.86486326084776,-8.197105677958842,-4.175954047728525
546,-3.839079774924283,51.20836298220584,-9.691380530389274,-4.870812488189275
547,-4.373206192801017,59.06352232254045,-11.33577666311874,-5.622888063030933
548,-4.929322478315794,67.3236590474567,-13.122282612306549,-6.426499883558507
549,-5.499504703437426,75.85491118639017,-15.038310272029259,-7.27415303126974
550,-6.07491431694911,84.49832235869545,-17.066643179573763,-8.156651953470739
551,-6.646109111405801,93.0733476810524,-19.185568268330442,-9.063297677902076
552,-7.203413299638351,101.38273391751358,-21.369200082993512,-9.982164251978935
553,-7.73733063492015,109.21864015152504,-23.587998041636155,-10.900444128505336
554,-8.238980008516913,116.36977956289826,-25.809468213805847,-11.804847006818145
555,-8.700529554403525,122.6292853156408,-27.999031406477073,-12.682032499595168
556,-9.115603404023092,127.80294026724603,-30.121029486268,-13.519054262655583
557,-9.479635079387347,131.7173663962369,-32.139832455145765,-14.30379200210183
558,-9.790143206878998,134.2277495022574,-34.02100067545709,-15.025348110086695
559,-10.046908797097611,135.22468015125267,-35.732450713883445,-15.67438759576524
560,-10.252038589168764,134.63972363892537,-37.245570370278095,-16.243403361668157
561,-10.409905438081767,132.4493886357514,-38.5362291329066,-16.726893420576804
562,-10.526963834989914,128.67724320284702,-39.585634683822114,-17.12144199596826
563,-10.611445901215061,123.3940233833824,-40.3809937687121,-17.4257023578187
564,-10.672950300284526,116.7156877062304,-40.91594590242594,-17.640285570668684
565,-10.721943233677955,108.79948382174472,-41.190749941019234,-17.767565792436805
566,-10.769196639812774,99.83820384207313,-41.21221552836938,-17.81141877137582
567,-10.825193383255685,90.05290559416187,-40.99338311826357,-17.776914976706966
568,-10.899532132918308,79.6844612707366,-40.55296728691236,-17.669991714829607
569,-11.000365525938802,68.98435741866383,-39.91458819440702,-17.4971293117158
570,-11.133903993213233,58.205206792099645,-39.1058251721796,-17.265054951502115
571,-11.304014240179807,47.591441170124625,-38.15713427771986,-16.980494183650702
572,-11.51193588628927,37.37063460825814,-37.100677900911904,-16.649984719828428
573,-11.756132516645783,27.74586058521108,-35.96911864555129,-16.27976044793743
574,-12.03228510047774,18.889417760400427,-34.79443123880954,-15.875706341355441
575,-12.333427262054323,10.938172691238028,-33.606784758081155,-15.443377917530228
576,6.461310347085151e-11,2.398822939226392e-10,-1.833857624191429e-10,6.739297333332601e-11
577,1.4571781510407528e-09,4.9704471595279e-09,-3.923959982206746e-09,1.520828358964684e-09
578,1.591193417362692e-08,5.584581414954712e-08,-4.325988362241338e-08,1.6166317455758458e-08
579,1.1460996265206661e-07,4.132283299142423e-07,-3.155101205996055e-07,1.1298114795879895e-07
580,6.1287322100407e-07,2.2929456532648964e-06,-1.7229230984407229e-06,5.830610930844586e-07
581,2.5999851611949658e-06,1.0205487257656732e-05,-7.539699030021225e-06,2.3724072461071308e-06
582,9.130835539573863e-06,3.8073087698497396e-05,-2.7642629214471756e-05,7.930573541096937e-06
583,2.7353663859841472e-05,0.0001228342174246639,-8.764546474411909e-05,2.2395552917259722e-05
584,7.148838079615769e-05,0.00035085188142943856,-0.0002461684491353339,5.4457944233982273e-05
585,0.00016586911259225086,0.0009036290044863221,-0.0006241365324177045,0.00011540976055550355
586,0.00034645444649144207,0.0021296297413235733,-0.0014502903174377195,0.00021413543952095696
587,0.0006586667601011578,0.004648228522376447,-0.003126948457175064,0.00034555311004344096
588,0.001149376434590457,0.009490016344140413,-0.00631938055614021,0.0004703987435751845
589,0.0018511719391893333,0.018275161737455928,-0.012070811599440765,0.00048498112282837675
590,0.002757403872485469,0.03342847211365904,-0.02194301029937637,0.0001801575120584662
591,0.003786632516528606,0.05842637048903572,-0.03817973368940031,-0.0008109460883114924
592,0.004735155217281276,0.0980671440329548,-0.06388728391323548,-0.0030768236112447404
593,0.005216560707593984,0.15875148312912535,-0.10322339978859933,-0.007503030087795639
594,0.0045879917399312495,0.2487555062824372,-0.16158287620769432,-0.015358098000759948
595,0.0018640131966533582,0.37847340098017795,-0.24576577929658308,-0.028387213447743604
596,-0.004379421332489684,0.5606020083108644,-0.3641119705870756,-0.04890890714049475
597,-0.0161065344628604,0.8102358806050105,-0.5265839836676562,-0.07990789348126659
598,-0.03592241668432875,1.1448394472121137,-0.7447793740698321,-0.12511527588000407
599,-0.06716450032132047,1.5840637548978969,-1.031853897564831,-0.18906593249961692
600,-0.11397498040518513,2.149379465235558,-1.4023387951843092,-0.27712226808692436
601,-0.1813435684708846,2.863505649555638,-1.871839538347063,-0.3954537737712007
602,-0.2751099370094646,3.7496252987640974,-2.456609798199518,-0.5509629198449958
603,-0.40191582494817873,4.8303927572068055,-3.173002849225173,-0.751149719569645
604,-0.5690979883532005,6.126754577099036,-4.03681234423851,-1.003909876934257
605,-0.7845151249986128,7.656622379927073,-5.062524361901649,-1.3172648934142046
606,-1.056304772544322,9.433452922064069,-6.262511753122709,-1.6990268765673284
607,-1.3925700435315131,11.46480543300467,-7.646209189119329,-2.1564058076709713
608,-1.8010007535161634,13.75095822504299,-9.219312306862847,-2.6955722285026056
609,-2.2884386655647306,16.283674528776782,-10.983046655522413,-3.3211932588647097
610,-2.860401777810855,19.045210538212807,-12.933551726321623,-4.035964236317325
611,-3.520587398077867,22.007655994718437,-15.061422309214326,-4.84016178691207
612,-4.270377817866581,25.132688692831685,-17.35144386097114,-5.731246400822024
613,-5.108375422008412,28.371808800994508,-19.78255053576866,-6.703543183292824
614,-6.02999579982324,31.667097005830247,-22.328024060067413,-7.748028117079889
615,-7.027147635352303,34.95251299209906,-24.95593897725683,-8.852243897251011
616,-8.088026644661849,38.15571905071591,-27.629845572980322,-10.00036430316224
617,-9.197047467051979,41.20037969163023,-30.309667112902854,-11.173419277516645
618,-10.334932247519165,44.00885448112591,-32.9527742972778,-12.349684548865417
619,-11.478967974465144,46.50517056213657,-35.51518852918792,-13.505230162197666
620,-12.603436962178732,48.61813602373217,-37.952857931238476,-14.61461239446731
621,-13.680216684370132,50.284437623304164,-40.222946751281675,-15.651684101103282
622,-14.679536771510488,51.451557964202784,-42.28507999240252,-16.590490321715414
623,-15.570872543221412,52.08034897762774,-44.10249030018661,-17.40620949561353
624,-16.323946239707034,52.14711065500977,-45.64302244520415,-18.076096312469296
625,-16.90979970731017,51.64504588877107,-46.87996108536771,-18.580380429327057
626,-17.30189641060897,50.58499289408119,-47.79265891338905,-18.903076294037934
627,-17.477206899794236,48.995374292111265,-48.366953995061884,-19.03266313707356
628,-17.41723061814277,46.921344391215484,-48.595376419607824,-18.96260059532058
629,-17.108908357561663,44.42316093524681,-48.47715467081689,-18.691654079812547
630,-16.54538379696336,41.573851778774355,-48.01804072504591,-18.22401453880241
631,-15.726579175495088,38.45628770761619,-47.22997919968576,-17.569209164708077
632,-14.659558646046007,35.159807174281006,-46.13064948407148,-16.741811956265213
633,-13.358662286880616,31.776564701718332,-44.74291052729338,-15.760974682282372
634,-11.845403230993242,28.397790294036533,-43.094175971132834,-14.64980854165753
635,-10.148129419533376,25.110151305000446,-41.21574306997577,-13.434653905893684
636,-8.301460041584408,21.992400582367903,-39.14209310248384,-12.144279658047758
637,-6.3455148535077806,19.11247593032497,-36.9101747590419,-10.80905478295019
638,-4.324962150402431,16.52518745758866,-34.558676389778526,-9.460133096684734
639,-2.287917813965787,14.27059336533502,-32.12728902826992,-8.128687509040697
640,-1.8351656303308497e-10,1.7445641671499614e-10,-2.0261967521877208e-10,-1.604873092667796e-10
641,-3.9527565368426965e-09,3.7353969028117416e-09,-4.34753086170949e-09,-3.5597054849156705e-09
642,-4.415142659476943e-08,4.163482604871929e-08,-4.8210565674123735e-08,-3.956087700908881e-08
643,-3.2521989732803277e-07,3.072162594811608e-07,-3.530456143150445e-07,-2.905626117210737e-07
644,-1.7858897507462388e-06,1.699448190848594e-06,-1.935622388788645e-06,-1.592575223677646e-06
645,-7.825998950624752e-06,7.54196707195059e-06,-8.502413049724773e-06,-6.972122836453551e-06
646,-2.859963273545301e-05,2.8064439786282984e-05,-3.1276964741424954e-05,-2.5482281352497877e-05
647,-8.995199968570044e-05,9.035109619721618e-05,-9.944338308419021e-05,-8.025009202393037e-05
648,-0.0002494006950111269,0.0002576460422377244,-0.00027986303919381664,-0.0002230531919834048
649,-0.0006212693523722273,0.000662801613654371,-0.0007103412488949163,-0.0005576728722715065
650,-0.0014122256324584038,0.0015609255414334806,-0.0016508279709732947,-0.0012737367817977408
651,-0.002967439818040951,0.0034057724381256127,-0.003556588355622669,-0.002692029717376508
652,-0.005826743189136874,0.006953195067787098,-0.007176669740425414,-0.005321586603003779
653,-0.010789590534126004,0.013393253990101507,-0.01367990536503438,-0.00992833860855496
654,-0.018987051606224,0.024510601860394395,-0.024809015705224004,-0.017614465834977926
655,-0.031958161369812534,0.04287060859305659,-0.04306087558943688,-0.029906681233514358
656,-0.051726638717550975,0.0720262746184391,-0.07188766875317287,-0.04885032574963727
657,-0.08087236762633782,0.1167381048283466,-0.11590972180718698,-0.07710444821016234
658,-0.12259034175241545,0.18319564768051283,-0.1811267600977733,-0.11803111607757293
659,-0.18072826019301716,0.27922543762124247,-0.27511062567687233,-0.175770282008262
660,-0.2597929997117917,0.41446600409214707,-0.4071594992953166,-0.2552899831734917
661,-0.3649162124592776,0.6004870716166512,-0.5883915937533163,-0.362400916010513
662,-0.5017706344610487,0.850827844189455,-0.8317553529878036,-0.5037248150985305
663,-0.676431284402667,1.180929034046102,-1.1519336662972852,-0.6866075456205986
664,-0.8951792046306934,1.6079355340280213,-1.5651218552619155,-0.9189701053047497
665,-1.1642492836141187,2.150351474220329,-2.088663543374535,-1.2090935362137962
666,-1.4895277591503218,2.827536657720737,-2.7405351672285687,-1.5653370091072019
667,-1.876209173061818,3.6590425747914517,-3.5386787201236536,-1.9957921645610999
668,-2.3284267500801996,4.663796766945966,-4.500192914489285,-2.5078812074935315
669,-2.84887415118426,5.859155639493198,-5.640404606725921,-3.1079110543823774
670,-3.4384399214466645,7.259857324551758,-6.971854201371842,-3.8006006532836447
671,-4.095878365462311,8.87691730136412,-8.503239960335804,-4.588603026759852
672,-4.817541703276266,10.71651952289525,-10.238375802066113,-5.472047214413527
673,-5.59719783699639,12.7789639830548,-12.175224404118358,-6.4481276701951025
674,-6.425955538682315,15.057737048318085,-14.305071289976647,-7.510769365703806
675,-7.292314245882239,17.5387725344448,-16.611905244112297,-8.650395622520756
676,-8.182349188121746,20.199968656592294,-19.072065292041334,-9.853822600890254
677,-9.080034852444248,23.011018219961564,-21.654204596127162,-11.104299676873518
678,-9.96770141058839,25.93359680733176,-24.319607519669372,-12.381708896321257
679,-10.826610098649063,28.92193681079119,-27.022878791445404,-13.662929453406333
680,-11.63762500887381,31.92379487482831,-29.713004221417137,-14.92236487904395
681,-12.381950827550515,34.881797875580276,-32.33476173681639,-16.132621723692985
682,-13.04189947627262,37.73512933619446,-34.83044049628915,-17.265319562265784
683,-13.601644149473204,40.421495661549244,-37.141805467729945,-18.292003746075075
684,-14.047917474482045,42.879291317551925,-39.21222636562832,-19.18512500046429
685,-14.370611747343448,45.049865570637564,-40.9888747102019,-19.91904419988136
686,-14.563243511676923,46.87978197326485,-42.42488254524564,-20.471016977989276
687,-14.623251980591878,48.32295645436619,-43.48135232812892,-20.82211172364594
688,-14.552110450587826,49.34256131134671,-44.12911047305787,-20.95801616347647
689,-14.355241047268754,49.91259081819828,-44.35010705695935,-20.869691923398047
690,-14.041734884681958,50.01899932493802,-44.138380675737416,-20.553842756971303
691,-13.623891221320248,49.66034387865901,-43.50052918228251,-20.013170135863927
692,-13.116599947731427,48.847889327042935,-42.45565252862646,-19.256399366907644
693,-12.536601347414962,47.60516293381937,-41.034761464748904,-18.298070039709717
694,-11.901664965955465,45.9669758475308,-39.279673673972404,-17.15809589127554
695,-11.229734904302644,43.977958343166115,-37.2414453989238,-15.861110365731095
696,-10.538091300533447,41.69068268692869,-34.97841027596625,-14.435624534719885
697,-9.842576902259118,39.163470044330474,-32.55391678685574,-12.913033117973617
698,-9.156933487465007,36.45799461397657,-30.03387054116039,-11.32651174582432
699,-8.492285710435933,33.6368080684535,-27.484196843083854,-9.709853989307096
700,-7.856800147066199,30.760909840508955,-24.9683421844784,-8.096299681334841
701,-7.255535587494203,27.887483769155388,-22.544930204231033,-6.517406412348523
702,-6.690487976019558,25.06790959601551,-20.26567836931876,-5.002013786902217
703,-6.160820942542656,22.346139687908366,-18.173666701021194,-3.5753452504814307
704,3.093748118894706e-11,8.147438395766984e-11,-1.8110038450140705e-10,2.0730469984982965e-11
705,8.35250663420683e-10,9.944028505944855e-10,-3.984475518340085e-09,8.351663891818811e-10
706,9.033916367755004e-09,1.1627617875406722e-08,-4.4625314956591926e-08,8.723111211256407e-09
707,6.453950487284045e-08,8.484540642960863e-08,-3.305472226191248e-07,6.141831130515666e-08
708,3.385724341538701e-07,4.654352867420625e-07,-1.83249452859873e-06,3.1696050056100333e-07
709,1.391104015953412e-06,2.046026842400827e-06,-8.135279395244178e-06,1.2796563136343468e-06
710,4.652383121813154e-06,7.529306175432409e-06,-3.0222407454557896e-05,4.1921116021645205e-06
711,1.2971258016451398e-05,2.393310723794264e-05,-9.693491883613798e-05,1.1380214830799813e-05
712,3.051877982013424e-05,6.726845704172965e-05,-0.0002748104963216507,2.5764531743032983e-05
713,6.049095618580096e-05,0.00017028982454546436,-0.0007014321500234102,4.7898435279320456e-05
714,9.821819396920467e-05,0.00039407856106966416,-0.0016359995601613678,6.80476734913912e-05
715,0.00011689045270454493,0.0008439438830129981,-0.00352962163871145,5.0394719664052396e-05
716,4.342092465846174e-05,0.0016897587250449973,-0.007116163439233001,-9.327862068546336e-05
717,-0.00027710030213925856,0.003190508837061371,-0.013522827264634702,-0.000542162504356299
718,-0.0011287172247921211,0.005722495101000643,-0.024398305590923486,-0.0016176865420141457
719,-0.002982909934469049,0.009810271727038767,-0.04205529092488348,-0.0038465701129597202
720,-0.006566162276634582,0.016158912632554923,-0.0696230412160148,-0.00803349354320481
721,-0.012934240011623,0.0256855509286798,-0.11120413846247387,-0.015340155553980526
722,-0.023549829319361747,0.03954735360980235,-0.17202723781093854,-0.027366582716148974
723,-0.040359339035499424,0.05916226042653887,-0.2585845625898619,-0.04622972876243667
724,-0.06586362619988125,0.08621812921372714,-0.37873969391581924,-0.074633397582835
725,-0.10317602439076251,0.1226655431266771,-0.5417886941244344,-0.11592213740946766
726,-0.15605940609216565,0.17068965465770852,-0.7584566752231788,-0.1741100737326932
727,-0.22893253659615506,0.23265711585604085,-1.0408131233699724,-0.25387421042653774
728,-0.3268353823725871,0.3110353996470549,-1.4020926539000864,-0.3605013424044086
729,-0.4553438899250891,0.408283513378453,-1.8564129444466906,-0.49977898293926776
730,-0.6204271860995517,0.5267151307108516,-2.4183877036831856,-0.6778237306287428
731,-0.8282438491823909,0.6683373606839071,-3.102639070401841,-0.900844891270321
732,-1.0848783773382933,0.8346706311514509,-3.92322042741826,-1.174846373804432
733,-1.3960237917743348,1.0265574256422179,-4.892967058356986,-1.5052753636979752
734,-1.7666210825435527,1.2439697579808497,-6.0227981669540265,-1.8966315979913102
735,-2.200470566596114,1.4858272030956226,-7.32099921419231,-2.352055819759613
736,-2.6998338471851095,1.7498387932746957,-8.792517920645048,-2.8729198215823915
737,-3.26504778244009,2.0323829352980733,-10.438310291864566,-3.458443226484018
738,-3.894173692541427,2.3284394089461173,-12.254774406338008,-4.105363720322181
739,-4.58270596985585,2.631586294220642,-14.233309292594674,-4.8076877449483195
740,-5.323364105297257,2.9340721928470543,-16.360033812184415,-5.556547378791275
741,-6.105990548452284,3.2269704459870416,-18.615695777752194,-6.340185922404584
742,-6.9175734732073995,3.5004173834053462,-20.975794246066016,-7.144089383537657
743,-7.742408399159844,3.7439313245842434,-23.410927912759135,-7.95127382195975
744,-8.56240593755049,3.9468034760976543,-25.887370153864094,-8.742729801508577
745,-9.357545034330489,4.098546405801643,-28.36785752920863,-9.498015522290459
746,-10.106462386477558,4.1893808157729095,-30.812565024923476,-10.19598009449782
747,-10.787159805756698,4.210737166681081,-33.18022960703466,-10.81558853921706
748,-11.377802987068776,4.15574565582626,-35.42937503353789,-11.336811368884126
749,-11.857578211758806,4.019686343210139,-37.51958583700609,-11.741534916637404
750,-12.207568550598257,3.8003711260665085,-39.41277671219027,-12.014444619959045
751,-12.411608360644014,3.4984309186293885,-41.07440449916323,-12.143832470456923
752,-12.457074354906705,3.117484922594436,-42.47457278797843,-12.122281845576834
753,-12.335573275968542,2.6641741834135755,-43.588983477100655,-11.94718784014825
754,-12.043490180041328,2.1480485512216143,-44.39969549559763,-11.621078853433307
755,-11.582367272068398,1.5813042978224672,-44.89565872048559,-11.151715153531127
756,-10.959090655857485,0.9783785050863769,-45.073001124384874,-10.551951822534415
757,-10.185870767087943,0.3554152908621495,-44.93505910439528,-9.83936613712754
758,-9.280011300795346,-0.27037269974510686,-44.492153929618816,-9.035662338886294
759,-8.263470891932018,-0.8814169754082208,-43.76113009854545,-8.16587917525811
760,-7.162231317468203,-1.4605441575008913,-42.76468287681376,-7.257436713326157
761,-6.005495001297194,-1.9917261183721406,-41.53051141131011,-6.339067895747358
762,-4.824742479385725,-2.460789332824736,-40.09033999959114,-5.439686423182767
763,-3.652686761679716,-2.856044913183402,-38.47885318051965,-4.587245517881322
764,-2.5221659872864994,-3.1688044654011054,-36.732590518799896,-3.807642006893081
765,-1.4650182993283525,-3.3937525975099243,-34.88884477179973,-3.1237171874326304
766,-0.5109833563147859,-3.529154398396751,-32.984603164576036,-2.5544003493235143
767,0.31332667208997866,-3.576885165378569,-31.05556632840042,-2.1140329377155633
768,-1.5896577222251467e-10,-5.664257970636664e-12,-1.2719840085072098e-10,-2.413455555199504e-10
769,-3.550670339692987e-09,-1.2684818121429306e-10,-2.4022168332112356e-09,-4.071137297258556e-09
770,-3.9658415180644434e-08,-1.3855047558398388e-09,-2.6977545962521352e-08,-4.572165632862645e-08
771,-2.9226700971260666e-07,-9.9665846920786e-09,-1.992678235049003e-07,-3.351719637753032e-07
772,-1.604367831859068e-06,-5.319433235655196e-08,-1.106714549782642e-06,-1.8288128672607019e-06
773,-7.020289914227986e-06,-2.2519738173870565e-07,-4.9419338780220994e-06,-7.9661821202327e-06
774,-2.5591411991848585e-05,-7.894808262245211e-07,-1.853843181826194e-05,-2.8941240625965005e-05
775,-8.021148356392182e-05,-2.362818841050009e-06,-6.025953076433429e-05,-9.051633083466455e-05
776,-0.00022142529791995138,-6.177237703922989e-06,-0.00017369093969763681,-0.0002496405175051245
777,-0.000548750839357217,-1.43647663803585e-05,-0.0004519637866139588,-0.0006188204722209152
778,-0.0012401854025900728,-3.0157523597079982e-05,-0.0010769891658454819,-0.0014003385110181665
779,-0.0025896444586498697,-5.78858822788571e-05,-0.0023777344680509568,-0.0029304200025745872
780,-0.005051493285741843,-0.00010272536998889877,-0.004910861305958195,-0.005732651972431265
781,-0.009291132966985121,-0.00017028976841916704,-0.00956570174038562,-0.010579405166548324
782,-0.01624052901602233,-0.0002663514213551881,-0.017693799944186267,-0.01855947952310004
783,-0.02715730307008589,-0.0003971222902867549,-0.03126119644216196,-0.031149438728277485
784,-0.04368539245830666,-0.0005705906863435539,-0.05301926212327296,-0.05028497416831429
785,-0.06791433621135096,-0.0007993539605557423,-0.0866871878454168,-0.07842723762707797
786,-0.1024330380599562,-0.001105233537430566,-0.13713620800812074,-0.11861755298338007
787,-0.15037251243431138,-0.0015257521103170242,-0.2105624267945321,-0.17451247833081726
788,-0.21543092013701673,-0.002122351752871426,-0.3146319811744979,-0.2503902872148357
789,-0.3018735847968903,-0.002990088687622328,-0.45857958123678966,-0.3511199709756005
790,-0.4145010287556007,-0.004268483115078228,-0.653239697020244,-0.4820851864782405
791,-0.5585794297612906,-0.006153214145099344,-0.9109892926088982,-0.6490580253675834
792,-0.7397299876241427,-0.008908368113914126,-1.2455825060959334,-0.8580207278813266
793,-0.9637761040547056,-0.012878897280580387,-1.6718613104740319,-1.1149370438269093
794,-1.2365497659882247,-0.018502786725908344,-2.205332074117975,-1.425478727956867
795,-1.5636609839338367,-0.02632219188751455,-2.8616059254860344,-1.7947165606189825
796,-1.9502364925738103,-0.0369925839204287,-3.6557105804741923,-2.2267891546846252
797,-2.4006360575898267,-0.051288816057370575,-4.601292192842142,-2.7245663241049782
798,-2.918156608110416,-0.07010705266232682,-5.709736971052709,-3.289326504162121
799,-3.5047361440995797,-0.09446168381393395,-6.989252751424405,-3.920469431503082
800,-4.16067108923219,-0.12547664710622375,-8.443959427544957,-4.6152858052016095
801,-4.884362394387516,-0.16437094479297393,-10.073043359330152,-5.368804854178288
802,-5.672106855295127,-0.2124385235853702,-11.870034085017716,-6.1737383268043615
803,-6.51795028890607,-0.27102302072589735,-13.82226150646214,-7.020535302725992
804,-7.413618077262981,-0.34148812361456893,-15.910547911209697,-7.897556445032567
805,-8.34853607545953,-0.42518441146789265,-18.10918151121195,-8.791369305414014
806,-9.309951104659557,-0.5234135520720086,-20.386206457808285,-9.687158507949608
807,-10.283155405817954,-0.6373906594357405,-22.704048659969278,-10.569236603315392
808,-11.251813818970708,-0.7682055437830737,-25.020477693847276,-11.42163364606924
809,-12.198386570104828,-0.9167835572482931,-27.289883720394396,-12.228736751747979
810,-13.104634980985873,-1.0838467777321057,-29.464826207928663,-12.975945820275694
811,-13.95219261054663,-1.2698763684557197,-31.497790292170894,-13.650308760839714
812,-14.723180432067785,-1.4750770723654627,-33.343068737592205,-14.241099205515964
813,-15.400841576013892,-1.6993449136677812,-34.958674291304995,-14.740301728964932
814,-15.97016889063407,-1.9422392518773426,-36.30817987494242,-15.142973909753582
815,-16.41849722786929,-2.2029603511123326,-37.36238308112633,-15.44746094496151
816,-16.736032190681968,-2.4803336043718978,-38.10069694924825,-15.655446743070675
817,-16.916288262670626,-2.7728015399813994,-38.51218074618356,-15.771834936330686
818,-16.956411878013714,-3.0784247957098354,-38.5961420224355,-15.8044633950882
819,-16.85736914055728,-3.394893388669781,-38.36226379872649,-15.763665914311783
820,-16.623983593543407,-3.7195497505416752,-37.83023729025536,-15.661704092198528
821,-16.264816521152174,-4.049424960386647,-37.02890956955653,-15.512100495282667
822,-15.791890282757986,-4.381289207734424,-35.99498507550201,-15.328910321666918
823,-15.220263478947388,-4.711716682859186,-34.77134769240847,-15.125972466095483
824,-14.567474688473535,-5.03716391376424,-33.405093988173675,-14.916181833640875
825,-13.85287863380612,-5.354059271041472,-31.94538616502097,-14.71082308662414
826,-13.096904573496616,-5.6589001786952,-30.441243924211236,-14.519001968067466
827,-12.320271110615119,-5.948353651222482,-28.93939712922623,-14.347204266088255
828,-11.543194079236997,-6.219355153118792,-27.48231594926809,-14.19900467117549
829,-10.784624531930303,-6.469200393124252,-26.106522752211614,-14.07493870289767
830,-10.061552179536525,-6.695624467663451,-24.841271454149414,-13.97254122114993
831,-9.388406166450753,-6.89686277261983,-23.707656602406292,-13.88654552358509
832,4.091537559576616e-11,-4.166922136742857e-11,-1.8443469557462819e-10,8.227327058203184e-11
833,9.83560465086415e-10,-8.939829941220736e-10,-3.9931240743572914e-09,1.8792259816204826e-09
834,1.0669419685431504e-08,-9.968173163804486e-09,-4.412168321201684e-08,2.0613750275595714e-08
835,7.651021972329662e-08,-7.362191739642865e-08,-3.222874257907348e-07,1.4922519120058417e-07
836,4.06345815656618e-07,-4.077343797445707e-07,-1.7621127045960022e-06,8.025412808389127e-07
837,1.7079876387277769e-06,-1.8117107472149887e-06,-7.717288441672271e-06,3.4288287457377798e-06
838,5.927085380713745e-06,-6.74934267600049e-06,-2.8296384420831012e-05,1.2154491112314808e-05
839,1.7494350742510745e-05,-2.175069733638847e-05,-8.963658986119683e-05,3.687250991680339e-05
840,4.4905007947218016e-05,-6.207813779410669e-05,-0.00025119455117880057,9.80128357490724e-05
841,0.00010196713902988072,-0.0001598306443477585,-0.0006344025037098306,0.00023260230513431128
842,0.00020756187280779356,-0.00037677209058587137,-0.0014656868565623607,0.0005004295452298309
843,0.00038249931933843743,-0.0008231432000507787,-0.0031359612152968026,0.0009884910841447931
844,0.0006421108534878152,-0.001683562250176905,-0.006277568231410051,0.0018115835120137297
845,0.0009834121234311047,-0.003250847512394063,-0.01185855936506929,0.003106822922829186
846,0.0013657363999836332,-0.005968192658504925,-0.02129327849308833,0.005019798487238533
847,0.001683597287214637,-0.010479572652924554,-0.036567311623685386,0.007679926658875395
848,0.001730406587438145,-0.01768753195184323,-0.0603736234053036,0.011162531843489507
849,0.001151861284652663,-0.02881661301834992,-0.09625476773696781,0.015435464763631643
850,-0.0006115270891887457,-0.04547964758787731,-0.14874330249491882,0.020288760364204763
851,-0.004392252613685797,-0.06974301110338275,-0.22348924272429338,0.025246853540879848
852,-0.011372231657767792,-0.10418581428082876,-0.327360228896494,0.029464164290310766
853,-0.023164692593028623,-0.15194698651747032,-0.4684979118342009,0.031606512663292764
854,-0.041896950702990314,-0.21675343632698557,-0.6563135671925214,0.029722911567115252
855,-0.07028803928911283,-0.30292210684161425,-0.9014074497212798,0.021114691211240925
856,-0.11171396624008512,-0.41532891794102467,-1.215399750093888,0.0022113007553411146
857,-0.17025255263899963,-0.5593383856295832,-1.6106657688793549,-0.03153583212847376
858,-0.2506993824032229,-0.7406891586657222,-2.0999735395382837,-0.0857285208763562
859,-0.3585463065492833,-0.9653327765571995,-2.696028173239494,-0.16705244004715442
860,-0.49991435257565947,-1.2392255560620344,-3.4109334288113895,-0.283249527181096
861,-0.681434136523307,-1.5680765402187713,-4.2555873351615086,-0.443019798100104
862,-0.9100692643531195,-1.9570577513834566,-5.23903500077825,-0.6558428739942566
863,-1.192881706542199,-2.410486403949915,-6.3678077268410345,-0.9317135442822532
864,-1.5367423702665417,-2.9314920510206837,-7.645282617777074,-1.2807907683516626
865,-1.9479946126976864,-3.5216846235564776,-9.071100344728562,-1.7129652853551554
866,-2.4320828895279325,-4.180841691839148,-10.640679908249352,-2.2373571548448834
867,-2.9931628696881427,-4.9066347465939275,-12.344867751144728,-2.8617607907556644
868,-3.633712893224153,-5.6944145970483415,-14.169754223172246,-3.5920609685437603
869,-4.354169285555974,-6.537074935383426,-16.096683274453817,-4.43164839578612
870,-5.1526095072471545,-7.425010649837214,-18.10247164484674,-5.380867321613449
871,-6.0245072804356345,-8.346183634935556,-20.159842282662655,-6.436530029720385
872,-6.9625825617753945,-9.286303809230121,-22.238064074039293,-7.5915336339656365
873,-7.95676629271124,-10.229127071217306,-24.303777179106024,-8.834613004539468
874,-8.994294985255458,-11.156865340430294,-26.321971347187734,-10.150259523391282
875,-10.059943385234503,-12.050697041709471,-28.25707439642651,-11.518828583109526
876,-11.13639511583489,-12.891359828810781,-30.074100333495682,-12.91684958956442
877,-12.204742099163386,-13.659801444619108,-31.73980197651741,-14.3175413107783
878,-13.245094484138432,-14.33785978942989,-33.223771930238776,-15.691523450635335
879,-14.23727444598121,-14.908939875188597,-34.499438562429376,-17.00770306934998
880,-15.16156016063253,-15.35865369189208,-35.544910040971615,-18.234302768149075
881,-15.999441111637777,-15.675389349248377,-36.34362884948179,-19.339987353150402
882,-16.734343252855872,-15.850778341958565,-36.88481059158232,-20.29503788221642
883,-17.352282801205103,-15.88003442796061,-37.16365338816558,-21.072517176645572
884,-17.84241062054703,-15.762144210618152,-37.18131697737296,-21.64936930557568
885,-18.197415066629013,-15.49989765886379,-36.94468306693582,-22.00739728343737
886,-18.4137594511316,-15.099755892715285,-36.4659198879836,-22.134068255763196
887,-18.491740467672525,-14.571562925014605,-35.76188356019055,-22.02310364574855
888,-18.435365306487217,-13.928117009227556,-34.85339610999434,-21.674822655431228
889,-18.252056857135507,-13.184625194782095,-33.76444423704144,-21.096220398600327
890,-17.952207429264956,-12.358071136925936,-32.52134385971613,-20.300775903547628
891,-17.548611043556633,-11.46653076975079,-31.151913043553268,-19.307999453879773
892,-17.055811950254558,-10.528472869214824,-29.684690395513407,-18.142742500272657
893,-16.48941201877514,-9.56208166082771,-28.148227986688028,-16.834305846619955
894,-15.865381374223078,-8.584636424405726,-26.570478223871785,-15.41539202275075
895,-15.199414689856832,-7.611978593649156,-24.97828388849741,-13.92095479885587
896,-1.1100256372336737e-10,1.1951299661423132e-11,-1.9581278921135834e-10,-1.595309900016517e-10
897,-2.4854035423414854e-09,1.9724997552340836e-10,-3.6592291143674243e-09,-3.4525258596087854e-09
898,-2.771591733374567e-08,2.3746410472881003e-09,-4.109704270920136e-08,-3.829376154248054e-08
899,-2.036587771733166e-07,1.8439998786292603e-08,-3.0029493918384397e-07,-2.801077988719002e-07
900,-1.112931928099458e-06,1.0753650717621856e-07,-1.6448148668958824e-06,-1.5268196433435957e-06
901,-4.839446146864861e-06,5.03060161609614e-07,-7.220014080489192e-06,-6.638406399174287e-06
902,-1.7497762926013958e-05,1.9720897705313214e-06,-2.6546433385936113e-05,-2.406115146498415e-05
903,-5.428637054365542e-05,6.681607073513004e-06,-8.437829269619341e-05,-7.503579707164733e-05
904,-0.00014802498332945504,2.0017565184185258e-05,-0.00023742189203667437,-0.00020623309605055572
905,-0.0003615971987430736,5.397411838502854e-05,-0.0006024970932665888,-0.0005091859918229186
906,-0.0008039125268692092,0.0001328277452369228,-0.0013996593566371176,-0.0011470973279049477
907,-0.0016483510627119113,0.0003017635387135286,-0.003013192677863185,-0.0023887544806120405
908,-0.003152494061208087,0.0006388844151762534,-0.006072282702014226,-0.004648686643235828
909,-0.005678219017776136,0.001270637243691532,-0.011551737797668375,-0.008532360138360085
910,-0.009711545448509587,0.0023902164459897375,-0.020891380695930398,-0.01488484302916979
911,-0.015881555109576083,0.004278058595816834,-0.03613078199185295,-0.024840701392420138
912,-0.024977191525995,0.007323172480592892,-0.06005388047043134,-0.03987185875095138
913,-0.03796000620134778,0.012043730435096593,-0.09633582958760725,-0.06182893157213248
914,-0.055970289823500864,0.019104999494280243,-0.14968217764324748,-0.09297038527078848
915,-0.08032373856648065,0.02933225841211604,-0.2259482648825228,-0.1359729600880405
916,-0.11249599353259543,0.04371586397437045,-0.3322246553976439,-0.19391645684432834
917,-0.15409313153615803,0.06340523204651609,-0.47687274743142355,-0.2702364306425603
918,-0.20680744275428883,0.08968836754039583,-0.6694939184011244,-0.36863979482791415
919,-0.27235937159812706,0.12395384538562454,-0.920816171203863,-0.49298068083927166
920,-0.35242795866760235,0.16763285774893047,-1.2424847767728262,-0.6470968058925805
921,-0.4485732322482429,0.22212005430152595,-1.6467480360224631,-0.8346097346928367
922,-0.5621547336160165,0.28867333180878235,-2.146035918319813,-1.0586956272408685
923,-0.6942508703039597,0.368294385648898,-2.7524374531920746,-1.321836296020673
924,-0.8455841685894323,0.46159364038788153,-3.4770916844370476,-1.6255634999787494
925,-1.0164576714810756,0.5686450329142604,-4.329515922119902,-1.9702120583370248
926,-1.2067075688187954,0.6888378996335617,-5.3169031610649125,-2.354699199283733
927,-1.4156766170286146,0.8207347491488408,-6.443427150714475,-2.7763483462989784
928,-1.642212064334864,0.9619447965353963,-7.7095980193768705,-3.23077520496129
929,-1.8846906622484267,1.1090236496569517,-9.111713146818266,-3.7118524827304773
930,-2.1410718379185556,1.2574093912185247,-10.641446891797203,-4.211766706839475
931,-2.4089781802492625,1.4014044894392952,-12.285618897096173,-4.7211763007785805
932,-2.685800196520738,1.5342115192809862,-14.026174126095855,-5.229474416092723
933,-2.9688201258108364,1.6480286159141833,-15.840398686668541,-5.725153303845357
934,-3.25534772708922,1.7342079365094945,-17.70138388658745,-6.196259669880363
935,-3.5428595254447037,1.783477248640039,-19.57873707247194,-6.630922985894162
936,-3.82913207712292,1.786221244883517,-21.439522174950735,-7.017931739585041
937,-4.112359568142709,1.7328155478508376,-23.249396608959994,-7.347326869120284
938,-4.391246733387718,1.6140028985805215,-24.973895671663474,-7.610977916856047
939,-4.665069784601831,1.421297961211401,-26.57980227773667,-7.803106245305083
940,-4.93370058603619,1.1474046993231846,-28.036530036856227,-7.920721050759027
941,-5.197592292824501,0.7866284738851831,-29.31744219936526,-7.963937602279376
942,-5.457727625691018,0.3352639568068946,-30.401028604310437,-7.93615277106537
943,-5.715533594997099,-0.20806024378270785,-31.271867889837395,-7.844060206173873
944,-5.972768640608946,-0.8420985368183224,-31.92131302513684,-7.697496202986995
945,-6.231389719467828,-1.5627832466108726,-32.34785416155513,-7.509117023135723
946,-6.493407809708096,-2.363110843159128,-32.55713265237699,-7.293918626855387
947,-6.760740685194987,-3.2331291294903717,-32.56160192458635,-7.068619848870508
948,-7.035071786677985,-4.160030875664959,-32.37985257653094,-6.850939309802923
949,-7.31772362535647,-5.128355282817965,-32.03563885012857,-6.658804076815001
950,-7.609553281972569,-6.12029482578447,-31.5566603835836,-6.509533508650478
951,-7.91087606922986,-7.116101489642238,-30.97316657932338,-6.419044264922568
952,-8.221421357952297,-8.094583074456368,-30.316460965259132,-6.401121895840585
953,-8.54032219685769,-9.033676976036043,-29.61738944584563,-6.466800869376215
954,-8.86613796572099,-9.911085679335113,-28.904898650421252,-6.623888565337467
955,-9.196907039331801,-10.704955314619143,-28.204747707433548,-6.876659931934028
956,-9.530224434151028,-11.394576315486022,-27.53844783246973,-7.225738592896751
957,-9.863338014538922,-11.961083725688084,-26.92248903035341,-7.668168080640816
958,-10.193256621926245,-12.38813411075901,-26.367893049725975,-8.19766482151745
959,-10.516864845636425,-12.662536261521396,-25.88010859251268,-8.805033781440764
960,-2.8328758415854727e-11,-2.1879453790705292e-10,-1.7577377205188494e-10,2.928362498000171e-11
961,-4.4867546689945495e-10,-4.924269219348441e-09,-3.748553760495557e-09,8.46949365837442e-10
962,-5.418544249145494e-09,-5.5343924231219055e-08,-4.127133939804634e-08,9.213850056979057e-09
963,-4.386892850529622e-08,-4.121663612492904e-07,-3.002642224896665e-07,6.604648510538652e-08
964,-2.7471921543644916e-07,-2.2964030903916648e-06,-1.6368660527384097e-06,3.456525508012766e-07
965,-1.4078972942447479e-06,-1.0244719313993691e-05,-7.156180172203704e-06,1.40693836750722e-06
966,-6.110045826569229e-06,-3.8251680836966154e-05,-2.6227947797409595e-05,4.616187089325272e-06
967,-2.2962371509043057e-05,-0.00012336610917787082,-8.3165858119168e-05,1.2436469290230758e-05
968,-7.600269844900174e-05,-0.00035195144515781505,-0.00023361430244737998,2.7516433049394547e-05
969,-0.00022471242857135913,-0.0009049861133602825,-0.000592182779813771,4.834249115303136e-05
970,-0.0006009638720566383,-0.0021292962644401323,-0.0013748785569108349,5.7971811008609205e-05
971,-0.001470302190960896,-0.004641515419470813,-0.0029594942060369375,1.5237855137112165e-06
972,-0.003324670264642569,-0.009471128665602293,-0.005966546590029939,-0.00025198253921646975
973,-0.007012431570494552,-0.018248459038612705,-0.011362813919638715,-0.0009672017734030323
974,-0.013909624039142756,-0.033442906468259676,-0.02058878619814957,-0.0026220077634173844
975,-0.026133948529020047,-0.058655831235707084,-0.03570990090075101,-0.00601003858761957
976,-0.046799937531762814,-0.09897068404972474,-0.05958873232330376,-0.01236546593981771
977,-0.08030991653641276,-0.16135996529459878,-0.09607127381799148,-0.02350720196356045
978,-0.1326707947917124,-0.2551443623662931,-0.15017570412675818,-0.04199760712009953
979,-0.2118216375284019,-0.39249436257708953,-0.22826763180714024,-0.07130850740079121
980,-0.3279516357874576,-0.5889593541403934,-0.33820283218592423,-0.11598484431134513
981,-0.49378274252892385,-0.8640042719263954,-0.48941750434553516,-0.18179342952414576
982,-0.7247862904085607,-1.2415296763488368,-0.6929469766701863,-0.27584118606986163
983,-1.0392990722370659,-1.750348161836742,-0.9613559001485659,-0.406644505183574
984,-1.4585026402798744,-2.424588537078767,-1.3085655501324567,-0.5841297992300643
985,-2.006230856460048,-3.303999578630767,-1.7495666583950378,-0.819545714443256
986,-2.7085755405031655,-4.434127441898862,-2.3000097854910964,-1.1252701071214588
987,-3.5932685387463166,-5.866344965428082,-2.975670685729964,-1.5144996989015636
988,-4.688830517816411,-7.657717020835058,-3.7917962505524834,-2.0008170464930313
989,-6.023491796830139,-9.870693638135274,-4.762347275718892,-2.597637717857881
990,-7.6239076460865,-12.572631663974716,-5.899166142735849,-3.3175498495734024
991,-9.513708276477315,-15.835155646892185,-7.211108518763149,-4.171567839651121
992,-11.711940613709668,-19.73337848085072,-8.703186498199349,-5.168330986598133
993,-14.231473545187804,-24.345010691034485,-10.375775188454657,-6.313285718731039
994,-17.077449739805115,-29.74939266837633,-12.223935436423568,-7.607896171073873
995,-20.245874734242634,-36.02648554813611,-14.236902644245234,-9.048931886346692
996,-23.72243702643606,-43.255853307272254,-16.39778594844667,-10.627882918935171
997,-27.4816505694781,-51.51566123007253,-18.683513748886924,-12.330551183766618
998,-31.486402578030113,-60.88170486743951,-21.065050747670345,-14.136862219443396
999,-35.687974660606905,-71.426469946866,-23.507898408759967,-16.020933579414557
1000,-40.02658422636387,-83.21820840439337,-25.97287549893878,-17.951424934492533
1001,-44.43246667258108,-96.31999990803612,-28.417159026319055,-19.892180904113037
1002,-48.82748836741391,-110.78875323197263,-30.795549730574127,-21.803161121048863
1003,-53.12724790732233,-126.6740892836766,-33.061911679348654,-23.641634094150564
1004,-57.243591142995946,-144.01703952363383,-35.17072370284475,-25.363593632507374
1005,-61.087436781674256,-162.8484921922822,-37.078672214262895,-26.925340672727163
1006,-64.57178633118606,-183.18732625724593,-38.746210941089586,-28.285160703163402
1007,-67.61477636428654,-205.03819078437874,-40.139013452862784,-29.405018381044513
1008,-70.1426235743852,-228.38891595523165,-41.229249140099114,-30.252186744188343
1009,-72.0923144809497,-253.20758033721583,-41.99662228161822,-30.800728807106584
1010,-73.41390213542768,-279.43930505389835,-42.429126594519055,-31.032754381233946
1011,-74.07229131953649,-307.00289581877655,-42.52348337853682,-30.939384456229998
1012,-74.04842033047059,-335.7875041615664,-42.28524883898343,-30.52136885860156
1013,-73.33977976078008,-365.6495249350035,-41.728593874412695,-29.789319340074314
1014,-71.96024471094117,-396.40998366706435,-40.8757760005905,-28.763538845337294
1015,-69.93923446983804,-427.85269019725746,-39.75633693420753,-27.473447484873592
1016,-67.32025051780666,-459.72344064646705,-38.406069988260555,-25.95662555589263
1017,-64.15887724265764,-491.7305353879406,-36.865808646501016,-24.257512556496106
1018,-60.52035761695767,-523.5468447450213,-35.180091530654366,-22.425817368317745
1019,-56.47687639037437,-554.8135964571383,-33.3957595591229,-20.514707828685577
1020,-52.1046949613676,-585.1459809165127,-31.56053857447019,-18.578857310210218
1021,-47.48128458552873,-614.1405748650755,-29.72165546432141,-16.672431407610983
1022,-42.68259813555006,-641.3844764338106,-27.924528545249903,-14.84709923006107
1023,-37.78060599007077,-666.465930431334,-26.211564737135166,-13.15015112449309
1024,4.980998504419346e-11,-4.459821226635474e-08,-8.527430666245695e-11,-8.917060953671893e-11
1025,9.33664189862249e-10,2.872886775712679e-09,-1.721928923753331e-09,-2.013162192152675e-09
1026,1.0886970939410725e-08,-7.421197292145686e-07,-1.9487317533335307e-08,-2.2119331107144e-08
1027,8.48352528372634e-08,-5.072818729850883e-06,-1.452445759747912e-07,-1.598068804316471e-07
1028,5.044210965774597e-07,-2.8022523286099108e-05,-8.14147331609261e-07,-8.556861967593833e-07
1029,2.4380554255536097e-06,-0.00012434495396072305,-3.670415454612251e-06,-3.631382615259274e-06
1030,9.969488474856093e-06,-0.0004611139186286162,-1.390184194773609e-05,-1.275530710421179e-05
1031,3.5427973559145944e-05,-0.0014795364970309768,-4.5608290795352066e-05,-3.823707529767191e-05
1032,0.00011157190708492287,-0.004201321089247903,-0.00013256028479985635,-0.00010010193872184873
1033,0.00031615389366993895,-0.010756039494360109,-0.00034729562337953735,-0.0002330025428522072
1034,0.0008161916100058012,-0.025193261037911974,-0.0008315048811267437,-0.0004891776120373221
1035,0.0019402455585818509,-0.054641344982705314,-0.0018398116400278714,-0.0009370528884041727
1036,0.004286776841813685,-0.11083770273708339,-0.003797384977253014,-0.0016527362955153777
1037,0.008875325656598428,-0.2120341166666005,-0.007369706054269115,-0.0027022067549386376
1038,0.017345188102185004,-0.38523087044964194,-0.013540774775953125,-0.004112719202011911
1039,0.032203746285794685,-0.6686614282174563,-0.023694487344034204,-0.005832446640431231
1040,0.05712351703549345,-1.1143938998142504,-0.039692927998788194,-0.007677546734321874
1041,0.09728300836174866,-1.7908608339774457,-0.06394463254562312,-0.009265856639912093
1042,0.15974136367642597,-2.785071971898348,-0.09945507029663654,-0.009936568273739418
1043,0.2538305675829758,-4.204189961407869,-0.1498503300608406,-0.008655774109636319
1044,0.3915419334245193,-6.176103730277059,-0.2193633326217496,-0.003908915936384442
1045,0.5878761435500267,-8.848584527569605,-0.3127703643324646,0.006416961212583698
1046,0.8611190066258289,-12.386615982384098,-0.4352652662753866,0.025155759837967324
1047,1.2329994420297286,-16.967515573872912,-0.5922601683359607,0.05598162092835666
1048,1.7286833147739302,-22.773564466054815,-0.7891058100414924,0.10351464044148036
1049,2.3765577077407607,-29.98198820283062,-1.0307311329609192,0.17340135334845252
1050,3.207765577530355,-38.75232455105681,-1.321210211043956,0.27235804080961823
1051,4.255460461879753,-49.211420425555566,-1.6632735377744368,0.4081655688224579
1052,5.553764627158526,-61.43654361414171,-2.0577890208330487,0.5896058914252683
1053,7.136431196966383,-75.437335644524,-2.503244834070738,0.8263324376859098
1054,9.035230627197295,-91.13755664951248,-2.995271033135493,1.1286692360499524
1055,11.27810335620069,-108.35778400223397,-3.5262394331653777,1.5073366394916838
1056,13.887142349013667,-126.8003671471759,-4.084981712958578,1.9731047724370712
1057,16.876490312310953,-146.03803824886865,-4.656664070612946,2.536379380017847
1058,20.250255249360713,-165.50756633902756,-5.22285282943959,3.206728809326224
1059,24.000563200032804,-184.5097536133415,-5.7617988507129425,3.99236544652534
1060,28.10587659178868,-202.2168494814038,-6.248959078265722,4.8995997810601715
1061,32.52970870942705,-217.68814762307238,-6.657760870145443,5.932289788452921
1062,37.21985793431534,-229.8940946655751,-6.960599220672725,7.091311911494755
1063,42.10826908276288,-237.74874169177812,-7.130039381880433,8.374082144819017
1064,47.11160379113229,-240.1498011458598,-7.140179152181317,9.774156310801176
1065,52.13256859913106,-236.02499492527497,-6.968107989121275,11.280937338294548
1066,57.062009849971886,-224.38283302147502,-6.595385996095562,12.879514103613502
1067,61.78174096739422,-204.36546940472653,-6.009456348793062,14.550651314302302
1068,66.16802278167228,-175.30092236788354,-5.204901037937869,16.270943471770977
1069,70.09557434071297,-136.7517102199348,-4.18445248557768,18.01313872163779
1070,73.44195303799701,-88.556914936266,-2.959682659363173,19.746630821931756
1071,76.09211167961634,-30.86481550333122,-1.5513062314627264,21.438109744496924
1072,77.94291881050435,35.8464193374661,0.010945829738120734,23.052353754282194
1073,78.90741930747538,110.76198014093039,1.6889023349076042,24.553138520462085
1074,78.91861626338955,192.73891439563843,3.4369719235355936,25.904232371783284
1075,77.93257274576875,280.33038250392485,5.203574825772259,27.0704416419468
1076,75.93066219422721,371.82528996411753,6.932928327994772,28.018666448852095
1077,72.92083723895354,465.30200812080335,8.567104731832565,28.71892543459501
1078,68.93783629180113,558.6940332260207,10.048261717973121,29.145308198185027
1079,64.04230264857189,649.8646531777525,11.320932074126079,29.27681656249626
1080,58.318848785643375,736.6870863592083,12.33425393082345,29.098060397004346
1081,51.87315530550749,817.1261299189123,13.044024550592198,28.599780153423325
1082,44.82824574178397,889.3171790830042,13.414470276906243,27.77917609055343
1083,37.32012173040376,951.6385454484889,13.419641781274597,26.640032890899366
1084,29.492975147063436,1002.7733217466736,13.044366071155098,25.19263753855782
1085,21.49421275398354,1041.757595989882,12.284713241670131,23.453497379933594
1086,13.469533558140304,1068.0125728972537,11.147964810659165,21.44487357655917
1087,5.558289242488789,1081.3590640460636,9.652099681589085,19.194152111630064
1088,-1.0992138539973486e-12,1.2143905638513426e-09,-1.2978809367385713e-10,1.9408232320588013e-11
1089,1.3779601967455916e-12,2.549724587363764e-08,-2.7935076127985622e-09,4.874593491492014e-10
1090,-9.99229074121416e-13,2.853729787352361e-07,-3.145998786833411e-08,5.3663808350316735e-09
1091,1.0638992944248604e-12,2.105950528702509e-06,-2.3410875033520973e-07,3.866595187661939e-08
1092,-1.1691726769600843e-10,1.1650580012525144e-05,-1.3060909688929567e-06,2.034115005414991e-07
1093,-2.418171755918981e-09,5.168951111619457e-05,-5.843456287432804e-06,8.3110549375316e-07
1094,-2.495853425111502e-08,0.0001921949434860533,-2.1905583478350577e-05,2.731929397389847e-06
1095,-1.7006320249157935e-07,0.00061794882447398,-7.098170468359559e-05,7.354943025594752e-06
1096,-8.647949954184741e-07,0.0017588648867019078,-0.00020351646573092387,1.6205751733079622e-05
1097,-3.5174163330617502e-06,0.004513868850140339,-0.0005258467595295847,2.8188778040399846e-05
1098,-1.1983414217732092e-05,0.01059971200652948,-0.0012425514294034884,3.288173540093855e-05
1099,-3.537192227691106e-05,0.02305131712110348,-0.002717711165119332,-2.5740811886385417e-06
1100,-9.286913317895668e-05,0.04689079325226751,-0.005557486835506155,-0.00015511862739682982
1101,-0.00022149992982169777,0.08996975938351529,-0.010714949932699516,-0.0005775843693961264
1102,-0.0004881532915189017,0.16397532891540337,-0.019616418183493908,-0.0015417109122163885
1103,-0.001007657608050491,0.28557457004170356,-0.034306764224561435,-0.003492900730427075
1104,-0.0019689472154398356,0.4776548912667182,-0.05760923424239928,-0.00711678422712867
1105,-0.003671184632387461,0.770597954416022,-0.09329313288650225,-0.013417043265993373
1106,-0.006571085480332517,1.2035021895468527,-0.1462402279063586,-0.02380304534208969
1107,-0.011341826933635106,1.8252450947741092,-0.22259802980524337,-0.040184632338163495
1108,-0.01894298961718206,2.6952541023920573,-0.3299055620750358,-0.06506986713336801
1109,-0.03070001442944045,3.8838379210921583,-0.4771753238943414,-0.10165966311684904
1110,-0.04839057571395517,5.471923481724782,-0.6749142657783556,-0.15393115521012254
1111,-0.07433407531757483,7.550050694145977,-0.9350669697745113,-0.22669983612273056
1112,-0.11147925670899528,10.216500685053512,-1.27086596762855,-0.3256494493396193
1113,-0.16348382292479294,13.574473403228538,-1.6965773328440052,-0.45731879764564576
1114,-0.23477890350400174,17.728286035477886,-2.2271344604128727,-0.6290359985726728
1115,-0.33061021407402047,22.77863126414955,-2.8776593042830094,-0.8487929938859942
1116,-0.4570469140122666,28.817009673703605,-3.66287806080171,-1.1250559908407312
1117,-0.6209488199672482,35.91952837309389,-4.5964468415384285,-1.4665108428047324
1118,-0.8298831213145565,44.140332681868095,-5.690211515005518,-1.8817461429485989
1119,-1.0919832143163617,53.50500405903628,-6.953433770829091,-2.3788809245478797
1120,-1.415744665581765,64.00430985736064,-8.392021791891793,-2.9651481525131698
1121,-1.8097565144842447,75.58872392325326,-10.007808143822205,-3.646449450174573
1122,-2.2823700345668163,88.16414675245063,-11.797919279232131,-4.426900535003682
1123,-2.841311521167782,101.58923608709912,-13.7542803153767,-5.30839034759768
1124,-3.493250291096396,115.67471085253185,-15.863295484039293,-6.290179378384668
1125,-4.243337399169679,130.1849126670382,-18.10573890219216,-7.368563689282654
1126,-5.094734254805739,144.84180156774448,-20.456882077329208,-8.536630229802446
1127,-6.048153273886443,159.331430838866,-22.886873944957944,-9.784126217196363
1128,-7.101434945649982,173.31279724828607,-25.361376527941843,-11.097460764306557
1129,-8.249187111082108,186.42880739609228,-27.84244508173308,-12.459850822742895
1130,-9.482512512273301,198.3189494832548,-30.289626671200256,-13.851616113587363
1131,-10.78884943659538,208.63312425714992,-32.661236528484494,-15.250619465044641
1132,-12.151947376025197,217.0459802942965,-34.91575840930108,-16.632840517734635
1133,-13.551995073301587,223.27102642276208,-37.013304647205565,-17.973062809444432
1134,-14.965912236023389,227.07376500986047,-38.91706474391434,-19.24564735447606
1135,-16.367808737001504,228.28310787950977,-40.59466885216681,-20.425360296541754
1136,-17.72960662811196,226.8004025002652,-42.0193947177627,-21.4882182834505
1137,-19.02181135655507,222.60550692291807,-43.171153412960344,-22.412313204731777
1138,-20.214409862835613,215.75950183564447,-44.037200060004096,-23.17857817079545
1139,-21.27786530066369,206.40380805403314,-44.61253001621439,-23.771459193899574
1140,-22.184171286178838,194.75567665274988,-44.89993782883478,-24.179461745532283
1141,-22.907923136790156,181.10022394177682,-44.909734671222004,-24.39554780555032
1142,-23.427359893506907,165.77938114056943,-44.659138823860374,-24.417366770505705
1143,-23.72532948870309,149.17830578331444,-44.17137187744942,-24.247312246652946
1144,-23.790130508383463,131.70994661804667,-43.47450954032053,-23.892405817246072
1145,-23.616187572915965,113.79855641556973,-42.600149215845214,-23.36401771176746
1146,-23.204523183911114,95.86300079104443,-41.58196608203532,-22.677442279928627
1147,-22.5629967004161,78.3007125511868,-40.45423472848776,-21.851352802048996
1148,-21.70629067156596,61.47309051293044,-39.250394186119195,-20.90716511309805
1149,-20.65563567676703,45.693043190879784,-38.00173034697984,-19.868342477359683
1150,-19.438276482140378,31.21523858926796,-36.73624148854102,-18.759674841541173
1151,-18.086693989335167,18.22945170784473,-35.477740350863435,-17.60656392988759
1152,-1.6839744475666792e-10,1.2945374043888623e-10,-1.4270949513311584e-10,-1.9152322612044423e-10
1153,-3.694055703315316e-09,2.7741744020485673e-09,-2.7469858654166094e-09,-4.124614604930571e-09
1154,-4.114172462373091e-08,3.0986319689471865e-08,-3.1491154266837974e-08,-4.580076462540011e-08
1155,-3.0240290118529216e-07,2.2860268754087795e-07,-2.3683456422305996e-07,-3.3548747414648433e-07
1156,-1.657079013551055e-06,1.263852788223337e-06,-1.335163648453301e-06,-1.8323229901274443e-06
1157,-7.246128946196534e-06,5.602137461225077e-06,-6.031389488413611e-06,-7.988600615989886e-06
1158,-2.642966607979952e-05,2.080532644251317e-05,-2.2809041115130677e-05,-2.9059654309314382e-05
1159,-8.299983398753647e-05,6.679252764995584e-05,-7.449565638736514e-05,-9.103786019664422e-05
1160,-0.0002299102297374084,0.00018975626068282056,-0.0002151133594072033,-0.0002516068579147598
1161,-0.00057263574843117,0.0004858815390166013,-0.0005593840390980589,-0.0006252846069545537
1162,-0.0013027388699734755,0.0011379183532488622,-0.001329572108773292,-0.0014191742891586606
1163,-0.0027426022956084034,0.002466953973584517,-0.0029240333540271,-0.0029797904522572112
1164,-0.005401842433217414,0.005000550912166587,-0.006010944364174596,-0.005850582397157835
1165,-0.010045590746043317,0.009557021087315943,-0.011649354878746888,-0.010839099098090514
1166,-0.017774296520668035,0.01734420837188323,-0.021437947343589774,-0.019092050339575988
1167,-0.030113677646651165,0.030069820054206747,-0.037689648877824736,-0.032175615464727504
1168,-0.04911187500591126,0.05005895866600939,-0.06362738514214653,-0.05215716127423207
1169,-0.07743891972757697,0.08037287162566098,-0.10359278517664984,-0.08168311458736979
1170,-0.11848151565430359,0.1249209398824343,-0.1632556553502697,-0.12404618947254327
1171,-0.1764240806859674,0.18855567913722718,-0.2498078683228038,-0.18323365482459714
1172,-0.25630527613085846,0.27713837951206866,-0.3721214334873729,-0.26394718208093254
1173,-0.3640382727407571,0.39756146821113375,-0.5408475042062973,-0.3715844905524691
1174,-0.5063830883177304,0.5577132687491709,-0.7684315669235178,-0.5121738789077773
1175,-0.6908605325699694,0.7663719252307978,-1.0690205560705437,-0.6922548040120746
1176,-0.9255994099229155,1.0330180281164034,-1.4582405023821088,-0.9187006450751739
1177,-1.2191114442727888,1.3675598188436902,-1.9528286051031503,-1.198483299179092
1178,-1.5799918985168202,1.779970452649249,-2.570111188013266,-1.5383831031461714
1179,-2.016548182697967,2.279843186016067,-3.3273285240467807,-1.9446516890314447
1180,-2.53636387501465,2.8758770085356686,-4.240818618840672,-2.422639611839563
1181,-3.1458112406880807,3.5753116968150542,-5.325084232243263,-2.9764046359321745
1182,-3.8495310833257466,4.383337160902007,-6.591780018241901,-3.6083200670879765
1183,-4.649904165823907,5.302506994061023,-8.048668725788227,-4.318705208935312
1184,-5.546543067996957,6.332190004611461,-9.698605676955783,-5.105501694895253
1185,-6.535836703606222,7.4680958195371225,-11.53861794310362,-5.964019855120142
1186,-7.610581212289926,8.701910941795566,-13.559147650588175,-6.886778089533989
1187,-8.75973013271357,10.021079506090793,-15.743526993208713,-7.863455213329284
1188,-9.968293550299078,11.408758146362533,-18.067745550915355,-8.880970957196364
1189,-11.217410506797963,12.843966876609414,-20.50055860336588,-9.923703560736161
1190,-12.484611610184057,14.301948005627874,-23.003968749348033,-10.973846081788372
1191,-13.744279655715054,15.754733476848948,-25.534093077062238,-12.011895018637812
1192,-14.9683053681239,17.171908461505723,-28.04240534409351,-13.017256495403446
1193,-16.12692362717325,18.521546442154932,-30.477318338548443,-13.968947149967288
1194,-17.189703631612772,19.771279271354196,-32.786047250828354,-14.846359705674173
1195,-18.126655399435087,20.889455556957564,-34.91667219038682,-15.630057645646662
1196,-18.909405648973618,21.8463329206301,-36.820298855262266,-16.302559855087445
1197,-19.512389056457025,22.61524482848641,-38.45320266857231,-16.849074707773653
1198,-19.913996604111887,23.17368135075621,-39.778835045833745,-17.258143932588347
1199,-20.097621591085897,23.504225721029222,-40.769571875802576,-17.52215977657495
1200,-20.05254612012625,23.595295000425015,-41.40809417527191,-17.63772452164707
1201,-19.774616515293914,23.441643169658626,-41.688308816681435,-17.605829164289947
1202,-19.26666501946067,23.044597858548066,-41.615742141222555,-17.43183768264362
1203,-18.538646997676373,22.41201666885706,-41.20736940244556,-17.12527424612938
1204,-17.607477315148483,21.557964540154614,-40.49087621095087,-16.69942226626884
1205,-16.496565796081363,20.502128804733868,-39.50338217601541,-16.17075548508274
1206,-15.235068501498619,19.269002586362856,-38.28968957899338,-15.558231399778865
1207,-13.85688756015442,17.886879312527917,-36.90014920309377,-14.882485421735726
1208,-12.39946616460314,16.386710728450208,-35.388259626932374,-14.164969766804832
1209,-10.902436243411142,14.8008874138595,-33.80813385947236,-13.427084023505278
1210,-9.40618374592951,13.162003976890377,-32.21197683233319,-12.689344605736164
1211,-7.950400139318325,11.50167056694544,-30.647717999066884,-11.97063778681589
1212,-6.57268846453142,9.84942807085182,-29.156934598924785,-11.287595650974641
1213,-5.307288209811572,8.231816580467255,-27.773183167299134,-10.654126242859617
1214,-4.18397570769457,6.671635983972219,-26.520830579611154,-10.081118961390878
1215,-3.2271862852512077,5.1874246453794814,-25.414443130180825,-9.576334587423538
1216,3.969789449977122e-11,1.5583888393208093e-11,-1.551477648948729e-10,5.697429467149211e-11
1217,1.3751576671542325e-09,3.1606514166185836e-10,-3.24093036930481e-09,1.4437175294451157e-09
1218,1.4939806916071924e-08,3.5108327757897673e-09,-3.630461450952335e-08,1.5738183291549052e-08
1219,1.0892868845555384e-07,2.57918226012483e-08,-2.682493762374801e-07,1.1368696882230305e-07
1220,5.872131641760549e-07,1.4248885828902637e-07,-1.4875798201152257e-06,6.081470111715098e-07
1221,2.50590160010062e-06,6.336701981222882e-07,-6.621668408147657e-06,2.5762312044066056e-06
1222,8.832729898996832e-06,2.3719603667025875e-06,-2.4717808096370192e-05,9.02081100487945e-06
1223,2.6503078758221577e-05,7.711965060687123e-06,-7.98108306961334e-05,2.691696270347316e-05
1224,6.92421913058405e-05,2.2294572748257804e-05,-0.0002281325934093846,7.003688638255941e-05
1225,0.0001602996888031223,5.835134989210345e-05,-0.0005878047181199345,0.000161822014318004
1226,0.000333432774544492,0.00014025723343881892,-0.0013851437985203234,0.00033693748809980546
1227,0.0006299850331551689,0.0003132016296602495,-0.003020888280475306,0.0006398550240008604
1228,0.0010900205843012737,0.0006558870252906789,-0.006158173794550741,0.0011190194591464515
1229,0.0017360796674509543,0.0012980664132853676,-0.011832286874365907,0.0018156507819608008
1230,0.002548845537601391,0.0024434316136619574,-0.021580389327035376,0.0027466326507483946
1231,0.003434528685869322,0.004397826699080857,-0.03758760604560203,0.003881019475766413
1232,0.004184019983976433,0.0076020134548638735,-0.06284392848365417,0.005109575087648448
1233,0.004424039117109378,0.012667371657971492,-0.10130408256541691,0.006206744401015741
1234,0.003560831043448891,0.020412124922690622,-0.15803978332570637,0.006784797829571513
1235,0.0007175708076116389,0.031895054562458065,-0.23937089397374492,0.0062406185359777456
1236,-0.005332379042901282,0.04844323046224161,-0.3529594553246817,0.0036966789120065234
1237,-0.016232815285891475,0.07167001292531296,-0.5078489450758101,-0.002060890399836643
1238,-0.03410737985714468,0.10347942233188731,-0.7144309801196984,-0.012642720259057712
1239,-0.06161061942139035,0.14605293679624268,-0.984323265327029,-0.0301092956551808
1240,-0.10195932063565373,0.20181492971853232,-1.3301460064304902,-0.05701001077358111
1241,-0.15893585414783717,0.27337341213880223,-1.7651891185478217,-0.09640133775482831
1242,-0.23685614874022046,0.3634336303499446,-2.3029691415165723,-0.1518378741394037
1243,-0.3404966238210944,0.4746834881920405,-2.956682462322301,-0.22733119003893437
1244,-0.47497668687193223,0.609651739446773,-3.7385698534502474,-0.32727292539937214
1245,-0.6455960812738974,0.770542326922155,-4.659215990465983,-0.45632044483220713
1246,-0.857629373329956,0.9590508977104364,-5.726815939872131,-0.619245567747966
1247,-1.1160830258547396,1.1761720755822156,-6.946447885574198,-0.8207493959402018
1248,-1.4254236058618606,1.4220081866688363,-8.319396707119612,-1.065248941741874
1249,-1.7892885836973504,1.6955915520520923,-9.842575568514983,-1.3566440057079812
1250,-2.210193863567331,1.9947330344786502,-11.508091740638168,-1.69807547442578
1251,-2.6892546087163542,2.3159092286426666,-13.302998229865848,-2.0916887048764186
1252,-3.2259378035567443,2.654199562925194,-15.209264641236022,-2.5384175127836293
1253,-3.8178658864153547,3.003282716807183,-17.20398968427701,-3.0378049992955174
1254,-4.460690230360299,3.355499235316405,-19.25986459171488,-3.5878767127689914
1255,-5.148051045894921,3.701984129029326,-21.345882243396083,-4.185079468164437
1256,-5.871636413763894,4.032869690953472,-23.428271679162926,-4.824295746430255
1257,-6.621347784631207,4.337554880587884,-25.47162264278491,-5.498939196213609
1258,-7.385572654837996,4.605033601251038,-27.44015065397254,-6.201131524373818
1259,-8.151557748848154,4.824270254424085,-29.299040873414818,-6.921955246418571
1260,-8.905868631969337,4.984607365133409,-31.01579993229485,-7.651770814088155
1261,-9.634914979703256,5.076187136694883,-32.56154011723177,-8.380581102442477
1262,-10.325515268526676,5.090366821223231,-33.912120727307396,-9.098421646842436
1263,-10.965470629379142,5.020107051162566,-35.04907738921146,-9.795751772676288
1264,-11.544115165562227,4.860312937093915,-35.96028141763108,-10.463820221171344
1265,-12.052809390020911,4.608109814221461,-36.640287201921,-11.094979364168042
1266,-12.485344904333829,4.26303886257596,-37.09034498895207,-11.6829248032055
1267,-12.83823216962803,3.8271621380222656,-37.31807789178547,-12.222841919701976
1268,-13.110849124876987,3.3050714571915916,-37.33684382297922,-12.71144735098792
1269,-13.305436165051372,2.703800680389297,-37.164823539015266,-13.146920872579162
1270,-13.426932231654655,2.0326458524239643,-36.823893362837424,-13.528731342036247
1271,-13.482657003233573,1.3029020591804186,-36.33835409296848,-13.857368821522652
1272,-13.481854714446522,0.5275294830113391,-35.73359533782716,-14.134003221330657
1273,-13.4351250720963,-0.27923614489522813,-35.03477689734134,-14.360097040460804
1274,-13.353775128452964,-1.1023117120371781,-34.26560610309824,-14.537005187130358
1275,-13.249132129651016,-1.9262156193240532,-33.44728263602471,-14.665597791691841
1276,-13.131860883350013,-2.7355194272446037,-32.597670649936695,-14.745942004008391
1277,-13.011329864420771,-3.5152850268644986,-31.73074246360494,-14.77707584700189
1278,-12.89506793830384,-4.251471730720403,-30.856319308498964,-14.756901302102332
1279,-12.788348202960348,-4.931300164355601,-29.980113730744595,-14.682215210011533
1280,-1.1920650469782894e-10,-2.3151795614247884e-12,-9.822719075051759e-11,-1.5851695978634306e-10
1281,-2.678155471303463e-09,-1.2985623576871226e-10,-1.979959086727669e-09,-3.4558263882779563e-09
1282,-2.986159873661327e-08,-1.3148496788320583e-09,-2.2732777884712183e-08,-3.872679918824908e-08
1283,-2.1958421096701705e-07,-9.223605898597837e-09,-1.7243047234895122e-07,-2.8613179525441776e-07
1284,-1.2017615690321046e-06,-4.763453792110565e-08,-9.834763521999827e-07,-1.5752089779836693e-06
1285,-5.238128277887503e-06,-1.9419454194678786e-07,-4.508197433881032e-06,-6.916852074941814e-06
1286,-1.900398329503796e-05,-6.520670266131711e-07,-1.7341941797185756e-05,-2.5320650190349777e-05
1287,-5.9233061733208606e-05,-1.8565368348424028e-06,-5.7710752119635576e-05,-7.976262344701423e-05
1288,-0.00016249135013650712,-4.5787436484819844e-06,-0.0001699483623145448,-0.00022149146244392217
1289,-0.0003999687291499908,-9.938847589137092e-06,-0.0004507491659975141,-0.000552671472166981
1290,-0.000897542746587089,-1.9218171465777935e-05,-0.0010920920200380064,-0.0012587040664853132
1291,-0.0018608518558579387,-3.340883274655565e-05,-0.00244537712568951,-0.0026507601930328387
1292,-0.0036050015295920816,-5.259368469510879e-05,-0.005110019090615249,-0.005218372777384136
1293,-0.0065887588324885305,-7.549029971931745e-05,-0.0100476779530427,-0.009691400574137641
1294,-0.011453323948963638,-9.975342548188852e-05,-0.01872078110050535,-0.017110034134560925
1295,-0.019065659968159333,-0.00012382097231519344,-0.03325129666408073,-0.028900536826976957
1296,-0.030565805623818207,-0.00015113119038007842,-0.05659305972946943,-0.04695306162068017
1297,-0.04741668561240207,-0.00019741260619338577,-0.09270838198713027,-0.07369631586542688
1298,-0.07145380558194978,-0.0003014801952152258,-0.1467371511437505,-0.11216225340967055
1299,-0.10493099973378739,-0.0005396289568693573,-0.22514407524748886,-0.16603253567297968
1300,-0.15055728956050682,-0.001043352598605912,-0.3358272422255619,-0.23965748068153114
1301,-0.21151921399252335,-0.0020197527929520344,-0.488169081734884,-0.3380379534469604
1302,-0.2914829391778065,-0.0037736112706284607,-0.6930097576842702,-0.46676143637774803
1303,-0.3945710123333715,-0.006729628034511266,-0.9625236976284165,-0.631885380276512
1304,-0.5253094994491829,-0.011452754468881964,-1.309982987926523,-0.839763660846013
1305,-0.688542158670958,-0.018663908991073022,-1.7493969655314983,-1.096815276917924
1306,-0.8893092131428113,-0.029247770002624702,-2.295025313148565,-1.4092381910467051
1307,-1.1326893759776988,-0.04424896727176195,-2.9607716726711,-1.7826753724222442
1308,-1.4236052230440674,-0.064853018640319,-3.7594753342561495,-2.2218445057325136
1309,-1.766593851198187,-0.0923488988704199,-4.702128963562996,-2.730147154650555
1310,-2.165546991803271,-0.1280712106431917,-5.79705967570952,-3.3092770224339794
1311,-2.6234274069717243,-0.17332148533004405,-7.049118288349609,-3.9588500330420424
1312,-3.141971476099851,-0.22927005319448948,-8.458926656301191,-4.676081006744592
1313,-3.7213911382953864,-0.29684203565042716,-10.022235129983914,-5.455532411716783
1314,-4.360091267853021,-0.37659316338405824,-11.72944099323593,-6.288959631928557
1315,-5.054420557549055,-0.4685831444277416,-13.565313967438309,-7.165274122268963
1316,-5.798474747335496,-0.5722560151662512,-15.508966433572775,-8.070640746914318
1317,-6.583970542723388,-0.6863381300207735,-17.534094156121004,-8.988718862703488
1318,-7.40020689667685,-0.8087650050914489,-19.609498554763352,-9.901048770501951
1319,-8.2341274925626,-0.9366479755450368,-21.699884849373237,-10.787576462003738
1320,-9.07049425441083,-1.0662904276890064,-23.76691277728795,-11.627300606440418
1321,-9.892176661650469,-1.1932611575294976,-25.770459204685675,-12.399017043693789
1322,-10.680555874048572,-1.312529191617955,-27.670036034166632,-13.082128374610166
1323,-11.416036529595322,-1.4186602981217329,-29.426293590833478,-13.657480190793324
1324,-12.078652814138803,-1.5060706390162546,-31.002530458869415,-14.1081815322447
1325,-12.648749215966916,-1.5693279082489828,-32.366126732574756,-14.42036561908552
1326,-13.107710574068793,-1.6034852970721591,-33.489819690730016,-14.583848046097057
1327,-13.43871105177183,-1.6044292168537535,-34.35274916932908,-14.592643615502606
1328,-13.627447980144987,-1.5692183918421618,-34.94121378253584,-14.445309735202844
1329,-13.662824460452377,-1.4963901331657559,-35.249097291878236,-14.145093396577053
1330,-13.537544445552843,-1.3862096138906073,-35.2779451593219,-13.699869520324803
1331,-13.248586003700634,-1.2408398897324353,-35.036692920136865,-13.121870221115055
1332,-12.797522851650383,-1.0644141891268317,-34.54106897443081,-12.427216614795672
1333,-12.19067102106189,-0.8629974136704459,-33.812713465590335,-11.635276420529653
1334,-11.439046241715214,-0.6444305292628401,-32.87807098437233,-10.76788089463198
1335,-10.558127467821517,-0.4180591851149365,-31.7671269428947,-9.848442704818877
1336,-9.56743206492723,-0.1943559934052393,-30.512064771642898,-8.901021614454702
1337,-8.489917841332577,0.015546120049283465,-29.14592304676098,-7.949387104469275
1338,-7.351235884148139,0.20038485470202927,-27.701328025683654,-7.016126359394922
1339,-6.178865644597507,0.34933329197780316,-26.20936808581195,-6.121842472964851
1340,-5.001169510441048,0.45256416422524764,-24.69866295343908,-5.284481382334539
1341,-3.846407906067542,0.5017779435783758,-23.194663623520594,-4.51881720148152
1342,-2.7417576627607207,0.49066034668152236,-21.719200148359207,-3.836114916838578
1343,-1.7123760111726163,0.4152387876646158,-20.29027582431606,-3.243977734949372
1344,8.915083225256793e-11,-2.975247332494374e-11,-1.546400450260627e-10,7.264693272060275e-11
1345,1.878598893937123e-09,-5.8041563801458e-10,-3.4076436507839517e-09,1.635915074926526e-09
1346,2.0818731410678342e-08,-6.627550722337558e-09,-3.8164502990307946e-08,1.7754217881560916e-08
1347,1.5205612014820952e-07,-4.977218480598717e-08,-2.826537633893177e-07,1.2738391000828776e-07
1348,8.269376266859584e-07,-2.8056805909469265e-07,-1.56659004607734e-06,6.801901229809691e-07
1349,3.58135947773264e-06,-1.2695005382202905e-06,-6.95321736902464e-06,2.890086601046487e-06
1350,1.2896020968364093e-05,-4.8179750963888505e-06,-2.582944393042996e-05,1.0202678335749716e-05
1351,3.981414051292275e-05,-1.5822408175381206e-05,-8.286464349222566e-05,3.085825282440354e-05
1352,0.0001078715058266238,-4.6023059623115794e-05,-0.00023507247510814671,8.184358157823762e-05
1353,0.0002612727329577866,-0.00012073629720692035,-0.0006006724723176283,0.00019389801098357808
1354,0.000574358744625061,-0.0002898227462391935,-0.0014032339845780006,0.00041659239205888625
1355,0.001160586693859893,-0.0006441149852344169,-0.0030336759812725268,0.0008220380343922371
1356,0.0021787938000166307,-0.0013382850283054231,-0.0061313178842304986,0.0015056945502321959
1357,0.0038344539020194737,-0.002620705187992196,-0.011683686862944876,0.0025829321843506554
1358,0.006373744842706143,-0.00487030381962545,-0.021143464739258516,0.004180183263327926
1359,0.01006832417044165,-0.008639805329935841,-0.036559839400488875,0.006419487563927866
1360,0.015188778577647478,-0.014704101470822984,-0.060720367393895296,0.009395040521479998
1361,0.021964906600023412,-0.02411183618543393,-0.09729787450662664,0.013140192915592154
1362,0.03053141370961326,-0.03823758188832378,-0.15099465080047328,0.01758340276363548
1363,0.040858252131401124,-0.058831231369353594,-0.22767332454394518,0.022491984495503714
1364,0.05266580259302038,-0.08806043975682323,-0.33446082988269416,0.02740319901321326
1365,0.06532655517179944,-0.12854119033995942,-0.479809588001846,0.03154336248691037
1366,0.07775703930537775,-0.18335096796888203,-0.6734991577738645,0.033737238500555516
1367,0.08830630286235208,-0.25601879569776437,-0.926562616576517,0.0323118497426338
1368,0.09464974083968215,-0.3504867310496741,-1.2511247945218769,0.025000683685482455
1369,0.09369894860554483,-0.47103846283384987,-1.6601437950463802,0.00885577804823329
1370,0.0815391643475601,-0.6221924213250345,-2.1670524325905958,-0.019823777469244172
1371,0.053405712604981954,-0.8085591917002376,-2.7853018324485816,-0.06553780502088509
1372,0.0037097237940003826,-1.0346657805450876,-3.527815240210387,-0.13359626658603135
1373,-0.0738786580926759,-1.3047521506960384,-4.406366046475935,-0.2300870688426384
1374,-0.186284292551469,-1.6225481468673426,-5.430900171511964,-0.3617929549786825
1375,-0.3408166081056566,-1.9910412699502436,-6.608829179085599,-0.5360518479399449
1376,-0.5448971106616117,-2.412247561303978,-7.944326454802942,-0.760557435908789
1377,-0.8057316035586585,-2.886999024161174,-9.437663892687523,-1.0430997596898102
1378,-1.1299385201361092,-3.414761451554508,-11.084629997800244,-1.3912491162807388
1379,-1.5231495443107768,-3.9934961831443028,-12.876071342874887,-1.8119906932617629
1380,-1.9896032168328432,-4.619578104497257,-14.797597302579835,-2.311321736588883
1381,-2.5317558513940654,-5.287780070767654,-16.829482704385793,-2.893827305436364
1382,-3.149936143432396,-5.9913308366528515,-18.946794723032063,-3.562254377576425
1383,-3.8420699058932803,-6.722049538601999,-21.119759683746622,-4.317106963682036
1384,-4.603499225228084,-7.470554957510967,-23.314373301854637,-5.156286740511341
1385,-5.426916011791642,-8.226542519193645,-25.493245083673294,-6.074804225055663
1386,-6.3024235975677305,-8.979116747351357,-27.616654723129496,-7.064584358550706
1387,-7.217732160474203,-9.717162229538154,-29.643785750265792,-8.11438739838361
1388,-8.158485042200661,-10.429732623347027,-31.53408985757498,-9.209861370225173
1389,-9.108704284449875,-11.106435206368614,-33.24872489399599,-10.33373636273298
1390,-10.051335570557326,-11.737788161840548,-34.75200137529679,-11.466164009616207
1391,-10.968865620108028,-12.315529190392203,-36.012767487056074,-12.585197906974313
1392,-11.843979288523004,-12.832857000934823,-37.005661755485555,-13.667402834516562
1393,-12.660219638824278,-13.28459151425997,-37.71216621692275,-14.688573026780269
1394,-13.402612642863174,-13.667243928984236,-38.12140092527321,-15.624532971736478
1395,-14.058219330825839,-13.978993837062504,-38.230612461052225,-16.451988740048925
1396,-14.616582227128461,-14.219576987974508,-38.04532397965787,-17.149393889546786
1397,-15.07003958382322,-14.390093687049061,-37.579131427144056,-17.6977916778027
1398,-15.41388989032537,-14.492753710955416,-36.85314905477079,-18.081594850441085
1399,-15.646399847661064,-14.530578542157691,-35.895126429114605,-18.289265880313916
1400,-15.768660593847821,-14.507085183772807,-34.73827774922808,-18.313864295627706
1401,-15.78430831326441,-14.425977431817499,-33.41988120422402,-18.153433480519578
1402,-15.699135270426535,-14.290870013062369,-31.979719965647732,-17.811206702468617
1403,-15.520624867461864,-14.105068405001266,-30.458445993522687,-17.2956206817809
