timestamps,TP9,AF7,AF8,TP10,Right AUX
1728615758.009,-33.203,-38.574,-30.273,-49.316,0.000
1728615758.013,-34.180,-41.016,-26.367,-56.152,0.000
1728615758.017,-56.152,-41.504,-19.531,-37.598,0.000
1728615758.020,-36.133,-29.297,-16.113,7.324,0.000
1728615758.024,-28.320,-42.969,-26.367,2.441,0.000
1728615758.028,-10.742,-44.434,-32.227,-35.156,0.000
1728615758.032,0.488,-21.973,-30.273,-44.922,0.000
1728615758.036,-46.387,-19.043,-36.621,-40.527,0.000
1728615758.040,-38.574,-37.598,-40.527,-0.488,0.000
1728615758.044,-11.230,-42.969,-37.598,3.418,0.000
1728615758.048,-9.277,-29.297,-32.715,-36.621,0.000
1728615758.052,1.465,-33.203,-33.691,-51.758,0.000
1728615758.056,0.000,-38.574,-42.969,-45.410,0.000
1728615758.060,0.000,-23.438,-42.969,-11.719,0.000
1728615758.064,0.000,-12.207,-37.598,-10.254,0.000
1728615758.068,0.000,-13.672,-40.039,-43.457,0.000
1728615758.072,0.000,-22.461,-46.875,-43.457,0.000
1728615758.075,0.000,-26.367,-47.363,-40.039,0.000
1728615758.079,0.000,-25.391,-37.109,-24.902,0.000
1728615758.083,0.000,-40.527,-34.180,-14.648,0.000
1728615758.087,0.000,-54.199,-40.527,-47.852,0.000
1728615758.091,0.000,-39.551,-40.039,-65.918,0.000
1728615758.095,0.000,-22.949,-35.156,-59.570,0.000
1728615758.099,0.000,-30.273,-32.227,-32.715,0.000
1728615758.103,-28.320,-34.180,-33.691,-12.695,0.000
1728615758.107,-42.969,-34.668,-40.527,-44.922,0.000
1728615758.111,-31.738,-37.598,-38.574,-61.523,0.000
1728615758.115,-32.715,-37.598,-33.691,-51.758,0.000
1728615758.118,-46.875,-54.688,-35.156,-25.391,0.000
1728615758.122,-23.438,-53.223,-32.715,3.418,0.000
1728615758.126,-30.273,-49.805,-39.062,-28.320,0.000
1728615758.130,-24.414,-58.594,-42.969,-48.340,0.000
1728615758.134,-24.414,-41.504,-35.156,-36.133,0.000
1728615758.138,-41.992,-17.090,-36.133,-20.508,0.000
1728615758.142,-16.113,-22.949,-36.621,2.441,0.000
1728615758.146,-18.066,-37.109,-34.668,-20.508,0.000
1728615758.149,-21.484,-47.852,-30.762,-46.875,0.000
1728615758.153,-17.578,-47.852,-31.738,-57.129,0.000
1728615758.157,-49.316,-40.039,-38.086,-44.922,0.000
1728615758.161,-47.363,-45.898,-39.551,-12.207,0.000
1728615758.165,-35.645,-46.387,-38.086,-20.508,0.000
1728615758.169,-28.809,-41.504,-36.621,-43.945,0.000
1728615758.173,-25.879,-37.598,-35.645,-43.457,0.000
1728615758.177,-44.922,-40.527,-31.250,-31.738,0.000
1728615758.181,-27.344,-37.109,-27.832,-7.324,0.000
1728615758.185,-23.926,-42.969,-35.156,-15.625,0.000
1728615758.189,-28.809,-41.504,-46.387,-41.504,0.000
1728615758.192,-9.766,-27.832,-46.387,-43.945,0.000
1728615758.196,-32.227,-36.133,-33.691,-29.297,0.000
1728615758.200,-34.180,-40.039,-32.715,-4.395,0.000
1728615758.204,-14.648,-33.203,-38.086,-9.277,0.000
1728615758.208,-22.949,-32.715,-32.715,-52.246,0.000
1728615758.212,-12.695,-27.832,-36.133,-64.941,0.000
1728615758.216,-26.855,-19.043,-35.156,-50.781,0.000
1728615758.219,-38.086,-29.297,-31.250,-17.090,0.000
1728615758.223,-22.461,-33.691,-38.086,-4.395,0.000
1728615758.227,-36.133,-30.762,-41.992,-39.551,0.000
1728615758.231,-25.879,-33.691,-35.645,-54.688,0.000
1728615758.235,-40.039,-31.250,-31.250,-52.734,0.000
1728615758.239,-49.805,-31.738,-34.668,-32.227,0.000
1728615758.242,-26.855,-26.855,-33.203,-20.996,0.000
1728615758.246,-29.785,-20.020,-29.785,-56.641,0.000
1728615758.250,-20.020,-17.578,-36.621,-68.848,0.000
1728615758.254,-34.668,-25.391,-38.086,-59.570,0.000
1728615758.258,-65.918,-39.062,-36.133,-41.992,0.000
1728615758.262,-44.434,-30.273,-35.645,-11.230,0.000
1728615758.266,-31.250,-23.438,-28.320,-24.902,0.000
1728615758.270,-23.926,-32.715,-30.762,-59.082,0.000
1728615758.274,-33.691,-46.875,-41.992,-63.477,0.000
1728615758.278,-66.895,-53.223,-37.598,-45.898,0.000
1728615758.282,-52.734,-58.105,-35.645,-23.438,0.000
1728615758.285,-28.809,-52.246,-46.875,-28.320,0.000
1728615758.289,-22.949,-27.344,-45.898,-54.199,0.000
1728615758.293,-30.273,-34.180,-37.598,-59.570,0.000
1728615758.297,-54.688,-47.363,-35.156,-44.922,0.000
1728615758.301,-26.855,-39.551,-33.203,-10.254,0.000
1728615758.304,-23.438,-37.109,-28.320,-16.602,0.000
1728615758.308,-40.039,-50.293,-34.180,-50.781,0.000
1728615758.312,-24.414,-40.527,-42.969,-56.641,0.000
1728615758.316,-43.945,-28.320,-45.898,-40.039,0.000
1728615758.320,-44.434,-44.922,-40.039,5.859,0.000
1728615758.324,-33.691,-36.621,-35.156,0.000,0.000
1728615758.328,-22.461,-15.137,-33.203,-42.969,0.000
1728615758.332,-7.812,-25.391,-35.645,-52.246,0.000
1728615758.336,0.000,-35.645,-40.527,-49.805,0.000
1728615758.340,0.000,-28.320,-34.180,-19.531,0.000
1728615758.344,0.000,-26.855,-33.691,-20.508,0.000
1728615758.348,0.000,-38.086,-39.062,-63.477,0.000
1728615758.352,0.000,-41.016,-40.039,-67.871,0.000
1728615758.356,0.000,-44.922,-37.598,-53.223,0.000
1728615758.360,0.000,-46.387,-39.551,-36.621,0.000
1728615758.364,0.000,-32.227,-42.480,-29.297,0.000
1728615758.368,0.000,-20.020,-39.062,-53.223,0.000
1728615758.372,0.000,-30.762,-36.133,-57.617,0.000
1728615758.375,0.000,-43.457,-40.527,-54.199,0.000
1728615758.379,0.000,-44.922,-38.086,-26.855,0.000
1728615758.384,-35.645,-38.574,-30.762,-11.230,0.000
1728615758.388,-33.691,-44.434,-30.762,-45.898,0.000
1728615758.392,-20.508,-60.547,-28.809,-67.871,0.000
1728615758.395,-38.086,-59.570,-29.785,-67.871,0.000
1728615758.399,-56.641,-39.551,-32.715,-40.039,0.000
1728615758.403,-38.086,-36.621,-27.344,-8.789,0.000
1728615758.407,-45.898,-31.738,-30.762,-35.156,0.000
1728615758.411,-29.785,-27.344,-35.156,-52.734,0.000
1728615758.415,-34.668,-50.293,-35.645,-39.551,0.000
1728615758.419,-59.082,-54.199,-38.574,-28.809,0.000
1728615758.423,-41.504,-40.527,-38.574,-10.742,0.000
1728615758.427,-37.109,-50.293,-37.109,-22.461,0.000
1728615758.431,-15.625,-46.875,-34.668,-50.781,0.000
1728615758.435,-17.090,-42.480,-35.156,-65.918,0.000
1728615758.439,-56.152,-43.945,-41.016,-51.758,0.000
1728615758.443,-42.480,-32.227,-51.758,-20.508,0.000
1728615758.447,-32.227,-21.484,-48.828,-26.855,0.000
1728615758.450,-31.738,-22.949,-40.039,-44.922,0.000
1728615758.454,-23.438,-29.297,-31.250,-42.480,0.000
1728615758.458,-41.016,-34.180,-28.320,-33.691,0.000
1728615758.462,-29.785,-44.434,-35.645,-3.418,0.000
1728615758.466,-31.738,-40.527,-41.992,-21.484,0.000
1728615758.470,-29.785,-31.738,-44.434,-60.547,0.000
1728615758.474,-6.348,-28.320,-43.945,-55.664,0.000
1728615758.478,-38.086,-28.809,-40.527,-46.875,0.000
1728615758.482,-48.828,-33.691,-36.133,-20.996,0.000
1728615758.486,-35.156,-31.250,-36.621,-18.555,0.000
1728615758.490,-31.738,-27.344,-38.574,-56.641,0.000
1728615758.493,-27.344,-43.457,-41.992,-70.801,0.000
1728615758.497,-60.059,-40.039,-49.805,-61.523,0.000
1728615758.501,-54.688,-23.926,-53.711,-35.645,0.000
1728615758.505,-39.062,-30.762,-55.176,-27.344,0.000
1728615758.509,-53.223,-29.785,-53.223,-56.641,0.000
1728615758.513,-29.785,-20.020,-56.152,-63.965,0.000
1728615758.517,-42.969,-33.691,-50.293,-52.246,0.000
1728615758.521,-49.805,-43.945,-41.016,-25.879,0.000
1728615758.525,-27.832,-41.992,-41.992,-12.695,0.000
1728615758.529,-36.133,-37.598,-41.504,-39.551,0.000
1728615758.532,-26.367,-31.738,-41.504,-51.758,0.000
1728615758.536,-35.645,-33.691,-39.062,-49.805,0.000
1728615758.540,-41.504,-36.133,-33.203,-17.578,0.000
1728615758.544,-21.484,-45.410,-38.086,2.441,0.000
1728615758.548,-30.762,-50.781,-47.363,-40.039,0.000
1728615758.552,-20.020,-42.969,-46.387,-55.176,0.000
1728615758.556,-39.062,-33.203,-45.410,-41.016,0.000
1728615758.560,-64.453,-30.273,-42.969,-23.926,0.000
1728615758.564,-38.086,-31.738,-37.109,-9.766,0.000
1728615758.568,-29.297,-34.668,-35.156,-27.344,0.000
1728615758.571,0.000,-43.945,-35.156,-53.223,0.000
1728615758.575,0.000,-42.969,-38.086,-60.059,0.000
1728615758.579,0.000,-35.156,-43.457,-36.133,0.000
1728615758.583,0.000,-39.062,-42.969,-12.207,0.000
1728615758.587,0.000,-41.504,-43.945,-28.320,0.000
1728615758.591,0.000,-35.156,-44.434,-55.664,0.000
1728615758.595,0.000,-37.109,-46.875,-56.641,0.000
1728615758.599,0.000,-37.109,-43.945,-35.645,0.000
1728615758.603,0.000,-27.344,-41.504,-14.648,0.000
1728615758.606,0.000,-26.855,-41.504,-20.508,0.000
1728615758.610,0.000,-38.574,-38.574,-46.387,0.000
1728615758.614,0.000,-47.363,-37.598,-66.895,0.000
1728615758.618,-62.988,-37.598,-43.945,-70.312,0.000
1728615758.622,-62.012,-28.809,-50.293,-35.156,0.000
1728615758.626,-57.129,-36.621,-50.781,-27.344,0.000
1728615758.629,-51.270,-43.945,-48.340,-53.711,0.000
1728615758.633,-34.668,-42.969,-43.945,-55.664,0.000
1728615758.637,-58.105,-38.086,-46.875,-40.039,0.000
1728615758.641,-47.363,-42.480,-42.480,-14.160,0.000
1728615758.645,-20.996,-37.598,-43.457,-13.184,0.000
1728615758.649,-28.809,-44.922,-55.176,-44.434,0.000
1728615758.653,-19.531,-45.898,-44.922,-56.641,0.000
1728615758.657,-36.133,-28.320,-37.598,-40.527,0.000
1728615758.661,-34.668,-21.973,-38.574,-10.742,0.000
1728615758.664,-14.648,-31.250,-32.715,-8.301,0.000
1728615758.668,-19.531,-23.926,-35.645,-39.062,0.000
1728615758.672,-4.883,-11.230,-37.598,-47.363,0.000
1728615758.676,-32.227,-22.461,-40.039,-48.828,0.000
1728615758.680,-47.363,-32.227,-49.805,-37.598,0.000
1728615758.684,-15.137,-34.668,-49.805,-17.578,0.000
1728615758.687,-15.625,-43.457,-45.898,-34.668,0.000
1728615758.691,-10.742,-39.062,-46.875,-55.176,0.000
1728615758.695,-33.203,-39.062,-53.711,-55.664,0.000
1728615758.699,-52.246,-39.062,-54.199,-30.762,0.000
1728615758.703,-35.156,-33.691,-53.223,-10.254,0.000
1728615758.707,-42.969,-31.738,-44.922,-35.156,0.000
1728615758.712,-34.180,-35.645,-41.016,-49.805,0.000
1728615758.715,-36.621,-35.156,-46.387,-48.340,0.000
1728615758.719,-62.012,-28.809,-42.480,-35.156,0.000
1728615758.723,-46.875,-40.039,-37.598,-12.695,0.000
1728615758.727,-41.504,-45.898,-44.922,-34.180,0.000
1728615758.731,-36.133,-44.922,-50.781,-61.035,0.000
1728615758.735,-34.180,-39.551,-46.387,-53.711,0.000
1728615758.739,-61.035,-31.250,-43.457,-40.039,0.000
1728615758.743,-42.480,-35.645,-43.457,-20.508,0.000
1728615758.747,-26.367,-37.598,-44.434,-28.809,0.000
1728615758.751,-27.832,-40.039,-43.945,-62.012,0.000
1728615758.754,-33.691,-51.270,-38.574,-64.453,0.000
1728615758.759,-57.129,-54.688,-38.574,-29.297,0.000
1728615758.763,-51.270,-47.852,-49.805,-2.441,0.000
1728615758.767,-50.293,-44.434,-48.828,-19.043,0.000
1728615758.770,-37.109,-47.852,-46.387,-52.246,0.000
1728615758.774,-27.832,-43.457,-38.574,-47.852,0.000
1728615758.778,-48.828,-34.180,-27.832,-20.996,0.000
1728615758.782,-31.738,-41.016,-26.367,2.441,0.000
1728615758.786,-27.344,-43.945,-29.785,-7.324,0.000
1728615758.790,-42.480,-42.480,-33.691,-42.480,0.000
1728615758.794,-27.832,-38.574,-28.320,-37.598,0.000
1728615758.798,-37.109,-39.551,-20.020,-20.020,0.000
1728615758.802,-35.645,-46.387,-21.484,-2.441,0.000
1728615758.806,-27.344,-38.574,-31.250,-5.859,0.000
1728615758.810,-27.344,-33.691,-30.273,-45.410,0.000
1728615758.814,-11.719,-39.062,-25.391,-63.965,0.000
1728615758.818,-32.715,-44.434,-29.785,-50.781,0.000
1728615758.822,-40.039,-41.016,-36.133,-12.695,0.000
1728615758.825,-26.855,-36.621,-36.621,-5.859,0.000
1728615758.829,-25.879,-37.109,-29.785,-41.504,0.000
1728615758.833,-7.812,-40.527,-26.855,-48.828,0.000
1728615758.837,-31.250,-37.598,-30.273,-47.852,0.000
1728615758.841,-51.758,-22.461,-30.762,-23.926,0.000
1728615758.845,-31.738,-25.391,-31.250,4.883,0.000
1728615758.849,-33.691,-44.922,-38.574,-34.668,0.000
1728615758.853,-23.926,-48.340,-40.039,-62.012,0.000
1728615758.857,-36.133,-34.668,-32.715,-50.781,0.000
1728615758.861,-59.082,-33.691,-37.109,-39.551,0.000
1728615758.865,-42.969,-44.922,-44.434,-21.484,0.000
1728615758.868,-36.621,-42.480,-47.852,-29.785,0.000
1728615758.872,-13.672,-30.273,-44.434,-50.781,0.000
1728615758.876,-17.578,-31.250,-39.551,-52.734,0.000
1728615758.880,-56.152,-45.410,-44.434,-47.363,0.000
1728615758.884,-47.363,-40.039,-54.688,-29.785,0.000
1728615758.888,-37.598,-25.879,-47.852,-36.133,0.000
1728615758.892,-21.484,-40.527,-35.156,-51.758,0.000
1728615758.896,-23.438,-39.062,-41.504,-63.965,0.000
1728615758.900,-57.129,-26.855,-44.434,-55.176,0.000
1728615758.903,-35.156,-39.551,-36.133,-7.812,0.000
1728615758.907,-15.625,-40.039,-33.691,-11.719,0.000
1728615758.911,-15.137,-22.949,-40.527,-41.992,0.000
1728615758.915,-26.855,-23.926,-41.504,-39.062,0.000
1728615758.919,-60.059,-29.785,-32.227,-35.645,0.000
1728615758.923,-42.969,-25.879,-25.391,-11.719,0.000
1728615758.927,-27.832,-26.855,-25.391,-8.301,0.000
1728615758.931,-34.668,-33.691,-30.273,-43.457,0.000
1728615758.935,-38.086,-36.621,-40.527,-62.500,0.000
1728615758.939,-66.406,-42.969,-44.922,-56.152,0.000
1728615758.943,-54.199,-41.504,-40.527,-28.320,0.000
1728615758.946,0.000,-31.250,-42.480,-24.414,0.000
1728615758.950,0.000,-30.762,-46.387,-60.547,0.000
1728615758.954,0.000,-29.785,-38.574,-67.871,0.000
1728615758.958,0.000,-24.414,-30.762,-55.176,0.000
1728615758.962,0.000,-18.555,-36.133,-29.785,0.000
1728615758.966,0.000,-32.227,-41.016,-25.391,0.000
1728615758.970,0.000,-46.387,-39.062,-59.082,0.000
1728615758.974,0.000,-37.598,-37.598,-64.453,0.000
1728615758.977,0.000,-31.738,-35.156,-48.340,0.000
1728615758.981,0.000,-23.926,-37.598,-24.902,0.000
1728615758.985,0.000,-24.414,-39.551,-20.020,0.000
1728615758.989,0.000,-38.086,-33.691,-54.688,0.000
1728615758.993,-38.574,-45.898,-35.156,-74.707,0.000
1728615758.997,-56.152,-44.922,-41.992,-69.824,0.000
1728615759.000,-72.266,-40.527,-36.133,-50.781,0.000
1728615759.004,-41.992,-30.762,-31.250,-25.879,0.000
1728615759.008,-46.875,-29.297,-37.109,-51.758,0.000
1728615759.012,-27.832,-37.598,-40.527,-71.777,0.000
1728615759.016,-19.043,-32.715,-42.480,-59.570,0.000
1728615759.020,-51.270,-35.156,-41.016,-39.062,0.000
1728615759.024,-34.180,-32.715,-40.527,-3.906,0.000
1728615759.028,-26.855,-18.555,-45.898,-22.949,0.000
1728615759.032,-25.391,-29.297,-41.992,-58.105,0.000
1728615759.036,-29.785,-42.969,-33.203,-55.664,0.000
1728615759.039,-57.129,-43.457,-37.598,-35.156,0.000
1728615759.043,-47.363,-39.062,-41.504,-5.859,0.000
1728615759.047,-37.598,-37.109,-36.621,-17.578,0.000
1728615759.051,-30.273,-25.391,-29.785,-49.805,0.000
1728615759.055,-41.504,-29.785,-25.391,-50.293,0.000
1728615759.058,-74.219,-43.457,-28.809,-36.621,0.000
1728615759.062,-55.664,-41.992,-31.738,-10.742,0.000
1728615759.066,-47.363,-38.086,-39.551,-20.996,0.000
1728615759.070,-40.039,-40.527,-42.480,-62.988,0.000
1728615759.074,-25.391,-38.086,-39.551,-71.289,0.000
1728615759.078,-52.246,-38.086,-37.109,-51.758,0.000
1728615759.082,-43.457,-27.832,-26.367,-14.648,0.000
1728615759.086,0.000,-33.203,0.000,-7.324,0.000
1728615759.090,0.000,-52.734,0.000,-37.109,0.000
1728615759.094,0.000,-44.434,0.000,-43.945,0.000
1728615759.098,0.000,-26.855,0.000,-37.109,0.000
1728615759.102,0.000,-31.250,0.000,-7.324,0.000
1728615759.106,0.000,-50.293,0.000,-7.812,0.000
1728615759.110,0.000,-45.410,0.000,-49.316,0.000
1728615759.114,0.000,-39.062,0.000,-51.270,0.000
1728615759.118,0.000,-44.922,0.000,-32.227,0.000
1728615759.122,0.000,-37.598,0.000,-9.277,0.000
1728615759.126,0.000,-14.160,0.000,5.859,0.000
1728615759.129,0.000,-20.508,0.000,-16.602,0.000
1728615759.134,-19.043,-43.945,-29.785,-39.062,0.000
1728615759.138,-30.273,-42.480,-34.180,-45.410,0.000
1728615759.142,-53.223,-32.227,-41.016,-30.762,0.000
1728615759.145,-27.832,-26.855,-40.527,-11.719,0.000
1728615759.149,-18.066,-41.504,-33.691,-34.180,0.000
1728615759.153,-10.254,-43.945,-39.551,-55.176,0.000
1728615759.157,-26.367,-34.668,-41.504,-57.129,0.000
1728615759.161,-51.758,-45.410,-38.574,-48.340,0.000
1728615759.165,-41.504,-39.062,-43.945,-27.832,0.000
1728615759.169,-35.645,-35.645,-49.316,-46.387,0.000
1728615759.173,-22.461,-36.133,-44.434,-65.430,0.000
1728615759.177,-29.785,-29.297,-36.133,-52.246,0.000
1728615759.181,-54.688,-36.621,-39.062,-41.016,0.000
1728615759.185,-39.062,-34.180,-44.922,-24.414,0.000
1728615759.189,-43.457,-29.785,-48.828,-41.016,0.000
1728615759.193,-31.738,-33.203,-44.922,-63.477,0.000
1728615759.196,-20.996,-29.785,-39.551,-51.758,0.000
1728615759.200,-48.828,-20.020,-43.457,-33.203,0.000
1728615759.204,-40.039,-20.996,-43.945,-15.625,0.000
1728615759.208,-31.738,-26.367,-45.898,-31.250,0.000
1728615759.212,-36.133,-27.344,-44.434,-62.500,0.000
1728615759.216,-38.086,-30.762,-38.574,-72.754,0.000
1728615759.220,-44.434,-38.574,-37.598,-56.152,0.000
1728615759.224,-36.133,-38.086,-38.574,-13.672,0.000
1728615759.228,-36.621,-37.598,-36.621,-18.066,0.000
1728615759.232,-22.949,-30.762,-34.668,-53.223,0.000
1728615759.236,-4.395,-23.438,-34.180,-49.805,0.000
1728615759.239,-31.738,-28.809,-29.785,-26.855,0.000
1728615759.243,-32.227,-30.273,-30.273,-8.789,0.000
1728615759.247,-16.602,-30.273,-39.551,-9.277,0.000
1728615759.251,-18.066,-31.250,-39.062,-31.250,0.000
1728615759.255,-6.348,-33.691,-41.504,-45.898,0.000
1728615759.259,-39.551,-45.898,-48.340,-38.574,0.000
1728615759.263,-45.410,-38.086,-45.410,-14.648,0.000
1728615759.267,-18.066,-18.066,-41.504,-2.930,0.000
1728615759.271,-32.227,-20.508,-45.898,-38.574,0.000
1728615759.274,-17.578,-32.227,-49.805,-50.293,0.000
1728615759.278,-24.414,-44.434,-37.109,-33.691,0.000
1728615759.282,-52.734,-36.133,-34.668,-22.461,0.000
1728615759.286,-38.086,-29.297,-42.969,-11.719,0.000
1728615759.290,-34.180,-26.367,-43.457,-31.738,0.000
1728615759.294,-26.367,-28.320,-41.016,-59.082,0.000
1728615759.298,-49.316,-38.086,-40.039,-58.594,0.000
1728615759.302,-63.965,-42.480,-42.480,-26.855,0.000
1728615759.306,-47.363,-46.875,-40.039,-7.812,0.000
1728615759.310,-49.316,-35.156,-39.062,-36.133,0.000
1728615759.313,-33.691,-34.668,-45.898,-60.547,0.000
1728615759.317,-54.199,-43.457,-53.711,-61.035,0.000
1728615759.321,-79.102,-38.574,-49.805,-31.738,0.000
1728615759.325,-44.434,-46.387,-42.969,-7.812,0.000
1728615759.329,-45.898,-57.617,-40.039,-26.367,0.000
1728615759.333,-43.945,-42.969,-44.434,-41.992,0.000
1728615759.337,-41.504,-32.715,-41.504,-54.199,0.000
1728615759.340,-68.848,-41.016,-40.527,-41.992,0.000
1728615759.344,-48.828,-37.109,-51.270,-7.324,0.000
1728615759.348,-36.621,-37.109,-56.641,-21.484,0.000
1728615759.352,-29.297,-43.945,-52.734,-61.523,0.000
1728615759.356,-18.066,-36.133,-43.457,-58.105,0.000
1728615759.360,-36.133,-31.738,-37.598,-35.156,0.000
1728615759.364,-19.043,-35.645,-40.039,-10.742,0.000
1728615759.367,-23.438,-37.109,-43.457,-21.484,0.000
1728615759.371,-20.508,-20.508,-35.645,-48.340,0.000
1728615759.375,6.348,-1.953,-33.691,-46.387,0.000
1728615759.379,-28.320,-10.742,-38.574,-44.922,0.000
1728615759.383,-33.691,-22.461,-30.762,-10.254,0.000
1728615759.387,-20.020,-20.020,-29.297,7.812,0.000
1728615759.391,-23.438,-26.367,-33.691,-25.391,0.000
1728615759.395,-11.719,-31.250,-34.668,-42.480,0.000
1728615759.399,-39.551,-40.039,-27.832,-32.715,0.000
1728615759.402,-42.969,-56.641,-25.391,-6.836,0.000
1728615759.406,-20.508,-50.293,-32.715,-0.488,0.000
1728615759.410,-36.621,-40.039,-34.668,-34.668,0.000
1728615759.415,-30.273,-46.875,-30.762,-45.410,0.000
1728615759.419,-49.316,-54.688,-28.809,-30.273,0.000
1728615759.423,-55.664,-41.016,-33.691,-9.277,0.000
1728615759.427,-38.574,-34.180,-35.645,-9.277,0.000
1728615759.431,-36.621,-43.457,-36.621,-52.734,0.000
1728615759.435,-17.578,-36.133,-38.086,-65.918,0.000
1728615759.438,-36.621,-36.133,-32.227,-51.758,0.000
1728615759.442,-45.898,-49.316,-27.344,-30.273,0.000
1728615759.446,-33.691,-48.340,-29.297,-20.508,0.000
1728615759.450,-44.434,-53.223,-32.227,-44.434,0.000
1728615759.454,-26.855,-54.199,-26.855,-60.547,0.000
1728615759.458,-37.109,-35.645,-27.344,-59.570,0.000
1728615759.462,-59.570,-26.855,-33.203,-41.992,0.000
1728615759.466,-21.973,-26.855,-30.762,-10.254,0.000
1728615759.470,-24.414,-36.133,-38.574,-32.715,0.000
1728615759.474,-40.039,-45.410,-46.387,-61.035,0.000
1728615759.478,-36.133,-31.738,-46.387,-60.059,0.000
1728615759.482,-50.293,-25.879,-52.246,-48.828,0.000
1728615759.486,-34.668,-36.133,-48.828,-15.625,0.000
1728615759.490,-24.414,-40.527,-47.363,-30.273,0.000
1728615759.494,-7.324,-44.434,-51.758,-59.082,0.000
1728615759.498,-9.277,-39.551,-50.293,-54.688,0.000
1728615759.501,-53.223,-26.855,-51.270,-42.480,0.000
1728615759.505,-48.828,-33.203,-53.223,-10.254,0.000
1728615759.510,-34.668,-35.156,-47.363,-16.113,0.000
1728615759.513,-27.344,-36.133,-45.410,-49.805,0.000
1728615759.517,-25.391,-35.645,-42.969,-55.176,0.000
1728615759.521,-55.664,-28.809,-42.480,-49.316,0.000
1728615759.525,-40.039,-20.508,-46.387,-18.066,0.000
1728615759.529,-30.762,-23.926,-42.480,-18.555,0.000
1728615759.533,-41.992,-30.762,-42.969,-57.617,0.000
1728615759.537,-30.762,-26.855,-41.504,-60.059,0.000
1728615759.541,-54.688,-24.902,-36.133,-40.527,0.000
1728615759.545,-46.875,-20.508,-31.738,-1.953,0.000
1728615759.549,-28.320,-29.785,-29.297,-3.906,0.000
1728615759.553,-33.691,-51.270,-29.297,-40.039,0.000
1728615759.557,-29.297,-62.500,-24.414,-42.480,0.000
1728615759.560,-49.316,-42.480,-23.438,-44.922,0.000
1728615759.564,-44.922,-28.320,-30.273,-30.273,0.000
1728615759.568,-33.691,-24.902,-36.621,-15.137,0.000
1728615759.572,-45.410,-27.832,-39.062,-40.527,0.000
1728615759.576,-34.668,-39.062,-36.133,-52.246,0.000
1728615759.580,-57.617,-41.504,-36.133,-41.992,0.000
1728615759.584,-61.523,-33.203,-34.668,-24.414,0.000
1728615759.588,-28.809,-36.621,-30.762,-11.230,0.000
1728615759.592,-33.203,-42.480,-34.668,-35.645,0.000
1728615759.596,-20.020,-51.270,-38.574,-53.223,0.000
1728615759.600,-24.414,-51.758,-35.645,-57.129,0.000
1728615759.603,-57.617,-38.086,-36.133,-41.016,0.000
1728615759.607,-43.457,-31.250,-38.574,-19.531,0.000
1728615759.611,-36.133,-40.527,-35.156,-33.203,0.000
1728615759.615,-26.855,-37.598,-36.133,-55.664,0.000
1728615759.619,-32.715,-30.762,-41.016,-60.059,0.000
1728615759.623,-49.805,-34.668,-36.621,-37.598,0.000
1728615759.627,-34.180,-43.945,-31.738,-15.137,0.000
1728615759.631,-21.484,-45.410,-33.203,-29.297,0.000
1728615759.635,-10.254,-34.668,-35.645,-57.129,0.000
1728615759.639,-27.832,-25.391,-37.109,-67.383,0.000
1728615759.642,-59.082,-26.855,-41.016,-48.828,0.000
1728615759.646,-43.457,-30.762,-41.504,-19.043,0.000
1728615759.650,-47.363,-31.250,-46.387,-32.715,0.000
1728615759.654,-49.805,-43.945,-44.434,-67.383,0.000
1728615759.658,-38.086,-46.387,-43.945,-73.242,0.000
1728615759.662,-64.453,-31.738,-48.828,-53.711,0.000
1728615759.666,-53.223,-28.809,-51.758,-19.531,0.000
1728615759.670,-38.574,-41.016,-52.246,-26.367,0.000
1728615759.673,-25.879,-41.992,-42.969,-59.570,0.000
1728615759.677,-16.602,-43.945,-37.109,-59.082,0.000
1728615759.681,-45.410,-35.156,-35.645,-42.480,0.000
1728615759.685,-43.945,-23.438,-29.785,-3.418,0.000
1728615759.689,-30.762,-37.598,-23.438,-5.859,0.000
1728615759.693,-26.855,-60.059,-23.438,-41.504,0.000
1728615759.696,-19.043,-53.711,-25.391,-50.781,0.000
1728615759.700,-38.574,-42.480,-27.832,-37.598,0.000
1728615759.704,-21.973,-41.992,-23.926,7.324,0.000
1728615759.708,-9.277,-31.738,-20.020,6.836,0.000
1728615759.712,-32.227,-33.203,-32.227,-42.969,0.000
1728615759.716,-28.809,-44.922,-35.156,-53.711,0.000
1728615759.720,-45.898,-48.828,-30.762,-42.969,0.000
1728615759.724,-48.828,-42.969,-29.297,-15.625,0.000
1728615759.728,-37.598,-29.297,-24.902,-0.977,0.000
1728615759.732,-45.898,-40.527,-24.414,-26.855,0.000
1728615759.736,-19.043,-56.641,-27.344,-46.875,0.000
1728615759.739,-31.738,-41.016,-28.809,-44.434,0.000
1728615759.743,-59.570,-37.109,-28.320,-17.090,0.000
1728615759.747,-37.598,-55.664,-27.344,-1.465,0.000
1728615759.751,-39.062,-48.828,-27.832,-30.762,0.000
1728615759.755,-28.809,-28.320,-27.832,-51.758,0.000
1728615759.758,-35.645,-35.645,-29.785,-52.734,0.000
1728615759.762,-48.340,-34.180,-36.621,-35.156,0.000
1728615759.766,-27.344,-21.484,-44.434,-16.602,0.000
1728615759.770,-27.344,-24.902,-49.805,-44.434,0.000
1728615759.774,-7.812,-32.715,-45.898,-62.500,0.000
1728615759.778,-20.508,-36.133,-46.387,-52.734,0.000
1728615759.782,-56.152,-28.320,-48.828,-39.062,0.000
1728615759.786,-38.086,-17.578,-51.758,-27.832,0.000
1728615759.789,-34.668,-24.902,-53.711,-46.387,0.000
1728615759.793,-22.461,-39.551,-53.711,-62.988,0.000
1728615759.797,-30.273,-30.273,-58.594,-74.707,0.000
1728615759.801,-58.594,-16.113,-60.547,-71.289,0.000
1728615759.805,-30.762,-23.926,-55.176,-34.668,0.000
1728615759.809,-38.574,-30.762,-46.875,-38.574,0.000
1728615759.812,-39.551,-32.715,-44.434,-65.430,0.000
1728615759.816,-34.668,-32.227,-49.316,-62.988,0.000
1728615759.820,-65.430,-37.109,-53.223,-46.387,0.000
1728615759.824,-46.875,-36.621,-47.852,-11.719,0.000
1728615759.828,-40.527,-25.391,-36.621,-8.301,0.000
1728615759.832,-46.875,-38.574,-27.344,-44.434,0.000
1728615759.837,-33.203,-50.293,-23.926,-52.734,0.000
1728615759.840,-47.363,-44.922,-19.531,-35.645,0.000
1728615759.844,-40.527,-40.527,-16.113,-7.324,0.000
1728615759.848,-41.504,-46.387,-25.391,-16.113,0.000
1728615759.852,-49.805,-51.270,-29.785,-45.410,0.000
1728615759.856,-17.578,-48.828,-25.391,-41.992,0.000
1728615759.860,-34.180,-44.434,-17.090,-37.109,0.000
1728615759.864,-39.062,-41.504,-18.555,-12.695,0.000
1728615759.868,-19.531,-44.434,-19.531,3.906,0.000
1728615759.872,-23.926,-49.805,-21.973,-23.926,0.000
1728615759.876,-2.441,-45.898,-22.461,-44.922,0.000
1728615759.880,-26.367,-47.363,-20.996,-41.016,0.000
1728615759.884,-52.246,-51.758,-23.926,-10.742,0.000
1728615759.888,-38.086,-42.969,-24.414,-6.348,0.000
1728615759.892,-51.270,-42.969,-27.832,-45.898,0.000
1728615759.896,-38.574,-37.109,-24.902,-60.547,0.000
1728615759.899,-42.969,-34.180,-28.320,-54.688,0.000
1728615759.903,-55.176,-45.410,-44.434,-28.320,0.000
1728615759.907,-27.344,-40.039,-40.039,-7.812,0.000
1728615759.911,-30.273,-22.949,-46.875,-41.016,0.000
1728615759.915,-28.809,-20.508,-55.664,-59.570,0.000
1728615759.919,-43.945,-32.715,-46.875,-59.570,0.000
1728615759.923,-62.500,-36.621,-41.016,-51.270,0.000
1728615759.927,-37.109,-30.762,-35.156,-7.324,0.000
1728615759.931,-47.363,-30.762,-38.574,-25.879,0.000
1728615759.935,-36.621,-35.156,-25.391,-75.684,0.000
1728615759.939,-42.969,-41.504,-23.438,-91.309,0.000
1728615759.943,-72.266,-33.691,-54.199,-65.430,0.000
1728615759.946,-51.270,-27.344,-45.898,-23.438,0.000
1728615759.950,-49.316,-32.715,-36.621,-41.016,0.000
1728615759.954,-32.227,-41.992,-58.105,-79.102,0.000
1728615759.958,-28.809,-46.875,-54.688,-91.797,0.000
1728615759.962,-50.781,-38.574,-20.020,-54.199,0.000
1728615759.966,-40.527,-31.738,-9.277,-19.531,0.000
1728615759.970,-38.574,-38.086,-55.664,-32.715,0.000
1728615759.974,-14.648,-23.926,-55.664,-26.367,0.000
1728615759.978,-16.113,-20.020,7.812,-49.805,0.000
1728615759.982,-91.797,-54.199,-31.738,-95.215,0.000
1728615759.986,-39.551,-31.250,-106.445,-8.789,0.000
1728615759.989,10.254,-3.418,-73.730,41.992,0.000
1728615759.993,-29.785,-23.926,-80.078,-37.598,0.000
1728615759.997,-32.715,-52.246,-170.410,-82.031,0.000
1728615760.001,-51.758,-65.430,-253.418,-81.055,0.000
1728615760.005,-56.152,-46.875,-284.668,-30.273,0.000
1728615760.009,-38.086,-25.879,-354.492,-7.812,0.000
1728615760.013,-16.602,1.953,-429.199,-21.484,0.000
1728615760.017,0.000,4.395,-400.391,-28.320,0.000
1728615760.021,-29.297,-25.391,-395.020,-42.969,0.000
1728615760.024,-38.574,-28.809,-409.180,-26.367,0.000
1728615760.028,-37.598,-31.738,-410.645,-25.879,0.000
1728615760.032,-44.922,-45.898,-424.316,-61.523,0.000
1728615760.036,-30.762,-47.363,-441.895,-75.195,0.000
1728615760.040,-66.895,-50.293,-458.008,-85.449,0.000
1728615760.044,-55.176,-38.574,-526.367,-48.828,0.000
1728615760.048,-45.898,-53.223,-612.305,-60.547,0.000
1728615760.052,-74.707,-64.941,-732.422,-110.840,0.000
1728615760.056,-54.199,-47.363,-770.996,-117.676,0.000
1728615760.060,-39.551,-33.203,-787.109,-93.262,0.000
1728615760.063,-61.523,-33.691,-840.332,-59.570,0.000
1728615760.067,-56.641,-37.109,-878.418,-55.176,0.000
1728615760.071,-53.223,-33.203,-931.641,-81.543,0.000
1728615760.075,-52.246,-60.059,-957.520,-108.887,0.000
1728615760.079,-52.246,-82.520,-987.305,-104.004,0.000
1728615760.083,-65.918,-65.918,-1000.000,-70.801,0.000
1728615760.087,-51.758,-54.688,-998.535,-35.156,0.000
1728615760.091,-50.293,-62.988,-1000.000,-64.453,0.000
1728615760.095,-31.250,-48.828,-1000.000,-85.449,0.000
1728615760.098,-35.156,-44.922,-1000.000,-84.473,0.000
1728615760.102,-87.402,-56.641,-1000.000,-83.984,0.000
1728615760.106,-64.941,-54.199,-1000.000,-43.945,0.000
1728615760.110,-50.781,-64.941,-1000.000,-51.270,0.000
1728615760.114,-29.785,-50.293,-1000.000,-60.547,0.000
1728615760.118,-17.090,-42.969,-1000.000,-68.359,0.000
1728615760.121,-56.641,-44.922,-1000.000,-62.988,0.000
1728615760.125,-49.316,-39.062,-1000.000,-25.391,0.000
1728615760.129,-39.551,-37.598,-1000.000,-30.273,0.000
1728615760.133,-35.156,-46.875,-1000.000,-66.895,0.000
1728615760.137,-23.438,-39.062,-1000.000,-71.777,0.000
1728615760.141,-62.012,-44.922,-1000.000,-66.406,0.000
1728615760.145,-57.129,-47.363,-1000.000,-21.973,0.000
1728615760.149,-41.504,-39.062,-1000.000,-7.324,0.000
1728615760.153,-44.922,-37.109,-1000.000,-51.758,0.000
1728615760.157,-24.902,-35.645,-1000.000,-61.523,0.000
1728615760.161,-45.898,-37.598,-1000.000,-51.270,0.000
1728615760.164,-52.734,-37.598,-1000.000,-21.973,0.000
1728615760.168,-37.598,-40.039,-1000.000,-10.254,0.000
1728615760.172,-32.715,-26.367,-999.023,-38.574,0.000
1728615760.176,-10.742,-16.113,-1000.000,-46.387,0.000
1728615760.179,-38.086,-27.832,-963.867,-44.434,0.000
1728615760.183,-59.082,-34.668,-889.648,-26.367,0.000
1728615760.187,-39.551,-30.762,-834.473,-13.184,0.000
1728615760.191,-46.875,-29.785,-750.977,-42.480,0.000
1728615760.195,-30.762,-22.461,-637.207,-53.711,0.000
1728615760.199,-31.250,-26.855,-561.035,-47.363,0.000
1728615760.203,-49.316,-34.668,-510.254,-18.066,0.000
1728615760.207,-38.574,-31.250,-456.055,-9.766,0.000
1728615760.211,-40.039,-26.367,-384.766,-35.156,0.000
1728615760.215,-26.367,-26.855,-308.105,-51.758,0.000
1728615760.219,-35.645,-32.715,-240.723,-62.012,0.000
1728615760.223,-53.223,-38.086,-174.805,-33.691,0.000
1728615760.227,-30.762,-37.109,-101.562,-2.930,0.000
1728615760.231,-40.039,-40.527,-43.945,-30.762,0.000
1728615760.235,-27.344,-36.621,14.160,-57.617,0.000
1728615760.239,-3.906,-25.391,83.008,-51.270,0.000
1728615760.243,-41.504,-25.879,145.020,-38.574,0.000
1728615760.247,-42.969,-35.645,207.520,-2.441,0.000
1728615760.250,-32.715,-54.199,270.508,-2.930,0.000
1728615760.254,-21.973,-54.199,358.398,-41.016,0.000
1728615760.259,-20.020,-39.062,430.176,-47.852,0.000
1728615760.263,-49.316,-41.992,472.168,-27.344,0.000
1728615760.267,-47.852,-59.570,496.582,-2.930,0.000
1728615760.270,-39.551,-50.293,507.324,-10.742,0.000
1728615760.274,-26.855,-34.668,513.672,-35.156,0.000
1728615760.278,-9.766,-23.438,533.691,-39.551,0.000
1728615760.282,-37.109,-16.602,549.316,-28.320,0.000
1728615760.286,-46.875,-29.297,549.316,-6.348,0.000
1728615760.290,-44.434,-41.992,550.293,-16.602,0.000
1728615760.294,-41.992,-39.551,545.410,-40.527,0.000
1728615760.298,-24.414,-27.344,547.852,-51.270,0.000
1728615760.302,-47.363,-37.109,565.918,-47.363,0.000
1728615760.306,-42.480,-42.969,579.102,-4.883,0.000
1728615760.310,-20.508,-33.691,569.824,12.207,0.000
1728615760.314,-32.227,-33.691,562.500,-29.785,0.000
1728615760.318,-13.184,-29.785,562.988,-48.340,0.000
1728615760.321,-18.066,-23.438,574.219,-30.273,0.000
1728615760.325,-38.086,-20.020,601.074,-8.301,0.000
1728615760.329,-33.203,-25.391,609.863,-2.930,0.000
1728615760.333,-38.086,-25.879,609.375,-31.250,0.000
1728615760.337,-24.902,-20.020,616.699,-50.293,0.000
1728615760.341,-38.574,-20.020,602.539,-49.316,0.000
1728615760.345,-54.688,-28.809,579.102,-26.855,0.000
1728615760.349,-30.762,-26.367,564.453,1.953,0.000
1728615760.353,-27.344,-22.461,541.992,-31.250,0.000
1728615760.357,-29.297,-35.156,501.465,-71.777,0.000
1728615760.361,-40.527,-31.738,468.750,-62.988,0.000
1728615760.364,-62.012,-25.391,454.590,-30.762,0.000
1728615760.368,-49.805,-26.855,455.566,-16.602,0.000
1728615760.372,-37.598,-29.785,458.984,-47.363,0.000
1728615760.376,-26.855,-31.250,465.332,-66.406,0.000
1728615760.380,-33.203,-30.762,475.586,-64.453,0.000
1728615760.384,-62.988,-32.715,491.699,-45.410,0.000
1728615760.388,-43.457,-34.668,498.047,-16.602,0.000
1728615760.392,-34.668,-25.879,491.699,-33.203,0.000
1728615760.396,-27.832,-20.020,490.234,-56.641,0.000
1728615760.399,-18.555,-26.855,486.328,-51.758,0.000
1728615760.403,-42.969,-35.645,475.098,-29.297,0.000
1728615760.407,-32.715,-33.203,469.238,2.441,0.000
1728615760.411,-21.973,-12.695,461.426,-14.160,0.000
1728615760.415,-20.508,-17.090,450.195,-46.875,0.000
1728615760.419,-19.531,-39.062,450.195,-59.082,0.000
1728615760.423,-54.688,-36.621,449.219,-54.199,0.000
1728615760.427,-47.852,-28.809,439.453,-9.766,0.000
1728615760.431,-31.738,-23.926,427.734,-20.020,0.000
1728615760.435,-26.855,-14.648,429.199,-56.152,0.000
1728615760.438,-22.461,-20.020,416.992,-57.617,0.000
1728615760.442,-62.500,-32.715,392.578,-59.082,0.000
1728615760.446,-58.594,-41.016,375.977,-33.691,0.000
1728615760.450,-33.203,-49.316,366.699,-27.344,0.000
1728615760.454,-38.574,-41.992,356.934,-58.105,0.000
1728615760.458,-25.391,-34.668,337.402,-70.312,0.000
1728615760.462,-43.945,-34.668,327.637,-57.129,0.000
1728615760.465,-47.852,-28.809,319.824,-21.484,0.000
1728615760.469,-29.297,-23.438,300.293,-14.160,0.000
1728615760.473,-36.133,-25.879,290.527,-41.504,0.000
1728615760.477,-28.809,-24.902,285.645,-62.012,0.000
1728615760.481,-48.340,-31.250,274.414,-62.988,0.000
1728615760.485,-53.223,-38.086,266.602,-29.297,0.000
1728615760.489,-26.855,-25.391,258.789,-8.789,0.000
1728615760.492,-33.691,-33.691,244.141,-45.898,0.000
1728615760.496,-18.555,-53.223,232.910,-60.059,0.000
1728615760.500,-33.691,-26.855,226.562,-40.527,0.000
1728615760.504,-58.594,-19.531,220.215,-19.043,0.000
1728615760.508,-34.180,-29.297,219.238,-2.441,0.000
1728615760.512,-27.832,-17.578,207.520,-36.133,0.000
1728615760.516,-9.766,-20.020,191.406,-57.617,0.000
1728615760.520,-21.484,-33.203,179.688,-55.664,0.000
1728615760.524,-47.852,-25.879,173.828,-36.621,0.000
1728615760.528,-31.738,-20.508,166.016,-4.883,0.000
1728615760.531,-28.320,-29.297,152.344,-25.391,0.000
1728615760.535,-7.812,-31.738,153.320,-51.270,0.000
1728615760.539,-10.742,-29.297,147.949,-56.641,0.000
1728615760.542,-51.758,-30.273,143.555,-44.922,0.000
1728615760.546,-28.809,-26.367,145.020,3.906,0.000
1728615760.550,-19.043,-36.621,136.719,-5.371,0.000
1728615760.554,-19.043,-38.574,125.000,-45.898,0.000
1728615760.558,-16.602,-25.879,115.234,-38.086,0.000
1728615760.562,-49.316,-21.973,115.723,-23.438,0.000
1728615760.566,-41.992,-28.809,109.863,-8.301,0.000
1728615760.570,-29.785,-28.320,91.797,-23.438,0.000
1728615760.574,-30.273,-28.320,75.684,-55.664,0.000
1728615760.578,-28.320,-41.016,70.312,-67.871,0.000
1728615760.582,-59.570,-40.527,66.406,-59.570,0.000
1728615760.586,-48.340,-27.344,75.195,-25.391,0.000
1728615760.590,-30.762,-35.645,80.566,-18.555,0.000
1728615760.594,-47.852,-40.527,71.777,-57.617,0.000
1728615760.598,-44.922,-30.762,65.430,-72.754,0.000
1728615760.602,-67.383,-30.762,58.594,-64.941,0.000
1728615760.606,-55.664,-26.855,54.688,-30.273,0.000
1728615760.610,-32.715,-31.250,58.105,-7.812,0.000
1728615760.613,-50.293,-38.574,52.246,-51.758,0.000
1728615760.617,-35.645,-45.410,45.898,-67.871,0.000
1728615760.621,-48.340,-50.781,52.734,-45.898,0.000
1728615760.625,-61.523,-39.062,56.641,-26.855,0.000
1728615760.629,-38.574,-36.621,55.176,-11.230,0.000
1728615760.633,-26.855,-25.391,49.316,-33.691,0.000
1728615760.637,0.488,-15.625,46.387,-57.129,0.000
1728615760.641,-29.297,-23.926,37.109,-61.035,0.000
1728615760.645,-55.176,-29.785,35.645,-43.457,0.000
1728615760.649,-28.809,-27.832,41.992,-11.230,0.000
1728615760.653,-35.156,-22.949,41.504,-34.180,0.000
1728615760.657,-22.949,-26.367,46.875,-68.359,0.000
1728615760.661,-34.180,-35.156,45.410,-62.012,0.000
1728615760.665,-61.035,-37.109,42.480,-39.551,0.000
1728615760.669,-39.551,-31.250,49.316,-15.137,0.000
1728615760.672,-36.133,-30.273,41.504,-38.574,0.000
1728615760.676,-20.996,-16.602,37.598,-61.523,0.000
1728615760.681,-26.855,-17.090,45.898,-57.617,0.000
1728615760.684,-58.105,-35.156,44.434,-41.504,0.000
1728615760.688,-36.621,-33.203,40.527,-18.066,0.000
1728615760.692,-38.574,-37.598,41.504,-33.691,0.000
1728615760.696,-26.367,-39.062,44.922,-53.223,0.000
1728615760.700,-16.602,-30.762,44.434,-56.641,0.000
1728615760.704,-61.523,-47.852,36.621,-50.293,0.000
1728615760.708,-52.246,-57.129,30.762,-17.578,0.000
1728615760.712,-38.574,-45.410,25.391,-33.203,0.000
1728615760.716,-46.387,-38.086,23.926,-75.684,0.000
1728615760.720,-37.598,-37.598,26.855,-66.895,0.000
1728615760.723,-57.129,-43.945,24.902,-51.270,0.000
1728615760.727,-48.340,-40.039,19.531,-30.762,0.000
1728615760.731,-40.527,-48.340,16.113,-38.086,0.000
1728615760.735,-39.551,-49.316,17.090,-70.801,0.000
1728615760.739,-24.414,-43.457,22.461,-73.242,0.000
1728615760.743,-43.945,-42.969,26.855,-51.270,0.000
1728615760.747,-36.621,-30.762,26.367,-12.207,0.000
1728615760.751,-30.762,-27.832,20.508,-9.277,0.000
1728615760.755,-32.227,-31.738,12.695,-44.434,0.000
1728615760.759,-17.578,-29.297,11.230,-56.641,0.000
1728615760.763,-42.969,-22.461,23.438,-56.152,0.000
1728615760.766,-45.898,-17.090,34.180,-20.996,0.000
1728615760.770,-30.273,-20.020,35.156,0.000,0.000
1728615760.774,-35.645,-31.738,31.738,-33.203,0.000
1728615760.778,-24.414,-29.297,27.344,-53.223,0.000
1728615760.782,-43.457,-28.809,20.508,-53.711,0.000
1728615760.786,-64.453,-34.180,13.184,-22.949,0.000
1728615760.790,-44.434,-38.086,12.207,-0.977,0.000
1728615760.794,-34.180,-28.809,9.766,-36.133,0.000
1728615760.798,-9.766,-27.832,4.883,-47.852,0.000
1728615760.802,-23.438,-50.293,6.348,-41.992,0.000
1728615760.805,-50.781,-36.621,11.719,-34.180,0.000
1728615760.809,-38.086,-15.625,15.137,-11.230,0.000
1728615760.813,-44.922,-25.879,13.672,-29.297,0.000
1728615760.817,-28.320,-36.621,17.578,-52.246,0.000
1728615760.821,-24.414,-33.203,23.438,-45.898,0.000
1728615760.825,-51.270,-37.109,20.996,-28.809,0.000
1728615760.829,-34.668,-47.363,24.414,-6.836,0.000
1728615760.833,-34.668,-41.504,21.973,-15.137,0.000
1728615760.836,-40.527,-33.203,25.391,-36.133,0.000
1728615760.840,-39.062,-38.574,123.535,-45.898,0.000
1728615760.844,-58.105,-38.574,186.523,-31.250,0.000
1728615760.848,-30.273,-32.227,171.387,-2.930,0.000
1728615760.852,-28.809,-28.809,160.156,-22.461,0.000
1728615760.856,-32.715,-27.832,148.926,-50.781,0.000
1728615760.860,-26.855,-31.250,144.043,-57.129,0.000
1728615760.864,-55.176,-49.805,131.836,-43.945,0.000
1728615760.867,-42.969,-62.500,125.488,-11.719,0.000
1728615760.871,-35.156,-49.805,117.676,-22.949,0.000
1728615760.875,-27.344,-27.344,104.492,-47.852,0.000
1728615760.879,-11.719,-20.508,91.797,-41.016,0.000
1728615760.883,-41.016,-37.598,89.355,-30.762,0.000
1728615760.887,-35.645,-25.879,86.426,-18.066,0.000
1728615760.891,-20.508,-21.484,74.219,-14.160,0.000
1728615760.895,-28.809,-35.156,70.801,-45.410,0.000
1728615760.899,-12.695,-46.387,70.312,-49.316,0.000
1728615760.902,-16.602,-50.293,65.918,-33.691,0.000
1728615760.906,-29.297,-32.227,63.477,-12.695,0.000
1728615760.910,-25.391,-19.043,66.895,4.395,0.000
1728615760.914,-21.973,-28.809,60.547,-20.996,0.000
1728615760.917,-6.836,-31.738,51.758,-43.945,0.000
1728615760.921,-34.180,-30.762,55.176,-43.945,0.000
1728615760.925,-51.758,-31.250,55.664,-12.695,0.000
1728615760.929,-22.949,-27.832,45.410,3.418,0.000
1728615760.933,-24.414,-34.668,31.738,-25.879,0.000
1728615760.937,-25.879,-48.340,27.344,-47.363,0.000
1728615760.941,-48.340,-57.129,32.227,-55.176,0.000
1728615760.945,-57.129,-41.992,39.551,-23.438,0.000
1728615760.949,-28.320,-29.297,33.203,-6.836,0.000
1728615760.953,-40.039,-41.992,17.578,-44.922,0.000
1728615760.957,-37.598,-42.969,13.184,-64.941,0.000
1728615760.961,-52.246,-40.527,14.648,-60.547,0.000
1728615760.965,-70.801,-42.969,10.254,-41.504,0.000
1728615760.969,-45.410,-33.203,12.695,-22.949,0.000
1728615760.973,-40.039,-42.969,14.160,-45.410,0.000
1728615760.977,-25.879,-52.246,11.230,-60.547,0.000
1728615760.981,-21.973,-41.504,7.324,-51.758,0.000
1728615760.985,-50.293,-34.668,11.719,-32.715,0.000
1728615760.988,-43.945,-34.668,16.602,-13.184,0.000
1728615760.992,-43.457,-38.574,7.812,-28.809,0.000
1728615760.996,-35.645,-33.203,1.465,-53.711,0.000
1728615761.000,-24.902,-36.133,2.441,-51.758,0.000
1728615761.004,-54.688,-43.457,5.859,-36.621,0.000
1728615761.008,-42.969,-44.434,2.441,-17.578,0.000
1728615761.012,-27.832,-39.551,-10.742,-28.809,0.000
1728615761.016,-19.531,-29.297,-16.602,-51.758,0.000
1728615761.020,-9.766,-25.391,-11.230,-58.105,0.000
1728615761.024,-41.016,-24.902,-9.766,-44.922,0.000
1728615761.028,-31.738,-15.137,-2.930,0.000,0.000
1728615761.032,-19.043,-15.137,-8.789,-3.418,0.000
1728615761.036,-20.020,-28.320,-19.043,-42.969,0.000
1728615761.040,-15.137,-25.879,-16.602,-56.152,0.000
1728615761.044,-44.922,-18.555,-18.066,-51.758,0.000
1728615761.048,-40.039,-21.484,-18.066,-16.602,0.000
1728615761.051,-26.855,-26.367,-15.625,-10.254,0.000
1728615761.056,-36.133,-26.855,-14.648,-40.527,0.000
1728615761.060,-20.996,-25.391,-13.184,-43.945,0.000
1728615761.063,-37.598,-22.461,-4.883,-45.410,0.000
1728615761.067,-42.480,-21.484,-0.488,-19.531,0.000
1728615761.071,-28.320,-16.113,-2.441,-13.184,0.000
1728615761.075,-34.180,-27.832,-5.371,-41.992,0.000
1728615761.079,-15.625,-40.039,-5.371,-43.457,0.000
1728615761.083,-25.879,-28.320,1.465,-34.668,0.000
1728615761.087,-39.551,-23.438,4.395,-15.137,0.000
1728615761.091,-22.461,-25.879,-1.953,-8.301,0.000
1728615761.095,-29.785,-33.203,-14.648,-36.621,0.000
1728615761.099,-21.973,-36.133,-16.113,-45.898,0.000
1728615761.102,-37.109,-33.203,-9.277,-45.898,0.000
1728615761.106,-54.688,-47.852,-10.254,-38.574,0.000
1728615761.110,-27.832,-59.570,-12.207,-14.160,0.000
1728615761.114,-30.273,-39.062,-11.719,-36.133,0.000
1728615761.118,-25.391,-26.855,-13.672,-61.035,0.000
1728615761.122,-26.367,-31.250,-12.695,-53.223,0.000
1728615761.126,-48.340,-37.598,-8.301,-38.574,0.000
1728615761.130,-43.945,-46.387,-14.648,-15.137,0.000
1728615761.134,-46.875,-42.969,-15.137,-27.832,0.000
1728615761.138,-42.480,-32.715,-6.836,-60.059,0.000
1728615761.142,-42.480,-24.902,-5.859,-57.617,0.000
1728615761.145,-59.082,-32.715,-1.465,-32.227,0.000
1728615761.149,-46.875,-41.504,-1.953,-8.301,0.000
1728615761.153,-49.805,-48.340,-10.742,-25.879,0.000
1728615761.157,-29.297,-43.945,-12.207,-48.340,0.000
1728615761.161,-25.391,-38.574,-17.578,-53.711,0.000
1728615761.165,-65.430,-43.457,-20.508,-63.477,0.000
1728615761.169,-45.410,-35.645,-13.672,-31.738,0.000
1728615761.173,-36.621,-38.574,-19.531,-30.273,0.000
1728615761.177,-37.109,-39.551,-21.973,-58.105,0.000
1728615761.180,-31.738,-24.902,-14.648,-57.129,0.000
1728615761.184,-64.453,-28.809,-8.789,-60.059,0.000
1728615761.188,-42.969,-36.621,-10.254,-28.809,0.000
1728615761.192,-23.926,-27.832,-16.602,-18.555,0.000
1728615761.196,-46.875,-23.926,-16.113,-59.570,0.000
1728615761.200,-34.180,-26.855,-19.531,-71.289,0.000
1728615761.204,-56.641,-37.109,-27.832,-63.477,0.000
1728615761.207,-62.012,-41.016,-26.367,-38.574,0.000
1728615761.211,-36.621,-33.203,-19.531,-21.484,0.000
1728615761.215,-41.016,-33.691,-19.043,-46.387,0.000
1728615761.219,-33.203,-42.969,-20.996,-60.547,0.000
1728615761.223,-57.129,-50.781,-20.508,-50.293,0.000
1728615761.227,-59.570,-41.992,-18.066,-29.785,0.000
1728615761.231,-23.926,-44.434,-11.719,-7.812,0.000
1728615761.235,-29.785,-54.199,-15.137,-33.691,0.000
1728615761.239,-19.043,-49.316,-21.484,-56.152,0.000
1728615761.242,-31.738,-36.621,-12.695,-44.922,0.000
1728615761.246,-45.898,-34.668,-10.254,-19.043,0.000
1728615761.250,-28.320,-37.109,-19.531,-7.324,0.000
1728615761.254,-41.504,-40.039,-20.508,-40.039,0.000
1728615761.258,-23.926,-42.969,-12.207,-54.688,0.000
1728615761.262,-29.297,-38.086,-7.812,-47.852,0.000
1728615761.266,-57.617,-38.086,-4.883,-33.203,0.000
1728615761.270,-37.109,-34.180,1.953,-14.160,0.000
1728615761.273,-34.668,-27.344,-5.371,-37.109,0.000
1728615761.277,-21.973,-34.668,-4.883,-54.199,0.000
1728615761.281,-21.973,-37.598,1.465,-50.781,0.000
1728615761.285,-47.852,-30.762,-1.953,-31.738,0.000
1728615761.288,-35.645,-37.598,-12.695,-5.859,0.000
1728615761.292,-33.691,-43.945,-9.766,-32.227,0.000
1728615761.296,-28.320,-30.762,-4.883,-65.430,0.000
1728615761.300,-25.391,-17.578,-15.625,-57.129,0.000
1728615761.304,-56.641,-28.809,-20.020,-41.504,0.000
1728615761.308,-44.434,-41.016,-19.531,-17.090,0.000
1728615761.312,-33.203,-40.527,-15.625,-32.227,0.000
1728615761.316,-32.715,-39.551,-15.625,-72.754,0.000
1728615761.320,-24.414,-45.410,-17.090,-67.871,0.000
1728615761.324,-60.547,-52.734,-13.672,-51.270,0.000
1728615761.327,-62.012,-39.062,-16.113,-20.996,0.000
1728615761.331,-43.457,-28.809,-19.043,-14.160,0.000
1728615761.336,0.000,-29.785,-24.414,-45.898,0.000
1728615761.340,0.000,-27.832,-22.949,-60.547,0.000
1728615761.344,0.000,-32.715,-16.602,-42.969,0.000
1728615761.348,0.000,-38.574,-19.531,-9.766,0.000
1728615761.352,0.000,-50.781,-21.973,-20.508,0.000
1728615761.356,0.000,-47.852,-25.391,-61.523,0.000
1728615761.360,0.000,-27.832,-31.250,-71.289,0.000
1728615761.363,0.000,-35.645,-30.273,-61.523,0.000
1728615761.367,0.000,-46.387,-26.367,-29.785,0.000
1728615761.371,0.000,-46.875,-23.926,-2.930,0.000
1728615761.375,0.000,-45.898,-21.973,-33.691,0.000
1728615761.379,0.000,-34.180,-22.949,-57.617,0.000
1728615761.383,-33.203,-32.227,-22.949,-54.199,0.000
1728615761.387,-51.758,-34.668,-21.973,-24.902,0.000
1728615761.391,-32.715,-36.133,-28.320,-3.906,0.000
1728615761.395,-36.133,-48.828,-29.785,-36.133,0.000
1728615761.399,-28.320,-49.316,-26.367,-52.246,0.000
1728615761.403,-40.039,-51.270,-25.879,-46.387,0.000
1728615761.407,-57.129,-45.898,-23.438,-22.949,0.000
1728615761.411,-32.227,-35.645,-23.926,5.371,0.000
1728615761.415,-33.203,-44.922,-28.809,-18.066,0.000
1728615761.419,-20.508,-48.340,-29.297,-40.039,0.000
1728615761.422,-20.996,-36.133,-24.414,-52.734,0.000
1728615761.426,-51.270,-35.645,-25.879,-44.434,0.000
1728615761.431,-34.668,-44.434,-26.855,-9.766,0.000
1728615761.434,-18.555,-41.992,-28.809,-22.461,0.000
1728615761.438,-18.066,-31.250,-26.367,-59.570,0.000
1728615761.442,-30.762,-25.879,-25.879,-55.176,0.000
1728615761.446,-55.176,-37.109,-24.414,-31.250,0.000
1728615761.450,-37.598,-44.922,-26.855,-3.418,0.000
1728615761.454,-33.691,-40.039,-27.832,-17.090,0.000
1728615761.458,-34.668,-35.645,-28.809,-57.129,0.000
1728615761.462,-32.715,-40.039,-29.297,-62.012,0.000
1728615761.466,-62.988,-30.273,-21.973,-62.988,0.000
1728615761.470,-38.574,-14.160,-20.020,-33.203,0.000
1728615761.473,-15.625,-22.949,-26.855,-26.367,0.000
1728615761.477,-28.320,-33.691,-25.391,-59.570,0.000
1728615761.481,-31.738,-29.297,-21.484,-61.523,0.000
1728615761.485,-56.152,-34.668,-21.484,-41.992,0.000
1728615761.489,-40.527,-33.203,-23.926,-4.883,0.000
1728615761.493,-19.043,-31.250,-22.949,2.930,0.000
1728615761.497,-22.949,-35.645,-20.508,-23.926,0.000
1728615761.501,-17.578,-40.527,-22.461,-43.457,0.000
1728615761.505,-43.457,-40.039,-23.438,-44.922,0.000
1728615761.509,-43.457,-29.785,-21.484,-21.973,0.000
1728615761.513,-28.809,-27.832,-19.531,-16.602,0.000
1728615761.517,-31.250,-25.879,-19.043,-44.434,0.000
1728615761.520,-18.066,-35.645,-21.484,-55.176,0.000
1728615761.524,-40.527,-47.363,-20.020,-47.852,0.000
1728615761.528,-55.176,-41.016,-20.996,-21.973,0.000
1728615761.532,-37.598,-41.016,-19.043,-9.766,0.000
1728615761.536,-37.109,-40.527,-17.578,-41.504,0.000
1728615761.540,-30.762,-36.621,-18.555,-60.059,0.000
1728615761.544,-39.551,-37.598,-10.742,-54.688,0.000
1728615761.548,-44.922,-40.039,-7.812,-29.785,0.000
1728615761.552,-15.625,-46.387,-9.277,3.418,0.000
1728615761.556,-18.066,-48.828,-8.789,-16.113,0.000
1728615761.559,-18.555,-41.016,-12.695,-60.059,0.000
1728615761.563,-33.203,-42.969,-14.648,-59.570,0.000
1728615761.567,-57.129,-40.039,-7.812,-21.484,0.000
1728615761.571,-41.504,-27.832,-5.859,-0.977,0.000
1728615761.575,-38.086,-37.109,-5.859,-27.344,0.000
1728615761.579,-27.344,-46.387,-3.418,-54.199,0.000
1728615761.583,-28.320,-45.410,-11.230,-62.012,0.000
1728615761.587,-51.758,-40.527,-19.531,-43.945,0.000
1728615761.590,-41.992,-40.039,-15.137,-14.648,0.000
1728615761.594,-39.551,-41.504,-12.695,-29.297,0.000
1728615761.598,-24.414,-49.805,-7.324,-48.828,0.000
1728615761.602,-23.926,-38.574,-10.742,-51.270,0.000
1728615761.606,-70.312,-31.738,-20.508,-46.387,0.000
1728615761.610,-57.617,-36.133,-23.926,-24.414,0.000
1728615761.614,-34.668,-22.949,-19.531,-28.320,0.000
1728615761.617,-30.273,-24.902,-7.812,-55.664,0.000
1728615761.621,-18.555,-39.551,-7.324,-55.664,0.000
1728615761.625,-39.551,-44.922,-18.066,-45.410,0.000
1728615761.629,-46.875,-35.645,-15.137,-19.043,0.000
1728615761.633,-38.086,-28.320,-9.766,-18.555,0.000
1728615761.637,-31.250,-32.227,-7.324,-49.805,0.000
1728615761.641,-10.254,-36.133,-5.371,-55.664,0.000
1728615761.645,-36.621,-35.156,-2.441,-46.875,0.000
1728615761.649,-49.316,-23.926,-2.441,-17.578,0.000
1728615761.653,-35.645,-24.902,-17.090,-12.695,0.000
1728615761.656,-48.340,-37.109,-23.438,-42.480,0.000
1728615761.660,-27.344,-43.457,-19.531,-51.270,0.000
1728615761.664,-40.527,-46.875,-25.391,-66.895,0.000
1728615761.668,-60.547,-55.664,-18.555,-41.504,0.000
1728615761.672,-39.551,-51.758,-17.578,-13.184,0.000
1728615761.675,-34.668,-41.992,-27.344,-41.992,0.000
1728615761.679,-20.508,-42.480,-31.738,-50.293,0.000
1728615761.683,-35.156,-41.504,-28.320,-48.340,0.000
1728615761.687,-57.617,-32.715,-25.391,-31.738,0.000
1728615761.691,-52.734,-41.504,-32.715,-16.602,0.000
1728615761.695,-44.922,-52.246,-29.297,-45.410,0.000
1728615761.699,-12.207,-42.969,-20.996,-66.406,0.000
1728615761.703,-32.227,-47.852,-20.020,-66.406,0.000
1728615761.707,-62.988,-58.105,-22.461,-41.992,0.000
1728615761.711,-37.109,-36.133,-18.555,-11.230,0.000
1728615761.715,-44.434,-25.391,-25.391,-42.480,0.000
1728615761.719,-43.457,-40.527,-30.273,-66.406,0.000
1728615761.723,-33.691,-44.922,-21.973,-49.316,0.000
1728615761.727,-48.828,-35.645,-21.484,-37.598,0.000
1728615761.731,-34.668,-33.203,-21.973,-8.789,0.000
1728615761.735,-39.551,-29.297,-20.020,-20.996,0.000
1728615761.739,-20.996,-36.133,-17.090,-53.711,0.000
1728615761.742,-10.742,-35.156,-13.184,-46.875,0.000
1728615761.746,-53.223,-41.504,-18.066,-37.598,0.000
1728615761.750,-50.781,-45.410,-21.973,-14.648,0.000
1728615761.754,-31.738,-40.527,-19.043,-14.160,0.000
1728615761.758,-19.043,-41.016,-11.230,-40.527,0.000
1728615761.762,-23.438,-32.715,-7.812,-52.734,0.000
1728615761.766,-59.082,-30.762,-13.672,-46.387,0.000
1728615761.770,-41.016,-26.855,-11.719,-11.230,0.000
1728615761.774,-23.926,-30.273,-11.719,-6.348,0.000
1728615761.778,-36.621,-52.246,-17.090,-41.504,0.000
1728615761.782,-31.250,-60.059,-15.625,-56.641,0.000
1728615761.786,-62.988,-39.551,-12.695,-46.387,0.000
1728615761.790,-52.246,-26.855,-14.160,-2.441,0.000
1728615761.794,-22.461,-24.414,-12.695,1.953,0.000
1728615761.798,-33.691,-26.855,-14.648,-45.410,0.000
1728615761.801,-14.648,-39.551,-15.625,-60.547,0.000
1728615761.806,-35.156,-42.969,-9.766,-47.363,0.000
1728615761.810,-47.363,-41.504,-8.789,-11.719,0.000
1728615761.813,-38.086,-49.805,-6.348,-3.906,0.000
1728615761.817,-51.758,-48.340,-13.184,-39.551,0.000
1728615761.821,-35.156,-46.387,-23.926,-61.035,0.000
1728615761.825,-53.223,-46.875,-18.066,-50.293,0.000
1728615761.829,-60.059,-35.645,-5.859,-15.625,0.000
1728615761.833,-30.273,-31.250,-11.719,-6.348,0.000
1728615761.837,-34.180,-39.062,-20.508,-28.809,0.000
1728615761.841,-31.738,-31.738,-17.578,-48.340,0.000
1728615761.845,-44.922,-22.461,-18.066,-58.594,0.000
1728615761.849,-60.059,-29.785,-23.438,-42.480,0.000
1728615761.853,-39.062,-37.109,-22.461,-24.902,0.000
1728615761.856,-41.992,-37.109,-30.273,-50.781,0.000
1728615761.860,-28.809,-46.387,-42.969,-60.547,0.000
1728615761.864,-30.762,-45.410,-42.969,-55.664,0.000
1728615761.868,-57.617,-32.227,-38.574,-43.457,0.000
1728615761.872,-43.945,-24.902,-39.551,-13.184,0.000
1728615761.876,-38.086,-31.738,-40.527,-27.344,0.000
1728615761.880,-26.855,-32.715,-34.180,-44.922,0.000
1728615761.884,-19.531,-29.785,-37.598,-42.969,0.000
1728615761.888,-46.875,-31.738,-37.109,-36.621,0.000
1728615761.892,-37.109,-39.551,-29.785,-5.859,0.000
1728615761.896,-26.855,-58.594,-28.809,-21.484,0.000
1728615761.899,-22.949,-43.457,-29.297,-55.176,0.000
1728615761.903,-25.391,-15.137,-31.738,-54.688,0.000
1728615761.907,-57.617,-15.137,-29.785,-42.969,0.000
1728615761.911,-34.668,-17.578,-26.367,-17.578,0.000
1728615761.915,-19.531,-21.973,-25.879,-21.484,0.000
1728615761.919,-28.809,-32.715,-28.809,-50.781,0.000
1728615761.923,-14.160,-33.203,-38.574,-64.453,0.000
1728615761.927,-46.875,-41.992,-41.016,-51.758,0.000
1728615761.931,-47.852,-39.551,-34.668,-20.508,0.000
1728615761.934,-30.762,-37.598,-33.691,-26.855,0.000
1728615761.938,-24.414,-34.668,-41.992,-57.617,0.000
1728615761.942,-10.254,-21.484,-38.574,-56.641,0.000
1728615761.946,-36.133,-31.250,-32.227,-41.992,0.000
1728615761.950,-38.574,-42.969,-39.551,-19.043,0.000
1728615761.954,-24.902,-41.992,-35.156,-11.230,0.000
1728615761.958,-31.738,-43.945,-28.809,-47.363,0.000
1728615761.962,-25.879,-36.621,-32.227,-58.105,0.000
1728615761.965,-48.828,-35.645,-31.250,-50.781,0.000
1728615761.969,-63.477,-40.039,-28.809,-30.273,0.000
1728615761.973,-41.992,-36.621,-39.551,-14.160,0.000
1728615761.977,-32.227,-35.645,-39.062,-34.668,0.000
1728615761.981,-10.254,-34.180,-27.344,-44.434,0.000
1728615761.985,-34.180,-32.227,-23.926,-49.805,0.000
1728615761.989,-54.199,-38.086,-20.996,-30.273,0.000
1728615761.992,-36.621,-41.992,-22.949,-9.277,0.000
1728615761.996,-43.945,-41.016,-26.367,-35.645,0.000
1728615762.000,-22.461,-29.785,-22.461,-61.523,0.000
1728615762.004,-29.785,-14.648,-23.438,-59.570,0.000
1728615762.008,-52.246,-18.555,-35.645,-33.691,0.000
1728615762.012,-26.855,-20.996,-37.598,-11.719,0.000
1728615762.016,-18.066,-17.090,-31.738,-25.879,0.000
1728615762.020,-19.043,-21.973,-29.297,-50.293,0.000
1728615762.024,-40.527,-25.879,-30.273,-63.477,0.000
1728615762.027,-65.918,-37.598,-30.762,-47.363,0.000
1728615762.031,-48.828,-42.480,-26.367,-13.672,0.000
1728615762.035,-43.457,-30.273,-24.414,-22.949,0.000
1728615762.039,-27.832,-20.020,-31.738,-59.570,0.000
1728615762.042,-34.180,-19.531,-27.344,-65.430,0.000
1728615762.046,-70.312,-32.227,-16.602,-40.039,0.000
1728615762.050,-47.852,-39.062,-9.766,-7.324,0.000
1728615762.054,-30.762,-44.922,-12.207,-17.578,0.000
1728615762.058,-23.926,-43.457,-20.020,-44.434,0.000
1728615762.062,-4.883,-23.438,-19.531,-41.992,0.000
1728615762.066,-35.645,-21.484,-12.695,-34.668,0.000
1728615762.070,-44.434,-20.020,-8.789,-14.160,0.000
1728615762.074,-40.039,-18.066,-16.602,-24.414,0.000
1728615762.078,-27.832,-24.902,-19.043,-50.293,0.000
1728615762.082,-4.883,-34.668,-17.090,-53.711,0.000
1728615762.086,-38.574,-36.621,-13.184,-50.293,0.000
1728615762.090,-46.387,-34.668,-13.184,-20.508,0.000
1728615762.094,-30.762,-41.016,-25.879,-21.973,0.000
1728615762.098,-34.668,-41.504,-23.438,-62.988,0.000
1728615762.102,-13.672,-37.109,-14.648,-63.477,0.000
1728615762.106,-27.344,-36.621,-16.113,-48.828,0.000
1728615762.110,-37.598,-33.203,-20.508,-23.438,0.000
1728615762.113,-23.438,-28.809,-26.855,-5.859,0.000
1728615762.117,-28.320,-34.180,-22.461,-36.621,0.000
1728615762.121,-21.484,-40.527,-13.184,-48.828,0.000
1728615762.125,-45.410,-39.062,-13.184,-54.199,0.000
1728615762.129,-61.523,-37.109,-14.160,-37.598,0.000
1728615762.133,-38.574,-31.250,-16.113,-19.043,0.000
1728615762.137,-43.945,-28.320,-22.461,-48.340,0.000
1728615762.141,-23.438,-35.645,-16.602,-61.035,0.000
1728615762.145,-31.738,-50.293,-13.184,-53.711,0.000
1728615762.149,-56.641,-52.246,-19.531,-28.320,0.000
1728615762.153,-36.133,-41.992,-22.949,-12.695,0.000
1728615762.157,-25.391,-27.832,-22.949,-32.715,0.000
1728615762.161,-1.953,-17.090,-22.949,-42.480,0.000
1728615762.165,-20.508,-31.250,-24.902,-41.992,0.000
1728615762.169,-63.477,-41.504,-28.809,-31.738,0.000
1728615762.173,-50.293,-25.391,-34.180,-15.625,0.000
1728615762.176,-46.875,-20.020,-36.621,-32.227,0.000
1728615762.181,-41.504,-40.039,-37.598,-62.988,0.000
1728615762.184,-40.039,-37.598,-34.668,-63.477,0.000
1728615762.188,-60.059,-25.391,-31.738,-39.062,0.000
1728615762.192,-40.039,-27.832,-35.156,-12.207,0.000
1728615762.196,-28.320,-32.715,-37.598,-24.414,0.000
1728615762.200,-20.508,-35.645,-34.668,-44.434,0.000
1728615762.204,-36.133,-37.598,-31.738,-46.387,0.000
1728615762.208,-63.965,-35.645,-25.879,-35.645,0.000
1728615762.212,-36.133,-41.992,-26.855,-6.836,0.000
1728615762.216,-30.762,-42.480,-38.574,-17.090,0.000
1728615762.220,-39.062,-38.574,-46.387,-54.688,0.000
1728615762.224,-32.715,-35.156,-50.781,-62.012,0.000
1728615762.228,-55.664,-32.715,-51.758,-48.340,0.000
1728615762.231,-40.039,-32.227,-41.504,-14.160,0.000
1728615762.235,-22.949,-41.016,-33.691,-15.137,0.000
1728615762.239,-30.273,-36.133,-31.250,-39.062,0.000
1728615762.243,-21.484,-37.598,-32.715,-44.922,0.000
1728615762.247,-38.574,-42.969,-33.691,-40.527,0.000
1728615762.251,-41.504,-31.250,-29.297,-12.207,0.000
1728615762.255,-32.715,-27.832,-36.133,-9.766,0.000
1728615762.259,-39.062,-25.391,-41.992,-43.945,0.000
1728615762.263,-13.184,-22.461,-38.086,-55.176,0.000
1728615762.267,-17.578,-33.203,-36.133,-43.945,0.000
1728615762.270,-39.062,-42.480,-34.180,-12.695,0.000
1728615762.274,-25.879,-38.086,-26.855,9.277,0.000
1728615762.278,-23.438,-35.156,-30.762,-14.160,0.000
1728615762.282,-18.555,-33.203,-43.457,-40.039,0.000
1728615762.286,-35.645,-21.973,-38.086,-51.270,0.000
1728615762.290,-51.270,-18.555,-35.156,-37.109,0.000
1728615762.294,-34.668,-22.461,-40.527,-13.184,0.000
1728615762.298,-23.438,-20.508,-34.180,-33.691,0.000
1728615762.302,-3.418,-27.832,-30.762,-51.758,0.000
1728615762.305,-19.531,-31.738,-36.621,-57.617,0.000
1728615762.309,-50.781,-28.320,-34.668,-41.504,0.000
1728615762.313,-30.762,-29.297,-28.809,-3.906,0.000
1728615762.317,-20.508,-37.598,-32.715,-15.625,0.000
1728615762.321,-15.625,-41.504,-39.062,-40.527,0.000
1728615762.325,-34.180,-34.668,-37.598,-50.293,0.000
1728615762.329,-60.547,-31.738,-32.715,-30.762,0.000
1728615762.333,-48.340,-38.086,-36.621,-2.930,0.000
1728615762.336,-45.898,-40.527,-45.898,-31.250,0.000
1728615762.340,-23.926,-35.156,-43.457,-52.246,0.000
1728615762.344,-15.137,-26.367,-38.574,-48.340,0.000
1728615762.348,-52.734,-28.320,-41.016,-30.762,0.000
1728615762.352,-20.508,-35.645,-38.574,-12.207,0.000
1728615762.356,-15.625,-36.621,-30.273,-27.344,0.000
1728615762.360,-31.250,-34.668,-26.855,-51.270,0.000
1728615762.364,-23.926,-27.832,-29.785,-61.523,0.000
1728615762.367,-45.898,-17.578,-32.227,-47.363,0.000
1728615762.371,-36.133,-27.344,-28.320,-7.324,0.000
1728615762.375,-24.902,-33.691,-33.691,-3.418,0.000
1728615762.379,-30.273,-30.273,-43.457,-47.363,0.000
1728615762.383,-36.621,-43.945,-41.504,-59.570,0.000
1728615762.387,-56.641,-46.875,-34.180,-42.480,0.000
1728615762.391,-44.434,-31.250,-36.621,-5.371,0.000
1728615762.395,-24.902,-28.809,-43.457,-2.441,0.000
1728615762.398,-25.879,-37.109,-39.062,-39.062,0.000
1728615762.402,-17.090,-38.086,-34.180,-55.176,0.000
1728615762.406,-37.109,-23.926,-37.109,-58.105,0.000
1728615762.410,-46.387,-21.973,-33.203,-21.484,0.000
1728615762.414,-19.043,-34.180,-31.250,-0.977,0.000
1728615762.417,-11.230,-26.855,-34.668,-23.926,0.000
1728615762.421,-3.418,-23.438,-32.715,-44.434,0.000
1728615762.425,-34.668,-37.598,-30.762,-54.199,0.000
1728615762.429,-55.176,-35.156,-29.785,-28.809,0.000
1728615762.433,-31.250,-27.344,-32.227,-4.395,0.000
1728615762.437,-27.832,-27.344,-39.062,-30.762,0.000
1728615762.441,-18.555,-35.645,-41.504,-59.570,0.000
1728615762.445,-28.320,-42.480,-37.598,-52.246,0.000
1728615762.449,-45.898,-35.645,-33.203,-23.438,0.000
1728615762.453,-40.039,-38.574,-35.645,-7.324,0.000
1728615762.457,-37.109,-41.992,-42.969,-34.668,0.000
1728615762.461,-16.602,-29.785,-46.387,-56.152,0.000
1728615762.465,-31.250,-39.062,-43.945,-47.363,0.000
1728615762.469,-66.406,-49.316,-48.340,-32.227,0.000
1728615762.473,-44.434,-55.176,-48.340,-13.184,0.000
1728615762.477,-37.109,-41.992,-50.293,-34.668,0.000
1728615762.481,-24.902,-28.320,-44.434,-52.734,0.000
1728615762.485,-23.438,-25.391,-34.180,-47.363,0.000
1728615762.489,-55.664,-21.484,-40.039,-39.062,0.000
1728615762.492,-48.340,-31.738,-41.504,-14.648,0.000
1728615762.496,-29.297,-33.203,-38.086,-21.484,0.000
1728615762.500,-24.902,-29.297,-38.086,-55.664,0.000
1728615762.504,-14.648,-33.691,-37.109,-70.801,0.000
1728615762.508,-35.156,-28.320,-39.551,-52.734,0.000
1728615762.512,-41.504,-32.715,-45.410,-25.879,0.000
1728615762.516,-36.133,-37.109,-44.434,-30.762,0.000
1728615762.520,-34.668,-26.855,-40.527,-51.758,0.000
1728615762.524,-14.648,-19.043,-35.156,-49.316,0.000
1728615762.528,-37.109,-20.996,-28.320,-44.922,0.000
1728615762.532,-39.062,-20.020,-25.391,-14.160,0.000
1728615762.536,-26.855,-27.832,-30.273,-6.836,0.000
1728615762.540,-35.645,-38.574,-29.297,-38.086,0.000
1728615762.544,-22.949,-40.039,-25.391,-49.316,0.000
1728615762.548,-48.828,-40.039,-36.621,-49.316,0.000
1728615762.551,-55.176,-51.270,-48.828,-27.832,0.000
1728615762.556,-26.855,-57.617,-37.598,-10.742,0.000
1728615762.560,-41.992,-46.387,-20.020,-39.551,0.000
1728615762.563,-48.340,-35.645,-20.020,-70.801,0.000
1728615762.567,-59.570,-36.133,-25.391,-62.012,0.000
1728615762.571,-51.758,-31.738,-24.414,-30.762,0.000
1728615762.575,-37.109,-26.855,-20.508,-17.578,0.000
1728615762.579,-45.410,-38.574,-23.438,-41.016,0.000
1728615762.583,-16.602,-42.480,-29.785,-53.223,0.000
1728615762.587,-27.344,-38.574,-29.297,-53.223,0.000
1728615762.591,-56.641,-27.344,-21.484,-30.273,0.000
1728615762.595,-40.527,-31.250,-19.043,-4.883,0.000
1728615762.599,-41.504,-40.039,-16.602,-38.086,0.000
1728615762.603,-38.086,-48.828,-24.414,-77.637,0.000
1728615762.606,-46.875,-50.293,-28.320,-70.801,0.000
1728615762.610,-54.199,-33.203,-20.508,-41.504,0.000
1728615762.614,-37.598,-32.715,-18.555,-11.230,0.000
1728615762.618,-48.828,-32.715,-25.391,-31.250,0.000
1728615762.622,-34.668,-28.320,-26.855,-59.082,0.000
1728615762.626,-30.273,-36.621,-25.879,-54.688,0.000
1728615762.630,-63.477,-44.434,-21.973,-39.551,0.000
1728615762.634,-48.340,-34.668,-17.090,-17.578,0.000
1728615762.638,-38.086,-28.320,-21.484,-32.715,0.000
1728615762.642,-32.227,-41.504,-25.391,-57.617,0.000
1728615762.645,-25.391,-32.227,-22.949,-42.480,0.000
1728615762.649,-40.527,-33.203,-20.020,-28.320,0.000
1728615762.653,-24.414,-33.691,-23.438,-5.371,0.000
1728615762.657,-25.879,-20.508,-23.438,-9.766,0.000
1728615762.661,-28.809,-29.297,-15.137,-32.715,0.000
1728615762.665,-28.320,-22.949,-14.160,-32.227,0.000
1728615762.669,-56.641,-14.160,-21.484,-33.203,0.000
1728615762.673,-44.434,-22.461,-14.648,-18.066,0.000
1728615762.677,-28.809,-36.133,-10.742,-12.695,0.000
1728615762.681,-27.832,-35.156,-15.625,-49.805,0.000
1728615762.684,-12.207,-28.320,-12.695,-62.012,0.000
1728615762.688,-34.180,-43.457,-12.207,-38.086,0.000
1728615762.692,-33.203,-40.039,-16.602,-10.742,0.000
1728615762.696,-32.715,-28.809,-18.555,-10.742,0.000
1728615762.700,-39.062,-36.621,-20.996,-45.898,0.000
1728615762.704,-17.578,-35.156,-21.484,-58.105,0.000
1728615762.708,-44.922,-22.461,-21.484,-47.852,0.000
1728615762.712,-44.922,-17.578,-19.531,-10.254,0.000
1728615762.716,-30.762,-29.297,-24.902,-0.977,0.000
1728615762.719,-44.922,-32.715,-29.297,-46.875,0.000
1728615762.723,-16.113,-24.902,-27.832,-60.547,0.000
1728615762.727,-36.621,-34.180,-30.762,-52.734,0.000
1728615762.731,-64.453,-44.922,-30.762,-31.250,0.000
1728615762.735,-51.270,-41.016,-35.645,-12.207,0.000
1728615762.739,-58.105,-31.738,-36.133,-41.016,0.000
1728615762.742,-32.715,-34.180,-33.691,-61.035,0.000
1728615762.746,-38.086,-48.340,-44.434,-67.383,0.000
1728615762.750,-57.129,-46.387,-50.293,-42.480,0.000
1728615762.754,-35.645,-38.574,-40.527,-10.254,0.000
1728615762.758,-30.273,-43.457,-43.945,-34.668,0.000
1728615762.762,-19.043,-40.039,-45.410,-53.223,0.000
1728615762.766,-26.367,-42.969,-26.367,-43.945,0.000
1728615762.770,-58.105,-47.852,-27.832,-31.250,0.000
1728615762.774,-50.781,-36.133,-42.969,-13.184,0.000
1728615762.778,-41.992,-36.133,-44.922,-29.297,0.000
1728615762.782,-26.367,-35.156,-41.504,-55.176,0.000
1728615762.785,-24.414,-34.668,-43.945,-58.594,0.000
1728615762.789,-51.270,-38.574,-37.109,-34.668,0.000
1728615762.793,-31.250,-33.691,-25.879,-1.465,0.000
1728615762.797,-29.785,-39.062,-35.156,-25.391,0.000
1728615762.801,-38.086,-38.574,-41.992,-66.406,0.000
1728615762.804,-34.668,-42.969,-35.645,-59.082,0.000
1728615762.808,-56.152,-50.293,-28.809,-34.668,0.000
1728615762.812,-37.598,-36.621,-23.926,-8.789,0.000
1728615762.816,-28.320,-26.367,-22.461,-14.160,0.000
1728615762.820,-32.715,-31.738,-28.809,-54.688,0.000
1728615762.824,-23.438,-27.832,-26.855,-75.195,0.000
1728615762.828,-47.363,-36.133,-28.809,-65.430,0.000
1728615762.832,-50.293,-51.270,-34.668,-30.273,0.000
1728615762.836,-40.039,-40.039,-27.344,-21.973,0.000
1728615762.840,-36.621,-29.785,-17.578,-45.898,0.000
1728615762.844,-20.996,-39.062,-17.578,-52.734,0.000
1728615762.848,-40.039,-46.387,-27.344,-47.852,0.000
1728615762.852,-41.992,-28.809,-27.344,-22.949,0.000
1728615762.856,-29.297,-22.461,-20.996,-20.020,0.000
1728615762.860,-17.090,-28.809,-20.508,-55.176,0.000
1728615762.864,1.465,-24.902,-20.020,-70.312,0.000
1728615762.868,-35.645,-20.020,-13.672,-55.664,0.000
1728615762.872,-45.898,-18.555,-17.090,-21.484,0.000
1728615762.875,-32.715,-27.344,-23.926,-9.766,0.000
1728615762.879,-50.781,-34.668,-22.461,-49.805,0.000
1728615762.884,0.000,-30.273,-19.531,-57.617,0.000
1728615762.888,0.000,-35.645,-16.113,-39.551,0.000
1728615762.891,0.000,-33.691,-18.555,-20.996,0.000
1728615762.895,0.000,-30.273,-18.066,1.465,0.000
1728615762.899,0.000,-32.227,-19.043,-19.043,0.000
1728615762.903,0.000,-29.785,-27.832,-41.992,0.000
1728615762.907,0.000,-33.691,-28.320,-42.480,0.000
1728615762.911,0.000,-26.367,-22.461,-20.020,0.000
1728615762.915,0.000,-24.902,-20.020,2.441,0.000
1728615762.919,0.000,-29.297,-20.508,-23.926,0.000
1728615762.923,0.000,-28.809,-27.344,-56.152,0.000
1728615762.927,0.000,-34.180,-27.344,-58.594,0.000
1728615762.931,-51.758,-35.156,-20.508,-39.551,0.000
1728615762.935,-33.203,-34.668,-20.508,0.000,0.000
1728615762.939,-21.973,-35.156,-20.508,-11.230,0.000
1728615762.942,-8.789,-32.715,-25.879,-51.270,0.000
1728615762.946,-9.277,-35.156,-30.273,-55.176,0.000
1728615762.950,-53.223,-33.691,-31.250,-43.457,0.000
1728615762.954,-44.922,-27.832,-34.180,-19.531,0.000
1728615762.958,-34.180,-31.738,-35.645,-25.391,0.000
1728615762.962,-38.086,-36.133,-38.086,-51.270,0.000
1728615762.966,-31.250,-25.879,-28.809,-60.547,0.000
1728615762.970,-62.012,-28.320,-22.461,-46.387,0.000
1728615762.974,-59.570,-27.832,-29.297,-15.137,0.000
1728615762.978,-41.504,-25.879,-28.809,-11.719,0.000
1728615762.982,-33.691,-40.039,-20.508,-35.645,0.000
1728615762.985,-17.578,-47.363,-25.391,-54.688,0.000
1728615762.989,-56.641,-29.297,-34.668,-49.805,0.000
1728615762.993,-59.570,-24.414,-25.879,-17.090,0.000
1728615762.997,-44.434,-40.039,-21.484,-17.090,0.000
1728615763.001,-52.246,-40.527,-20.508,-54.688,0.000
1728615763.005,-34.180,-36.621,-20.020,-66.406,0.000
1728615763.009,-45.410,-41.504,-22.949,-54.688,0.000
1728615763.013,-53.223,-39.551,-19.043,-21.484,0.000
1728615763.017,-23.926,-42.969,-14.648,-5.859,0.000
1728615763.021,-23.438,-48.828,-21.973,-39.062,0.000
1728615763.024,-23.438,-39.062,-24.902,-51.758,0.000
1728615763.028,-32.227,-22.461,-14.160,-36.621,0.000
1728615763.032,-53.711,-27.832,-19.531,-27.344,0.000
1728615763.036,-37.109,-38.574,-28.320,-20.020,0.000
1728615763.040,-27.344,-30.762,-24.414,-36.621,0.000
1728615763.044,-20.508,-41.016,-24.414,-60.547,0.000
1728615763.048,-33.203,-38.574,-29.297,-64.453,0.000
1728615763.052,-52.734,-27.344,-33.691,-32.715,0.000
1728615763.056,-37.109,-30.273,-28.320,0.000,0.000
1728615763.060,-29.785,-27.832,-26.855,-34.180,0.000
1728615763.063,-15.137,-31.738,-33.203,-54.199,0.000
1728615763.067,-4.395,-28.320,-24.902,-35.645,0.000
1728615763.071,-25.879,-27.832,-18.555,-28.809,0.000
1728615763.075,-24.902,-38.574,-36.621,-16.113,0.000
1728615763.079,-35.156,-47.363,-47.363,-33.691,0.000
1728615763.083,-29.785,-42.480,-46.875,-55.176,0.000
1728615763.087,-23.926,-34.668,-40.527,-52.734,0.000
1728615763.091,-55.176,-45.410,-34.180,-41.504,0.000
1728615763.094,-41.016,-47.852,-36.133,-7.324,0.000
1728615763.098,-26.855,-28.809,-36.133,-10.254,0.000
1728615763.102,-16.113,-25.391,-35.156,-48.340,0.000
1728615763.106,-11.230,-41.992,-37.109,-62.500,0.000
1728615763.110,-44.434,-27.832,-37.598,-36.621,0.000
1728615763.114,-33.691,-3.418,-27.344,2.930,0.000
1728615763.117,-21.973,-22.461,-28.809,-10.742,0.000
1728615763.121,-27.832,-41.504,-37.109,-46.875,0.000
1728615763.125,-18.555,-36.621,-36.133,-43.945,0.000
1728615763.129,-50.781,-31.738,-39.551,-33.203,0.000
1728615763.133,-50.293,-33.691,-39.551,-7.324,0.000
1728615763.137,-32.227,-36.621,-36.133,-4.883,0.000
1728615763.141,-23.438,-47.852,-40.039,-31.738,0.000
1728615763.145,-0.488,-43.945,-34.180,-39.062,0.000
1728615763.149,-32.715,-35.645,-36.133,-38.574,0.000
1728615763.153,-46.875,-38.574,-47.852,-19.531,0.000
1728615763.156,-34.668,-31.250,-40.039,-3.906,0.000
1728615763.160,-30.762,-31.250,-26.367,-24.414,0.000
1728615763.164,-15.625,-30.273,-28.320,-51.270,0.000
1728615763.168,-54.199,-21.484,-41.016,-50.293,0.000
1728615763.172,-63.965,-33.203,-46.875,-20.508,0.000
1728615763.175,-39.551,-42.969,-41.504,-16.602,0.000
1728615763.179,-55.176,-43.945,-38.086,-52.246,0.000
1728615763.183,-41.992,-39.551,-41.992,-71.289,0.000
1728615763.187,-51.270,-41.504,-45.410,-73.730,0.000
1728615763.191,-72.754,-38.574,-42.969,-47.852,0.000
1728615763.195,-48.828,-33.691,-35.156,-17.090,0.000
1728615763.199,-44.922,-35.645,-39.551,-42.969,0.000
1728615763.203,-33.203,-41.016,-42.969,-64.453,0.000
1728615763.207,-32.227,-35.645,-36.621,-50.781,0.000
1728615763.211,-51.270,-32.227,0.000,-29.785,0.000
1728615763.215,-22.949,-32.715,0.000,-10.742,0.000
1728615763.219,-18.066,-41.016,0.000,-25.391,0.000
1728615763.223,-26.367,-58.105,0.000,-47.852,0.000
1728615763.227,-41.016,-64.453,0.000,-55.664,0.000
1728615763.231,-67.871,-49.316,0.000,-39.062,0.000
1728615763.235,-41.016,-37.109,0.000,-6.348,0.000
1728615763.239,-36.621,-41.504,0.000,-14.648,0.000
1728615763.243,-37.109,-40.039,0.000,-51.270,0.000
1728615763.246,-26.367,-32.715,0.000,-53.223,0.000
1728615763.250,-56.641,-29.297,0.000,-38.086,0.000
1728615763.254,-52.246,-35.645,0.000,-14.648,0.000
1728615763.259,-32.227,-43.945,-30.273,-16.602,0.000
1728615763.263,-18.066,-41.504,-29.785,-52.246,0.000
1728615763.267,-17.578,-43.945,-29.785,-66.895,0.000
1728615763.270,-56.641,-41.016,-25.879,-46.875,0.000
1728615763.274,-53.711,-38.574,-27.832,-13.672,0.000
1728615763.278,-36.133,-46.875,-33.691,-11.230,0.000
1728615763.282,-36.133,-38.574,-36.621,-42.969,0.000
1728615763.286,-21.973,-34.180,-33.203,-62.012,0.000
1728615763.290,-46.875,-37.598,-36.133,-50.781,0.000
1728615763.294,-46.387,-37.598,-35.645,-10.254,0.000
1728615763.298,-25.879,-34.668,-24.414,-1.953,0.000
1728615763.302,-35.645,-38.086,-22.949,-45.410,0.000
1728615763.306,-31.250,-33.203,-25.879,-57.617,0.000
1728615763.310,-58.594,-29.297,-29.297,-55.176,0.000
1728615763.314,-63.965,-50.293,-40.039,-39.062,0.000
1728615763.318,-39.062,-41.504,-40.039,-22.949,0.000
1728615763.321,-47.363,-25.879,-33.203,-58.594,0.000
1728615763.325,-34.668,-46.875,-30.762,-71.777,0.000
1728615763.329,-49.316,-54.199,-23.438,-65.430,0.000
1728615763.333,-71.289,-37.109,-16.113,-46.875,0.000
1728615763.337,-47.852,-30.273,-23.438,-11.719,0.000
1728615763.341,-44.922,-42.480,-34.180,-36.133,0.000
1728615763.345,-47.363,-41.504,-36.133,-73.730,0.000
1728615763.349,-51.758,-37.109,-33.203,-70.801,0.000
1728615763.353,-52.246,-34.180,-33.691,-41.504,0.000
1728615763.357,-49.805,-29.785,-33.691,-16.113,0.000
1728615763.360,-53.223,-51.270,-33.203,-43.457,0.000
1728615763.364,-28.809,-53.711,-31.250,-73.730,0.000
1728615763.368,-39.551,-36.133,-28.809,-67.871,0.000
1728615763.372,-64.941,-38.574,-25.879,-34.668,0.000
1728615763.376,-47.852,-41.992,-33.203,-10.254,0.000
1728615763.380,-41.992,-42.969,-38.574,-28.809,0.000
1728615763.384,-30.762,-46.387,-36.133,-52.246,0.000
1728615763.388,-28.320,-30.762,-34.180,-52.246,0.000
1728615763.392,-58.105,-17.578,-24.902,-31.250,0.000
1728615763.396,-46.875,-31.250,-21.973,-3.906,0.000
1728615763.399,-34.180,-41.504,-22.949,-14.648,0.000
1728615763.403,-38.574,-41.992,-25.391,-46.875,0.000
1728615763.407,-34.668,-47.363,-30.762,-52.246,0.000
1728615763.411,-59.082,-44.434,-29.297,-40.039,0.000
1728615763.415,-57.129,-29.297,-28.809,-8.789,0.000
1728615763.419,-37.598,-34.180,-35.645,-11.719,0.000
1728615763.423,-37.109,-37.109,-41.504,-58.105,0.000
1728615763.427,-35.156,-43.945,-41.992,-62.500,0.000
1728615763.431,-61.523,-53.711,-36.621,-48.340,0.000
1728615763.435,-60.547,-57.129,-31.250,-19.043,0.000
1728615763.438,-38.574,-55.176,-31.250,-9.766,0.000
1728615763.442,-36.621,-39.551,-31.250,-39.062,0.000
1728615763.446,-20.996,-35.645,-28.320,-44.434,0.000
1728615763.450,-45.410,-30.273,-26.855,-44.922,0.000
1728615763.454,-53.711,-22.461,-26.855,-27.832,0.000
1728615763.458,-27.344,-26.367,-28.809,-8.301,0.000
1728615763.462,-27.832,-39.551,-33.691,-46.875,0.000
1728615763.466,-19.043,-40.527,-34.180,-68.359,0.000
1728615763.469,-44.434,-34.668,-33.691,-47.852,0.000
1728615763.473,-59.082,-40.527,-30.273,-20.996,0.000
1728615763.477,-25.879,-42.969,-21.973,-12.695,0.000
1728615763.481,-21.973,-39.551,-25.391,-32.227,0.000
1728615763.485,-16.113,-32.715,-24.902,-49.316,0.000
1728615763.489,-35.156,-19.531,-16.113,-45.898,0.000
1728615763.493,-61.035,-23.926,-22.949,-28.320,0.000
1728615763.496,-37.109,-43.457,-29.297,-23.438,0.000
1728615763.500,-34.180,-46.875,-30.273,-46.875,0.000
1728615763.504,-18.066,-46.875,-30.762,-54.688,0.000
1728615763.508,-9.766,-38.574,-24.414,-52.734,0.000
1728615763.512,-39.062,-27.344,-18.555,-31.250,0.000
1728615763.516,-46.387,-20.996,-27.832,1.953,0.000
1728615763.520,-41.992,-29.785,-27.832,-20.996,0.000
1728615763.524,-32.715,-44.434,-26.855,-53.711,0.000
1728615763.528,-30.273,-41.504,-33.203,-53.223,0.000
1728615763.532,-45.410,-38.574,-29.297,-31.738,0.000
1728615763.535,-31.250,-24.414,-28.809,-5.859,0.000
1728615763.539,-28.809,-20.020,-32.715,-17.578,0.000
1728615763.543,-19.531,-33.691,-27.832,-50.293,0.000
1728615763.547,-10.742,-31.250,-20.996,-54.199,0.000
1728615763.551,-41.504,-25.879,-18.066,-30.762,0.000
1728615763.554,-41.504,-29.297,-23.438,-10.742,0.000
1728615763.558,-28.809,-31.250,-28.809,-22.949,0.000
1728615763.562,-21.973,-39.551,-34.668,-51.270,0.000
1728615763.566,-14.160,-43.457,-35.645,-58.105,0.000
1728615763.570,-52.246,-37.109,-30.273,-46.875,0.000
1728615763.574,-41.992,-28.320,-24.414,-17.090,0.000
1728615763.578,-14.648,-31.738,-25.879,-21.484,0.000
1728615763.582,-26.855,-33.691,-24.902,-46.387,0.000
1728615763.586,-17.578,-30.273,-25.391,-55.176,0.000
1728615763.590,-38.574,-31.250,-31.250,-51.758,0.000
1728615763.594,-38.574,-27.832,-32.227,-15.137,0.000
1728615763.598,-19.531,-34.180,-37.109,-7.324,0.000
1728615763.602,-15.625,-45.898,-33.203,-43.945,0.000
1728615763.606,7.812,-36.621,-27.344,-51.758,0.000
1728615763.610,-16.113,-27.832,-28.809,-45.410,0.000
1728615763.614,-43.457,-31.738,-29.785,-20.996,0.000
1728615763.618,-28.320,-33.203,-32.715,-0.977,0.000
1728615763.622,-20.996,-23.926,-31.738,-18.555,0.000
1728615763.625,-11.719,-23.438,-26.367,-31.250,0.000
1728615763.629,-28.809,-31.738,-33.691,-44.434,0.000
1728615763.634,-38.086,-30.273,-35.645,-28.809,0.000
1728615763.638,-27.344,-27.344,-24.414,0.488,0.000
1728615763.641,-29.297,-25.879,-26.367,-24.902,0.000
1728615763.645,-25.391,-27.832,-32.227,-48.340,0.000
1728615763.649,-35.645,-20.996,-28.809,-38.086,0.000
1728615763.653,-52.246,-27.344,-27.832,-17.578,0.000
1728615763.657,-42.969,-40.039,-29.785,-3.906,0.000
1728615763.661,-29.785,-41.504,-30.762,-27.344,0.000
1728615763.665,-3.906,-45.410,-32.227,-45.898,0.000
1728615763.669,-12.695,-25.879,-31.250,-36.133,0.000
1728615763.673,-45.410,-9.766,-33.203,-29.785,0.000
1728615763.677,-39.062,-20.020,-43.457,-5.371,0.000
1728615763.681,-33.691,-21.484,-43.945,-8.789,0.000
1728615763.685,-18.555,-19.531,-28.809,-42.969,0.000
1728615763.689,-25.879,-40.039,-24.414,-51.270,0.000
1728615763.693,-60.547,-50.781,-34.180,-38.574,0.000
1728615763.696,-36.621,-45.898,-37.109,-4.883,0.000
1728615763.700,-21.484,-34.668,-33.203,-9.766,0.000
1728615763.704,-35.645,-33.691,-30.273,-41.504,0.000
1728615763.708,-16.113,-38.086,-31.738,-54.199,0.000
1728615763.712,-33.691,-18.555,-29.785,-41.016,0.000
1728615763.716,-45.410,-17.090,-27.832,-3.906,0.000
1728615763.720,-35.156,-23.438,-35.156,-13.672,0.000
1728615763.724,-32.715,-22.461,-38.574,-46.387,0.000
1728615763.728,-16.113,-29.297,-41.016,-58.594,0.000
1728615763.732,-32.715,-42.969,-36.621,-56.641,0.000
1728615763.736,-42.480,-46.387,-34.668,-22.461,0.000
1728615763.739,-42.480,-40.039,-37.109,-16.602,0.000
1728615763.743,-46.387,-44.434,-35.156,-58.594,0.000
1728615763.747,-25.391,-46.387,-36.133,-65.918,0.000
1728615763.751,-37.598,-44.922,-34.180,-51.270,0.000
1728615763.755,-37.109,-57.129,-32.227,-10.254,0.000
1728615763.759,-21.484,-58.105,-40.039,8.301,0.000
1728615763.763,-49.805,-41.992,-40.527,-35.645,0.000
1728615763.767,-40.039,-34.180,-36.621,-53.711,0.000
1728615763.771,-41.016,-38.574,-47.363,-46.875,0.000
1728615763.775,-50.781,-46.387,0.000,-26.855,0.000
1728615763.778,-40.527,-44.922,0.000,-19.531,0.000
1728615763.782,-41.016,-45.898,0.000,-52.734,0.000
1728615763.786,-16.113,-51.270,0.000,-68.848,0.000
1728615763.790,-22.461,-52.246,0.000,-60.547,0.000
1728615763.794,-56.152,-48.828,0.000,-36.621,0.000
1728615763.798,-39.551,-45.410,0.000,-26.367,0.000
1728615763.802,-40.527,-52.246,0.000,-63.965,0.000
1728615763.806,-51.758,-47.363,0.000,-74.707,0.000
1728615763.810,-60.547,-46.387,0.000,-73.730,0.000
1728615763.814,-59.082,-42.480,0.000,-49.316,0.000
1728615763.817,-29.297,-31.738,0.000,-7.324,0.000
1728615763.822,-55.664,-38.086,-41.504,-41.992,0.000
1728615763.826,-63.965,-54.688,-27.832,-94.727,0.000
1728615763.830,-30.273,-39.062,-27.344,-72.754,0.000
1728615763.834,-58.594,-39.551,-82.520,-55.664,0.000
1728615763.838,-33.691,-33.691,-91.797,-14.648,0.000
1728615763.842,-9.766,-30.273,-34.180,-16.113,0.000
1728615763.846,-25.879,-42.480,-28.809,-74.219,0.000
1728615763.850,-24.902,-38.574,-114.258,-74.707,0.000
1728615763.854,-43.457,-29.297,-121.582,-44.434,0.000
1728615763.858,-39.551,-33.203,-150.879,-10.254,0.000
1728615763.862,-64.941,-57.129,-209.473,-55.176,0.000
1728615763.865,-40.039,-36.133,-238.281,-72.266,0.000
1728615763.869,-0.488,-17.578,-355.957,-41.504,0.000
1728615763.873,-32.227,-34.180,-391.602,-41.504,0.000
1728615763.877,-38.574,-43.457,-357.910,-26.855,0.000
1728615763.881,-43.945,-43.945,-392.090,-46.387,0.000
1728615763.884,-23.438,-28.320,-427.246,-62.012,0.000
1728615763.888,-0.488,-28.809,-418.457,-60.059,0.000
1728615763.892,-58.594,-48.828,-405.273,-61.523,0.000
1728615763.896,-72.754,-45.410,-429.688,-31.250,0.000
1728615763.900,-37.598,-21.973,-441.895,-24.414,0.000
1728615763.904,-39.062,-20.508,-463.379,-74.219,0.000
1728615763.908,-33.203,-35.156,-484.863,-90.332,0.000
1728615763.912,-46.875,-47.852,-526.855,-91.797,0.000
1728615763.916,-41.504,-53.223,-626.465,-51.758,0.000
1728615763.920,-29.297,-48.340,-684.570,-21.973,0.000
1728615763.924,-36.133,-37.109,-727.051,-56.152,0.000
1728615763.928,-14.160,-20.020,-769.531,-65.430,0.000
1728615763.932,-37.109,-31.250,-789.062,-72.266,0.000
1728615763.936,-55.664,-53.711,-821.777,-49.316,0.000
1728615763.940,-34.180,-38.086,-814.453,-21.484,0.000
1728615763.944,-29.297,-22.461,-807.129,-41.504,0.000
1728615763.948,-21.973,-35.645,-812.988,-65.918,0.000
1728615763.951,-35.645,-54.199,-791.016,-60.059,0.000
1728615763.955,-70.801,-52.246,-769.531,-45.410,0.000
1728615763.959,-52.246,-33.691,-787.598,-18.555,0.000
1728615763.964,-38.086,-19.531,-771.484,-31.250,0.000
1728615763.968,-23.438,-18.066,-742.188,-66.895,0.000
1728615763.972,-24.902,-29.785,-714.355,-68.848,0.000
1728615763.975,-56.641,-22.949,-701.172,-42.480,0.000
1728615763.979,-43.457,-27.832,-703.125,-11.230,0.000
1728615763.983,-39.551,-46.875,-706.055,-26.367,0.000
1728615763.987,-27.832,-40.527,-693.848,-58.105,0.000
1728615763.991,-10.742,-33.691,-683.594,-60.547,0.000
1728615763.995,-51.758,-35.645,-684.082,-53.223,0.000
1728615763.999,-59.082,-35.645,-679.199,-21.973,0.000
1728615764.003,-42.480,-26.855,-674.805,-18.555,0.000
1728615764.007,-41.504,-35.156,-654.297,-55.176,0.000
1728615764.011,0.000,-38.574,-609.863,-62.012,0.000
1728615764.015,0.000,-36.133,-567.871,-49.316,0.000
1728615764.019,0.000,-38.574,-530.762,-21.973,0.000
1728615764.023,0.000,-40.527,-463.867,-26.367,0.000
1728615764.026,0.000,-40.039,-398.926,-59.082,0.000
1728615764.030,0.000,-46.875,-375.000,-58.105,0.000
1728615764.034,0.000,-61.523,-334.961,-50.293,0.000
1728615764.038,0.000,-59.570,-262.695,-18.555,0.000
1728615764.042,0.000,-47.363,-204.590,-6.348,0.000
1728615764.046,0.000,-42.480,-145.996,-52.734,0.000
1728615764.050,0.000,-39.551,-63.477,-60.547,0.000
1728615764.054,0.000,-39.551,9.766,-38.574,0.000
1728615764.058,-45.898,-34.668,52.246,-10.742,0.000
1728615764.062,-20.996,-32.715,83.496,-3.418,0.000
1728615764.066,-33.691,-40.527,116.699,-31.738,0.000
1728615764.069,-18.066,-36.621,144.531,-42.480,0.000
1728615764.073,-31.250,-33.691,176.758,-41.016,0.000
1728615764.077,-40.039,-35.156,234.863,-16.602,0.000
1728615764.081,-4.395,-27.832,293.457,9.277,0.000
1728615764.085,-6.348,-28.809,306.152,-12.695,0.000
1728615764.089,-11.230,-34.668,318.359,-32.715,0.000
1728615764.093,-32.227,-34.668,351.074,-30.273,0.000
1728615764.097,-52.246,-26.367,351.074,-15.137,0.000
1728615764.101,-25.879,-25.391,339.844,9.277,0.000
1728615764.104,-20.996,-37.598,344.238,-10.254,0.000
1728615764.108,-10.742,-33.203,341.309,-32.715,0.000
1728615764.112,-15.625,-20.020,322.266,-33.691,0.000
1728615764.116,-44.922,-34.180,305.664,-21.973,0.000
1728615764.120,-25.391,-48.828,293.945,10.254,0.000
1728615764.124,-7.812,-40.039,293.457,-5.371,0.000
1728615764.128,-2.441,-32.715,285.645,-39.062,0.000
1728615764.132,-22.949,-35.156,253.906,-55.176,0.000
1728615764.136,-64.941,-34.668,229.980,-46.875,0.000
1728615764.140,-50.293,-37.598,224.609,-15.137,0.000
1728615764.144,-30.762,-41.016,217.285,-32.715,0.000
1728615764.147,-25.879,-39.062,212.402,-61.035,0.000
1728615764.151,-27.832,-41.016,213.379,-60.059,0.000
1728615764.155,-55.664,-46.387,199.707,-48.828,0.000
1728615764.159,-46.387,-42.969,191.895,-11.230,0.000
1728615764.163,-35.645,-31.738,178.711,-9.277,0.000
1728615764.167,-30.762,-26.855,186.523,-43.945,0.000
1728615764.171,-15.625,-25.879,252.930,-52.246,0.000
1728615764.174,-46.875,-31.250,275.391,-43.457,0.000
1728615764.178,-53.711,-34.668,268.555,-11.230,0.000
1728615764.182,-42.969,-27.344,269.043,-3.906,0.000
1728615764.186,-43.945,-31.738,250.000,-40.527,0.000
1728615764.190,-23.926,-36.133,245.117,-51.758,0.000
1728615764.194,-37.598,-33.691,249.023,-45.898,0.000
1728615764.197,-46.387,-26.367,239.258,-7.812,0.000
1728615764.201,-22.949,-22.949,231.445,4.883,0.000
1728615764.205,-11.230,-27.344,225.586,-34.668,0.000
1728615764.209,-8.301,-25.391,219.727,-40.527,0.000
1728615764.213,-31.250,-21.973,218.262,-34.180,0.000
1728615764.217,-41.504,-20.996,215.820,-21.484,0.000
1728615764.221,-27.832,-22.461,204.102,-5.859,0.000
1728615764.225,-15.137,-37.109,195.801,-26.367,0.000
1728615764.229,-3.418,-37.598,197.754,-48.828,0.000
1728615764.233,-17.090,-18.555,204.102,-32.227,0.000
1728615764.236,-25.879,-21.484,195.312,-10.254,0.000
1728615764.240,-20.508,-22.949,176.270,9.766,0.000
1728615764.244,-25.879,-28.809,157.227,-14.648,0.000
1728615764.248,-21.973,-37.598,135.254,-47.852,0.000
1728615764.252,-32.227,-28.320,122.559,-43.945,0.000
1728615764.255,-45.898,-26.367,124.512,-22.949,0.000
1728615764.259,-25.879,-18.555,117.188,2.930,0.000
1728615764.263,-36.133,-20.508,105.469,-13.672,0.000
1728615764.267,-23.438,-41.504,99.609,-41.504,0.000
1728615764.271,-9.277,-38.574,100.586,-37.109,0.000
1728615764.275,-46.387,-21.973,109.375,-22.461,0.000
1728615764.279,-42.969,-23.438,105.957,-3.906,0.000
1728615764.283,-35.156,-32.715,97.656,-23.926,0.000
1728615764.287,-28.809,-30.762,96.680,-57.617,0.000
1728615764.290,-19.043,-32.715,90.332,-60.059,0.000
1728615764.294,-45.898,-49.805,86.914,-43.457,0.000
1728615764.298,-42.480,-46.387,85.938,-10.254,0.000
1728615764.302,-28.320,-34.180,84.961,-17.578,0.000
1728615764.306,-22.949,-26.855,87.891,-52.246,0.000
1728615764.310,-28.809,-20.508,87.402,-52.246,0.000
1728615764.313,-64.453,-28.809,81.543,-39.551,0.000
1728615764.317,-58.594,-46.387,77.148,-18.066,0.000
1728615764.321,-40.039,-51.270,64.453,-23.438,0.000
1728615764.325,-41.016,-51.758,59.082,-58.105,0.000
1728615764.329,-27.832,-50.781,70.312,-58.594,0.000
1728615764.333,-53.223,-48.828,69.336,-43.945,0.000
1728615764.337,-49.805,-46.875,60.059,-19.531,0.000
1728615764.341,-31.738,-41.016,45.898,-20.996,0.000
1728615764.345,-54.199,-35.645,33.691,-52.734,0.000
1728615764.349,-32.715,-30.762,30.273,-54.688,0.000
1728615764.353,-31.738,-28.809,37.109,-48.828,0.000
1728615764.357,-38.574,-37.598,36.133,-28.320,0.000
1728615764.361,-24.902,-30.762,29.785,-20.508,0.000
1728615764.365,-19.531,-19.531,29.785,-57.617,0.000
1728615764.369,-5.859,-32.227,26.855,-67.383,0.000
1728615764.373,-23.926,-34.668,24.414,-55.176,0.000
1728615764.377,-34.668,-26.855,28.320,-34.180,0.000
1728615764.380,-10.742,-36.621,24.902,-6.348,0.000
1728615764.385,-15.625,-45.410,25.391,-29.297,0.000
1728615764.389,-16.602,-29.785,23.926,-51.270,0.000
1728615764.393,-31.250,-16.602,22.949,-49.805,0.000
1728615764.396,-43.945,-9.277,30.762,-26.367,0.000
1728615764.400,-30.762,-20.020,20.508,-15.137,0.000
1728615764.404,-32.227,-33.691,11.230,-47.852,0.000
1728615764.408,-15.137,-39.551,14.160,-72.754,0.000
1728615764.412,-26.855,-43.457,13.672,-70.801,0.000
1728615764.416,-54.688,-31.738,17.578,-35.645,0.000
1728615764.420,-30.273,-24.414,21.484,-1.465,0.000
1728615764.424,-32.227,-35.645,20.996,-27.832,0.000
1728615764.428,-19.043,-32.227,24.902,-62.988,0.000
1728615764.432,-10.742,-28.320,12.695,-54.199,0.000
1728615764.436,-47.363,-39.062,2.441,-37.598,0.000
1728615764.440,-30.273,-34.668,10.742,-18.555,0.000
1728615764.444,-30.273,-39.062,10.742,-38.574,0.000
1728615764.447,-38.086,-43.457,-0.488,-71.289,0.000
1728615764.451,-26.855,-42.480,-1.465,-75.684,0.000
1728615764.455,-55.176,-36.621,4.883,-55.176,0.000
1728615764.459,-55.176,-27.344,2.441,-26.855,0.000
1728615764.463,-48.340,-41.016,-2.930,-34.180,0.000
1728615764.467,-43.945,-49.316,2.930,-59.082,0.000
1728615764.471,-31.250,-42.969,4.395,-65.918,0.000
1728615764.475,-58.105,-44.434,-2.441,-53.223,0.000
1728615764.479,-54.199,-42.969,-4.395,-17.578,0.000
1728615764.483,-41.992,-33.691,-12.207,-20.996,0.000
1728615764.486,-49.805,-32.715,-12.695,-61.035,0.000
1728615764.490,-39.551,-41.504,-9.766,-73.242,0.000
1728615764.494,-62.988,-46.387,-17.578,-51.270,0.000
1728615764.498,-65.430,-43.457,-16.113,-19.043,0.000
1728615764.502,-38.086,-34.180,-3.906,-8.301,0.000
1728615764.506,-24.902,-40.527,-3.418,-36.621,0.000
1728615764.510,-9.766,-44.922,-4.883,-53.711,0.000
1728615764.514,-41.992,-29.785,-2.930,-43.457,0.000
1728615764.518,-60.059,-30.762,-2.930,-22.949,0.000
1728615764.522,-32.227,-36.621,0.977,-9.766,0.000
1728615764.525,-16.113,-30.762,9.277,-32.715,0.000
1728615764.529,-17.578,-28.320,11.719,-47.363,0.000
1728615764.533,-36.621,-36.621,3.906,-41.992,0.000
1728615764.537,-42.480,-34.668,0.977,-16.113,0.000
1728615764.541,-23.926,-24.414,4.395,6.836,0.000
1728615764.545,-13.672,-19.531,2.441,-13.184,0.000
1728615764.549,6.836,-38.086,4.883,-37.598,0.000
1728615764.553,-1.953,-46.387,10.742,-41.992,0.000
1728615764.557,-29.297,-28.809,13.672,-17.578,0.000
1728615764.560,-26.855,-24.902,9.766,6.348,0.000
1728615764.564,-26.855,-33.203,3.906,-6.836,0.000
1728615764.568,-12.207,-27.344,0.000,-26.855,0.000
1728615764.572,-11.230,-18.555,3.418,-37.598,0.000
1728615764.576,-42.969,-23.926,6.836,-35.156,0.000
1728615764.580,-29.297,-41.992,5.859,-12.695,0.000
1728615764.583,-23.926,-42.480,5.371,-17.578,0.000
1728615764.587,-24.414,-43.457,5.371,-48.828,0.000
1728615764.591,-17.578,-51.270,6.836,-62.500,0.000
1728615764.595,-39.062,-35.156,1.953,-48.828,0.000
1728615764.599,-39.062,-17.578,-14.160,-6.348,0.000
1728615764.603,-42.969,-22.949,-15.625,-12.695,0.000
1728615764.607,-32.227,-29.297,-9.277,-49.805,0.000
1728615764.611,-15.625,-35.156,-6.836,-48.340,0.000
1728615764.615,-54.199,-35.645,-6.836,-34.668,0.000
1728615764.618,-41.016,-35.645,-5.371,-5.371,0.000
1728615764.622,-30.273,-41.504,-6.348,-4.395,0.000
1728615764.626,-37.598,-49.316,-5.859,-39.062,0.000
1728615764.630,-32.227,-48.828,-8.301,-55.664,0.000
1728615764.634,-62.500,-33.691,-16.602,-53.711,0.000
1728615764.638,-66.406,-26.855,-13.184,-29.297,0.000
1728615764.642,-44.922,-29.785,-17.578,-30.762,0.000
1728615764.645,-32.715,-28.320,-20.508,-54.688,0.000
1728615764.649,-26.855,-42.969,-11.719,-59.570,0.000
1728615764.653,-49.316,-46.875,-8.789,-51.270,0.000
1728615764.657,-47.852,-30.762,0.488,-18.066,0.000
1728615764.661,-33.203,-28.320,-1.953,-1.953,0.000
1728615764.664,-37.109,-24.414,-6.348,-30.273,0.000
1728615764.668,-12.207,-19.531,-2.441,-38.574,0.000
1728615764.672,-29.785,-27.344,-8.301,-34.668,0.000
1728615764.676,-46.387,-29.785,-10.254,-9.766,0.000
1728615764.680,-19.043,-23.926,-6.348,18.066,0.000
1728615764.684,-20.508,-27.344,-8.789,-3.418,0.000
1728615764.688,-9.277,-45.898,-11.719,-26.855,0.000
1728615764.692,-23.926,-54.199,-9.766,-32.227,0.000
1728615764.696,-45.410,-43.457,-4.395,-4.395,0.000
1728615764.700,-18.555,-37.109,-1.465,16.113,0.000
1728615764.703,-24.414,-33.203,-10.742,-14.648,0.000
1728615764.707,-21.973,-23.926,-11.719,-40.527,0.000
1728615764.711,-20.020,-16.113,-2.930,-42.969,0.000
1728615764.714,-43.457,-17.090,-7.812,-30.273,0.000
1728615764.718,-25.391,-33.691,-12.207,-16.113,0.000
1728615764.722,-34.668,-43.945,-1.953,-36.621,0.000
1728615764.726,-33.691,-34.668,0.488,-53.711,0.000
1728615764.730,-27.344,-43.945,-5.371,-48.828,0.000
1728615764.734,-57.617,-42.969,-13.184,-35.156,0.000
1728615764.738,-43.945,-26.367,-15.137,-6.348,0.000
1728615764.742,-33.691,-17.578,-10.254,-9.766,0.000
1728615764.746,-22.461,-21.484,-14.648,-39.551,0.000
1728615764.750,-18.066,-31.250,-11.719,-51.758,0.000
1728615764.753,-60.059,-34.180,-8.789,-41.016,0.000
1728615764.758,-55.664,-45.898,-12.695,-14.648,0.000
1728615764.762,-44.922,-55.176,-15.137,-21.973,0.000
1728615764.766,-47.363,-62.500,-12.207,-54.688,0.000
1728615764.770,-37.598,-53.711,-10.254,-61.523,0.000
1728615764.774,-52.734,-32.227,-8.789,-49.805,0.000
1728615764.777,-41.016,-23.926,-9.277,-20.508,0.000
1728615764.781,-37.109,-25.391,-9.766,-10.254,0.000
1728615764.785,-47.852,-31.738,-5.859,-43.945,0.000
1728615764.789,-32.227,-36.621,-7.324,-65.918,0.000
1728615764.793,-45.898,-48.828,-11.719,-51.270,0.000
1728615764.797,-40.039,-55.664,-2.930,-7.324,0.000
1728615764.801,-27.344,-50.293,-1.953,-5.371,0.000
1728615764.805,-34.668,-44.922,-8.789,-53.711,0.000
1728615764.809,-20.508,-52.246,-5.859,-61.523,0.000
1728615764.813,-51.758,-47.363,-6.348,-53.223,0.000
1728615764.817,-66.406,-22.949,-7.324,-30.273,0.000
1728615764.821,-43.457,-29.297,-4.395,-4.883,0.000
1728615764.825,-37.598,-46.875,-8.301,-31.738,0.000
1728615764.828,-18.066,-39.062,-11.719,-56.641,0.000
1728615764.832,-36.621,-32.227,-4.395,-55.664,0.000
1728615764.836,-51.758,-41.992,9.277,-20.508,0.000
1728615764.840,-23.926,-36.133,8.301,7.812,0.000
1728615764.844,-27.832,-39.551,-9.277,-41.992,0.000
1728615764.848,-15.625,-56.152,-11.719,-75.684,0.000
1728615764.852,-21.484,-35.645,2.441,-59.570,0.000
1728615764.856,-53.223,-15.137,6.836,-32.227,0.000
1728615764.860,-38.086,-24.902,-1.953,-15.137,0.000
1728615764.864,-36.621,-31.250,-4.395,-41.016,0.000
1728615764.868,-32.227,-27.832,-1.953,-59.570,0.000
1728615764.872,-33.203,-34.668,-9.766,-50.781,0.000
1728615764.875,-61.523,-34.668,-11.719,-39.551,0.000
1728615764.879,-34.180,-18.066,-3.418,-12.207,0.000
1728615764.883,-20.996,-21.973,2.930,-15.137,0.000
1728615764.887,-34.668,-34.668,-5.371,-54.688,0.000
1728615764.891,-41.992,-31.738,-14.160,-65.918,0.000
1728615764.895,-72.266,-32.227,-16.113,-51.270,0.000
1728615764.899,-57.129,-32.715,-18.066,-25.879,0.000
1728615764.903,-48.828,-33.691,-18.555,-34.180,0.000
1728615764.907,-57.129,-41.504,-15.625,-61.035,0.000
1728615764.910,-31.250,-39.062,-7.812,-56.152,0.000
1728615764.914,-53.711,-41.992,-7.812,-50.781,0.000
1728615764.918,-73.730,-41.992,-13.672,-34.180,0.000
1728615764.922,-62.500,-41.992,-16.602,-31.250,0.000
1728615764.926,-58.594,-68.848,-21.973,-57.617,0.000
1728615764.930,-52.734,-54.688,-23.926,-74.707,0.000
1728615764.934,-67.383,-24.902,-21.973,-63.965,0.000
1728615764.938,-45.898,-20.996,-18.555,-14.648,0.000
1728615764.942,-22.461,-19.531,-10.254,1.953,0.000
1728615764.945,-30.762,-26.367,-10.254,-46.875,0.000
1728615764.949,-19.531,-30.273,-19.531,-73.730,0.000
1728615764.953,-37.598,-33.691,-28.809,-55.664,0.000
1728615764.957,-48.340,-35.645,-29.785,-15.625,0.000
1728615764.961,-29.297,-47.852,-25.391,1.465,0.000
1728615764.965,-27.344,-48.828,-26.367,-37.109,0.000
1728615764.969,-12.207,-23.926,-26.367,-60.059,0.000
1728615764.973,-20.996,-23.438,-20.020,-46.387,0.000
1728615764.977,-25.879,-20.020,-13.672,-19.043,0.000
1728615764.981,-15.625,-17.090,-13.184,1.953,0.000
1728615764.985,-21.973,-21.973,-14.648,-15.625,0.000
1728615764.988,-5.859,-24.902,-21.973,-37.109,0.000
1728615764.992,-14.160,-30.273,-25.879,-38.574,0.000
1728615764.996,-28.809,-25.391,-20.996,-17.090,0.000
1728615765.000,-19.531,-30.273,-19.531,3.418,0.000
1728615765.004,-27.344,-38.086,-21.973,-18.066,0.000
1728615765.008,-5.371,-33.691,-19.043,-48.828,0.000
1728615765.012,-10.742,-22.949,-19.531,-50.781,0.000
1728615765.015,-49.316,-27.344,-20.996,-28.809,0.000
1728615765.019,-38.574,-29.785,-20.020,1.953,0.000
1728615765.023,-36.621,-24.414,-19.531,-13.672,0.000
1728615765.027,-30.273,-29.297,-13.672,-39.551,0.000
1728615765.031,-19.531,-24.414,-17.578,-44.434,0.000
1728615765.035,-45.898,-27.344,-24.902,-39.062,0.000
1728615765.038,-39.551,-25.391,-26.367,-13.672,0.000
1728615765.042,-31.250,-20.508,-18.066,-21.973,0.000
1728615765.046,-40.527,-40.527,-16.113,-54.688,0.000
1728615765.050,-48.828,-41.016,-22.949,-64.941,0.000
1728615765.054,-71.289,-37.598,-26.367,-42.969,0.000
1728615765.058,-50.781,-47.363,-30.762,-14.160,0.000
1728615765.062,-37.598,-49.316,-30.762,-37.598,0.000
1728615765.066,-45.898,-54.199,-32.227,-81.543,0.000
1728615765.070,-46.875,-46.875,-36.621,-82.031,0.000
1728615765.074,-65.430,-42.480,-37.109,-66.406,0.000
1728615765.077,-62.012,-56.152,-30.273,-33.203,0.000
1728615765.081,-49.316,-56.152,-27.344,-18.066,0.000
1728615765.085,-36.621,-47.852,-31.250,-51.758,0.000
1728615765.088,-19.531,-35.156,-28.809,-58.105,0.000
1728615765.092,-44.434,-37.598,-23.926,-43.457,0.000
1728615765.096,-50.781,-47.852,-28.320,-21.973,0.000
1728615765.100,-26.855,-46.387,-32.715,-10.742,0.000
1728615765.104,-35.156,-44.922,-36.621,-36.133,0.000
1728615765.108,-32.715,-43.945,-35.645,-57.617,0.000
1728615765.112,-48.828,-43.945,-33.691,-57.617,0.000
1728615765.116,-47.852,-36.621,-28.809,-23.438,0.000
1728615765.120,-18.066,-30.273,-23.926,0.000,0.000
1728615765.124,-14.160,-39.062,-24.414,-29.785,0.000
1728615765.128,-19.043,-40.039,-29.785,-54.688,0.000
1728615765.132,-38.086,-17.090,-33.203,-47.852,0.000
1728615765.136,-43.945,-13.672,-26.855,-24.414,0.000
1728615765.140,-20.996,-24.902,-23.926,0.977,0.000
1728615765.144,-19.531,-22.461,-25.879,-18.066,0.000
1728615765.148,-3.418,-23.926,-32.227,-52.246,0.000
1728615765.152,-9.277,-29.297,-33.203,-47.852,0.000
1728615765.155,-41.016,-25.879,-19.531,-25.391,0.000
1728615765.159,-21.484,-34.668,-17.090,-16.113,0.000
1728615765.163,-31.738,-46.875,-25.879,-39.062,0.000
1728615765.167,-34.180,-35.156,-28.809,-54.199,0.000
1728615765.171,-28.809,-20.508,-29.297,-52.246,0.000
1728615765.175,-51.270,-24.902,-24.414,-35.156,0.000
1728615765.179,-44.922,-33.691,-17.090,-6.348,0.000
1728615765.183,-43.457,-31.738,-24.414,-25.879,0.000
1728615765.187,-35.645,-24.414,-38.574,-62.988,0.000
1728615765.191,-29.785,-27.832,-35.156,-60.547,0.000
1728615765.195,-54.199,-32.227,-23.438,-46.875,0.000
1728615765.199,-53.223,-39.062,-22.461,-17.090,0.000
1728615765.203,-52.734,-52.246,-28.809,-15.625,0.000
1728615765.207,-51.270,-53.223,-28.809,-59.570,0.000
1728615765.211,-41.992,-45.410,-20.508,-73.242,0.000
1728615765.214,-67.871,-41.016,-23.926,-59.570,0.000
1728615765.218,-54.688,-48.340,-32.227,-24.414,0.000
1728615765.222,-43.945,-43.457,-30.762,-24.902,0.000
1728615765.226,-39.062,-37.109,-33.203,-56.641,0.000
1728615765.230,-23.926,-34.180,-38.574,-56.152,0.000
1728615765.234,-55.664,-34.668,-36.133,-48.340,0.000
1728615765.238,-54.199,-42.480,-28.809,-30.762,0.000
1728615765.242,-42.969,-38.086,-25.879,-20.996,0.000
1728615765.246,-43.457,-37.598,-34.180,-48.828,0.000
1728615765.250,-20.996,-49.316,-38.574,-58.105,0.000
1728615765.254,-46.875,-59.082,-29.785,-43.945,0.000
1728615765.258,-44.434,-49.805,-27.344,-14.160,0.000
1728615765.262,-6.348,-32.227,-29.785,-8.789,0.000
1728615765.265,-7.324,-27.344,-29.297,-33.691,0.000
1728615765.269,-0.488,-21.973,-31.250,-41.504,0.000
1728615765.273,-12.207,-17.578,-31.738,-43.457,0.000
1728615765.277,-30.273,-18.555,-28.809,-26.367,0.000
1728615765.281,-14.648,-28.809,-20.996,10.742,0.000
1728615765.285,-19.043,-37.598,-18.555,-10.254,0.000
1728615765.289,-13.184,-29.785,-27.832,-44.434,0.000
1728615765.293,-21.484,-25.879,-36.133,-32.715,0.000
1728615765.297,-55.176,-31.250,-35.156,-15.137,0.000
1728615765.301,-38.574,-39.551,-27.832,0.977,0.000
1728615765.305,-28.320,-38.086,-26.855,-19.531,0.000
1728615765.308,-18.066,-27.344,-32.227,-52.734,0.000
1728615765.312,-21.973,-30.273,-33.691,-48.340,0.000
1728615765.316,-57.129,-26.367,-33.203,-23.438,0.000
1728615765.320,-46.875,-25.879,-31.250,-2.441,0.000
1728615765.324,-44.922,-34.180,-26.855,-13.672,0.000
1728615765.328,-36.621,-31.738,-30.762,-35.156,0.000
1728615765.332,-27.832,-42.969,-30.762,-53.223,0.000
1728615765.336,-59.570,-46.387,-30.273,-40.527,0.000
1728615765.339,-45.898,-45.898,-32.715,-6.348,0.000
1728615765.343,-36.621,-47.363,-39.062,-20.020,0.000
1728615765.347,-32.715,-35.645,-41.504,-52.734,0.000
1728615765.351,-20.508,-28.809,-41.992,-62.012,0.000
1728615765.355,-48.828,-28.809,-40.039,-54.688,0.000
1728615765.359,-50.293,-23.438,-33.691,-15.137,0.000
1728615765.363,-34.180,-27.832,-35.645,-7.812,0.000
1728615765.367,-37.598,-42.969,-34.180,-50.293,0.000
1728615765.370,-36.621,-41.504,-29.785,-59.570,0.000
1728615765.374,-60.547,-36.133,-37.109,-42.969,0.000
1728615765.378,-59.570,-42.969,-42.969,-21.484,0.000
1728615765.382,-39.062,-50.781,-42.969,-24.414,0.000
1728615765.386,-31.738,-47.852,-41.504,-56.641,0.000
1728615765.390,-15.625,-35.645,-38.574,-68.848,0.000
1728615765.394,-40.039,-26.855,-41.992,-65.430,0.000
1728615765.398,-61.523,-40.527,-43.457,-38.086,0.000
1728615765.402,-40.527,-43.457,-39.551,-14.648,0.000
1728615765.406,-39.062,-33.203,-41.992,-35.645,0.000
1728615765.409,-37.109,-41.992,-52.734,-54.199,0.000
1728615765.413,-56.152,-46.875,-47.852,-58.105,0.000
1728615765.417,-58.594,-41.504,-44.922,-36.133,0.000
1728615765.421,-23.926,-31.738,-51.270,-7.812,0.000
1728615765.425,-27.344,-38.574,-45.898,-24.414,0.000
1728615765.429,-18.066,-42.480,-41.504,-46.875,0.000
1728615765.432,-25.879,-32.227,-39.551,-42.480,0.000
1728615765.436,-47.852,-31.250,-27.344,-6.836,0.000
1728615765.440,-32.715,-28.320,-19.043,15.137,0.000
1728615765.444,-35.156,-32.715,-24.902,-21.484,0.000
1728615765.448,-15.137,-30.762,-31.250,-42.969,0.000
1728615765.452,-14.648,-22.461,-30.762,-24.902,0.000
1728615765.456,-35.645,-25.391,-29.297,-6.836,0.000
1728615765.460,-31.738,-33.691,-25.391,4.395,0.000
1728615765.464,-46.387,-38.086,-23.926,-20.508,0.000
1728615765.468,-25.391,-41.992,-20.996,-42.969,0.000
1728615765.472,-21.484,-31.250,-25.391,-47.852,0.000
1728615765.476,-40.039,-22.461,-23.438,-30.762,0.000
1728615765.480,-20.996,-41.016,-18.066,0.488,0.000
1728615765.484,-21.484,-43.945,-31.250,-22.949,0.000
1728615765.488,-34.180,-42.480,-35.645,-54.199,0.000
1728615765.492,-45.898,-38.086,-29.297,-67.383,0.000
1728615765.496,-72.754,-31.250,-22.461,-55.664,0.000
1728615765.500,-63.477,-38.086,-29.785,-31.738,0.000
1728615765.503,-54.688,-39.062,-39.062,-49.805,0.000
1728615765.508,-53.711,-43.457,-36.621,-75.195,0.000
1728615765.512,-31.738,-46.875,-33.203,-67.871,0.000
1728615765.516,-52.734,-55.664,-32.227,-53.711,0.000
1728615765.520,-64.453,-52.246,-32.227,-30.273,0.000
1728615765.523,-46.387,-38.086,-33.203,-29.297,0.000
1728615765.527,-47.363,-47.852,-34.180,-63.477,0.000
1728615765.531,-36.133,-44.922,-33.691,-73.242,0.000
1728615765.535,-55.664,-31.250,-33.691,-69.824,0.000
1728615765.539,-56.641,-23.438,-29.785,-43.457,0.000
1728615765.543,-34.180,-33.203,-30.273,-20.996,0.000
1728615765.547,-36.621,-57.129,-40.527,-52.246,0.000
1728615765.551,-25.391,-55.664,-42.480,-65.430,0.000
1728615765.555,-50.293,-44.434,-36.621,-49.316,0.000
1728615765.559,-63.965,-38.086,-31.250,-14.160,0.000
1728615765.563,-35.645,-31.738,-25.879,-9.766,0.000
1728615765.567,-31.250,-31.738,-21.973,-36.133,0.000
1728615765.571,-17.578,-32.227,-29.297,-44.922,0.000
1728615765.574,-27.344,-35.156,-39.551,-50.781,0.000
1728615765.578,-40.039,-37.598,-29.297,-26.367,0.000
1728615765.582,-27.344,-21.973,-20.508,-7.324,0.000
1728615765.586,-29.297,-10.742,-29.785,-23.926,0.000
1728615765.590,-20.020,-21.973,-34.180,-46.875,0.000
1728615765.594,-27.344,-38.574,-29.297,-62.012,0.000
1728615765.598,-55.664,-38.086,-36.621,-38.086,0.000
1728615765.602,-45.410,-33.203,-47.363,-5.859,0.000
1728615765.606,-33.691,-26.855,-49.316,-26.367,0.000
1728615765.610,-21.484,-30.273,-42.480,-56.152,0.000
1728615765.614,-36.621,-33.203,-40.039,-58.594,0.000
1728615765.618,-63.477,-26.855,-41.992,-39.551,0.000
1728615765.621,-40.527,-32.227,-40.039,-6.348,0.000
1728615765.625,-37.109,-39.551,-45.410,-28.809,0.000
1728615765.629,-41.016,-46.387,-48.340,-62.988,0.000
1728615765.633,-35.156,-41.504,-34.668,-55.176,0.000
1728615765.637,-62.500,-40.039,-23.926,-48.340,0.000
1728615765.641,-41.504,-42.480,-26.855,-18.066,0.000
1728615765.645,-29.297,-29.785,-30.762,-11.719,0.000
1728615765.649,-38.574,-38.574,-30.762,-51.758,0.000
1728615765.653,-34.180,-43.945,-33.203,-65.430,0.000
1728615765.656,-57.617,-36.133,-32.227,-49.316,0.000
1728615765.660,-50.293,-29.785,-34.180,-14.160,0.000
1728615765.664,-41.992,-35.645,-35.156,-20.996,0.000
1728615765.668,-47.852,-44.434,-37.109,-64.941,0.000
1728615765.672,-35.156,-39.062,-35.645,-65.918,0.000
1728615765.676,-52.246,-38.574,-36.621,-41.504,0.000
1728615765.680,-40.527,-48.340,-37.598,-9.766,0.000
1728615765.684,-28.320,-56.152,-29.785,-5.859,0.000
1728615765.688,-29.785,-37.598,-29.297,-28.809,0.000
1728615765.692,-8.789,-17.578,-32.227,-41.992,0.000
1728615765.695,0.000,-17.578,-35.645,-47.852,0.000
1728615765.699,0.000,-35.645,-37.598,-14.160,0.000
1728615765.703,0.000,-41.504,-34.668,3.906,0.000
1728615765.707,0.000,-31.250,-32.715,-31.250,0.000
1728615765.711,0.000,-29.785,-30.273,-47.852,0.000
1728615765.715,0.000,-29.785,-31.250,-45.898,0.000
1728615765.719,0.000,-20.020,-33.203,-28.320,0.000
1728615765.723,0.000,-19.531,-30.273,-4.883,0.000
1728615765.727,0.000,-31.738,-28.320,-34.668,0.000
1728615765.731,0.000,-37.598,-26.367,-52.734,0.000
1728615765.734,0.000,-31.738,-20.996,-45.898,0.000
1728615765.738,0.000,-23.438,-19.531,-12.695,0.000
1728615765.742,-37.598,-26.367,-29.297,16.113,0.000
1728615765.746,-33.203,-39.062,-32.227,-19.531,0.000
1728615765.750,-19.531,-34.668,-23.926,-48.340,0.000
1728615765.754,-28.320,-24.414,-19.043,-47.363,0.000
1728615765.758,-45.410,-32.715,-13.672,-25.391,0.000
1728615765.761,-26.367,-41.016,-20.020,-2.441,0.000
1728615765.765,-26.367,-32.227,-29.297,-20.020,0.000
1728615765.769,-25.391,-24.414,-30.762,-48.340,0.000
1728615765.773,-34.180,-26.367,-29.297,-60.059,0.000
1728615765.777,-59.570,-29.297,-24.902,-50.293,0.000
1728615765.781,-41.016,-33.203,-18.066,-23.438,0.000
1728615765.785,-35.645,-36.133,-20.996,-31.250,0.000
1728615765.788,-41.504,-38.574,-23.926,-57.129,0.000
1728615765.792,-36.133,-41.992,-21.484,-56.152,0.000
1728615765.796,-53.223,-51.758,-24.414,-42.480,0.000
1728615765.800,-45.898,-43.945,-24.414,-27.344,0.000
1728615765.804,-41.992,-32.227,-20.508,-31.250,0.000
1728615765.808,-35.645,-24.414,-23.438,-51.270,0.000
1728615765.812,-23.438,-14.648,-23.926,-52.246,0.000
1728615765.816,-56.152,-19.531,-24.902,-42.480,0.000
1728615765.819,-45.410,-32.227,-29.297,-8.301,0.000
1728615765.823,-27.344,-44.922,-23.926,0.000,0.000
1728615765.827,-44.434,-56.641,-20.508,-37.109,0.000
1728615765.831,-43.457,-37.598,-26.855,-55.176,0.000
1728615765.836,-62.012,-21.484,-26.855,-50.781,0.000
1728615765.840,-61.035,-23.438,-26.367,-29.297,0.000
1728615765.844,-40.039,-28.809,-28.809,-15.137,0.000
1728615765.847,-33.203,-33.691,-31.250,-41.992,0.000
1728615765.851,-11.719,-29.297,-23.438,-50.293,0.000
1728615765.855,-31.250,-37.109,-22.949,-36.133,0.000
1728615765.859,-43.457,-41.504,-30.762,-17.090,0.000
1728615765.863,-30.762,-29.785,-39.551,-7.324,0.000
1728615765.867,-38.574,-31.738,-38.574,-41.504,0.000
1728615765.871,-18.555,-37.598,-28.320,-50.293,0.000
1728615765.875,-41.992,-24.902,-28.320,-53.223,0.000
1728615765.879,-64.941,-23.438,-30.762,-48.828,0.000
1728615765.883,-27.344,-39.551,-26.367,-22.461,0.000
1728615765.887,-16.602,-45.898,-24.902,-49.805,0.000
1728615765.891,-20.996,-27.832,-29.297,-68.848,0.000
1728615765.895,-44.922,-13.672,-31.250,-50.293,0.000
1728615765.899,-53.711,-37.109,-30.273,-34.180,0.000
1728615765.903,-42.969,-50.781,-29.785,-15.625,0.000
1728615765.907,-49.316,-34.668,-31.250,-30.273,0.000
1728615765.910,-31.250,-36.621,-36.133,-58.105,0.000
1728615765.914,-36.133,-42.969,-32.715,-64.941,0.000
1728615765.918,-65.918,-56.152,-28.320,-38.086,0.000
1728615765.922,-38.086,-64.453,-34.180,-4.395,0.000
1728615765.926,-28.320,-49.805,-35.645,-27.832,0.000
1728615765.930,-28.320,-48.340,-32.227,-62.500,0.000
1728615765.934,-18.555,-42.969,-28.320,-67.871,0.000
1728615765.938,-37.598,-33.203,-23.926,-50.781,0.000
1728615765.942,-37.109,-31.738,-36.621,-25.879,0.000
1728615765.946,-22.949,-36.133,-48.340,-37.598,0.000
1728615765.950,-18.555,-41.504,-30.762,-66.406,0.000
1728615765.954,-19.531,-33.203,-18.555,-67.383,0.000
1728615765.957,-59.082,-29.297,-25.391,-60.547,0.000
1728615765.961,-54.688,-35.156,-26.855,-26.855,0.000
1728615765.965,-40.527,-37.598,-31.250,-21.484,0.000
1728615765.969,-45.410,-36.133,-39.062,-58.105,0.000
1728615765.973,-25.391,-38.086,-39.062,-55.176,0.000
1728615765.977,-54.199,-37.598,-37.109,-39.551,0.000
1728615765.981,-54.688,-33.691,-36.133,-21.973,0.000
1728615765.985,-30.762,-37.109,-27.832,-17.578,0.000
1728615765.989,-33.203,-38.086,-29.297,-45.410,0.000
1728615765.993,-27.344,-33.691,-28.809,-63.965,0.000
1728615765.997,-46.387,-34.668,-19.043,-62.012,0.000
1728615766.000,-44.434,-45.898,-22.949,-29.785,0.000
1728615766.004,-32.715,-39.551,-33.691,-1.953,0.000
1728615766.008,-39.551,-32.715,-27.344,-28.809,0.000
1728615766.012,-22.949,-27.832,-15.137,-52.734,0.000
1728615766.016,-38.574,-26.367,-17.578,-41.992,0.000
1728615766.020,-53.711,-39.062,-26.367,-11.719,0.000
1728615766.024,-37.598,-44.922,-29.297,-1.465,0.000
1728615766.028,-44.434,-39.062,-24.902,-39.062,0.000
1728615766.032,-43.945,-45.410,-28.809,-64.453,0.000
1728615766.036,-46.387,-44.922,-37.598,-58.594,0.000
1728615766.040,-48.340,-28.320,-33.691,-30.762,0.000
1728615766.043,-38.574,-28.320,-31.738,-11.230,0.000
1728615766.047,-42.969,-36.133,-28.320,-29.785,0.000
1728615766.051,-22.949,-39.062,-27.344,-39.551,0.000
1728615766.055,-30.273,-34.180,-25.879,-49.805,0.000
1728615766.059,-61.035,-40.527,-27.344,-39.551,0.000
1728615766.063,-44.922,-45.410,-34.180,-9.766,0.000
1728615766.067,-31.738,-37.109,-33.691,-30.273,0.000
1728615766.071,-25.879,-33.203,-30.762,-55.664,0.000
1728615766.074,-43.945,-33.203,-33.203,-57.617,0.000
1728615766.078,-49.316,-34.668,-36.621,-46.387,0.000
1728615766.082,-16.113,-36.133,-39.551,-7.324,0.000
1728615766.086,-23.438,-31.250,-36.133,-10.254,0.000
1728615766.090,-29.785,-29.297,-30.762,-41.016,0.000
1728615766.094,-20.508,-36.133,-33.203,-54.199,0.000
1728615766.098,-52.246,-41.992,-38.574,-46.875,0.000
1728615766.102,-61.523,-35.645,-47.363,-21.484,0.000
1728615766.106,-40.527,-29.785,-48.828,-21.484,0.000
1728615766.110,-21.973,-30.273,-47.852,-57.129,0.000
1728615766.114,-21.973,-35.645,-41.016,-69.336,0.000
1728615766.117,-52.246,-38.574,-39.551,-56.641,0.000
1728615766.121,-39.551,-20.020,-42.480,-23.438,0.000
1728615766.125,-24.902,-12.207,-41.504,-16.602,0.000
1728615766.129,-34.180,-30.762,-45.410,-54.688,0.000
1728615766.133,-24.902,-36.133,-42.480,-77.148,0.000
1728615766.137,-36.133,-27.832,-33.691,-54.199,0.000
1728615766.141,-40.527,-29.297,-32.227,-10.254,0.000
1728615766.144,-34.180,-26.367,-30.762,-7.324,0.000
1728615766.148,-32.227,-16.602,-29.297,-46.875,0.000
1728615766.152,-10.742,-21.484,-27.344,-57.617,0.000
1728615766.156,-24.902,-34.180,-24.902,-47.363,0.000
1728615766.160,-41.016,-28.809,-31.738,-27.832,0.000
1728615766.163,-29.785,-29.785,-30.762,-11.230,0.000
1728615766.167,-21.484,-47.852,-24.902,-31.738,0.000
1728615766.171,-20.020,-33.691,-26.855,-46.875,0.000
1728615766.175,-42.969,-24.414,-24.902,-45.410,0.000
1728615766.179,-50.293,-36.133,-20.996,-22.949,0.000
1728615766.183,-31.738,-26.855,-25.879,-7.324,0.000
1728615766.187,-30.273,-25.391,-31.250,-36.133,0.000
1728615766.191,-8.789,-42.480,-26.855,-52.734,0.000
1728615766.195,-25.879,-43.457,-19.531,-60.547,0.000
1728615766.199,-61.523,-31.250,-22.461,-49.316,0.000
1728615766.203,-41.992,-41.016,-23.926,-5.859,0.000
1728615766.206,-45.898,-56.152,-27.832,-24.902,0.000
1728615766.211,-38.574,-38.574,-25.879,-63.965,0.000
1728615766.215,-37.598,-28.320,-23.926,-62.988,0.000
1728615766.219,-53.223,-35.645,-23.438,-34.668,0.000
1728615766.223,-33.691,-38.086,-30.273,-16.113,0.000
1728615766.227,-32.227,-46.387,-33.691,-32.715,0.000
1728615766.231,-20.020,-37.598,-33.691,-53.223,0.000
1728615766.234,-30.273,-18.066,-38.086,-53.711,0.000
1728615766.238,-63.477,-22.461,-37.109,-34.668,0.000
1728615766.242,-41.016,-42.969,-24.414,-3.906,0.000
1728615766.246,-37.109,-50.781,-33.203,-16.602,0.000
1728615766.250,-37.598,-33.203,-47.852,-53.711,0.000
1728615766.254,-22.949,-29.785,-46.387,-60.059,0.000
1728615766.258,-54.199,-39.551,-40.527,-43.945,0.000
1728615766.262,-51.270,-45.898,-35.645,-15.137,0.000
1728615766.266,-40.527,-45.898,-43.945,-22.949,0.000
1728615766.270,-39.062,-35.645,-44.434,-67.383,0.000
1728615766.274,-15.137,-20.020,-27.832,-59.082,0.000
1728615766.278,-35.156,-20.508,-25.879,-34.668,0.000
1728615766.282,-41.504,-35.645,-31.738,-11.719,0.000
1728615766.286,-32.715,-44.922,-39.062,-9.277,0.000
1728615766.290,-39.062,-43.945,-46.387,-43.457,0.000
1728615766.293,-24.902,-35.156,-38.574,-55.176,0.000
1728615766.297,-44.922,-32.227,-24.902,-49.805,0.000
1728615766.301,-42.480,-36.133,-23.926,-17.578,0.000
1728615766.305,-19.043,-36.621,-31.250,-10.254,0.000
1728615766.309,-25.879,-40.039,-35.645,-52.734,0.000
1728615766.313,-18.066,-40.039,-40.039,-64.453,0.000
1728615766.317,-43.945,-41.016,-44.922,-54.199,0.000
1728615766.321,-65.430,-45.898,-38.086,-22.949,0.000
1728615766.325,-41.992,-36.621,-30.273,-4.883,0.000
1728615766.329,-35.156,-28.320,-37.598,-37.598,0.000
1728615766.333,-19.043,-38.574,-37.109,-57.129,0.000
1728615766.337,-24.902,-38.086,-27.832,-37.109,0.000
1728615766.341,-44.922,-22.949,-23.926,-18.555,0.000
1728615766.345,-28.809,-24.902,-28.809,-11.230,0.000
1728615766.348,-31.250,-33.203,-31.738,-40.527,0.000
1728615766.352,-25.391,-54.199,-33.691,-74.219,0.000
1728615766.356,-37.109,-56.152,-36.621,-71.777,0.000
1728615766.360,-56.152,-33.691,-34.668,-43.945,0.000
1728615766.364,-37.598,-25.391,-35.645,-13.672,0.000
1728615766.368,-33.691,-32.227,-40.039,-33.203,0.000
1728615766.372,-20.020,-30.273,-41.016,-56.641,0.000
1728615766.376,-18.066,-32.715,-41.016,-55.664,0.000
1728615766.380,-44.922,-35.156,-43.945,-38.086,0.000
1728615766.384,-23.926,-40.039,-46.875,-6.348,0.000
1728615766.388,-23.926,-48.340,-47.363,-22.461,0.000
1728615766.391,-33.203,-40.039,-45.898,-53.223,0.000
1728615766.395,-22.461,-38.574,-39.551,-43.945,0.000
1728615766.399,-51.758,-36.133,-36.621,-21.973,0.000
1728615766.403,-49.805,-28.809,-42.480,-6.348,0.000
1728615766.407,-37.598,-41.504,-51.758,-18.066,0.000
1728615766.411,-27.344,-43.457,-47.852,-45.410,0.000
1728615766.415,-11.719,-27.832,-41.992,-55.664,0.000
1728615766.419,-35.645,-32.715,-43.945,-32.715,0.000
1728615766.423,-30.273,-37.109,-44.922,-0.488,0.000
1728615766.427,-17.090,-30.273,-44.434,-10.254,0.000
1728615766.430,-23.438,-30.762,-38.086,-43.945,0.000
1728615766.434,-18.066,-34.180,-35.156,-52.734,0.000
1728615766.438,-40.039,-34.668,-35.156,-42.480,0.000
1728615766.442,-39.062,-31.250,-34.180,-16.602,0.000
1728615766.446,-30.762,-34.668,-41.504,-15.137,0.000
1728615766.450,-36.133,-48.340,-41.992,-45.410,0.000
1728615766.454,-18.066,-62.500,-34.180,-57.617,0.000
1728615766.458,-45.410,-58.105,-33.203,-52.734,0.000
1728615766.461,-64.453,-41.504,-33.691,-23.926,0.000
1728615766.465,-43.945,-37.109,-33.203,-2.930,0.000
1728615766.469,-42.969,-48.340,-36.621,-28.320,0.000
1728615766.473,-24.414,-53.711,-35.156,-43.457,0.000
1728615766.477,-30.762,-48.340,-33.691,-46.387,0.000
1728615766.481,-48.828,-50.293,-29.297,-22.461,0.000
1728615766.485,-42.480,-56.152,-24.902,11.719,0.000
1728615766.489,-45.898,-53.223,-32.715,-20.508,0.000
1728615766.492,-29.297,-44.434,-36.621,-52.734,0.000
1728615766.496,-34.180,-32.715,-33.203,-54.688,0.000
1728615766.500,-56.152,-32.227,-32.227,-36.133,0.000
1728615766.504,-42.969,-40.527,-38.574,-11.719,0.000
1728615766.508,-39.062,-43.945,-43.945,-38.574,0.000
1728615766.512,-29.297,-47.363,-43.457,-64.453,0.000
1728615766.516,-33.691,-46.387,-38.574,-64.941,0.000
1728615766.520,-59.082,-43.945,-43.457,-60.059,0.000
1728615766.524,-44.922,-29.297,-45.410,-34.668,0.000
1728615766.527,-30.762,-20.508,-40.039,-37.109,0.000
1728615766.531,-23.438,-34.180,-40.527,-73.242,0.000
1728615766.535,-23.926,-27.344,-36.133,-74.707,0.000
1728615766.539,-44.922,-27.344,-38.574,-53.223,0.000
1728615766.543,-39.551,-40.527,-38.574,-28.809,0.000
1728615766.546,-42.480,-51.270,-33.691,-34.668,0.000
1728615766.550,-25.391,-47.363,-40.527,-48.340,0.000
1728615766.554,-9.766,-25.879,-35.645,-40.039,0.000
1728615766.558,-43.457,-25.391,-34.668,-26.367,0.000
1728615766.562,-35.645,-21.973,-35.645,2.930,0.000
1728615766.566,-26.367,-21.973,-28.320,-7.324,0.000
1728615766.570,-22.461,-40.039,-33.203,-41.992,0.000
1728615766.574,-6.348,-38.086,-43.457,-49.805,0.000
1728615766.578,-37.598,-42.480,-31.250,-34.668,0.000
1728615766.582,-39.551,-59.082,-27.832,-0.488,0.000
1728615766.586,-32.715,-57.617,-45.898,-7.324,0.000
1728615766.590,-40.527,-48.340,-42.480,-54.199,0.000
1728615766.594,-32.227,-32.715,-31.250,-69.824,0.000
1728615766.598,-53.711,-19.531,-29.785,-58.105,0.000
1728615766.602,-56.641,-27.832,-29.785,-28.809,0.000
1728615766.606,-38.574,-33.691,-31.250,-13.184,0.000
1728615766.610,-24.902,-35.645,-35.645,-32.227,0.000
1728615766.614,-18.555,-42.480,-42.480,-65.430,0.000
1728615766.617,-48.340,-42.969,-39.062,-61.523,0.000
1728615766.621,-56.641,-24.902,-32.227,-23.438,0.000
1728615766.625,-41.016,-23.438,-35.645,-15.137,0.000
1728615766.629,-41.504,-38.574,-30.273,-45.410,0.000
1728615766.633,-23.926,-37.109,-27.832,-64.453,0.000
1728615766.637,-39.062,-30.762,-37.109,-69.824,0.000
1728615766.641,-55.664,-35.645,-41.992,-49.805,0.000
1728615766.645,-34.180,-44.434,-42.969,-26.855,0.000
1728615766.649,-53.223,-41.504,-51.270,-52.246,0.000
1728615766.653,-47.852,-34.668,-43.457,-69.336,0.000
1728615766.657,-43.945,-33.691,-34.668,-61.523,0.000
1728615766.661,-63.477,-41.504,-40.039,-41.504,0.000
1728615766.665,-51.270,-38.086,-46.875,-25.391,0.000
1728615766.669,-48.340,-28.809,-50.293,-48.828,0.000
1728615766.673,-38.086,-28.809,-43.457,-70.312,0.000
1728615766.676,-28.809,-28.809,-42.480,-69.824,0.000
1728615766.682,-53.223,-33.203,-45.410,-47.363,0.000
1728615766.686,-43.457,-34.668,-43.945,-12.695,0.000
1728615766.690,-35.645,-35.645,-41.992,-27.344,0.000
1728615766.694,-34.668,-43.945,-46.875,-51.270,0.000
1728615766.698,-20.996,-51.758,-43.945,-50.293,0.000
1728615766.701,-47.363,-38.574,-36.621,-44.434,0.000
1728615766.705,-53.223,-31.250,-41.992,-19.531,0.000
1728615766.709,-44.434,-41.504,-41.016,-19.043,0.000
1728615766.713,-30.273,-34.668,-37.598,-47.852,0.000
1728615766.717,-19.043,-23.438,-42.480,-54.199,0.000
1728615766.721,-44.434,-22.461,-43.945,-42.969,0.000
1728615766.725,-35.645,-25.879,-36.621,-12.207,0.000
1728615766.729,-20.996,-28.809,-32.227,-1.465,0.000
1728615766.733,-15.137,-35.156,-34.668,-32.227,0.000
1728615766.737,-5.859,-48.340,-36.621,-51.758,0.000
1728615766.741,-48.340,-61.523,-35.645,-52.246,0.000
1728615766.745,-47.363,-45.410,-33.203,-20.996,0.000
1728615766.748,-31.250,-35.645,-36.133,-21.484,0.000
1728615766.752,-40.527,-40.527,-36.621,-53.711,0.000
1728615766.756,-16.602,-36.621,-27.344,-53.711,0.000
1728615766.760,-47.363,-35.645,-31.738,-50.781,0.000
1728615766.764,-65.430,-39.551,-39.062,-24.902,0.000
1728615766.768,-34.180,-43.457,-39.062,-6.836,0.000
1728615766.772,-30.762,-44.434,-36.621,-33.203,0.000
1728615766.776,-27.832,-50.781,-33.203,-50.781,0.000
1728615766.779,-44.434,-46.875,-37.109,-43.945,0.000
1728615766.783,-51.758,-41.504,-32.227,-26.855,0.000
1728615766.787,-25.879,-51.758,-27.344,-14.648,0.000
1728615766.791,-27.832,-31.250,-31.250,-36.133,0.000
1728615766.795,-23.438,-18.555,-34.180,-56.641,0.000
1728615766.799,-39.551,-38.086,-39.062,-59.082,0.000
1728615766.803,-49.805,-56.641,-45.410,-39.551,0.000
1728615766.807,-31.250,-55.176,-42.480,-11.719,0.000
1728615766.811,-41.504,-34.180,-37.598,-23.926,0.000
1728615766.815,-26.367,-26.367,-39.062,-49.805,0.000
1728615766.819,-25.391,-34.180,-39.551,-58.105,0.000
1728615766.822,-47.852,-26.367,-35.645,-40.039,0.000
1728615766.826,-26.367,-24.902,-32.715,-4.883,0.000
1728615766.830,-27.832,-35.645,-41.992,-31.250,0.000
1728615766.834,-27.344,-42.969,-43.945,-63.965,0.000
1728615766.838,-18.555,-51.758,-41.016,-63.965,0.000
1728615766.842,-49.805,-49.316,-40.527,-57.617,0.000
1728615766.846,-47.363,-39.551,-45.898,-34.668,0.000
1728615766.849,-29.297,-37.598,-45.898,-32.715,0.000
1728615766.853,-18.555,-22.461,-29.297,-49.805,0.000
1728615766.857,-19.043,-15.625,-33.203,-52.734,0.000
1728615766.861,-43.457,-27.344,-39.551,-41.504,0.000
1728615766.865,-28.320,-29.785,-34.668,-10.254,0.000
1728615766.869,-28.809,-40.039,-37.598,-14.160,0.000
1728615766.872,-28.809,-38.086,-39.062,-42.969,0.000
1728615766.876,-7.812,-27.344,-39.551,-52.734,0.000
1728615766.880,-41.016,-25.879,-34.180,-48.340,0.000
1728615766.884,-38.574,-26.855,-26.855,-21.484,0.000
1728615766.888,-12.207,-20.996,-23.438,-14.160,0.000
1728615766.892,-10.742,-25.879,-18.555,-32.715,0.000
1728615766.896,-1.953,-43.945,-23.926,-37.109,0.000
1728615766.900,-41.016,-48.340,-33.691,-40.527,0.000
1728615766.904,-55.664,-41.504,-35.645,-21.973,0.000
1728615766.908,-31.738,-39.551,-36.621,-1.953,0.000
1728615766.912,-38.574,-41.992,-40.039,-30.762,0.000
