timestamps,TP9,AF7,AF8,TP10,Right AUX
1728614477.232,-52.246,-40.039,-31.738,-47.852,0.000
1728614477.236,-68.848,-38.574,-34.668,-1.953,0.000
1728614477.240,-43.945,-36.621,-36.133,-8.301,0.000
1728614477.244,-14.160,-35.156,-38.574,-58.594,0.000
1728614477.248,15.137,-34.668,-42.969,-71.289,0.000
1728614477.252,-45.898,-35.156,-38.086,-60.547,0.000
1728614477.256,-62.012,-40.039,-38.574,-18.555,0.000
1728614477.260,-37.598,-40.527,-38.574,-11.230,0.000
1728614477.264,-17.578,-35.645,-38.086,-55.176,0.000
1728614477.268,11.719,-32.227,-46.875,-73.730,0.000
1728614477.271,-46.387,-37.598,-47.363,-61.523,0.000
1728614477.275,-71.289,-41.992,-42.480,-21.973,0.000
1728614477.279,-44.434,-43.457,-39.062,2.930,0.000
1728614477.283,-40.527,-47.852,-36.133,-46.875,0.000
1728614477.287,-1.465,-50.293,-40.527,-80.078,0.000
1728614477.291,-35.156,-51.270,-43.945,-62.012,0.000
1728614477.295,-82.031,-49.316,-41.016,-17.090,0.000
1728614477.299,-52.246,-57.129,-44.922,4.395,0.000
1728614477.303,-32.715,-59.570,-44.922,-36.621,0.000
1728614477.307,4.395,-50.781,-45.410,-65.430,0.000
1728614477.311,-35.156,-49.805,-48.828,-66.406,0.000
1728614477.314,-99.121,-48.828,-47.852,-31.250,0.000
1728614477.318,-64.941,-46.387,-45.410,3.906,0.000
1728614477.322,-43.945,-46.387,-43.457,-36.133,0.000
1728614477.326,-11.230,-42.969,-52.734,-61.035,0.000
1728614477.330,-28.320,-41.504,-63.965,-56.152,0.000
1728614477.334,-80.078,-44.922,-67.871,-33.691,0.000
1728614477.338,-49.316,-39.062,-62.988,6.836,0.000
1728614477.342,-28.320,-34.668,-57.129,-20.508,0.000
1728614477.346,-1.953,-35.156,-58.105,-61.523,0.000
1728614477.350,-10.742,-31.250,-52.734,-56.152,0.000
1728614477.353,-69.336,-31.738,-47.363,-34.668,0.000
1728614477.357,-48.340,-33.691,-53.223,-1.465,0.000
1728614477.361,-31.738,-38.574,-57.617,-24.414,0.000
1728614477.365,2.930,-40.039,-50.293,-66.406,0.000
1728614477.369,8.789,-38.086,-42.969,-65.430,0.000
1728614477.373,-62.012,-43.945,-52.734,-38.574,0.000
1728614477.377,-60.547,-46.875,-58.105,-0.488,0.000
1728614477.381,-35.645,-48.340,-57.129,-19.531,0.000
1728614477.385,-7.812,-38.574,-51.758,-53.223,0.000
1728614477.389,-3.418,-39.062,-50.293,-60.547,0.000
1728614477.393,-73.242,-44.434,-49.805,-43.945,0.000
1728614477.396,-63.965,-41.992,-45.898,2.441,0.000
1728614477.400,-35.645,-52.734,-43.945,-7.812,0.000
1728614477.404,-19.043,-53.711,-46.387,-57.617,0.000
1728614477.408,8.789,-44.434,-48.828,-68.359,0.000
1728614477.412,-55.664,-43.457,-49.316,-50.293,0.000
1728614477.416,-66.895,-50.781,-50.781,-17.090,0.000
1728614477.420,-39.062,-55.664,-52.734,-16.113,0.000
1728614477.424,-35.645,-54.199,-52.734,-46.387,0.000
1728614477.428,-12.207,-50.293,-51.270,-72.266,0.000
1728614477.432,-66.895,-54.199,-52.246,-77.148,0.000
1728614477.436,-69.824,-52.246,-55.176,-21.484,0.000
1728614477.439,-32.227,-44.922,-55.664,-9.277,0.000
1728614477.443,-29.785,-47.363,-56.641,-57.129,0.000
1728614477.447,1.953,-47.852,-59.082,-66.895,0.000
1728614477.451,-42.969,-51.758,-58.105,-65.430,0.000
1728614477.455,-60.547,-51.270,-61.035,-14.648,0.000
1728614477.459,-35.156,-46.387,-62.500,12.207,0.000
1728614477.463,-36.133,-43.945,-54.199,-37.109,0.000
1728614477.467,0.000,-46.387,-48.828,-58.105,0.000
1728614477.471,-38.574,-46.875,-47.363,-47.852,0.000
1728614477.475,-65.430,-41.992,-42.969,-2.930,0.000
1728614477.479,-24.902,-35.156,-39.062,16.602,0.000
1728614477.482,-14.160,-32.227,-45.898,-39.551,0.000
1728614477.486,11.719,-37.598,-49.805,-71.289,0.000
1728614477.490,-15.625,-41.992,-45.410,-63.965,0.000
1728614477.494,-65.918,-40.527,-45.898,-32.227,0.000
1728614477.498,-44.434,-41.504,-44.434,-2.441,0.000
1728614477.502,-37.598,-36.621,-39.062,-25.879,0.000
1728614477.506,-6.836,-27.832,-35.156,-60.059,0.000
1728614477.510,-22.949,-29.785,-34.668,-62.012,0.000
1728614477.514,-77.637,-34.668,-37.598,-34.668,0.000
1728614477.518,-49.316,-35.645,-43.945,-0.488,0.000
1728614477.521,-30.273,-41.992,-45.898,-33.691,0.000
1728614477.525,-4.395,-44.434,-44.922,-73.242,0.000
1728614477.529,-18.066,-47.363,-42.969,-74.707,0.000
1728614477.533,-70.801,-60.547,-46.387,-57.129,0.000
1728614477.537,-61.035,-66.895,-52.734,-17.090,0.000
1728614477.541,-44.922,-58.594,-54.199,-32.715,0.000
1728614477.545,-1.953,-48.340,-46.875,-66.406,0.000
1728614477.549,-3.906,-41.992,-42.480,-67.871,0.000
1728614477.553,-63.477,-42.480,-44.922,-41.504,0.000
1728614477.557,-45.410,-39.062,-42.969,-0.977,0.000
1728614477.561,-43.945,-40.039,-47.363,-15.625,0.000
1728614477.564,-21.484,-41.992,-45.410,-54.688,0.000
1728614477.568,3.418,-45.898,-41.504,-60.059,0.000
1728614477.572,-69.336,-49.316,-43.945,-46.387,0.000
1728614477.576,-75.195,-42.969,-43.457,1.465,0.000
1728614477.580,-46.387,-43.457,-43.457,-9.766,0.000
1728614477.584,-18.555,-43.457,-49.316,-58.594,0.000
1728614477.588,5.859,-38.086,-47.852,-61.035,0.000
1728614477.592,-57.617,-34.668,-44.434,-41.016,0.000
1728614477.596,-51.270,-36.133,-44.922,1.465,0.000
1728614477.600,-11.719,-40.039,-38.574,0.977,0.000
1728614477.603,-0.488,-38.574,-40.527,-50.293,0.000
1728614477.607,9.277,-41.016,-44.434,-69.336,0.000
1728614477.611,-45.410,-40.527,-41.016,-43.457,0.000
1728614477.615,-56.152,-31.738,-38.574,1.953,0.000
1728614477.619,-29.785,-40.039,-36.621,1.953,0.000
1728614477.623,-21.973,-47.852,-36.621,-42.969,0.000
1728614477.627,0.488,-41.016,-38.574,-62.500,0.000
1728614477.631,-51.270,-38.086,-39.062,-55.664,0.000
1728614477.635,-72.754,-39.062,-36.621,-11.230,0.000
1728614477.639,-34.668,-44.434,-39.551,0.488,0.000
1728614477.643,-17.578,-51.270,-42.969,-43.457,0.000
1728614477.646,-0.977,-49.316,-47.852,-57.617,0.000
1728614477.650,-69.336,-43.945,-44.922,-47.852,0.000
1728614477.654,-82.520,-36.621,-37.109,-12.695,0.000
1728614477.658,-32.227,-41.504,-39.551,17.578,0.000
1728614477.662,-37.598,-50.293,-38.574,-27.832,0.000
1728614477.666,-2.930,-44.434,-36.621,-63.965,0.000
1728614477.670,-26.367,-43.945,-33.203,-58.594,0.000
1728614477.674,-79.590,-49.316,-36.621,-33.203,0.000
1728614477.678,-66.406,-52.246,-41.992,-1.465,0.000
1728614477.682,-55.176,-58.594,-46.387,-29.297,0.000
1728614477.686,-4.883,-56.641,-49.316,-65.430,0.000
1728614477.689,-24.902,-50.293,-45.898,-60.547,0.000
1728614477.693,-86.914,-50.781,-44.434,-26.855,0.000
1728614477.697,-55.664,-55.664,-41.992,7.812,0.000
1728614477.701,-33.203,-56.152,-41.504,-15.137,0.000
1728614477.705,5.371,-57.617,-39.551,-51.270,0.000
1728614477.709,-12.695,-57.617,-35.156,-56.152,0.000
1728614477.713,-67.871,-47.852,-34.180,-27.832,0.000
1728614477.717,-31.250,-43.457,-36.133,5.859,0.000
1728614477.721,-14.648,-43.457,-35.645,-30.273,0.000
1728614477.725,13.672,-35.645,-33.691,-61.035,0.000
1728614477.728,1.953,-26.367,-42.480,-54.199,0.000
1728614477.732,-63.965,-29.785,-50.781,-31.250,0.000
1728614477.736,-48.828,-32.227,-45.898,15.625,0.000
1728614477.740,-34.668,-29.785,-41.016,-14.160,0.000
1728614477.744,-16.113,-34.668,-39.062,-63.965,0.000
1728614477.748,-11.230,-30.273,-38.086,-60.059,0.000
1728614477.752,-63.965,-21.484,-41.504,-45.898,0.000
1728614477.756,-40.527,-25.879,-41.504,-7.812,0.000
1728614477.760,-5.371,-26.855,-40.527,-10.254,0.000
1728614477.764,-1.465,-24.902,-46.387,-61.523,0.000
1728614477.768,0.977,-29.785,-46.875,-65.430,0.000
1728614477.771,-65.430,-36.621,-45.410,-44.922,0.000
1728614477.775,-67.871,-37.598,-46.875,-11.230,0.000
1728614477.779,-37.598,-32.227,-38.086,-7.812,0.000
1728614477.783,-28.809,-34.668,-34.668,-48.828,0.000
1728614477.787,-14.648,-35.156,-36.621,-63.965,0.000
1728614477.791,-71.289,-33.691,-39.551,-62.012,0.000
1728614477.795,-83.008,-39.551,0.000,-18.066,0.000
1728614477.799,-50.293,-40.039,0.000,-7.812,0.000
1728614477.803,-22.461,-31.738,0.000,-58.594,0.000
1728614477.807,13.184,-31.250,0.000,-76.172,0.000
1728614477.811,-66.406,-42.969,0.000,-63.965,0.000
1728614477.814,-110.840,-46.387,0.000,-24.902,0.000
1728614477.818,-69.824,-42.969,0.000,-11.230,0.000
1728614477.822,-47.852,-42.969,0.000,-57.129,0.000
1728614477.826,-8.301,-39.551,0.000,-83.984,0.000
1728614477.830,-53.711,-40.527,0.000,-73.242,0.000
1728614477.834,-96.680,-40.527,0.000,-31.250,0.000
1728614477.838,-68.359,-41.016,0.000,-4.395,0.000
1728614477.842,-59.082,-45.410,-48.340,-44.922,0.000
1728614477.846,-17.090,-48.828,-48.828,-73.242,0.000
1728614477.850,-40.039,-49.316,-46.875,-61.035,0.000
1728614477.853,-78.613,-45.410,-42.480,-15.625,0.000
1728614477.857,-46.875,-40.527,-43.457,11.719,0.000
1728614477.861,-27.832,-36.621,-41.992,-30.273,0.000
1728614477.865,10.254,-37.598,-44.434,-63.965,0.000
1728614477.869,-22.949,-36.133,-48.340,-58.105,0.000
1728614477.873,-80.078,-36.621,-41.992,-19.531,0.000
1728614477.877,-50.781,-35.645,-43.945,9.277,0.000
1728614477.881,-40.039,-30.273,-50.293,-35.156,0.000
1728614477.885,11.719,-24.414,-46.875,-62.500,0.000
1728614477.889,0.977,-26.855,-51.758,-62.500,0.000
1728614477.893,-69.336,-20.996,-50.293,-31.738,0.000
1728614477.896,-34.668,-6.836,-38.574,25.879,0.000
1728614477.900,-20.996,-15.137,-42.480,-12.695,0.000
1728614477.904,0.977,-24.414,-47.363,-62.988,0.000
1728614477.908,-12.695,-14.648,-42.480,-54.199,0.000
1728614477.912,-72.754,-19.043,-42.480,-36.133,0.000
1728614477.916,-50.293,-32.715,-44.434,1.953,0.000
1728614477.920,-27.832,-37.598,-38.574,-14.648,0.000
1728614477.924,10.254,-33.203,-36.621,-59.570,0.000
1728614477.928,14.648,-34.180,-37.109,-66.406,0.000
1728614477.932,-62.988,-40.527,-37.598,-46.387,0.000
1728614477.936,-62.500,-44.434,-39.551,3.906,0.000
1728614477.939,-48.340,-44.922,-43.945,-11.230,0.000
1728614477.943,-30.762,-45.410,-48.828,-69.336,0.000
1728614477.947,-3.418,-41.016,-47.363,-74.707,0.000
1728614477.951,-58.105,-38.574,-46.875,-48.340,0.000
1728614477.955,-63.477,-39.551,-43.945,-7.812,0.000
1728614477.959,-40.039,-42.480,-41.992,-21.484,0.000
1728614477.963,-35.156,-47.363,-47.852,-69.824,0.000
1728614477.967,-29.297,-51.758,-49.316,-82.031,0.000
1728614477.971,-84.473,-52.734,-47.852,-63.477,0.000
1728614477.975,-86.914,-56.152,-49.316,-15.137,0.000
1728614477.978,-49.805,-60.547,-52.246,-4.395,0.000
1728614477.982,-32.227,-58.105,-49.316,-49.805,0.000
1728614477.986,1.953,-50.293,-44.434,-67.871,0.000
1728614477.990,-52.246,-53.223,-43.945,-57.617,0.000
1728614477.994,-80.566,-59.082,-43.945,-13.184,0.000
1728614477.998,-39.062,-47.852,-41.504,6.348,0.000
1728614478.002,-39.551,-38.574,-43.945,-44.922,0.000
1728614478.006,-21.973,-45.410,-47.852,-72.266,0.000
1728614478.010,-44.922,-49.805,-46.875,-54.688,0.000
1728614478.014,-69.824,-40.527,-48.828,-20.508,0.000
1728614478.018,-40.039,-34.180,-53.711,1.465,0.000
1728614478.021,-35.645,-37.598,-51.758,-30.762,0.000
1728614478.025,1.953,-38.574,-50.781,-70.801,0.000
1728614478.029,-21.484,-35.645,-54.688,-65.430,0.000
1728614478.033,-71.777,-35.645,-54.688,-25.879,0.000
1728614478.037,-41.992,-36.133,-46.875,8.301,0.000
1728614478.041,-25.879,-39.551,-50.293,-28.809,0.000
1728614478.045,0.000,-38.086,-55.664,-66.406,0.000
1728614478.049,-15.625,-31.250,-48.828,-51.758,0.000
1728614478.053,-52.734,-26.367,-46.387,-15.137,0.000
1728614478.057,-32.227,-31.250,-51.270,15.137,0.000
1728614478.061,-16.602,-32.227,-52.246,-17.578,0.000
1728614478.064,11.719,-26.855,-43.945,-53.223,0.000
1728614478.068,-8.301,-25.879,-38.574,-49.316,0.000
1728614478.072,-60.547,-15.137,-34.180,-17.090,0.000
1728614478.076,-27.832,-6.348,-14.160,36.133,0.000
1728614478.080,-17.090,-12.207,-14.648,8.789,0.000
1728614478.084,3.906,-17.578,-30.762,-55.176,0.000
1728614478.088,-17.090,-19.531,-21.484,-74.707,0.000
1728614478.092,-96.191,-17.090,-13.184,-66.895,0.000
1728614478.096,-78.125,-14.648,-4.883,-20.020,0.000
1728614478.100,-78.613,-17.578,21.973,-39.062,0.000
1728614478.103,-74.219,-20.020,32.715,-105.957,0.000
1728614478.107,-71.777,-10.742,28.320,-132.812,0.000
1728614478.111,-157.715,-13.672,27.832,-144.531,0.000
1728614478.115,-173.340,-20.020,31.250,-127.441,0.000
1728614478.119,-159.668,-18.555,35.156,-145.996,0.000
1728614478.123,-154.297,-16.602,34.668,-204.590,0.000
1728614478.127,-163.574,-15.625,30.273,-225.098,0.000
1728614478.131,-242.676,-7.812,21.973,-213.867,0.000
1728614478.135,-244.141,0.000,12.695,-181.152,0.000
1728614478.139,-203.613,6.836,7.324,-189.453,0.000
1728614478.143,-197.754,9.766,8.301,-232.422,0.000
1728614478.146,-203.125,-10.254,6.348,-237.793,0.000
1728614478.150,-240.723,-27.832,3.906,-220.215,0.000
1728614478.154,-220.215,-18.066,9.766,-172.852,0.000
1728614478.158,-194.336,-19.043,11.230,-149.902,0.000
1728614478.162,-177.246,-20.996,4.883,-188.965,0.000
1728614478.166,-135.254,-26.855,-8.301,-197.754,0.000
1728614478.170,-165.039,-51.758,-27.832,-170.898,0.000
1728614478.174,-177.246,-49.316,-38.574,-113.770,0.000
1728614478.178,-130.859,-37.598,-37.109,-83.008,0.000
1728614478.182,-90.332,-42.480,-39.062,-115.234,0.000
1728614478.186,-43.945,-49.805,-41.992,-120.117,0.000
1728614478.189,-83.008,-64.941,-45.410,-92.773,0.000
1728614478.193,-97.168,-72.266,-47.852,-35.645,0.000
1728614478.197,-43.457,-68.359,-52.246,-7.324,0.000
1728614478.201,-17.090,-75.684,-56.152,-45.898,0.000
1728614478.205,35.156,-78.125,-60.547,-50.781,0.000
1728614478.209,-21.973,-72.754,-68.359,-40.527,0.000
1728614478.213,-69.824,-70.801,-66.895,1.953,0.000
1728614478.217,-14.160,-69.824,-65.430,47.363,0.000
1728614478.221,0.000,-75.195,-72.754,7.324,0.000
1728614478.225,50.781,-77.637,-72.754,-21.484,0.000
1728614478.228,39.062,-80.078,-72.266,-5.371,0.000
1728614478.232,-33.203,-84.961,-77.637,26.855,0.000
1728614478.236,-7.812,-85.938,-78.125,57.129,0.000
1728614478.240,24.414,-80.078,-76.172,31.738,0.000
1728614478.244,57.129,-77.637,-76.660,0.000,0.000
1728614478.248,47.363,-94.727,-79.102,5.859,0.000
1728614478.252,-4.883,-85.938,-78.613,46.387,0.000
1728614478.256,9.766,-69.824,-78.125,87.402,0.000
1728614478.260,30.762,-76.660,-79.102,45.898,0.000
1728614478.264,62.012,-80.078,-80.078,7.324,0.000
1728614478.268,48.340,-79.102,-83.496,14.160,0.000
1728614478.271,-5.859,-70.801,-85.938,31.250,0.000
1728614478.275,16.602,-67.383,-84.961,63.477,0.000
1728614478.279,37.598,-69.336,-87.402,47.852,0.000
1728614478.283,51.758,-70.312,-82.031,14.648,0.000
1728614478.287,48.828,-66.895,-72.266,6.836,0.000
1728614478.291,-3.418,-69.336,-65.918,19.043,0.000
1728614478.295,17.090,-76.660,-68.848,61.035,0.000
1728614478.299,44.922,-76.172,-69.824,57.129,0.000
1728614478.303,56.641,-75.195,-65.430,12.695,0.000
1728614478.307,48.828,-78.613,-64.453,-4.395,0.000
1728614478.311,-27.832,-80.078,-63.965,4.395,0.000
1728614478.314,-26.367,-82.031,-67.383,35.645,0.000
1728614478.318,5.371,-83.496,-71.777,27.832,0.000
1728614478.322,32.227,-78.613,-70.801,-1.953,0.000
1728614478.326,59.570,-75.684,-65.430,-16.602,0.000
1728614478.330,1.953,-66.895,-63.965,-4.395,0.000
1728614478.334,-15.137,-60.547,-59.082,52.246,0.000
1728614478.338,11.719,-62.500,-60.547,44.434,0.000
1728614478.342,28.320,-56.152,-64.453,-6.348,0.000
1728614478.346,58.594,-47.852,-62.500,-15.137,0.000
1728614478.350,9.766,-50.781,-62.500,-6.836,0.000
1728614478.353,-7.812,-51.758,-55.176,32.227,0.000
1728614478.357,24.902,-47.852,-51.270,51.758,0.000
1728614478.361,31.738,-51.758,-54.688,-3.906,0.000
1728614478.365,58.105,-53.223,-59.570,-34.180,0.000
1728614478.369,8.789,-40.527,-58.105,-19.043,0.000
1728614478.373,-32.227,-41.992,-54.688,14.160,0.000
1728614478.377,-4.395,-46.875,-56.641,36.621,0.000
1728614478.381,7.324,-42.969,-56.641,-8.789,0.000
1728614478.385,28.320,-42.480,-49.316,-32.715,0.000
1728614478.389,-4.395,-39.062,-45.898,-18.066,0.000
1728614478.393,-31.250,-36.621,-50.293,11.719,0.000
1728614478.396,0.488,-33.203,-47.363,29.297,0.000
1728614478.400,-5.859,-29.785,-43.945,-5.859,0.000
1728614478.404,16.602,-34.180,-48.340,-33.203,0.000
1728614478.408,0.977,-38.574,-43.945,-28.809,0.000
1728614478.412,-53.223,-35.156,-41.016,2.441,0.000
1728614478.416,-26.855,-34.668,-44.434,28.809,0.000
1728614478.420,-5.859,-36.621,-44.922,-7.324,0.000
1728614478.424,18.555,-39.062,-49.316,-48.828,0.000
1728614478.428,-8.789,-48.828,-50.781,-48.828,0.000
1728614478.432,-58.594,-61.523,-50.293,-20.996,0.000
1728614478.435,-36.621,-69.336,-49.805,12.695,0.000
1728614478.439,-22.949,-68.359,-48.828,-12.207,0.000
1728614478.443,6.348,-71.777,-50.293,-55.664,0.000
1728614478.447,-1.953,-71.289,-56.152,-65.430,0.000
1728614478.451,-58.594,-60.059,-57.129,-40.527,0.000
1728614478.455,-41.992,-51.270,-52.246,0.977,0.000
1728614478.459,-15.625,-46.875,-51.270,-19.531,0.000
1728614478.463,8.789,-46.875,-52.734,-58.105,0.000
1728614478.467,-3.906,-48.828,-51.758,-58.594,0.000
1728614478.471,-67.871,-57.617,-57.129,-41.016,0.000
1728614478.475,-50.781,-58.105,-57.617,5.859,0.000
1728614478.478,-31.738,-49.316,-49.805,-2.441,0.000
1728614478.482,-17.578,-52.734,-48.340,-49.316,0.000
1728614478.486,4.883,-54.688,-51.758,-51.270,0.000
1728614478.490,-49.316,-43.457,-47.363,-36.621,0.000
1728614478.494,-47.852,-43.945,-42.969,1.465,0.000
1728614478.498,-23.438,-56.641,-50.293,3.418,0.000
1728614478.502,-6.836,-50.781,-51.270,-39.551,0.000
1728614478.506,8.789,-41.016,-48.828,-51.270,0.000
1728614478.510,-54.688,-40.527,-46.875,-38.086,0.000
1728614478.514,-55.664,-41.016,-40.527,8.301,0.000
1728614478.518,-30.762,-45.410,-37.598,17.090,0.000
1728614478.521,-24.414,-40.039,-37.109,-40.039,0.000
1728614478.525,2.930,-31.738,-33.691,-55.176,0.000
1728614478.529,-43.945,-37.109,-33.203,-43.945,0.000
1728614478.533,-63.477,-47.363,-40.527,-1.953,0.000
1728614478.537,-50.781,-47.363,-45.410,11.230,0.000
1728614478.541,-33.203,-46.387,-40.039,-43.945,0.000
1728614478.545,11.230,-42.969,-29.297,-53.223,0.000
1728614478.549,-51.758,-48.828,-28.320,-37.598,0.000
1728614478.553,-92.285,-52.246,-35.645,-0.977,0.000
1728614478.557,-58.105,-50.781,-34.668,25.879,0.000
1728614478.561,-52.246,-47.363,-36.621,-11.230,0.000
1728614478.564,-21.973,-47.852,-38.086,-36.133,0.000
1728614478.568,-41.992,-48.828,-34.668,-46.387,0.000
1728614478.572,-57.129,-44.434,-31.738,-20.020,0.000
1728614478.576,-27.832,-42.969,-34.180,7.324,0.000
1728614478.580,-29.297,-51.270,-41.504,-35.645,0.000
1728614478.584,0.977,-53.711,-38.574,-74.707,0.000
1728614478.588,-32.227,-50.781,-34.180,-74.707,0.000
1728614478.592,-85.449,-54.688,-38.574,-37.598,0.000
1728614478.596,-53.223,-64.453,-47.363,-9.277,0.000
1728614478.600,-47.852,-74.219,-43.945,-49.316,0.000
1728614478.603,-21.484,-78.125,-41.016,-81.543,0.000
1728614478.607,-42.969,-71.289,-45.898,-78.125,0.000
1728614478.611,-107.422,-70.312,-41.504,-49.316,0.000
1728614478.615,-73.730,-73.242,-39.551,-2.930,0.000
1728614478.619,-66.406,-82.031,-42.969,-43.457,0.000
1728614478.623,-48.828,-85.449,-45.898,-86.914,0.000
1728614478.627,-53.223,-76.172,-45.410,-79.590,0.000
1728614478.631,-112.305,-74.219,-47.363,-61.035,0.000
1728614478.635,-93.262,-79.590,-45.898,-15.137,0.000
1728614478.639,-57.617,-78.613,-41.992,-32.227,0.000
1728614478.643,-20.020,-68.359,-46.387,-75.684,0.000
1728614478.646,-23.438,-68.359,-41.504,-66.895,0.000
1728614478.650,-80.078,-68.848,-42.480,-36.133,0.000
1728614478.654,-57.129,-63.477,-53.711,4.883,0.000
1728614478.658,-40.527,-56.641,-52.246,-8.789,0.000
1728614478.662,-20.020,-53.711,-45.898,-56.641,0.000
1728614478.666,-0.488,-43.457,-42.969,-60.547,0.000
1728614478.670,-55.664,-32.715,-44.434,-38.086,0.000
1728614478.674,-54.199,-30.273,-44.434,8.301,0.000
1728614478.678,-25.391,-29.297,-32.227,0.977,0.000
1728614478.682,0.000,-38.574,-32.227,-48.340,0.000
1728614478.686,5.371,-48.340,-39.062,-58.594,0.000
1728614478.689,-53.711,-47.852,-37.598,-47.852,0.000
1728614478.693,-52.246,-40.527,-35.645,-8.301,0.000
1728614478.697,-22.461,-41.504,-38.574,-3.418,0.000
1728614478.701,-11.719,-43.945,-40.527,-47.852,0.000
1728614478.705,-3.418,-43.945,-41.016,-54.688,0.000
1728614478.709,-61.523,-39.062,-42.969,-41.016,0.000
1728614478.713,-74.707,-30.762,-41.992,6.348,0.000
1728614478.717,-41.504,-34.180,-41.016,13.672,0.000
1728614478.721,-23.926,-44.922,-45.410,-44.922,0.000
1728614478.725,-12.207,-48.340,-45.410,-59.082,0.000
1728614478.728,-60.547,-50.293,-39.062,-38.574,0.000
1728614478.732,-74.219,-49.316,-40.527,-7.324,0.000
1728614478.736,-36.133,-40.527,-39.551,10.742,0.000
1728614478.740,-24.902,-40.039,-37.109,-36.133,0.000
1728614478.744,11.719,-48.340,-41.016,-66.895,0.000
1728614478.748,-28.320,-54.199,-44.434,-65.918,0.000
1728614478.752,-74.707,-46.875,-46.387,-35.156,0.000
1728614478.756,-36.133,-47.363,-47.363,-10.254,0.000
1728614478.760,-32.715,-52.734,-48.340,-52.734,0.000
1728614478.764,-23.438,-51.270,-49.316,-80.566,0.000
1728614478.768,-46.875,-53.223,-51.270,-78.125,0.000
1728614478.771,-86.426,-53.711,-43.945,-41.992,0.000
1728614478.775,-62.012,-59.082,-37.598,-2.441,0.000
1728614478.779,-48.340,-61.035,-41.504,-38.574,0.000
1728614478.783,-16.602,-56.641,-42.969,-77.148,0.000
1728614478.787,-31.738,-59.082,-45.898,-75.684,0.000
1728614478.791,-79.590,-59.082,-51.758,-43.457,0.000
1728614478.795,-62.012,-62.988,-55.176,-3.418,0.000
1728614478.799,-49.316,-55.664,-57.617,-21.484,0.000
1728614478.803,-8.789,-37.598,-56.641,-56.152,0.000
1728614478.807,-13.672,-32.227,-50.293,-61.523,0.000
1728614478.810,-66.895,-28.320,-46.875,-40.527,0.000
1728614478.814,-50.781,-26.367,-48.340,3.906,0.000
1728614478.818,-36.133,-27.344,-45.410,-12.695,0.000
1728614478.822,16.113,-25.391,-44.922,-47.852,0.000
1728614478.826,27.344,-25.879,-46.875,-49.805,0.000
1728614478.830,-47.852,-36.133,-43.457,-31.250,0.000
1728614478.834,-35.645,-38.574,-41.992,17.578,0.000
1728614478.838,-22.461,-29.297,-47.852,7.812,0.000
1728614478.842,-23.438,-28.809,-45.898,-42.480,0.000
1728614478.846,-7.812,-29.297,-35.645,-47.363,0.000
1728614478.850,-55.664,-28.809,-36.621,-30.273,0.000
1728614478.853,-51.758,-20.020,-43.457,7.324,0.000
1728614478.857,-30.762,-12.207,-45.898,-9.277,0.000
1728614478.861,-18.066,-19.531,-43.457,-56.152,0.000
1728614478.865,7.812,-26.367,-43.457,-63.965,0.000
1728614478.869,-47.852,-25.879,-42.969,-52.734,0.000
1728614478.873,-62.500,-25.391,-41.504,-3.418,0.000
1728614478.877,-42.969,-28.809,-41.016,0.488,0.000
1728614478.881,-27.344,-31.250,-42.480,-50.293,0.000
1728614478.885,-3.418,-31.250,-44.922,-58.105,0.000
1728614478.889,-56.152,-26.855,-42.969,-46.387,0.000
1728614478.893,-71.777,-23.926,-37.109,-11.230,0.000
1728614478.896,-56.152,-38.574,-45.410,-2.930,0.000
1728614478.900,-40.527,-55.176,-53.223,-67.383,0.000
1728614478.904,-10.254,-50.293,-52.734,-88.867,0.000
1728614478.908,-69.824,-50.293,-52.246,-65.430,0.000
1728614478.912,-78.613,-49.805,-52.734,-26.855,0.000
1728614478.916,-43.945,-45.898,-54.199,-12.207,0.000
1728614478.920,-54.688,-49.805,-56.152,-61.523,0.000
1728614478.924,-38.574,-49.805,-54.199,-76.660,0.000
1728614478.928,-76.660,-53.711,-54.688,-68.848,0.000
1728614478.932,-91.309,-64.941,-62.012,-41.992,0.000
1728614478.935,-48.340,-68.359,-66.895,-14.648,0.000
1728614478.939,-33.691,-60.059,-64.941,-50.293,0.000
1728614478.943,-4.883,-51.270,-56.641,-70.312,0.000
1728614478.947,-40.527,-43.945,-49.805,-62.012,0.000
1728614478.951,-61.035,-37.598,-47.363,-26.855,0.000
1728614478.955,-26.367,-41.016,-40.527,21.973,0.000
1728614478.959,-38.574,-32.715,-39.551,-6.836,0.000
1728614478.963,1.465,-29.785,-46.387,-50.781,0.000
1728614478.967,-2.930,-35.156,-43.457,-39.551,0.000
1728614478.971,-56.152,-25.879,-40.039,-12.207,0.000
1728614478.975,-25.879,-20.508,-44.434,13.184,0.000
1728614478.978,-2.930,-26.367,-45.410,-16.113,0.000
1728614478.982,21.973,-26.367,-38.574,-49.316,0.000
1728614478.986,-0.488,-21.973,-35.645,-44.922,0.000
1728614478.990,-59.570,-21.973,-36.621,-26.367,0.000
1728614478.994,-26.367,-25.391,-37.598,8.301,0.000
1728614478.998,-9.277,-33.203,-38.574,0.488,0.000
1728614479.002,4.395,-33.203,-40.039,-42.969,0.000
1728614479.006,-7.324,-34.668,-45.410,-59.570,0.000
1728614479.010,-68.848,-39.062,-46.875,-36.133,0.000
1728614479.014,-43.457,-38.086,-42.969,2.930,0.000
1728614479.018,-21.973,-38.574,-43.945,-15.625,0.000
1728614479.021,0.000,-41.992,-45.898,-48.828,0.000
1728614479.025,2.930,-36.621,-43.457,-46.387,0.000
1728614479.029,-67.383,-31.738,-45.410,-36.621,0.000
1728614479.033,-57.129,-36.621,-44.922,14.648,0.000
1728614479.037,-32.227,-39.062,-47.852,-4.395,0.000
1728614479.041,-20.020,-43.945,-53.711,-66.406,0.000
1728614479.045,-3.906,-43.945,-49.805,-78.125,0.000
1728614479.049,-62.988,-38.086,-49.316,-66.895,0.000
1728614479.053,-71.777,-49.316,-52.246,-19.043,0.000
1728614479.057,-49.316,-62.988,-56.641,-25.879,0.000
1728614479.061,-32.227,-57.617,-60.547,-80.078,0.000
1728614479.064,-15.137,-59.082,-52.734,-83.496,0.000
1728614479.068,-65.430,-63.477,-53.223,-61.035,0.000
1728614479.072,-73.730,-63.477,-58.594,-23.438,0.000
1728614479.076,-46.875,-63.477,-59.570,-27.344,0.000
1728614479.080,-28.809,-64.453,-62.500,-67.871,0.000
1728614479.084,-9.277,-65.918,-62.012,-77.148,0.000
1728614479.088,-76.172,-70.801,-62.500,-78.613,0.000
1728614479.092,-94.238,-70.312,-59.570,-41.504,0.000
1728614479.096,-58.105,-62.500,-55.664,-21.484,0.000
1728614479.100,-56.641,-56.641,-56.641,-64.941,0.000
1728614479.103,-16.113,-55.176,-61.035,-83.008,0.000
1728614479.107,-50.781,-49.805,-54.199,-72.266,0.000
1728614479.111,-82.520,-47.363,-49.316,-26.367,0.000
1728614479.115,-38.086,-57.617,-56.152,-4.883,0.000
1728614479.119,-31.250,-57.129,-57.129,-46.875,0.000
1728614479.123,-0.977,-49.805,-53.223,-69.336,0.000
1728614479.127,-24.902,-47.363,-50.781,-62.988,0.000
1728614479.131,-73.730,-46.875,-52.246,-32.227,0.000
1728614479.135,-47.852,-46.875,-52.246,-4.883,0.000
1728614479.139,-28.320,-44.434,-46.875,-39.062,0.000
1728614479.143,-0.977,-46.875,-43.945,-74.219,0.000
1728614479.146,-26.367,-44.922,-43.457,-64.941,0.000
1728614479.150,-57.617,-41.016,-43.945,-26.367,0.000
1728614479.154,-38.574,-42.969,-45.410,-4.395,0.000
1728614479.158,-40.527,-48.828,-41.504,-44.434,0.000
1728614479.162,-1.953,-46.875,-44.434,-71.777,0.000
1728614479.166,-25.391,-46.875,-49.805,-68.848,0.000
1728614479.170,-84.473,-49.316,-52.246,-48.340,0.000
1728614479.174,-50.293,-53.223,-57.617,-9.766,0.000
1728614479.178,-40.527,-53.223,-57.129,-35.156,0.000
1728614479.182,-24.902,-45.898,-53.223,-68.359,0.000
1728614479.185,-26.855,-52.734,-49.316,-62.500,0.000
1728614479.189,-81.543,-61.035,-47.363,-44.922,0.000
1728614479.193,-65.918,-55.664,-48.828,-7.324,0.000
1728614479.197,-41.504,-58.594,-51.270,-32.227,0.000
1728614479.201,-24.902,-64.453,-56.152,-79.102,0.000
1728614479.205,-18.555,-64.453,-57.129,-78.125,0.000
1728614479.209,-75.195,-60.547,-55.176,-68.848,0.000
1728614479.213,-74.219,-56.641,-59.570,-28.320,0.000
1728614479.217,-49.316,-61.523,-58.105,-22.949,0.000
1728614479.221,-33.691,-64.941,-57.129,-83.984,0.000
1728614479.225,-23.926,-61.035,-57.617,-89.355,0.000
1728614479.228,-86.914,-57.617,-54.688,-70.312,0.000
1728614479.232,-96.191,-60.059,-51.758,-31.250,0.000
1728614479.236,-61.523,-65.918,-48.828,-20.996,0.000
1728614479.240,-37.598,-63.477,-53.711,-69.824,0.000
1728614479.244,-29.785,-66.895,-58.594,-86.914,0.000
1728614479.248,-80.566,-68.359,-58.105,-74.707,0.000
1728614479.252,-77.148,-61.035,-54.199,-25.879,0.000
1728614479.256,-45.898,-59.082,-53.223,-18.555,0.000
1728614479.260,-46.387,-62.012,-53.711,-63.477,0.000
1728614479.264,-29.785,-66.895,-57.129,-67.383,0.000
1728614479.268,-67.871,-60.059,-59.570,-52.246,0.000
1728614479.271,-67.383,-54.199,-58.594,-18.555,0.000
1728614479.275,-25.391,-49.316,-52.246,6.836,0.000
1728614479.279,-21.973,-45.410,-48.828,-37.109,0.000
1728614479.283,-4.395,-46.875,-49.316,-67.383,0.000
1728614479.287,-49.316,-41.504,-51.758,-55.176,0.000
1728614479.291,-78.613,-35.156,-52.734,-30.273,0.000
1728614479.295,-33.691,-38.086,-47.852,-9.277,0.000
1728614479.299,-22.949,-42.969,-51.758,-41.016,0.000
1728614479.303,-12.695,-44.434,-54.688,-65.918,0.000
1728614479.307,-45.410,-41.504,-49.316,-54.199,0.000
1728614479.310,-87.402,-34.180,-47.852,-22.461,0.000
1728614479.314,-48.828,-45.410,-52.734,0.000,0.000
1728614479.318,-22.949,-55.176,-56.641,-29.297,0.000
1728614479.322,5.371,-45.898,-54.688,-66.895,0.000
1728614479.326,-13.672,-36.621,-55.664,-57.129,0.000
1728614479.330,-64.941,-36.133,-55.664,-23.438,0.000
1728614479.334,-45.898,-45.898,-53.711,-0.488,0.000
1728614479.338,-42.480,-54.688,-54.199,-30.273,0.000
1728614479.342,-13.184,-51.758,-55.664,-61.523,0.000
1728614479.346,-6.348,-46.875,-52.246,-59.570,0.000
1728614479.350,-55.176,-46.387,-53.711,-30.762,0.000
1728614479.353,-55.176,-53.223,-57.129,0.488,0.000
1728614479.357,-51.270,-56.152,-53.711,-33.691,0.000
1728614479.361,-13.672,-56.152,-49.805,-80.566,0.000
1728614479.365,-10.254,-52.246,-47.852,-83.496,0.000
1728614479.369,-77.637,-55.664,-49.316,-41.016,0.000
1728614479.373,-49.316,-59.570,-53.223,-4.395,0.000
1728614479.377,-44.922,-59.082,-53.223,-31.250,0.000
1728614479.381,-43.945,-55.664,-50.293,-67.871,0.000
1728614479.385,-25.391,-59.082,-53.711,-61.523,0.000
1728614479.389,-79.102,-73.242,-58.594,-40.527,0.000
1728614479.393,-66.406,-69.824,-55.176,-5.859,0.000
1728614479.396,-45.898,-61.035,-51.270,-5.859,0.000
1728614479.400,-21.484,-56.152,-50.781,-40.527,0.000
1728614479.404,-3.906,-49.805,-52.246,-55.176,0.000
1728614479.408,-61.523,-50.781,-53.711,-47.852,0.000
1728614479.412,-46.387,-50.293,-53.223,-4.395,0.000
1728614479.416,-27.344,-55.664,-50.781,1.465,0.000
1728614479.420,-19.043,-70.312,-50.781,-44.922,0.000
1728614479.424,17.578,-41.016,-51.270,-67.871,0.000
1728614479.428,-32.227,-4.395,-51.758,-44.434,0.000
1728614479.432,-41.504,1.953,-43.945,10.254,0.000
1728614479.436,-1.953,-1.465,-35.645,18.555,0.000
1728614479.439,-2.930,0.000,-32.715,-34.668,0.000
1728614479.443,15.137,-0.977,-34.180,-53.223,0.000
1728614479.447,-11.719,0.000,-34.180,-39.062,0.000
1728614479.451,-28.320,-4.883,-32.715,-8.301,0.000
1728614479.455,-19.043,-13.184,-35.645,5.859,0.000
1728614479.459,-23.438,-12.695,-38.574,-29.785,0.000
1728614479.463,9.277,-10.742,-39.062,-50.781,0.000
1728614479.467,-41.016,-19.043,-40.527,-40.527,0.000
1728614479.471,-77.148,-24.902,-42.969,-20.996,0.000
1728614479.475,-38.086,-24.414,-45.410,-0.488,0.000
1728614479.478,-35.645,-20.996,-51.758,-32.715,0.000
1728614479.482,-2.930,-19.531,-49.805,-62.500,0.000
1728614479.486,-28.320,-25.879,-48.340,-56.641,0.000
1728614479.490,-75.195,-30.273,-57.617,-29.785,0.000
1728614479.494,-39.062,-36.621,-57.617,-4.395,0.000
1728614479.498,-19.043,-39.062,-50.293,-37.109,0.000
1728614479.502,8.789,-35.156,-55.176,-76.660,0.000
1728614479.506,-14.160,-39.551,-58.105,-71.777,0.000
1728614479.510,-66.406,-36.133,-51.758,-25.391,0.000
1728614479.514,-56.152,-22.949,-47.852,10.742,0.000
1728614479.518,-39.062,-27.344,-46.875,-22.461,0.000
1728614479.521,0.977,-37.598,-49.805,-61.523,0.000
1728614479.525,-14.648,-41.504,-51.758,-63.965,0.000
1728614479.529,-72.754,-44.922,-55.176,-34.668,0.000
1728614479.533,-62.012,-51.758,-59.570,1.953,0.000
1728614479.537,-47.363,-58.594,-59.082,-28.320,0.000
1728614479.541,4.883,-50.781,-56.641,-76.660,0.000
1728614479.545,-7.812,-42.480,-51.270,-79.102,0.000
1728614479.549,-91.797,-54.199,-51.270,-45.898,0.000
1728614479.553,-80.078,-57.617,-54.199,-10.742,0.000
1728614479.557,-54.688,-53.711,-53.711,-27.832,0.000
1728614479.560,-14.160,-59.570,-49.805,-67.871,0.000
1728614479.564,8.789,-51.758,-46.875,-76.172,0.000
1728614479.568,-64.453,-47.852,-44.434,-46.387,0.000
1728614479.572,-61.035,-55.176,-43.457,-8.789,0.000
1728614479.576,-32.227,-53.711,-48.340,-17.090,0.000
1728614479.580,-6.348,-47.852,-48.340,-33.691,0.000
1728614479.584,14.648,-40.527,-44.434,-49.316,0.000
1728614479.588,-54.199,-43.457,-40.527,-40.039,0.000
1728614479.592,-52.246,-48.340,-35.645,9.766,0.000
1728614479.596,-21.973,-44.434,-34.668,13.184,0.000
1728614479.600,-14.648,-42.969,-40.039,-31.250,0.000
1728614479.603,4.395,-47.852,-47.363,-47.852,0.000
1728614479.607,-47.852,-42.969,-46.387,-30.273,0.000
1728614479.611,-52.246,-32.715,-44.434,14.648,0.000
1728614479.615,-31.250,-35.645,-45.898,24.902,0.000
1728614479.619,-17.578,-41.016,-50.293,-31.250,0.000
1728614479.623,5.371,-44.922,-57.129,-66.406,0.000
1728614479.627,-57.617,-51.270,-55.176,-54.199,0.000
1728614479.631,-86.914,-55.664,-52.734,-16.113,0.000
1728614479.635,-55.176,-56.152,-51.270,-11.719,0.000
1728614479.639,-30.762,-54.688,-49.805,-62.500,0.000
1728614479.643,10.742,-54.199,-52.246,-72.754,0.000
1728614479.646,-33.203,-48.340,-53.711,-59.082,0.000
1728614479.650,-70.801,-42.480,-52.734,-24.414,0.000
1728614479.654,-37.598,-41.016,-55.176,16.113,0.000
1728614479.658,-33.691,-40.039,-56.152,-31.250,0.000
1728614479.662,-13.184,-40.039,-56.641,-75.195,0.000
1728614479.666,-34.668,-37.109,-58.594,-66.406,0.000
1728614479.670,-63.965,-44.922,-58.594,-35.156,0.000
1728614479.674,-42.480,-49.316,-60.059,-9.277,0.000
1728614479.678,-52.734,-47.363,-61.523,-43.945,0.000
1728614479.682,-9.766,-52.734,-63.477,-68.359,0.000
1728614479.686,-4.883,-46.387,-69.824,-66.895,0.000
1728614479.689,-65.918,-47.852,-69.336,-39.062,0.000
1728614479.693,-53.223,-61.523,-63.965,3.418,0.000
1728614479.697,-38.574,-59.082,-61.523,-30.762,0.000
1728614479.701,0.488,-45.898,-58.105,-61.035,0.000
1728614479.705,-3.418,-47.852,-57.617,-51.758,0.000
1728614479.709,-57.617,-52.734,-57.129,-24.902,0.000
1728614479.713,-24.902,-47.363,-51.758,24.414,0.000
1728614479.717,-7.812,-44.434,-49.805,3.906,0.000
1728614479.721,-9.277,-47.363,-56.152,-44.922,0.000
1728614479.725,-23.926,-51.270,-60.547,-49.805,0.000
1728614479.728,-69.336,-51.270,-62.988,-27.344,0.000
1728614479.732,-44.434,-49.805,-57.617,7.812,0.000
1728614479.736,-24.414,-49.805,-56.152,-17.578,0.000
1728614479.740,0.000,-54.688,-55.664,-56.152,0.000
1728614479.744,0.000,-56.641,-49.316,-55.664,0.000
1728614479.748,-58.594,-53.711,-53.711,-30.273,0.000
1728614479.752,-37.109,-46.875,-56.152,3.906,0.000
1728614479.756,-10.254,-49.316,-50.293,1.465,0.000
1728614479.760,14.160,-51.758,-53.711,-34.668,0.000
1728614479.764,14.160,-52.246,-51.758,-46.387,0.000
1728614479.768,-52.734,-47.363,-39.062,-27.344,0.000
1728614479.771,-41.992,-37.598,-44.434,6.348,0.000
1728614479.775,-3.418,-35.645,-55.176,-2.441,0.000
1728614479.779,-7.324,-42.969,-54.688,-53.223,0.000
1728614479.783,1.465,-49.316,-48.828,-59.570,0.000
1728614479.787,-48.340,-51.270,-45.898,-39.062,0.000
1728614479.791,-59.570,-46.387,-47.363,3.906,0.000
1728614479.795,-25.391,-46.875,-46.387,10.254,0.000
1728614479.799,-3.906,-48.340,-49.805,-46.875,0.000
1728614479.803,26.367,-37.109,-49.805,-62.012,0.000
1728614479.807,-46.387,-41.992,-48.828,-49.316,0.000
1728614479.811,-82.520,-51.270,-50.293,-15.625,0.000
1728614479.814,-42.480,-44.922,-55.176,-5.371,0.000
1728614479.818,-34.180,-44.922,-57.129,-51.270,0.000
1728614479.822,-12.695,-51.270,-53.711,-66.895,0.000
1728614479.826,-51.758,-61.035,-57.129,-68.848,0.000
1728614479.830,-73.730,-68.359,-62.500,-33.203,0.000
1728614479.834,-26.367,-58.105,-56.152,-1.953,0.000
1728614479.838,-26.367,-51.270,-47.363,-51.270,0.000
1728614479.842,-10.742,-59.082,-51.270,-80.566,0.000
1728614479.846,-29.297,-57.617,-50.781,-63.477,0.000
1728614479.850,-50.293,-50.781,-41.504,-16.113,0.000
1728614479.853,-34.668,-59.570,-41.016,18.555,0.000
1728614479.857,-41.016,-61.035,-44.922,-25.391,0.000
1728614479.861,-2.441,-57.129,-42.969,-62.500,0.000
1728614479.865,-17.090,-58.105,-44.922,-59.570,0.000
1728614479.869,-69.336,-50.781,-44.922,-23.926,0.000
1728614479.873,-44.922,-44.434,-41.992,13.672,0.000
1728614479.877,-11.230,-48.340,-41.016,-10.742,0.000
1728614479.881,20.020,-48.340,-41.016,-41.504,0.000
1728614479.885,2.930,-46.875,-38.086,-32.227,0.000
1728614479.889,-58.594,-46.875,-41.992,-9.766,0.000
1728614479.893,-34.668,-38.574,-48.340,8.789,0.000
1728614479.896,-2.930,-35.156,-44.434,-10.742,0.000
1728614479.900,25.391,-36.621,-40.527,-44.922,0.000
1728614479.904,15.137,-37.109,-41.016,-40.039,0.000
1728614479.908,-36.133,-41.992,-39.062,-15.137,0.000
1728614479.912,-17.090,-44.434,-40.039,22.949,0.000
1728614479.916,-0.977,-39.062,-46.387,-1.465,0.000
1728614479.920,15.137,-38.086,-44.434,-48.340,0.000
1728614479.924,17.578,-44.434,-44.922,-42.480,0.000
1728614479.928,-30.273,-39.551,-48.828,-16.113,0.000
1728614479.932,-23.926,-40.039,-50.293,18.555,0.000
1728614479.936,-17.578,-42.969,-50.293,5.859,0.000
1728614479.939,-2.930,-48.340,-47.363,-37.598,0.000
1728614479.943,14.160,-50.781,-42.969,-45.410,0.000
1728614479.947,-53.711,-53.711,-45.410,-35.645,0.000
1728614479.951,-51.270,-49.316,-48.828,5.371,0.000
1728614479.955,-17.090,-52.734,-49.316,2.441,0.000
1728614479.959,-9.277,-62.500,-53.223,-43.945,0.000
1728614479.963,10.742,-56.152,-56.641,-43.945,0.000
1728614479.967,-47.363,-50.781,-55.176,-27.344,0.000
1728614479.971,-64.453,-55.176,-55.176,7.812,0.000
1728614479.975,-32.227,-52.246,-62.012,10.254,0.000
1728614479.978,-16.602,-51.270,-67.383,-43.457,0.000
1728614479.982,16.602,-50.781,-67.871,-69.824,0.000
1728614479.986,-41.992,-55.176,-65.918,-53.223,0.000
1728614479.990,-83.496,-64.941,-67.871,-12.695,0.000
1728614479.994,-53.223,-64.941,-73.730,-8.301,0.000
1728614479.998,-49.316,-61.523,-70.801,-52.734,0.000
1728614480.002,-20.996,-59.570,-66.895,-75.195,0.000
1728614480.006,-59.570,-58.105,-67.871,-70.801,0.000
1728614480.010,-83.984,-62.500,-67.383,-18.066,0.000
1728614480.014,-39.062,-64.941,-64.453,-1.465,0.000
1728614480.018,-27.832,-66.895,-65.918,-58.594,0.000
1728614480.021,1.953,-62.988,-65.918,-74.707,0.000
1728614480.025,-33.691,-50.781,-59.082,-61.523,0.000
1728614480.029,-74.707,-45.898,-57.129,-18.066,0.000
1728614480.033,-43.945,-45.410,-58.594,12.695,0.000
1728614480.037,-32.227,-45.410,-56.641,-34.180,0.000
1728614480.041,-4.395,-45.410,-58.594,-55.176,0.000
1728614480.045,-30.762,-54.199,-57.617,-53.223,0.000
1728614480.049,-74.707,-56.152,-53.223,-27.344,0.000
1728614480.053,-37.109,-56.641,-52.734,10.742,0.000
1728614480.057,-15.625,-52.246,-54.688,-31.738,0.000
1728614480.061,3.418,-52.734,-52.734,-66.895,0.000
1728614480.064,-33.691,-57.129,-51.270,-60.547,0.000
1728614480.068,-93.750,-48.828,-51.758,-38.574,0.000
1728614480.072,-57.129,-51.758,-47.363,-0.488,0.000
1728614480.076,-44.922,-53.711,-47.363,-30.762,0.000
1728614480.080,-25.879,-57.129,-53.223,-62.500,0.000
1728614480.084,-36.133,-61.035,-55.176,-51.270,0.000
1728614480.088,-90.332,-54.688,-52.246,-38.086,0.000
1728614480.092,-67.871,-59.082,-50.293,-8.789,0.000
1728614480.096,-56.641,-72.754,-52.734,-32.227,0.000
1728614480.100,-23.926,-65.918,-54.199,-66.895,0.000
1728614480.103,-19.043,-56.641,-54.199,-64.941,0.000
1728614480.107,-80.566,-60.547,-52.246,-44.922,0.000
1728614480.111,-60.547,-60.547,-55.176,2.441,0.000
1728614480.115,-45.898,-63.965,-57.617,-13.672,0.000
1728614480.119,-32.715,-65.430,-55.664,-61.035,0.000
1728614480.123,-11.230,-57.617,-51.270,-64.453,0.000
1728614480.127,-68.848,-50.781,-54.199,-45.898,0.000
1728614480.131,-51.758,-48.340,-54.688,-8.789,0.000
1728614480.135,-20.020,-42.480,-57.129,-9.766,0.000
1728614480.139,-18.555,-41.992,-60.059,-50.781,0.000
1728614480.143,-7.812,-55.176,-54.688,-63.477,0.000
1728614480.146,-72.754,-62.500,-58.594,-56.152,0.000
1728614480.150,-89.355,-60.059,-63.477,-12.695,0.000
1728614480.154,-55.176,-57.617,-62.500,2.930,0.000
1728614480.158,-35.156,-54.688,-63.965,-47.852,0.000
1728614480.162,-3.906,-51.758,-62.988,-72.266,0.000
1728614480.166,-51.270,-52.734,-60.059,-56.152,0.000
1728614480.170,-69.336,-49.805,-60.059,-7.324,0.000
1728614480.174,-35.156,-41.016,-52.734,6.836,0.000
1728614480.178,-5.371,-38.086,-51.758,-37.109,0.000
1728614480.182,18.066,-35.645,-55.176,-56.152,0.000
1728614480.186,0.000,-37.598,-52.246,-41.992,0.000
1728614480.189,0.000,-44.434,-49.805,-4.883,0.000
1728614480.193,0.000,-42.480,-44.434,20.508,0.000
1728614480.197,0.000,-36.133,-40.039,-22.949,0.000
1728614480.201,0.000,-36.133,-39.062,-51.758,0.000
1728614480.205,0.000,-38.574,-38.086,-35.645,0.000
1728614480.209,0.000,-35.645,-36.133,2.441,0.000
1728614480.213,0.000,-33.203,-40.039,21.484,0.000
1728614480.217,0.000,-26.855,-43.457,-33.203,0.000
1728614480.221,0.000,-23.438,-39.062,-82.031,0.000
1728614480.225,0.000,-30.273,-35.156,-62.012,0.000
1728614480.228,0.000,-35.156,-35.645,-20.508,0.000
1728614480.232,-33.691,-36.133,-37.598,16.602,0.000
1728614480.236,-25.879,-41.504,-42.969,-26.367,0.000
1728614480.240,-0.488,-41.016,-41.504,-61.035,0.000
1728614480.244,-14.648,-36.133,-37.109,-39.062,0.000
1728614480.248,-62.988,-36.621,-41.016,-8.301,0.000
1728614480.252,-47.852,-42.480,-48.828,15.137,0.000
1728614480.256,-43.457,-51.270,-52.246,-21.484,0.000
1728614480.260,-3.418,-55.664,-44.922,-54.199,0.000
1728614480.264,-12.207,-54.688,-41.016,-53.223,0.000
1728614480.268,-87.402,-60.059,-38.574,-30.273,0.000
1728614480.271,-67.871,-65.918,-39.062,1.953,0.000
1728614480.275,-53.711,-62.500,-48.340,-29.785,0.000
1728614480.279,-33.203,-51.758,-49.805,-72.754,0.000
1728614480.283,-24.414,-51.758,-48.340,-70.312,0.000
1728614480.287,-75.684,-59.570,-47.363,-54.688,0.000
1728614480.291,-61.035,-60.059,-51.270,-24.414,0.000
1728614480.295,-45.898,-56.152,-61.035,-32.715,0.000
1728614480.299,-26.855,-57.129,-63.477,-77.148,0.000
1728614480.303,-14.648,-59.570,-63.965,-89.355,0.000
1728614480.307,-77.148,-55.176,-61.523,-68.359,0.000
1728614480.310,-77.637,-48.828,-57.617,-37.109,0.000
1728614480.314,-41.016,-40.527,-61.035,-35.156,0.000
1728614480.318,-14.160,-44.922,-59.570,-63.477,0.000
1728614480.322,2.930,-46.875,-62.500,-77.637,0.000
1728614480.326,-59.082,-41.992,-63.477,-55.664,0.000
1728614480.330,-65.918,-51.758,-58.594,2.441,0.000
1728614480.334,-19.531,-49.316,-56.152,6.348,0.000
1728614480.338,1.465,-33.691,-56.641,-37.109,0.000
1728614480.342,20.020,-34.180,-55.664,-43.945,0.000
1728614480.346,-42.480,-35.156,-59.570,-39.551,0.000
1728614480.350,-63.477,-39.062,-61.523,-9.277,0.000
1728614480.353,-16.113,-36.133,-54.688,4.883,0.000
1728614480.357,0.977,-31.738,-54.688,-50.293,0.000
1728614480.361,21.484,-34.180,-54.688,-73.242,0.000
1728614480.365,-32.227,-32.715,-53.223,-64.453,0.000
1728614480.369,-64.453,-37.109,-52.734,-20.020,0.000
1728614480.373,-25.879,-39.062,-49.805,0.977,0.000
1728614480.377,-41.504,-41.992,-49.805,-59.570,0.000
1728614480.381,-2.441,-31.738,-46.387,-68.848,0.000
1728614480.385,-8.789,-31.250,-47.852,-51.758,0.000
1728614480.389,-48.828,-51.758,-56.152,-34.180,0.000
1728614480.393,-32.715,-50.781,-54.199,-6.348,0.000
1728614480.396,-50.781,-43.945,-46.387,-38.086,0.000
1728614480.400,-18.555,-36.621,-40.527,-77.637,0.000
1728614480.404,-41.504,-37.598,-42.480,-78.613,0.000
1728614480.408,-86.426,-44.434,-48.828,-37.109,0.000
1728614480.412,-53.223,-42.480,-45.410,-2.930,0.000
1728614480.416,-53.711,-46.875,-41.992,-44.922,0.000
1728614480.420,-29.785,-48.828,-40.527,-78.613,0.000
1728614480.424,-37.598,-51.758,-37.598,-67.871,0.000
1728614480.428,-85.449,-58.594,-40.039,-34.180,0.000
1728614480.432,-60.547,-61.523,-46.387,-0.488,0.000
1728614480.435,-41.016,-72.266,-45.898,-35.645,0.000
1728614480.439,-8.301,-68.359,-41.504,-69.336,0.000
1728614480.443,-29.297,-54.199,-41.992,-65.918,0.000
1728614480.447,-106.934,-47.852,-44.922,-50.781,0.000
1728614480.451,-77.148,-50.293,-51.758,-7.812,0.000
1728614480.455,-47.363,-63.477,-55.664,-20.020,0.000
1728614480.459,-25.879,-66.406,-56.641,-68.848,0.000
1728614480.463,-10.254,-63.965,-56.641,-73.730,0.000
1728614480.467,-55.176,-66.895,-48.828,-46.387,0.000
1728614480.471,-37.109,-63.477,-47.852,-0.977,0.000
1728614480.475,-25.879,-59.082,-50.293,-12.207,0.000
1728614480.478,-19.043,-53.711,-43.457,-52.246,0.000
1728614480.482,-17.578,-48.828,-43.945,-53.223,0.000
1728614480.486,-70.312,-46.875,-45.410,-40.039,0.000
1728614480.490,-52.734,-38.086,-39.551,0.488,0.000
1728614480.494,-22.949,-26.855,-36.621,1.953,0.000
1728614480.498,-0.977,-25.879,-36.133,-31.738,0.000
1728614480.502,14.648,-34.180,-30.762,-37.598,0.000
1728614480.506,-46.387,-36.133,-27.832,-27.832,0.000
1728614480.510,-55.664,-25.391,-30.273,14.648,0.000
1728614480.514,-20.020,-25.879,-35.156,14.160,0.000
1728614480.518,-12.695,-38.086,-39.062,-45.898,0.000
1728614480.521,15.625,-40.039,-41.016,-72.754,0.000
1728614480.525,-37.109,-42.969,-44.434,-58.594,0.000
1728614480.529,-56.152,-36.133,-45.898,-15.137,0.000
1728614480.533,-33.691,-28.320,-50.293,-15.625,0.000
1728614480.537,-30.273,-28.320,-53.223,-65.430,0.000
1728614480.541,5.859,-36.133,-47.363,-74.707,0.000
1728614480.545,-37.598,-48.828,-45.410,-62.500,0.000
1728614480.549,-76.172,-43.945,-49.805,-27.832,0.000
1728614480.553,-41.992,-41.504,-49.805,-13.184,0.000
1728614480.557,-22.461,-47.852,-48.828,-56.641,0.000
1728614480.561,-18.555,-50.293,-53.223,-75.195,0.000
1728614480.564,-62.012,-49.805,-55.176,-71.777,0.000
1728614480.568,-86.426,-48.340,-54.688,-36.133,0.000
1728614480.572,-50.293,-55.176,-53.223,-10.254,0.000
1728614480.576,-37.109,-57.129,-48.828,-43.945,0.000
1728614480.580,-9.277,-52.246,-51.270,-64.941,0.000
1728614480.584,-38.086,-45.898,-50.293,-71.289,0.000
1728614480.588,-91.797,-41.016,-45.410,-33.691,0.000
1728614480.592,-64.453,-42.969,-57.129,0.000,0.000
1728614480.596,-43.945,-44.434,-61.523,-38.086,0.000
1728614480.600,-20.996,-43.457,-54.688,-68.359,0.000
1728614480.603,-44.922,-46.387,-50.781,-71.289,0.000
1728614480.607,-97.656,-54.688,-50.293,-44.922,0.000
1728614480.611,-63.477,-57.129,-49.805,0.488,0.000
1728614480.615,-43.945,-46.387,-46.875,-25.391,0.000
1728614480.619,-7.324,-40.527,-55.176,-67.383,0.000
1728614480.623,-14.648,-45.410,-55.664,-76.172,0.000
1728614480.627,-79.590,-36.133,-51.270,-55.664,0.000
1728614480.631,-46.387,-29.785,-49.316,-3.418,0.000
1728614480.635,-28.809,-37.598,-46.387,-7.324,0.000
1728614480.639,1.465,-39.551,-43.457,-46.875,0.000
1728614480.643,15.625,-37.109,-36.621,-42.969,0.000
1728614480.646,-46.875,-32.715,-39.062,-28.320,0.000
1728614480.650,-29.297,-25.879,-39.551,3.906,0.000
1728614480.654,-7.324,-24.414,-40.527,6.348,0.000
1728614480.658,0.000,-27.344,-41.992,-33.203,0.000
1728614480.662,5.859,-35.156,-38.574,-42.480,0.000
1728614480.666,-56.152,-41.016,-42.480,-28.809,0.000
1728614480.670,-51.270,-41.016,-46.875,12.695,0.000
1728614480.674,-31.738,-32.715,-48.340,6.348,0.000
1728614480.678,-17.090,-36.621,-46.387,-35.156,0.000
1728614480.682,6.836,-47.852,-46.875,-47.852,0.000
1728614480.685,-46.387,-41.016,-52.734,-50.781,0.000
1728614480.689,-66.406,-40.039,-54.199,-20.996,0.000
1728614480.693,-41.504,-46.387,-44.922,-7.812,0.000
1728614480.697,-10.742,-40.527,-41.504,-52.246,0.000
1728614480.701,24.414,-34.668,-42.969,-70.801,0.000
1728614480.705,-24.414,-36.133,-46.875,-55.176,0.000
1728614480.709,-63.477,-38.086,-48.340,-12.695,0.000
1728614480.713,-45.898,-40.039,-45.410,3.906,0.000
1728614480.717,-32.715,-48.340,-50.293,-48.340,0.000
1728614480.721,-8.301,-47.852,-56.641,-75.195,0.000
1728614480.725,-54.199,-45.410,-55.664,-58.105,0.000
1728614480.728,-79.102,-43.945,-52.734,-10.254,0.000
1728614480.732,-54.688,-41.504,-46.875,10.742,0.000
1728614480.736,-40.039,-43.945,-47.852,-37.109,0.000
1728614480.740,-5.371,-47.363,-45.410,-63.965,0.000
1728614480.744,-42.480,-48.340,-45.898,-54.199,0.000
1728614480.748,-74.707,-55.176,-45.410,-17.090,0.000
1728614480.752,-49.316,-62.500,-43.457,2.441,0.000
1728614480.756,-54.199,-59.570,-42.480,-43.457,0.000
1728614480.760,-14.648,-54.199,-37.109,-67.871,0.000
1728614480.764,-21.484,-46.875,-40.527,-59.082,0.000
1728614480.768,-55.664,-44.922,-45.898,-25.879,0.000
1728614480.771,-33.691,-48.340,-45.898,8.789,0.000
1728614480.775,-22.461,-45.410,-44.922,-28.809,0.000
1728614480.779,12.207,-48.340,-42.480,-57.617,0.000
1728614480.783,-7.812,-58.105,-37.598,-51.758,0.000
1728614480.787,-69.824,-56.152,-32.715,-25.879,0.000
1728614480.791,-52.246,-44.434,-34.668,16.113,0.000
1728614480.795,-34.180,-41.504,-29.785,-0.977,0.000
1728614480.799,3.906,-46.387,-26.855,-46.387,0.000
1728614480.803,-6.836,-44.922,-30.273,-62.988,0.000
1728614480.807,-78.613,-35.156,-30.273,-41.504,0.000
1728614480.810,-54.688,-39.062,-28.320,1.465,0.000
1728614480.814,-36.133,-43.457,-28.809,-16.113,0.000
1728614480.818,-4.883,-41.992,-36.621,-66.406,0.000
1728614480.822,2.441,-44.434,-37.598,-70.312,0.000
1728614480.826,-65.918,-43.945,-32.227,-37.598,0.000
1728614480.830,-55.176,-46.387,-34.180,1.953,0.000
1728614480.834,-31.738,-44.434,-40.527,-18.066,0.000
1728614480.838,-10.254,-39.062,-34.668,-54.688,0.000
1728614480.842,-8.301,-42.480,-30.762,-51.758,0.000
1728614480.846,-73.730,-46.387,-35.645,-35.645,0.000
1728614480.850,-66.895,-48.340,-34.668,6.348,0.000
1728614480.853,-33.691,-43.457,-33.691,1.953,0.000
1728614480.857,-11.230,-37.109,-35.645,-39.551,0.000
1728614480.861,6.836,-42.969,-39.551,-62.500,0.000
1728614480.865,-46.387,-45.898,-36.133,-53.223,0.000
1728614480.869,-71.777,-42.480,-29.297,-0.977,0.000
1728614480.873,-52.246,-42.969,-37.598,1.953,0.000
1728614480.877,-36.133,-48.340,-41.016,-50.293,0.000
1728614480.881,-9.766,-49.316,-37.598,-68.848,0.000
1728614480.885,-61.035,-45.410,-35.645,-49.316,0.000
1728614480.889,-87.891,-47.852,-38.574,-10.254,0.000
1728614480.893,-58.105,-54.199,-45.898,-11.719,0.000
1728614480.896,-32.227,-62.988,-41.992,-60.059,0.000
1728614480.900,-0.488,-55.664,-38.086,-75.684,0.000
1728614480.904,-47.363,-47.363,-41.992,-55.664,0.000
1728614480.908,-71.289,-49.316,-39.551,-16.602,0.000
1728614480.912,-33.691,-45.410,-34.180,-7.324,0.000
1728614480.916,-36.621,-50.781,-38.574,-55.664,0.000
1728614480.920,-13.184,-53.711,-42.969,-60.059,0.000
1728614480.924,-38.086,-38.086,-39.062,-44.434,0.000
1728614480.928,-60.059,-27.832,-23.926,-22.949,0.000
1728614480.932,-36.133,-33.691,-17.578,11.230,0.000
1728614480.935,-38.086,-36.621,-33.691,-32.715,0.000
1728614480.939,-6.348,-35.645,-31.250,-67.871,0.000
1728614480.943,-48.340,-25.879,-20.508,-65.430,0.000
1728614480.947,-113.770,-17.578,-17.090,-52.734,0.000
1728614480.951,-85.449,-17.090,-3.418,-29.785,0.000
1728614480.955,-71.777,-10.254,2.930,-71.777,0.000
1728614480.959,-45.410,-0.977,8.789,-114.258,0.000
1728614480.963,-86.914,-4.883,28.809,-127.930,0.000
1728614480.967,-171.875,-1.465,27.832,-120.605,0.000
1728614480.971,-148.926,6.348,26.367,-105.469,0.000
1728614480.975,-137.695,11.719,32.227,-143.555,0.000
1728614480.978,-133.301,10.742,36.133,-193.848,0.000
1728614480.982,-158.203,5.859,29.785,-214.355,0.000
1728614480.986,-224.121,0.488,24.902,-197.754,0.000
1728614480.990,-205.566,-6.836,24.902,-161.621,0.000
1728614480.994,-197.266,-12.207,16.113,-187.988,0.000
1728614480.998,-180.664,-11.230,13.184,-229.980,0.000
1728614481.002,-167.480,-13.672,10.254,-225.098,0.000
1728614481.006,-231.445,-27.344,12.695,-197.266,0.000
1728614481.010,-218.750,-29.785,15.137,-145.996,0.000
1728614481.014,-181.152,-24.414,5.371,-163.574,0.000
1728614481.018,-149.902,-26.855,-4.883,-203.125,0.000
1728614481.021,-134.766,-34.180,-15.625,-196.289,0.000
1728614481.025,-185.059,-37.109,-20.996,-162.598,0.000
1728614481.029,-163.086,-50.293,-26.367,-104.004,0.000
1728614481.033,-120.605,-68.359,-33.203,-91.797,0.000
1728614481.037,-95.703,-78.613,-34.668,-127.441,0.000
1728614481.041,-64.453,-84.961,-37.598,-121.582,0.000
1728614481.045,-93.750,-75.195,-45.898,-84.961,0.000
1728614481.049,-98.633,-70.801,-56.152,-40.039,0.000
1728614481.053,-55.176,-72.266,-58.594,-37.109,0.000
1728614481.057,-23.438,-70.801,-62.500,-68.359,0.000
1728614481.060,0.000,-76.660,-67.383,-76.172,0.000
1728614481.064,-49.805,-76.172,-73.242,-49.316,0.000
1728614481.068,-55.664,-81.543,-73.242,6.836,0.000
1728614481.072,-17.090,-88.379,-70.801,20.508,0.000
1728614481.076,1.465,-87.891,-76.172,-14.648,0.000
1728614481.080,37.598,-96.680,-79.590,-19.531,0.000
1728614481.084,-16.113,-97.656,-84.473,9.766,0.000
1728614481.088,-28.809,-85.938,-85.938,51.758,0.000
1728614481.092,11.719,-80.078,-83.496,47.852,0.000
1728614481.096,20.508,-81.543,-81.543,7.812,0.000
1728614481.100,64.453,-78.613,-78.125,5.371,0.000
1728614481.103,25.391,-69.824,-84.961,15.137,0.000
1728614481.107,-18.066,-63.965,-87.402,53.711,0.000
1728614481.111,33.203,-52.246,-77.637,84.961,0.000
1728614481.115,57.129,-41.016,-74.707,41.504,0.000
1728614481.119,73.730,-43.945,-77.637,19.531,0.000
1728614481.123,57.129,-52.246,-76.660,25.879,0.000
1728614481.127,24.414,-48.340,-69.824,48.340,0.000
1728614481.131,41.992,-45.898,-66.406,72.754,0.000
1728614481.135,51.758,-54.199,-69.824,38.574,0.000
1728614481.139,81.543,-53.711,-69.824,7.812,0.000
1728614481.142,72.266,-49.805,-71.289,10.742,0.000
1728614481.146,28.809,-48.828,-69.336,44.434,0.000
1728614481.150,21.484,-54.199,-67.383,79.102,0.000
1728614481.154,29.297,-56.152,-71.289,41.504,0.000
1728614481.158,68.848,-51.270,-75.195,-7.812,0.000
1728614481.162,51.270,-52.246,-70.801,-2.930,0.000
1728614481.166,-6.348,-51.270,-65.430,33.691,0.000
1728614481.170,7.324,-49.316,-65.430,80.078,0.000
1728614481.174,19.531,-60.059,-64.453,49.316,0.000
1728614481.178,46.875,-64.453,-62.988,-2.441,0.000
1728614481.182,42.969,-58.594,-57.129,-0.488,0.000
1728614481.185,-6.348,-56.152,-52.246,25.391,0.000
1728614481.189,10.742,-56.152,-50.781,70.312,0.000
1728614481.193,30.762,-51.270,-49.316,55.176,0.000
1728614481.197,60.547,-44.922,-53.711,5.859,0.000
1728614481.201,64.453,-48.828,-55.664,-1.465,0.000
1728614481.205,-2.930,-59.082,-52.246,7.812,0.000
1728614481.209,-3.418,-57.617,-53.223,43.945,0.000
1728614481.213,21.973,-48.340,-54.688,41.016,0.000
1728614481.217,38.086,-40.527,-51.758,-9.766,0.000
1728614481.221,46.387,-40.039,-50.781,-19.531,0.000
1728614481.225,-7.324,-39.551,-44.922,5.371,0.000
1728614481.228,-3.906,-36.621,-43.945,44.922,0.000
1728614481.232,19.043,-38.086,-45.410,46.387,0.000
1728614481.236,14.160,-32.227,-48.340,-3.906,0.000
1728614481.240,20.020,-35.645,-51.270,-27.344,0.000
1728614481.244,-26.855,-45.410,-50.781,-2.930,0.000
1728614481.248,-38.574,-41.016,-48.828,31.250,0.000
1728614481.252,-13.672,-38.086,-51.758,33.691,0.000
1728614481.256,0.488,-34.180,-51.758,-7.812,0.000
1728614481.260,40.039,-31.738,-51.758,-37.598,0.000
1728614481.264,11.230,-33.203,-47.852,-20.508,0.000
1728614481.268,-25.391,-29.785,-39.551,25.879,0.000
1728614481.271,-14.160,-33.691,-43.945,32.715,0.000
1728614481.275,-6.836,-40.039,-45.898,-22.461,0.000
1728614481.279,18.066,-41.504,-45.898,-46.387,0.000
1728614481.283,-32.227,-44.434,-46.875,-37.598,0.000
1728614481.287,-65.918,-48.340,-47.363,-12.695,0.000
1728614481.291,-35.156,-50.293,-46.387,8.301,0.000
1728614481.295,-11.719,-52.246,-42.480,-29.297,0.000
1728614481.299,28.809,-43.945,-42.969,-69.824,0.000
1728614481.303,-17.090,-34.668,-50.781,-57.129,0.000
1728614481.307,-69.824,-37.109,-51.758,-23.926,0.000
1728614481.310,-33.691,-45.898,-44.922,-5.371,0.000
1728614481.314,-33.203,-48.828,-42.480,-33.203,0.000
1728614481.318,-8.301,-44.922,-43.945,-58.594,0.000
1728614481.322,-36.133,-50.781,-44.922,-59.082,0.000
1728614481.326,-92.285,-55.176,-47.852,-37.598,0.000
1728614481.330,-45.898,-46.387,-52.246,0.000,0.000
1728614481.334,-31.250,-41.992,-52.246,-22.461,0.000
1728614481.338,-5.371,-48.828,-51.758,-54.199,0.000
1728614481.342,-18.066,-48.340,-49.805,-46.875,0.000
1728614481.346,-76.172,-37.109,-41.016,-25.391,0.000
1728614481.350,-42.480,-31.250,-43.457,10.254,0.000
1728614481.353,-17.090,-41.504,-47.852,-18.066,0.000
1728614481.357,0.000,-42.480,-46.387,-61.035,0.000
1728614481.361,0.000,-32.715,-49.805,-60.059,0.000
1728614481.365,0.000,-37.109,-50.293,-45.410,0.000
1728614481.369,0.000,-39.551,-52.246,-6.836,0.000
1728614481.373,0.000,-33.203,-49.316,-21.484,0.000
1728614481.377,0.000,-34.668,-45.410,-66.895,0.000
1728614481.381,0.000,-46.875,-48.340,-69.336,0.000
1728614481.385,0.000,-50.293,-47.852,-48.340,0.000
1728614481.389,0.000,-39.062,-49.805,-4.883,0.000
1728614481.392,0.000,-37.598,-50.781,-8.301,0.000
1728614481.396,0.000,-36.133,-44.922,-59.570,0.000
1728614481.400,0.000,-32.227,-42.480,-75.195,0.000
1728614481.404,-78.125,-42.969,-45.898,-60.547,0.000
1728614481.408,-77.148,-42.480,-41.504,-9.766,0.000
1728614481.412,-41.504,-38.086,-34.180,2.441,0.000
1728614481.416,-21.484,-41.504,-38.574,-45.410,0.000
1728614481.420,-5.859,-47.852,-44.434,-65.430,0.000
1728614481.424,-64.453,-40.527,-42.969,-57.617,0.000
1728614481.428,-68.848,-38.574,-44.434,-16.113,0.000
1728614481.432,-30.273,-54.199,-47.852,-3.418,0.000
1728614481.435,-23.438,-46.387,-44.922,-57.129,0.000
1728614481.439,-2.930,-40.527,-46.387,-70.801,0.000
1728614481.443,-60.547,-45.898,-46.387,-61.523,0.000
1728614481.447,-79.590,-44.434,-42.480,-28.320,0.000
1728614481.451,-34.180,-44.434,-38.574,-12.695,0.000
1728614481.455,-38.086,-38.086,-38.574,-61.035,0.000
1728614481.459,-12.695,-35.645,-41.504,-75.195,0.000
1728614481.463,-43.457,-37.598,-39.551,-51.270,0.000
1728614481.467,-75.684,-39.062,-41.016,-14.648,0.000
1728614481.471,-31.738,-48.340,-41.504,3.418,0.000
1728614481.475,-28.809,-50.781,-35.156,-34.180,0.000
1728614481.478,-8.789,-44.434,-34.180,-59.570,0.000
1728614481.482,-21.484,-36.621,-37.598,-55.664,0.000
1728614481.486,-69.336,-42.480,-37.598,-18.066,0.000
1728614481.490,-44.922,-46.387,-33.203,16.113,0.000
1728614481.494,-24.414,-35.645,-30.273,-20.020,0.000
1728614481.498,-4.883,-38.574,-33.203,-54.688,0.000
1728614481.502,-29.785,-50.293,-34.180,-46.387,0.000
1728614481.506,-69.824,-42.480,-38.574,-4.883,0.000
1728614481.510,-40.527,-35.156,-41.504,22.461,0.000
1728614481.514,-27.344,-39.551,-39.062,-18.555,0.000
1728614481.517,6.348,-40.527,-43.457,-62.012,0.000
1728614481.521,-11.230,-43.945,-45.410,-68.848,0.000
1728614481.525,-68.359,-39.551,-44.922,-44.434,0.000
1728614481.529,-32.227,-30.762,-37.109,2.930,0.000
1728614481.533,-24.902,-32.227,-35.156,-22.949,0.000
1728614481.537,5.371,-38.574,-41.992,-69.336,0.000
1728614481.541,-6.348,-50.293,-40.527,-83.008,0.000
1728614481.545,-94.727,-51.758,-39.062,-51.270,0.000
1728614481.549,-66.406,-44.434,-42.480,-0.488,0.000
1728614481.553,-39.062,-39.062,-44.434,-29.785,0.000
1728614481.557,-19.043,-43.457,-41.504,-75.684,0.000
1728614481.560,-9.766,-40.039,-36.133,-73.730,0.000
1728614481.564,-79.590,-34.668,-33.691,-50.293,0.000
1728614481.568,-69.824,-31.738,-35.156,-9.766,0.000
1728614481.572,-33.691,-37.598,-34.180,-23.926,0.000
1728614481.576,-15.625,-46.387,-37.109,-69.336,0.000
1728614481.580,-8.301,-46.387,-38.574,-67.871,0.000
1728614481.584,-73.242,-44.434,-40.039,-50.293,0.000
1728614481.588,-64.941,-43.457,-40.039,-15.625,0.000
1728614481.592,-37.598,-43.945,-36.621,-14.160,0.000
1728614481.596,-34.668,-41.016,-42.480,-59.082,0.000
1728614481.600,-3.418,-40.527,-45.898,-68.359,0.000
1728614481.603,-51.758,-36.133,-41.016,-51.758,0.000
1728614481.607,-63.477,-27.344,-39.062,-17.578,0.000
1728614481.611,-31.250,-38.086,-47.852,1.465,0.000
1728614481.615,-13.672,-41.504,-53.711,-41.992,0.000
1728614481.619,13.672,-34.668,-48.828,-63.965,0.000
1728614481.623,-32.715,-42.969,-45.898,-47.363,0.000
1728614481.627,-46.387,-40.527,-49.316,-0.977,0.000
1728614481.631,-27.832,-39.551,-53.223,16.602,0.000
1728614481.635,-25.879,-49.316,-52.246,-25.879,0.000
1728614481.639,10.742,-40.039,0.000,-50.781,0.000
1728614481.643,-30.273,-32.715,0.000,-46.387,0.000
1728614481.646,-62.500,-38.574,0.000,-0.977,0.000
1728614481.650,-24.902,-39.551,0.000,19.043,0.000
1728614481.654,-2.930,-38.086,0.000,-16.113,0.000
1728614481.658,24.902,-44.922,0.000,-35.645,0.000
1728614481.662,-11.719,-52.734,0.000,-42.969,0.000
1728614481.666,-50.293,-50.293,0.000,-19.531,0.000
1728614481.670,-36.621,-42.480,0.000,11.230,0.000
1728614481.674,-31.250,-43.945,0.000,-25.391,0.000
1728614481.678,7.324,-47.852,0.000,-53.223,0.000
1728614481.682,-15.137,-49.805,0.000,-52.246,0.000
1728614481.685,-65.918,-51.270,-47.852,-32.715,0.000
1728614481.689,-42.480,-44.434,-44.922,1.953,0.000
1728614481.693,-35.645,-46.387,-46.387,-21.484,0.000
1728614481.697,-9.766,-53.223,-53.711,-64.453,0.000
1728614481.701,-22.949,-48.340,-54.199,-55.664,0.000
1728614481.705,-80.078,-51.270,-50.293,-17.090,0.000
1728614481.709,-61.035,-55.176,-50.781,12.695,0.000
1728614481.713,-36.133,-54.688,-49.316,-17.578,0.000
1728614481.717,-3.418,-46.875,-46.875,-53.223,0.000
1728614481.721,-14.648,-41.016,-45.898,-62.988,0.000
1728614481.724,-63.965,-43.457,-49.805,-33.203,0.000
1728614481.728,-37.598,-48.340,-45.410,16.602,0.000
1728614481.732,0.000,-49.805,-50.293,-7.812,0.000
1728614481.736,0.000,-40.527,-46.875,-47.363,0.000
1728614481.740,0.000,-45.410,-49.805,-40.527,0.000
1728614481.744,0.000,-61.523,-54.688,-35.645,0.000
1728614481.748,0.000,-53.223,-52.734,-2.930,0.000
1728614481.752,0.000,-45.410,-53.711,-7.324,0.000
1728614481.756,0.000,-50.293,-54.199,-50.781,0.000
1728614481.760,0.000,-45.898,-49.805,-58.594,0.000
1728614481.764,0.000,-41.016,-45.410,-45.898,0.000
1728614481.767,0.000,-44.434,-43.945,6.348,0.000
1728614481.771,0.000,-43.945,-47.363,13.672,0.000
1728614481.775,0.000,-49.805,-53.223,-40.527,0.000
1728614481.779,3.906,-58.105,-48.340,-59.570,0.000
1728614481.783,-41.504,-51.758,-42.480,-40.527,0.000
1728614481.787,-50.293,-49.316,-44.434,8.789,0.000
1728614481.791,-20.020,-50.293,-48.828,10.254,0.000
1728614481.795,-3.906,-51.270,-55.176,-46.387,0.000
1728614481.799,31.250,-45.410,-58.105,-64.941,0.000
1728614481.803,-34.180,-42.969,-57.617,-57.129,0.000
1728614481.806,-72.266,-46.875,-51.758,-8.301,0.000
1728614481.810,-25.391,-40.039,-52.246,17.090,0.000
1728614481.814,-13.672,-41.992,-54.688,-26.367,0.000
1728614481.818,3.906,-42.480,-56.152,-54.199,0.000
1728614481.822,-34.180,-36.621,-58.105,-52.246,0.000
1728614481.826,-50.293,-41.016,-54.199,-12.207,0.000
1728614481.830,-17.578,-43.945,-55.664,18.555,0.000
1728614481.834,-14.648,-44.922,-57.129,-19.043,0.000
1728614481.838,6.348,-39.551,-55.176,-58.105,0.000
1728614481.842,-35.645,-47.852,-59.082,-59.082,0.000
1728614481.846,-68.848,-61.035,-61.035,-18.555,0.000
1728614481.849,-40.527,-60.547,-57.617,18.555,0.000
1728614481.853,-45.410,-59.082,-60.059,-23.438,0.000
1728614481.857,-14.160,-56.152,-62.988,-62.012,0.000
1728614481.861,-28.809,-54.688,-62.500,-62.012,0.000
1728614481.865,-69.336,-54.199,-64.453,-28.809,0.000
1728614481.869,-37.598,-52.734,-67.871,10.254,0.000
1728614481.873,-51.270,-58.594,-68.359,-23.438,0.000
1728614481.877,-34.180,-63.965,-72.754,-68.359,0.000
1728614481.881,-34.180,-62.500,-72.266,-63.477,0.000
1728614481.885,-84.473,-56.641,-65.430,-32.227,0.000
1728614481.889,-56.641,-53.711,-68.848,4.883,0.000
1728614481.892,-32.227,-61.035,-69.824,-19.531,0.000
1728614481.896,8.301,-60.059,-64.453,-54.688,0.000
1728614481.900,11.719,-55.664,-62.988,-42.969,0.000
1728614481.904,-61.523,-61.523,-64.941,-20.996,0.000
1728614481.908,-53.223,-60.059,-64.941,16.602,0.000
1728614481.912,-25.391,-54.688,-65.430,13.672,0.000
1728614481.916,8.789,-56.641,-65.430,-35.645,0.000
1728614481.920,18.066,-58.594,-63.965,-47.363,0.000
1728614481.924,-46.387,-55.176,-62.988,-20.996,0.000
1728614481.928,-40.039,-50.293,-62.988,17.090,0.000
1728614481.931,-9.277,-56.641,-63.477,6.836,0.000
1728614481.935,16.602,-60.059,-64.453,-30.762,0.000
1728614481.939,37.598,-61.035,-64.941,-39.062,0.000
1728614481.943,-22.949,-61.035,-64.453,-24.414,0.000
1728614481.947,-28.809,-62.500,-69.824,14.160,0.000
1728614481.951,-7.812,-61.035,-69.824,17.090,0.000
1728614481.955,6.348,-57.129,-64.941,-28.320,0.000
1728614481.959,20.020,-59.570,-63.965,-43.945,0.000
1728614481.963,-43.457,-63.965,-65.918,-30.273,0.000
1728614481.967,-40.527,-64.941,-66.406,12.695,0.000
1728614481.971,6.836,-59.570,-62.500,16.602,0.000
1728614481.974,14.160,-57.617,-64.941,-26.855,0.000
1728614481.978,36.133,-59.570,-65.430,-43.457,0.000
1728614481.982,-13.184,-63.965,-58.105,-22.461,0.000
1728614481.986,-44.434,-64.941,-55.664,22.461,0.000
1728614481.990,-18.555,-62.988,-55.176,23.926,0.000
1728614481.994,7.812,-62.500,-54.688,-21.484,0.000
1728614481.998,35.156,-61.523,-57.617,-41.504,0.000
1728614482.002,-32.227,-63.965,-60.547,-33.691,0.000
1728614482.006,-78.125,-71.777,-63.965,5.859,0.000
1728614482.010,-42.480,-76.172,-69.336,17.090,0.000
1728614482.014,-23.438,-77.637,-69.336,-23.438,0.000
1728614482.017,7.812,-78.125,-69.336,-42.480,0.000
1728614482.021,-23.438,-81.543,-71.777,-38.086,0.000
1728614482.025,-63.477,-92.773,-74.707,-8.789,0.000
1728614482.029,-36.621,-90.820,-76.660,17.090,0.000
1728614482.033,-28.320,-85.449,-76.172,-15.137,0.000
1728614482.037,13.184,-84.473,-72.266,-41.016,0.000
1728614482.041,2.930,-82.031,-72.754,-39.062,0.000
1728614482.045,-57.617,-86.426,-74.707,-2.441,0.000
1728614482.049,-38.574,-89.355,-76.660,29.785,0.000
1728614482.053,-14.160,-89.355,-74.707,-0.488,0.000
1728614482.056,17.090,-83.496,-74.219,-34.180,0.000
1728614482.060,5.371,-75.684,-79.590,-40.039,0.000
1728614482.064,-46.875,-68.848,-80.078,-17.090,0.000
1728614482.068,-11.230,-78.613,-83.496,23.438,0.000
1728614482.072,6.348,-83.984,-87.402,6.348,0.000
1728614482.076,18.555,-71.289,-82.031,-32.715,0.000
1728614482.080,20.508,-79.590,-84.961,-41.016,0.000
1728614482.084,-27.832,-84.473,-88.379,-18.066,0.000
1728614482.088,-12.695,-83.496,-76.172,37.109,0.000
1728614482.092,-0.977,-82.031,-66.895,22.461,0.000
1728614482.096,35.645,-76.660,-69.336,-30.762,0.000
1728614482.099,50.293,-79.590,-71.289,-27.344,0.000
1728614482.103,-17.578,-90.332,-72.754,-3.906,0.000
1728614482.107,-15.137,-91.797,-74.219,39.062,0.000
1728614482.111,11.719,-78.613,-75.195,39.551,0.000
1728614482.115,32.227,-76.660,-71.289,-9.766,0.000
1728614482.119,49.316,-83.008,-68.359,-22.949,0.000
1728614482.123,-7.324,-85.938,-67.871,-0.488,0.000
1728614482.127,-4.883,-88.867,-68.848,41.504,0.000
1728614482.131,13.672,-92.285,-73.242,33.691,0.000
1728614482.135,16.602,-91.797,-75.195,-15.137,0.000
1728614482.139,56.641,-97.656,-74.219,-31.738,0.000
1728614482.142,-2.930,-99.609,-72.754,-9.277,0.000
1728614482.146,-26.367,-86.914,-70.801,38.574,0.000
1728614482.150,4.395,-87.891,-73.242,40.527,0.000
1728614482.154,12.207,-94.727,-78.613,-8.789,0.000
1728614482.158,45.898,-87.891,-78.125,-31.738,0.000
1728614482.162,-6.836,-94.238,-77.637,-23.438,0.000
1728614482.166,-27.344,-102.539,-78.125,20.508,0.000
1728614482.170,3.418,-101.074,-78.613,35.645,0.000
1728614482.174,7.324,-96.191,-76.660,-10.742,0.000
1728614482.178,40.039,-92.285,-76.172,-35.645,0.000
1728614482.181,2.441,-91.309,-76.660,-18.555,0.000
1728614482.185,-17.578,-87.402,-78.613,19.043,0.000
1728614482.189,23.438,-91.309,-79.590,42.480,0.000
1728614482.193,20.508,-97.656,-77.148,3.418,0.000
1728614482.197,40.039,-90.820,-74.707,-20.996,0.000
1728614482.201,11.719,-84.473,-75.684,-13.672,0.000
1728614482.205,-28.809,-86.426,-80.566,17.090,0.000
1728614482.209,1.953,-86.914,-83.496,47.852,0.000
1728614482.213,16.602,-89.355,-84.961,2.930,0.000
1728614482.217,42.480,-92.773,-87.402,-33.691,0.000
1728614482.221,25.879,-87.402,-88.379,-15.137,0.000
1728614482.224,-20.020,-87.402,-88.379,14.160,0.000
1728614482.228,-8.301,-91.309,-88.867,38.574,0.000
1728614482.232,9.766,-87.891,-86.426,1.465,0.000
1728614482.236,53.711,-90.332,-88.379,-34.180,0.000
1728614482.240,32.715,-89.844,-90.332,-23.926,0.000
1728614482.244,-37.598,-81.055,-86.426,15.137,0.000
1728614482.248,-5.371,-78.613,-83.984,52.734,0.000
1728614482.252,20.020,-89.355,-80.566,26.367,0.000
1728614482.256,47.363,-97.656,-81.543,-15.137,0.000
1728614482.260,34.180,-103.516,-83.008,-13.184,0.000
1728614482.264,-33.203,-100.586,-79.102,15.625,0.000
1728614482.267,-11.230,-101.562,-78.125,47.852,0.000
1728614482.271,10.254,-99.609,-74.707,31.738,0.000
1728614482.275,32.715,-96.680,-72.266,-2.930,0.000
1728614482.279,45.410,-99.121,-71.289,-12.207,0.000
1728614482.283,-15.137,-98.145,-67.383,5.859,0.000
1728614482.287,-16.113,-100.586,-68.359,49.805,0.000
1728614482.291,7.812,-103.516,-68.848,34.180,0.000
1728614482.295,35.645,-104.004,-66.406,-19.531,0.000
1728614482.299,34.180,-103.027,-74.707,-24.902,0.000
1728614482.303,-34.668,-102.539,-81.543,-3.418,0.000
1728614482.306,-32.227,-98.145,-78.125,32.715,0.000
1728614482.310,-1.953,-96.680,-76.172,30.273,0.000
1728614482.314,23.926,-109.375,-71.289,-13.672,0.000
1728614482.318,46.875,-118.652,-62.012,-29.297,0.000
1728614482.322,-15.625,-111.816,-60.547,-20.508,0.000
1728614482.326,-18.066,-109.863,-64.453,25.879,0.000
1728614482.330,21.484,-111.816,-66.406,38.574,0.000
1728614482.334,17.578,-102.051,-70.312,-10.742,0.000
1728614482.338,30.273,-96.680,-76.172,-24.902,0.000
1728614482.342,-17.578,-106.934,-73.242,-11.719,0.000
1728614482.346,-42.480,-114.258,-74.707,24.902,0.000
1728614482.349,-2.930,-113.770,-80.566,34.180,0.000
1728614482.353,18.555,-110.840,-79.590,-8.301,0.000
1728614482.357,42.969,-103.027,-76.660,-28.320,0.000
1728614482.361,-12.207,-100.586,-73.730,-9.766,0.000
1728614482.365,-29.785,-93.750,-73.242,15.137,0.000
1728614482.369,16.602,-85.449,-73.242,38.086,0.000
1728614482.373,21.973,-85.938,-73.242,0.977,0.000
1728614482.377,45.898,-90.332,-77.637,-30.762,0.000
1728614482.381,14.648,-95.703,-78.125,-24.414,0.000
1728614482.385,-25.879,-100.586,-75.195,8.301,0.000
1728614482.389,0.000,-99.121,-66.406,43.945,0.000
1728614482.392,0.000,-94.727,-67.383,12.207,0.000
1728614482.396,0.000,-94.238,-70.312,-15.137,0.000
1728614482.400,0.000,-95.703,-67.383,-14.160,0.000
1728614482.404,0.000,-103.027,-72.754,14.648,0.000
1728614482.408,0.000,-109.375,-73.242,51.270,0.000
1728614482.412,0.000,-106.934,-73.242,17.090,0.000
1728614482.416,0.000,-107.422,-73.730,-25.391,0.000
1728614482.420,0.000,-111.328,-67.383,-24.902,0.000
1728614482.424,0.000,-109.375,-64.453,3.906,0.000
1728614482.428,0.000,-95.215,-60.059,47.363,0.000
1728614482.431,0.000,-90.820,-58.105,15.137,0.000
1728614482.435,3.418,-99.121,-64.941,-32.715,0.000
1728614482.439,21.973,-99.609,-64.453,-22.461,0.000
1728614482.443,51.758,-98.633,-62.500,-3.906,0.000
1728614482.447,38.086,-104.492,-62.012,34.180,0.000
1728614482.451,-18.066,-101.074,-56.641,18.555,0.000
1728614482.455,-9.766,-97.656,-55.664,-25.391,0.000
1728614482.459,2.930,-94.238,-59.570,-32.227,0.000
1728614482.463,35.645,-88.867,-60.059,-2.441,0.000
1728614482.467,25.879,-89.355,-61.035,41.992,0.000
1728614482.470,-31.738,-88.379,-70.801,18.066,0.000
1728614482.474,-3.418,-84.961,-70.801,-25.391,0.000
1728614482.478,16.113,-84.961,-65.918,-26.367,0.000
1728614482.482,34.180,-87.402,-62.012,-14.648,0.000
1728614482.486,32.715,-110.840,-60.059,37.598,0.000
1728614482.490,-20.020,-140.137,-60.059,47.852,0.000
1728614482.494,-12.695,-124.023,-55.176,0.488,0.000
1728614482.498,0.977,-110.840,-56.152,-12.695,0.000
1728614482.502,27.832,-117.676,-60.059,4.395,0.000
1728614482.506,38.574,-115.234,-59.082,41.504,0.000
1728614482.510,-7.812,-111.816,-53.223,50.781,0.000
1728614482.513,-6.836,-109.375,-55.664,2.441,0.000
1728614482.517,5.859,-110.352,-56.641,-11.230,0.000
1728614482.521,27.344,-114.746,-50.781,1.465,0.000
1728614482.525,55.664,-108.887,-53.711,36.621,0.000
1728614482.529,13.184,-101.074,-56.641,48.828,0.000
1728614482.533,11.230,-93.750,-55.664,4.395,0.000
1728614482.537,47.363,-90.820,-50.781,-10.254,0.000
1728614482.541,2.930,-91.797,-51.758,-1.953,0.000
1728614482.545,-30.273,-97.656,-53.223,33.691,0.000
1728614482.549,13.184,-103.516,-47.852,57.129,0.000
1728614482.552,17.090,-94.727,-44.922,21.484,0.000
1728614482.556,47.363,-82.520,-41.992,2.441,0.000
1728614482.560,21.484,-79.102,-38.574,2.930,0.000
1728614482.564,-28.809,-88.379,-39.551,39.551,0.000
1728614482.568,4.883,-89.844,-40.527,69.336,0.000
1728614482.572,9.277,-83.496,-36.133,14.648,0.000
1728614482.576,26.855,-85.449,-35.645,-16.113,0.000
1728614482.580,10.742,-86.914,-39.551,-6.348,0.000
1728614482.584,-30.273,-88.379,-41.016,12.695,0.000
1728614482.588,1.465,-86.426,-45.898,40.039,0.000
1728614482.592,14.648,-79.590,-42.969,15.625,0.000
1728614482.595,45.898,-76.172,-40.039,-8.301,0.000
1728614482.599,41.992,-71.777,-40.527,-6.348,0.000
1728614482.603,-6.348,-72.266,-43.457,-3.906,0.000
1728614482.607,10.254,-77.148,-45.410,48.340,0.000
1728614482.611,4.395,-77.637,-44.922,40.527,0.000
1728614482.615,36.133,-73.730,-45.410,-9.766,0.000
1728614482.619,46.875,-69.336,-43.457,-10.742,0.000
1728614482.623,-20.508,-68.359,-44.434,18.066,0.000
1728614482.627,-9.766,-70.312,-47.852,49.316,0.000
1728614482.631,15.625,-59.082,-52.734,25.879,0.000
1728614482.634,46.387,-54.688,-52.734,-15.625,0.000
1728614482.638,44.434,-59.082,-42.480,-21.484,0.000
1728614482.642,-11.719,-60.547,-45.410,-8.789,0.000
1728614482.646,0.488,-74.707,-50.293,37.598,0.000
1728614482.650,16.113,-81.543,-46.875,29.297,0.000
1728614482.654,21.973,-73.730,-51.758,-18.555,0.000
1728614482.658,18.555,-67.871,-53.711,-19.531,0.000
1728614482.662,-33.203,-66.406,-53.711,-1.953,0.000
1728614482.666,-20.996,-65.430,-59.082,34.180,0.000
1728614482.670,9.766,-59.082,-59.570,39.062,0.000
1728614482.674,31.250,-62.012,-61.523,-2.930,0.000
1728614482.677,75.195,-60.059,-62.012,-13.672,0.000
1728614482.681,19.043,-58.105,-57.129,4.395,0.000
1728614482.685,-26.367,-67.871,-52.246,47.363,0.000
1728614482.689,-3.418,-65.918,-49.316,32.715,0.000
1728614482.693,17.090,-58.594,-54.688,-14.648,0.000
1728614482.697,43.457,-51.758,-55.176,-11.230,0.000
1728614482.701,-4.395,-58.594,-51.270,6.348,0.000
1728614482.705,-18.066,-63.965,-47.363,52.246,0.000
1728614482.709,8.301,-56.152,-46.875,68.848,0.000
1728614482.713,21.484,-55.176,-54.688,7.324,0.000
1728614482.717,50.293,-59.082,-56.641,-16.602,0.000
1728614482.720,2.930,-59.082,-59.082,-4.395,0.000
1728614482.724,-33.691,-50.781,-62.012,22.461,0.000
1728614482.728,5.859,-49.316,-67.871,33.203,0.000
1728614482.732,9.766,-69.336,-72.754,-14.648,0.000
1728614482.736,35.645,-75.684,-72.266,-41.504,0.000
1728614482.740,8.301,-64.453,-71.777,-26.367,0.000
1728614482.744,-40.039,-62.988,-69.336,18.555,0.000
1728614482.748,-4.883,-65.430,-69.336,43.457,0.000
1728614482.752,0.488,-64.453,-63.965,4.395,0.000
1728614482.756,24.414,-69.336,-58.594,-22.461,0.000
1728614482.759,11.230,-69.336,-54.199,-25.879,0.000
1728614482.763,-36.133,-59.570,-52.734,6.836,0.000
1728614482.767,6.836,-50.781,-54.199,43.945,0.000
1728614482.771,15.625,-57.129,-51.758,8.789,0.000
1728614482.775,24.414,-62.988,-54.199,-31.738,0.000
1728614482.779,3.418,-66.895,-62.988,-32.227,0.000
1728614482.783,-54.688,-75.684,-67.383,0.977,0.000
1728614482.787,-18.555,-74.219,-66.895,34.180,0.000
1728614482.791,6.836,-69.824,-59.082,-1.465,0.000
1728614482.795,29.785,-74.219,-58.105,-41.016,0.000
1728614482.799,25.879,-71.289,-59.082,-42.969,0.000
1728614482.802,-31.738,-66.406,-45.898,-14.160,0.000
1728614482.806,-20.020,-55.176,-39.551,39.062,0.000
1728614482.810,0.000,-48.340,-43.457,22.461,0.000
1728614482.814,0.000,-65.918,-45.898,-18.555,0.000
1728614482.818,0.000,-70.312,-50.781,-25.391,0.000
1728614482.822,0.000,-62.012,-51.270,-8.789,0.000
1728614482.826,0.000,-56.152,-45.898,34.668,0.000
1728614482.830,0.000,-55.176,-41.016,24.414,0.000
1728614482.834,0.000,-58.105,-37.598,-18.555,0.000
1728614482.838,0.000,-57.617,-43.457,-31.250,0.000
1728614482.842,0.000,-53.223,-45.898,-16.113,0.000
1728614482.845,0.000,-45.898,-39.062,27.344,0.000
1728614482.849,0.000,-57.617,-37.109,18.066,0.000
1728614482.853,0.000,-56.641,-36.621,-22.949,0.000
1728614482.857,32.227,-51.270,-32.715,-29.297,0.000
1728614482.861,-24.414,-57.129,-33.203,-16.113,0.000
1728614482.865,-38.574,-62.012,-38.086,26.367,0.000
1728614482.869,-17.578,-61.035,-36.621,26.855,0.000
1728614482.873,17.578,-41.504,-34.668,-30.762,0.000
1728614482.877,44.922,-39.551,-34.668,-46.875,0.000
1728614482.881,-11.230,-55.176,-29.785,-27.344,0.000
1728614482.885,-31.738,-58.105,-37.109,20.020,0.000
1728614482.888,-8.301,-50.781,-42.969,28.320,0.000
1728614482.892,11.719,-46.387,-36.621,-22.461,0.000
1728614482.896,32.227,-49.805,-37.109,-30.273,0.000
1728614482.900,-33.203,-60.547,-33.203,-19.531,0.000
1728614482.904,-47.852,-59.570,-31.250,11.230,0.000
1728614482.908,1.465,-56.641,-36.621,25.879,0.000
1728614482.912,-0.488,-52.246,-37.109,-10.254,0.000
1728614482.916,17.578,-51.758,-36.133,-37.598,0.000
1728614482.920,-28.320,-60.547,-44.434,-34.180,0.000
1728614482.924,-64.453,-56.152,-42.969,11.230,0.000
1728614482.927,-23.926,-54.688,-38.086,31.250,0.000
1728614482.931,-4.395,-62.012,-41.992,-15.137,0.000
1728614482.935,26.367,-59.082,-42.480,-45.410,0.000
1728614482.939,5.371,-49.316,-40.527,-41.016,0.000
1728614482.943,-44.434,-38.086,-36.133,-11.719,0.000
1728614482.947,-30.273,-34.180,-35.156,23.438,0.000
1728614482.951,-7.324,-42.480,-38.086,2.930,0.000
1728614482.955,17.090,-44.922,-38.574,-32.227,0.000
1728614482.959,-23.926,-46.387,-29.297,-33.203,0.000
1728614482.963,-55.176,-47.363,-26.855,-7.812,0.000
1728614482.967,-17.578,-51.270,-32.227,26.855,0.000
1728614482.970,-9.766,-56.152,-32.715,-3.418,0.000
1728614482.974,33.691,-49.805,-30.762,-47.852,0.000
1728614482.978,36.133,-41.016,-30.273,-44.922,0.000
1728614482.982,-37.598,-42.480,-27.832,-15.625,0.000
1728614482.986,-30.273,-48.828,-28.809,29.785,0.000
1728614482.990,-16.113,-44.434,-27.832,8.301,0.000
1728614482.994,-0.488,-43.457,-30.273,-46.387,0.000
1728614482.998,20.020,-49.316,-25.391,-41.992,0.000
1728614483.002,-32.715,-51.270,-20.996,-12.695,0.000
1728614483.006,-38.574,-52.734,-27.832,25.879,0.000
1728614483.009,-14.648,-52.734,-35.645,12.695,0.000
1728614483.013,6.836,-49.805,-34.668,-41.992,0.000
1728614483.017,26.367,-50.781,-27.344,-37.598,0.000
1728614483.021,-30.273,-46.387,-24.414,-7.812,0.000
1728614483.025,-49.316,-42.969,-27.832,31.250,0.000
1728614483.029,-14.648,-45.410,-30.273,19.043,0.000
1728614483.033,6.348,-48.340,-33.691,-30.762,0.000
1728614483.037,22.949,-44.922,-36.621,-39.551,0.000
1728614483.041,-32.227,-42.969,-29.785,-24.414,0.000
1728614483.045,-48.340,-48.828,-26.367,20.508,0.000
1728614483.049,-17.578,-48.340,-36.133,23.438,0.000
1728614483.052,-6.348,-50.293,-32.227,-22.461,0.000
1728614483.056,24.414,-44.922,-28.809,-41.992,0.000
1728614483.060,-5.859,-39.551,-32.227,-43.945,0.000
1728614483.064,-16.113,-46.387,-33.203,-4.395,0.000
1728614483.068,-3.906,-45.898,-35.645,6.836,0.000
1728614483.072,-19.043,-46.875,-29.785,-37.109,0.000
1728614483.076,14.160,-41.016,-34.180,-43.945,0.000
1728614483.080,-23.926,-33.691,-36.621,-29.785,0.000
1728614483.084,-68.359,-33.203,-35.156,0.000,0.000
1728614483.088,-49.316,-38.086,-39.551,20.508,0.000
1728614483.092,-14.648,-34.668,-32.227,-14.648,0.000
1728614483.095,35.645,-28.320,-26.855,-43.457,0.000
1728614483.099,2.441,-35.645,-30.273,-40.527,0.000
1728614483.103,-42.969,-40.527,-29.785,5.859,0.000
1728614483.107,-25.391,-36.133,-31.738,23.438,0.000
1728614483.111,-12.695,-36.133,-35.156,-15.625,0.000
1728614483.115,29.297,-37.598,-32.227,-29.785,0.000
1728614483.119,9.766,-34.180,-33.203,-25.879,0.000
1728614483.123,-47.363,-35.645,-32.227,7.324,0.000
1728614483.127,-17.578,-41.504,-30.273,37.109,0.000
1728614483.131,-3.418,-42.480,-32.715,-6.348,0.000
1728614483.134,18.555,-43.945,-37.109,-34.668,0.000
1728614483.138,-1.465,-40.039,-43.945,-33.691,0.000
1728614483.142,-52.734,-47.852,-43.945,-19.531,0.000
1728614483.146,-28.809,-49.805,-41.016,16.602,0.000
1728614483.150,-13.672,-42.480,-40.039,-13.672,0.000
1728614483.154,21.973,-40.039,-37.598,-51.270,0.000
1728614483.158,-6.836,-38.574,-37.598,-49.316,0.000
1728614483.162,-70.801,-44.922,-35.645,-15.137,0.000
1728614483.166,-38.574,-48.828,-37.598,22.461,0.000
1728614483.170,-10.742,-42.480,-35.645,-3.418,0.000
1728614483.174,15.137,-35.156,-33.691,-35.156,0.000
1728614483.177,-4.883,-34.180,-33.691,-41.504,0.000
1728614483.181,-73.242,-37.109,-32.715,-28.809,0.000
1728614483.185,-61.035,-39.551,-31.250,8.789,0.000
1728614483.189,-35.156,-45.898,-31.738,-1.953,0.000
1728614483.193,-16.602,-58.594,-36.133,-52.734,0.000
1728614483.197,-12.207,-56.641,-36.133,-61.035,0.000
1728614483.201,-62.500,-48.340,-29.297,-41.504,0.000
1728614483.205,-57.129,-51.758,-31.250,-2.441,0.000
1728614483.209,-46.875,-52.734,-32.227,-3.906,0.000
1728614483.213,-17.578,-46.875,-31.250,-54.199,0.000
1728614483.217,14.648,-37.598,-31.250,-57.617,0.000
1728614483.220,-43.457,-34.668,-32.227,-41.504,0.000
1728614483.224,-50.293,-45.898,-34.180,-1.465,0.000
1728614483.228,-22.949,-46.875,-38.086,10.742,0.000
1728614483.232,0.000,-38.574,-33.203,-35.645,0.000
1728614483.236,0.000,-38.574,-29.297,-54.688,0.000
1728614483.240,0.000,-33.203,-31.738,-51.270,0.000
1728614483.244,0.000,-25.879,-31.738,-18.066,0.000
1728614483.248,0.000,-29.785,-29.785,9.277,0.000
1728614483.252,0.000,-37.598,-29.785,-33.691,0.000
1728614483.256,0.000,-34.180,-32.227,-50.293,0.000
1728614483.259,0.000,-28.320,-34.668,-31.738,0.000
1728614483.263,0.000,-36.133,-28.809,-1.953,0.000
1728614483.267,0.000,-41.504,-30.762,8.301,0.000
1728614483.271,0.000,-35.156,-35.645,-39.551,0.000
1728614483.275,0.000,-34.180,-35.156,-67.383,0.000
1728614483.279,-28.809,-33.203,-35.645,-53.711,0.000
1728614483.283,-72.754,-35.645,-32.227,-17.090,0.000
1728614483.287,-33.691,-37.598,-34.180,11.719,0.000
1728614483.291,-21.484,-41.504,-37.598,-28.320,0.000
1728614483.295,-0.488,-46.387,-15.137,-64.453,0.000
1728614483.299,-24.902,-44.434,-4.883,-47.363,0.000
1728614483.302,-68.359,-41.504,-10.742,-18.555,0.000
1728614483.306,-45.410,-44.922,-8.789,4.395,0.000
1728614483.310,-48.828,-46.387,-9.277,-28.809,0.000
1728614483.314,-9.766,-44.434,-11.719,-53.711,0.000
1728614483.318,-2.441,-37.109,-12.207,-50.781,0.000
1728614483.322,-54.199,-29.297,-19.043,-32.227,0.000
1728614483.326,-37.109,-38.086,-23.438,8.789,0.000
1728614483.330,-32.715,-50.293,-21.973,-20.996,0.000
1728614483.334,-6.348,-48.340,-28.320,-62.012,0.000
1728614483.338,-15.137,-40.039,-26.367,-57.129,0.000
1728614483.342,-68.848,-37.598,-21.484,-28.320,0.000
1728614483.345,-33.203,-41.016,-22.949,12.695,0.000
1728614483.349,-17.090,-41.016,-31.250,-13.672,0.000
1728614483.353,-13.672,-40.527,-40.039,-54.688,0.000
1728614483.357,-24.414,-46.875,-40.039,-54.199,0.000
1728614483.361,-83.008,-51.270,-38.574,-44.922,0.000
1728614483.365,-64.941,-48.828,-39.062,-18.555,0.000
1728614483.369,-52.734,-47.363,-39.551,-26.855,0.000
1728614483.373,-37.598,-41.504,-39.062,-61.035,0.000
1728614483.377,3.906,-36.133,-32.715,-64.941,0.000
1728614483.381,-65.430,-44.922,-33.203,-47.363,0.000
1728614483.384,-78.125,-45.410,-34.668,2.930,0.000
1728614483.388,-45.898,-42.969,-30.273,0.488,0.000
1728614483.392,-26.855,-47.852,-36.133,-52.734,0.000
1728614483.396,-3.906,-49.316,-41.992,-71.289,0.000
1728614483.400,-70.801,-41.016,-34.668,-68.848,0.000
1728614483.404,-85.449,-36.621,-33.691,-22.461,0.000
1728614483.408,-48.828,-38.086,-32.227,-11.230,0.000
1728614483.412,-25.391,-38.086,-28.320,-54.688,0.000
1728614483.416,-7.324,-43.457,-31.250,-74.707,0.000
1728614483.420,-62.988,-44.922,-31.738,-62.500,0.000
1728614483.424,-57.617,-44.922,-24.902,-14.160,0.000
1728614483.427,-25.879,-49.316,-25.879,11.719,0.000
1728614483.431,-43.457,-55.664,-30.273,-39.551,0.000
1728614483.435,-18.555,-54.688,-30.762,-83.008,0.000
1728614483.439,-49.316,-52.734,-35.645,-72.754,0.000
1728614483.443,-69.824,-51.758,-35.645,-28.320,0.000
1728614483.447,-41.504,-45.410,-32.715,-12.695,0.000
1728614483.451,-43.457,-46.387,-27.832,-52.246,0.000
1728614483.455,-8.789,-49.316,-29.785,-73.242,0.000
1728614483.459,-50.293,-47.852,-40.527,-72.266,0.000
1728614483.463,-92.285,-45.410,-36.621,-40.039,0.000
1728614483.467,-50.781,-49.805,-28.809,-0.977,0.000
1728614483.470,-46.387,-44.922,-33.203,-41.504,0.000
1728614483.474,-29.297,-44.434,-37.598,-79.102,0.000
1728614483.478,-55.664,-52.246,-45.898,-79.590,0.000
1728614483.482,-101.562,-56.641,-51.758,-60.547,0.000
1728614483.486,-75.684,-59.570,-54.199,-35.645,0.000
1728614483.490,-62.012,-61.035,-58.594,-62.988,0.000
1728614483.494,-35.156,-55.664,-57.129,-89.844,0.000
1728614483.498,-42.480,-56.641,-53.711,-87.402,0.000
1728614483.502,-93.750,-60.059,-54.688,-61.035,0.000
1728614483.506,-74.219,-45.898,-52.734,-23.926,0.000
1728614483.509,-58.105,-43.945,-55.664,-47.363,0.000
1728614483.513,-27.832,-43.945,-60.547,-79.102,0.000
1728614483.517,-29.785,-38.574,-56.152,-84.473,0.000
1728614483.521,-81.055,-38.574,-53.711,-66.406,0.000
1728614483.525,-71.777,-40.039,-58.105,-29.785,0.000
1728614483.529,-56.152,-48.340,-58.105,-54.688,0.000
1728614483.533,-25.879,-47.852,-54.199,-101.074,0.000
1728614483.537,-23.926,-45.898,-49.316,-93.262,0.000
1728614483.541,-86.426,-42.969,-45.898,-66.406,0.000
1728614483.545,-74.219,-44.434,-41.504,-22.461,0.000
1728614483.549,-49.805,-44.922,-43.945,-36.133,0.000
1728614483.552,-22.461,-41.992,-44.922,-83.984,0.000
1728614483.556,-5.859,-34.668,-42.480,-83.496,0.000
1728614483.560,-69.824,-34.180,-38.086,-59.082,0.000
1728614483.564,-70.312,-39.062,-32.715,-13.672,0.000
1728614483.568,-38.574,-37.598,-32.715,-16.113,0.000
1728614483.572,-38.574,-32.715,-32.227,-60.059,0.000
1728614483.576,-35.156,-33.203,-32.715,-78.613,0.000
1728614483.580,-79.102,-30.762,-33.203,-68.359,0.000
1728614483.584,-88.379,-27.344,-33.203,-21.973,0.000
1728614483.588,-58.594,-40.527,-32.227,-20.996,0.000
1728614483.592,-43.457,-42.480,-29.785,-64.941,0.000
1728614483.595,-31.250,-38.086,-26.367,-86.914,0.000
1728614483.599,-90.332,-48.340,-27.344,-77.148,0.000
1728614483.603,-95.215,-51.758,-27.344,-28.320,0.000
1728614483.607,-59.082,-48.828,-26.367,-22.461,0.000
1728614483.611,-40.527,-45.898,-30.762,-70.801,0.000
1728614483.615,-3.418,-42.480,-27.832,-88.867,0.000
1728614483.619,-51.270,-42.969,-25.391,-81.543,0.000
1728614483.623,-76.660,-41.016,-31.250,-39.551,0.000
1728614483.627,-48.828,-38.574,-32.715,-10.254,0.000
1728614483.631,-48.828,-38.574,-33.203,-56.152,0.000
1728614483.634,-16.602,-42.480,-34.180,-77.637,0.000
1728614483.638,-41.504,-39.551,-35.645,-74.219,0.000
1728614483.642,-86.914,-35.645,-41.992,-50.781,0.000
1728614483.646,-51.758,-34.180,-42.480,-20.508,0.000
1728614483.650,-25.879,-26.855,-37.109,-49.805,0.000
1728614483.654,7.324,-22.461,-37.598,-74.707,0.000
1728614483.658,-17.090,-26.367,-38.574,-60.547,0.000
1728614483.662,-68.848,-24.902,-36.133,-31.250,0.000
1728614483.666,-52.734,-17.090,-40.527,-1.465,0.000
1728614483.670,-38.086,-27.832,-39.062,-27.832,0.000
1728614483.674,-5.859,-32.715,-33.203,-67.383,0.000
1728614483.677,-32.227,-32.715,-30.273,-70.312,0.000
1728614483.681,-89.844,-29.785,-25.879,-39.551,0.000
1728614483.685,-63.965,-16.602,-28.809,1.953,0.000
1728614483.689,-41.992,-20.508,-28.809,-22.461,0.000
1728614483.693,-20.020,-18.066,-32.227,-67.383,0.000
1728614483.697,-21.973,-11.230,-38.574,-67.871,0.000
1728614483.701,-69.336,-15.625,-32.227,-40.527,0.000
1728614483.705,-47.363,-18.066,-28.809,-6.348,0.000
1728614483.709,-39.062,-17.090,-28.809,-17.578,0.000
1728614483.713,-18.555,-20.508,-30.273,-55.176,0.000
1728614483.717,-14.648,-24.414,-32.227,-68.848,0.000
1728614483.720,-91.797,-26.855,-32.227,-54.199,0.000
1728614483.724,-81.055,-26.367,-29.297,1.465,0.000
1728614483.728,-58.105,-22.949,-26.367,-6.348,0.000
1728614483.732,-41.504,-21.484,-28.809,-61.523,0.000
1728614483.736,-24.902,-18.066,-28.809,-71.777,0.000
1728614483.740,-79.590,-14.160,-30.273,-54.688,0.000
1728614483.744,-67.871,-20.996,-34.180,-17.090,0.000
1728614483.748,-37.598,-34.180,-37.109,-17.578,0.000
1728614483.752,-31.250,-33.203,-41.504,-66.406,0.000
1728614483.756,-18.555,-26.367,-47.363,-85.449,0.000
1728614483.759,-86.426,-35.645,-47.852,-68.848,0.000
1728614483.763,-98.633,-41.504,-44.922,-26.367,0.000
1728614483.767,-64.941,-36.621,-39.551,-10.254,0.000
1728614483.771,-54.199,-38.086,-41.504,-60.547,0.000
1728614483.775,-18.555,-42.480,-47.852,-87.402,0.000
1728614483.779,-51.758,-33.691,-48.828,-67.383,0.000
1728614483.783,-83.008,-30.273,-47.852,-30.762,0.000
1728614483.787,-59.082,-26.367,-44.434,-18.555,0.000
1728614483.791,-32.715,-9.277,-41.504,-66.406,0.000
1728614483.795,6.348,-5.371,-41.992,-84.473,0.000
1728614483.799,-55.176,-1.953,-40.039,-62.988,0.000
1728614483.802,-107.422,-0.977,-36.133,-24.902,0.000
1728614483.806,-58.105,-4.395,-34.668,-4.883,0.000
1728614483.810,-38.086,-1.465,-33.691,-41.992,0.000
1728614483.814,-7.812,2.930,-30.273,-72.266,0.000
1728614483.818,-42.480,5.859,-29.297,-66.406,0.000
1728614483.822,-78.125,4.883,-29.785,-28.320,0.000
1728614483.826,-37.109,3.906,-25.391,4.883,0.000
1728614483.830,-33.203,1.465,-28.809,-35.645,0.000
1728614483.834,-18.555,-5.859,-30.762,-71.289,0.000
1728614483.838,-37.598,-7.812,-30.762,-62.988,0.000
1728614483.842,-83.496,-6.836,-36.621,-39.062,0.000
1728614483.845,-54.688,-4.883,-39.551,-16.113,0.000
1728614483.849,-38.086,-6.836,-37.598,-51.270,0.000
1728614483.853,-7.324,-13.672,-32.715,-81.055,0.000
1728614483.857,-24.902,-10.254,-29.785,-74.707,0.000
1728614483.861,-83.496,-8.301,-37.598,-55.176,0.000
1728614483.865,-53.223,-4.395,-33.203,-22.461,0.000
1728614483.869,-54.199,-7.812,-27.344,-39.551,0.000
1728614483.873,-38.086,-22.461,-33.203,-78.125,0.000
1728614483.877,-39.062,-25.391,-33.691,-92.773,0.000
1728614483.881,-100.586,-20.508,-31.250,-81.055,0.000
1728614483.884,-76.172,-19.531,-35.156,-35.156,0.000
1728614483.888,-56.152,-26.367,-36.133,-51.270,0.000
1728614483.892,-24.902,-27.344,-34.668,-88.379,0.000
1728614483.896,-20.996,-30.762,-31.250,-87.402,0.000
1728614483.900,-83.984,-38.574,-28.320,-57.129,0.000
1728614483.904,-73.730,-38.086,-35.156,-19.043,0.000
1728614483.908,-69.824,-34.180,-38.574,-43.945,0.000
1728614483.912,-65.430,-43.457,-38.574,-81.055,0.000
1728614483.916,-41.016,-43.457,-42.480,-83.984,0.000
1728614483.920,-105.957,-36.621,-43.457,-66.895,0.000
1728614483.924,-104.004,-31.250,-40.527,-31.738,0.000
1728614483.927,-66.895,-25.391,-43.457,-39.062,0.000
1728614483.931,-40.527,-26.855,-44.922,-75.684,0.000
1728614483.935,-15.137,-22.949,0.000,-80.078,0.000
1728614483.939,-74.219,-24.414,0.000,-67.871,0.000
1728614483.943,-86.426,-34.668,0.000,-20.996,0.000
1728614483.947,-62.012,-36.621,0.000,-12.207,0.000
1728614483.951,-42.969,-33.203,0.000,-63.477,0.000
1728614483.955,-6.836,-24.414,0.000,-74.707,0.000
1728614483.959,-50.293,-17.090,0.000,-62.988,0.000
1728614483.963,-74.219,-23.926,0.000,-26.367,0.000
1728614483.967,-44.922,-22.461,0.000,-2.441,0.000
1728614483.970,-28.320,-12.207,0.000,-43.457,0.000
1728614483.974,-4.883,-8.301,0.000,-63.477,0.000
1728614483.978,-50.781,-4.395,0.000,-49.805,0.000
1728614483.982,-71.289,-5.371,-28.320,-17.090,0.000
1728614483.986,-30.762,-16.602,-30.762,7.324,0.000
1728614483.990,-25.391,-15.625,-36.133,-29.785,0.000
1728614483.994,-8.789,-11.230,-32.227,-64.941,0.000
1728614483.998,-49.805,-19.531,-28.320,-66.406,0.000
1728614484.002,-93.262,-18.066,-37.109,-32.227,0.000
1728614484.006,-61.035,-14.648,-37.598,-5.371,0.000
1728614484.009,-50.293,-15.625,-35.645,-49.316,0.000
1728614484.013,-20.996,-23.438,-39.551,-92.285,0.000
1728614484.017,-48.340,-37.109,-37.598,-83.008,0.000
1728614484.021,-103.516,-30.273,-38.086,-41.992,0.000
1728614484.025,-72.754,-25.879,-42.969,-8.301,0.000
1728614484.029,-64.453,-30.273,-44.434,-43.457,0.000
1728614484.033,-32.227,-26.855,-41.992,-83.496,0.000
1728614484.037,-45.898,-30.273,-37.598,-80.078,0.000
1728614484.041,-104.980,-34.668,-35.156,-51.758,0.000
1728614484.045,-77.637,-31.738,-34.668,-16.602,0.000
1728614484.049,-64.453,-36.133,-43.457,-49.805,0.000
1728614484.052,-39.062,-36.621,-43.457,-89.355,0.000
1728614484.056,-38.574,-37.598,-33.203,-76.172,0.000
1728614484.060,-91.797,-30.762,-32.715,-57.617,0.000
1728614484.064,-63.965,-22.949,-40.527,-32.715,0.000
1728614484.068,-59.082,-29.785,-38.086,-48.828,0.000
1728614484.072,-40.527,-33.691,-33.691,-83.496,0.000
1728614484.076,-36.133,-31.250,-38.574,-91.797,0.000
1728614484.080,-123.047,-26.855,-46.387,-74.707,0.000
1728614484.084,-97.168,-24.902,-50.781,-26.855,0.000
1728614484.088,-62.500,-26.855,-59.570,-41.016,0.000
1728614484.091,-35.645,-25.879,-62.988,-90.820,0.000
1728614484.095,-10.742,-21.973,-51.758,-89.355,0.000
1728614484.099,-74.219,-20.508,-43.945,-56.641,0.000
1728614484.103,-65.918,-28.320,-48.828,-22.949,0.000
1728614484.107,-38.574,-26.367,-47.363,-25.391,0.000
1728614484.111,-22.949,-18.555,-42.480,-56.152,0.000
1728614484.115,5.859,-17.090,-36.133,-60.059,0.000
1728614484.119,-41.016,-9.766,-35.645,-46.387,0.000
1728614484.123,-45.898,-5.859,-41.504,-1.465,0.000
1728614484.127,-18.066,-5.371,-37.598,8.789,0.000
1728614484.131,-19.043,0.488,-32.715,-50.293,0.000
1728614484.134,-8.301,0.977,-35.156,-54.199,0.000
1728614484.138,-45.898,-4.395,-30.762,-41.992,0.000
1728614484.142,-42.480,-7.812,-33.203,-30.273,0.000
1728614484.146,-23.438,-15.137,-42.969,-14.648,0.000
1728614484.150,-43.457,-20.508,-41.504,-57.129,0.000
1728614484.154,-17.090,-20.020,-33.203,-74.219,0.000
1728614484.158,-53.223,-20.508,-32.227,-55.664,0.000
1728614484.162,-85.938,-21.484,-38.086,-23.438,0.000
1728614484.166,-51.758,-28.809,-38.086,-12.207,0.000
1728614484.170,-30.762,-29.297,-37.598,-59.570,0.000
1728614484.174,-12.695,-30.762,-39.062,-87.402,0.000
1728614484.177,-52.246,-33.203,-39.551,-76.172,0.000
1728614484.181,-82.520,-28.809,-40.039,-42.969,0.000
1728614484.185,-58.594,-30.273,-40.039,-20.020,0.000
1728614484.189,-57.617,-37.109,-40.039,-60.547,0.000
1728614484.193,-32.715,-34.668,-39.551,-79.590,0.000
1728614484.197,-48.340,-35.156,-42.969,-68.848,0.000
1728614484.201,-89.355,-38.574,-45.898,-47.852,0.000
1728614484.205,-71.777,-31.738,-45.410,-21.484,0.000
1728614484.209,-71.777,-30.273,-53.223,-64.941,0.000
1728614484.213,-45.410,-29.297,-54.199,-99.121,0.000
1728614484.217,-54.199,-26.367,-49.805,-90.332,0.000
1728614484.220,-93.262,-23.926,-47.363,-64.941,0.000
1728614484.224,-52.246,-18.555,-43.457,-22.461,0.000
1728614484.228,-39.551,-18.555,-44.922,-40.527,0.000
1728614484.232,-25.391,-22.949,-50.293,-70.801,0.000
1728614484.236,-29.297,-21.484,-50.781,-76.172,0.000
1728614484.240,-83.008,-15.625,-49.316,-66.895,0.000
1728614484.244,-65.918,-19.531,-51.758,-20.996,0.000
1728614484.248,-53.711,-25.391,-56.152,-26.367,0.000
1728614484.252,-20.020,-24.902,-57.129,-72.266,0.000
1728614484.256,-10.254,-12.207,-56.152,-84.473,0.000
1728614484.259,-92.285,-1.953,-54.688,-54.688,0.000
1728614484.263,0.000,-8.789,-49.805,2.930,0.000
1728614484.267,0.000,-10.254,-45.410,-11.719,0.000
1728614484.271,0.000,-4.395,-49.316,-56.641,0.000
1728614484.275,0.000,-2.930,-52.246,-70.801,0.000
1728614484.279,0.000,-2.441,-51.270,-42.969,0.000
1728614484.283,0.000,-11.719,-47.852,-1.953,0.000
1728614484.287,0.000,-10.254,-39.551,-18.066,0.000
1728614484.291,0.000,-7.324,-34.180,-49.805,0.000
1728614484.295,0.000,-13.672,-35.156,-58.105,0.000
1728614484.299,0.000,-5.371,-37.109,-62.012,0.000
1728614484.302,0.000,-3.418,-41.016,-23.438,0.000
1728614484.306,0.000,-14.160,-41.016,-3.418,0.000
1728614484.310,-38.086,-11.719,-40.039,-44.922,0.000
1728614484.314,-7.812,-3.418,-37.598,-70.312,0.000
1728614484.318,-54.199,2.441,-36.133,-56.152,0.000
1728614484.322,-81.055,9.277,-42.480,-15.625,0.000
1728614484.326,-53.711,9.277,-47.363,-16.602,0.000
1728614484.330,-39.551,4.883,-48.828,-66.406,0.000
1728614484.334,-20.020,0.000,-48.828,-82.031,0.000
1728614484.338,-84.961,4.395,-43.945,-63.477,0.000
1728614484.342,-111.328,6.836,-44.434,-26.367,0.000
1728614484.345,-72.754,1.953,-47.363,-28.320,0.000
1728614484.349,-62.500,-4.395,-45.410,-69.824,0.000
1728614484.353,-23.438,-4.395,-43.457,-89.844,0.000
1728614484.357,-54.688,-4.883,-45.898,-84.473,0.000
1728614484.361,-92.285,2.441,-44.922,-42.969,0.000
1728614484.365,-73.730,14.160,-46.875,-25.879,0.000
1728614484.369,-60.059,22.461,-47.852,-67.871,0.000
1728614484.373,-14.648,24.414,-43.945,-88.379,0.000
1728614484.377,-47.852,25.391,-41.504,-81.055,0.000
1728614484.381,-90.820,34.180,-41.504,-35.156,0.000
1728614484.384,-46.387,32.227,-37.598,-0.488,0.000
1728614484.388,-41.016,39.062,-26.855,-44.434,0.000
1728614484.392,-25.391,42.969,-31.250,-70.801,0.000
1728614484.396,-38.086,39.551,-21.973,-71.289,0.000
1728614484.400,-100.098,49.316,-4.395,-66.895,0.000
1728614484.404,-96.680,39.551,-9.277,-40.527,0.000
1728614484.408,-102.051,46.875,-7.324,-76.660,0.000
1728614484.412,-87.402,66.895,7.324,-131.348,0.000
1728614484.416,-103.516,50.781,28.809,-137.695,0.000
1728614484.420,-182.129,39.062,18.555,-131.836,0.000
1728614484.424,-177.246,44.434,-16.602,-106.445,0.000
1728614484.427,-162.598,49.316,-21.973,-143.555,0.000
1728614484.431,-147.949,47.363,-11.230,-207.520,0.000
1728614484.435,-155.273,47.363,-6.836,-222.168,0.000
1728614484.439,-228.027,52.246,-5.859,-212.402,0.000
1728614484.443,-216.797,46.875,-10.254,-180.176,0.000
1728614484.447,-193.359,48.828,-9.277,-190.430,0.000
1728614484.451,-180.664,41.016,-10.254,-226.074,0.000
1728614484.455,-174.805,20.996,-8.789,-226.562,0.000
1728614484.459,-247.559,15.137,-4.883,-218.750,0.000
1728614484.463,-233.398,10.742,-12.695,-178.223,0.000
1728614484.467,-179.199,7.324,-22.949,-173.828,0.000
1728614484.470,-167.969,4.883,-25.391,-219.727,0.000
1728614484.474,-149.414,-6.836,-32.715,-217.773,0.000
1728614484.478,-201.660,-20.508,-35.645,-178.223,0.000
1728614484.482,-218.750,-23.926,-37.109,-126.465,0.000
1728614484.486,-155.762,-21.973,-47.363,-102.539,0.000
1728614484.490,-119.141,-35.645,-58.594,-138.672,0.000
1728614484.494,-94.727,-47.852,-64.941,-165.039,0.000
1728614484.498,-135.742,-48.828,-63.965,-136.230,0.000
1728614484.502,-141.113,-53.223,-69.336,-79.590,0.000
1728614484.506,-92.773,-58.594,-74.219,-55.176,0.000
1728614484.509,-72.754,-60.059,-72.754,-81.055,0.000
1728614484.513,-32.715,-58.594,-77.148,-99.121,0.000
1728614484.517,-61.035,-64.453,-82.520,-70.801,0.000
1728614484.521,-95.703,-71.289,-84.961,-23.926,0.000
1728614484.525,-56.641,-74.707,-85.449,3.418,0.000
1728614484.529,-10.254,-72.754,-79.102,-19.531,0.000
1728614484.533,38.086,-64.941,-75.684,-35.156,0.000
1728614484.537,-0.977,-63.965,-77.637,-21.484,0.000
1728614484.541,-44.434,-66.406,-82.520,22.949,0.000
1728614484.545,-1.465,-62.500,-81.543,57.129,0.000
1728614484.549,18.555,-67.871,-77.148,26.855,0.000
1728614484.552,60.547,-70.312,-78.613,0.977,0.000
1728614484.556,49.805,-56.641,-81.055,8.789,0.000
1728614484.560,-6.836,-53.223,-80.078,41.992,0.000
1728614484.564,13.184,-53.223,-85.938,71.289,0.000
1728614484.568,16.602,-52.734,-92.285,29.785,0.000
1728614484.572,56.152,-50.781,-90.332,1.953,0.000
1728614484.576,52.734,-46.875,-86.914,16.113,0.000
1728614484.580,-5.371,-52.734,-84.473,39.551,0.000
1728614484.584,27.344,-50.781,-85.449,79.102,0.000
1728614484.588,41.992,-42.480,-83.008,50.781,0.000
1728614484.592,57.129,-54.688,-81.055,9.277,0.000
1728614484.595,50.781,-60.059,-78.125,16.602,0.000
1728614484.599,-2.930,-48.340,-78.613,33.691,0.000
1728614484.603,18.066,-48.828,-85.938,64.453,0.000
1728614484.607,16.602,-50.293,-84.961,48.828,0.000
1728614484.611,31.738,-44.922,-84.473,-8.301,0.000
1728614484.615,36.133,-46.387,-87.891,-19.531,0.000
1728614484.619,-24.902,-50.781,-83.496,2.930,0.000
1728614484.623,-4.883,-45.410,-74.707,49.316,0.000
1728614484.627,19.531,-42.480,-70.312,44.922,0.000
1728614484.631,36.133,-45.898,-70.312,-5.859,0.000
1728614484.634,42.969,-24.902,-71.289,-20.020,0.000
1728614484.638,-25.391,-6.348,-66.406,0.000,0.000
1728614484.642,-20.508,-9.277,-74.219,40.039,0.000
1728614484.646,5.859,-8.301,-81.543,26.855,0.000
1728614484.650,24.902,-1.953,-74.219,-17.578,0.000
1728614484.654,41.016,-0.488,-70.801,-23.438,0.000
1728614484.658,-22.461,-2.441,-73.730,-7.324,0.000
1728614484.662,-28.809,-2.441,-74.219,34.180,0.000
1728614484.666,4.883,-5.859,-75.195,29.297,0.000
1728614484.670,16.602,-11.230,-74.219,-7.324,0.000
1728614484.674,41.504,-5.371,-74.707,-13.672,0.000
1728614484.677,-1.465,-5.371,-79.102,-19.043,0.000
1728614484.681,-23.926,-10.742,-79.590,10.742,0.000
1728614484.685,10.742,-8.789,-74.219,42.969,0.000
1728614484.689,10.254,-4.883,-72.754,0.488,0.000
1728614484.693,25.391,0.488,-75.195,-30.762,0.000
1728614484.697,-21.484,-2.441,-78.125,-21.484,0.000
1728614484.701,-52.246,-13.672,-73.730,16.602,0.000
1728614484.705,-7.812,-4.883,-67.383,40.527,0.000
1728614484.709,5.859,15.137,-67.383,-6.348,0.000
1728614484.713,29.785,20.020,-66.406,-25.879,0.000
1728614484.717,-13.672,20.020,-64.453,-4.883,0.000
1728614484.720,-59.570,24.414,-62.500,16.602,0.000
1728614484.724,-25.879,22.949,-58.594,35.645,0.000
1728614484.728,-10.254,16.113,-55.664,1.465,0.000
1728614484.732,17.090,20.996,-57.129,-40.039,0.000
1728614484.736,-19.531,11.230,-59.570,-41.504,0.000
1728614484.740,-72.266,5.371,-59.082,-8.301,0.000
1728614484.744,-33.203,14.648,-54.688,24.414,0.000
1728614484.748,-20.508,12.207,-45.898,-19.043,0.000
1728614484.752,10.742,12.207,-44.922,-50.293,0.000
1728614484.756,-6.348,7.812,-52.246,-40.039,0.000
1728614484.759,-76.660,7.324,-56.152,-22.949,0.000
1728614484.763,-51.270,8.789,-56.641,3.418,0.000
1728614484.767,-30.762,-2.441,-59.082,-22.949,0.000
1728614484.771,-8.789,-5.371,-57.129,-64.453,0.000
1728614484.775,-18.066,-6.836,-58.594,-73.242,0.000
1728614484.779,-79.590,-13.672,-64.453,-46.875,0.000
1728614484.783,-64.941,-14.648,-66.895,-8.789,0.000
1728614484.787,-49.316,-12.207,-70.312,-33.203,0.000
1728614484.791,-28.809,-13.672,-69.336,-79.590,0.000
1728614484.795,-24.414,-18.555,-65.430,-85.449,0.000
1728614484.799,-74.707,-26.367,-65.918,-64.453,0.000
1728614484.802,-69.824,-23.926,-69.824,-19.043,0.000
1728614484.806,-45.410,-25.391,-67.871,-24.414,0.000
1728614484.810,-27.344,-28.809,-66.895,-79.102,0.000
1728614484.814,-23.438,-20.508,-66.895,-92.773,0.000
1728614484.818,-79.102,-23.926,-66.406,-69.824,0.000
1728614484.822,-79.102,-30.273,-62.988,-26.855,0.000
1728614484.826,-56.641,-29.297,-59.570,-39.062,0.000
1728614484.830,-27.344,-27.344,-58.105,-81.055,0.000
1728614484.834,-5.371,-25.879,-56.152,-83.496,0.000
1728614484.838,-62.500,-27.344,-59.082,-67.383,0.000
1728614484.842,-48.340,-25.391,-58.105,-23.926,0.000
1728614484.845,-16.113,-15.625,-51.758,-16.602,0.000
1728614484.849,-14.160,-16.602,-48.828,-65.430,0.000
1728614484.853,1.953,-21.484,-47.363,-79.590,0.000
1728614484.857,-60.059,-20.996,-52.734,-60.547,0.000
1728614484.861,-70.312,5.859,-53.711,-21.484,0.000
1728614484.865,-31.250,20.020,-47.852,-4.883,0.000
1728614484.869,-23.926,11.230,-50.293,-47.852,0.000
1728614484.873,0.000,2.441,-54.688,-65.430,0.000
1728614484.877,0.000,-7.324,-50.781,-53.223,0.000
1728614484.881,0.000,-12.695,-49.316,-15.625,0.000
1728614484.884,0.000,-18.066,-50.781,3.418,0.000
1728614484.888,0.000,-17.578,-49.805,-45.898,0.000
1728614484.892,0.000,-15.137,-47.363,-67.871,0.000
1728614484.896,0.000,-16.113,-39.551,-54.199,0.000
1728614484.900,0.000,-19.043,-40.527,-17.090,0.000
1728614484.904,0.000,-18.555,-45.898,6.836,0.000
1728614484.908,0.000,-20.508,-42.969,-39.551,0.000
1728614484.912,0.000,-23.438,-42.480,-65.430,0.000
1728614484.916,0.000,-23.926,-41.992,-63.477,0.000
1728614484.920,-0.488,-26.855,-39.551,-28.320,0.000
1728614484.923,-43.457,-32.715,-46.387,-1.953,0.000
1728614484.927,-75.195,-30.762,-47.363,-49.805,0.000
1728614484.931,-51.758,-21.973,-44.922,-85.449,0.000
1728614484.935,-45.410,-26.855,-45.410,-79.590,0.000
1728614484.939,-11.230,-32.715,-46.387,-51.270,0.000
1728614484.943,-41.504,-33.203,-46.875,-20.508,0.000
1728614484.947,-83.008,-31.250,-42.480,-44.922,0.000
1728614484.951,-55.664,-29.297,-43.945,-85.938,0.000
1728614484.955,-45.898,-38.574,-46.875,-73.242,0.000
1728614484.959,-6.836,-41.016,-48.828,-44.922,0.000
1728614484.963,-20.996,-30.273,-50.293,-17.578,0.000
1728614484.966,-65.430,-25.879,-54.688,-38.086,0.000
1728614484.970,-38.574,-27.344,-56.152,-70.801,0.000
1728614484.974,-32.227,-29.785,-52.734,-68.359,0.000
1728614484.978,-82.031,-31.250,-50.293,-61.035,0.000
1728614484.982,-62.500,-27.344,-50.293,-22.949,0.000
1728614484.986,-26.367,-22.461,-47.363,-25.391,0.000
1728614484.990,-2.441,-21.973,-44.922,-63.965,0.000
1728614484.994,-2.930,-19.531,-43.945,-75.684,0.000
1728614484.998,-58.594,-22.461,-40.527,-60.547,0.000
1728614485.002,-49.805,-19.531,-38.086,-15.137,0.000
1728614485.006,-35.156,-20.508,-38.086,-13.184,0.000
1728614485.009,-23.926,-28.320,-38.086,-48.340,0.000
1728614485.013,0.977,-28.809,-32.227,-49.316,0.000
1728614485.017,-48.340,-30.762,-32.227,-41.992,0.000
1728614485.021,-47.852,-24.414,-30.273,-0.488,0.000
1728614485.025,-28.320,-18.066,-24.902,7.812,0.000
1728614485.029,-26.855,-17.578,-29.297,-37.598,0.000
1728614485.033,-14.160,-25.879,-30.762,-41.504,0.000
1728614485.037,-68.359,-30.762,-33.691,-36.133,0.000
1728614485.041,-82.520,-27.344,-37.598,-4.883,0.000
1728614485.045,-43.457,-28.320,-38.086,17.090,0.000
1728614485.048,-31.250,-31.250,-38.574,-31.738,0.000
1728614485.052,-13.184,-38.574,-36.621,-57.617,0.000
1728614485.056,-58.105,-37.598,-33.691,-52.246,0.000
1728614485.060,-82.520,-39.551,-39.062,-31.738,0.000
1728614485.064,-58.594,-47.852,-45.410,-7.812,0.000
1728614485.068,-48.340,-47.363,-39.551,-45.898,0.000
1728614485.072,-6.348,-47.852,-37.598,-76.660,0.000
1728614485.076,-46.875,-45.898,-41.992,-57.129,0.000
1728614485.080,-74.707,-44.434,-37.598,-27.832,0.000
1728614485.084,-33.691,-43.945,-38.086,1.465,0.000
1728614485.088,-27.344,-38.086,-43.457,-25.879,0.000
1728614485.091,-2.441,-36.133,-42.480,-70.312,0.000
1728614485.095,-33.203,-43.457,-45.898,-70.312,0.000
1728614485.099,-82.031,-46.875,-50.293,-36.133,0.000
1728614485.103,-42.480,-51.270,-47.852,-14.160,0.000
1728614485.107,0.000,-48.828,-48.340,-52.734,0.000
1728614485.111,0.000,-32.715,-51.270,-82.031,0.000
1728614485.115,0.000,-42.480,-48.340,-81.543,0.000
1728614485.119,0.000,-47.363,-49.805,-51.758,0.000
1728614485.123,0.000,-35.156,-54.688,-6.836,0.000
1728614485.127,0.000,-32.715,-51.758,-43.457,0.000
1728614485.131,0.000,-40.039,-55.176,-80.566,0.000
1728614485.134,0.000,-43.457,-58.105,-68.848,0.000
1728614485.138,0.000,-37.109,-56.152,-44.922,0.000
1728614485.142,0.000,-30.273,-54.199,-13.672,0.000
1728614485.146,0.000,-30.762,-54.199,-29.785,0.000
1728614485.150,0.000,-41.504,-57.129,-65.430,0.000
1728614485.154,-21.973,-36.621,-48.828,-63.477,0.000
1728614485.158,-79.590,-26.855,-43.945,-32.227,0.000
1728614485.162,-71.777,-32.227,-45.410,-5.371,0.000
1728614485.166,-48.828,-33.691,-51.270,-27.344,0.000
1728614485.170,-21.484,-29.785,-55.664,-69.824,0.000
1728614485.173,0.977,-27.344,-55.664,-71.777,0.000
1728614485.177,-55.176,-27.832,-54.688,-57.617,0.000
1728614485.181,-51.270,-29.297,-47.852,-11.719,0.000
1728614485.185,-29.785,-31.250,-47.363,-13.184,0.000
1728614485.189,-34.180,-37.109,-52.246,-60.059,0.000
1728614485.193,-24.902,-44.922,-53.223,-62.500,0.000
1728614485.197,-79.102,-46.875,-52.246,-48.340,0.000
1728614485.201,-95.215,-41.992,-42.969,-8.301,0.000
1728614485.205,-66.406,-40.527,-41.016,-8.301,0.000
1728614485.209,-46.387,-47.363,-47.363,-62.988,0.000
1728614485.213,-10.742,-55.176,-49.316,-73.730,0.000
1728614485.216,-52.246,-55.664,-51.270,-63.965,0.000
1728614485.220,-73.730,-50.781,-50.293,-18.555,0.000
1728614485.224,-44.922,-50.781,-45.410,5.859,0.000
1728614485.228,-40.527,-45.898,-45.410,-45.410,0.000
1728614485.232,-17.090,-46.875,-44.922,-60.547,0.000
1728614485.236,-51.758,-50.781,-47.363,-57.129,0.000
1728614485.240,-69.824,-46.875,-46.875,-18.555,0.000
1728614485.244,-37.109,-44.434,-44.434,12.207,0.000
1728614485.248,-28.809,-45.410,-50.781,-48.828,0.000
1728614485.252,6.836,-44.434,-59.082,-80.078,0.000
1728614485.256,-22.949,-49.805,-59.082,-59.570,0.000
1728614485.259,-68.359,-51.270,-58.105,-26.855,0.000
1728614485.263,-49.805,-37.109,-52.734,-5.371,0.000
1728614485.267,-49.316,-28.320,-45.410,-41.016,0.000
1728614485.271,-35.156,-31.250,-49.805,-65.918,0.000
1728614485.275,-55.176,-28.809,-52.246,-57.617,0.000
1728614485.279,-83.008,-24.902,-43.457,-15.137,0.000
1728614485.283,-53.711,-25.879,-37.598,31.738,0.000
1728614485.287,-34.180,-29.785,-41.504,-9.277,0.000
1728614485.291,6.836,-31.738,-45.898,-55.176,0.000
1728614485.295,-1.953,-31.738,-46.387,-45.898,0.000
1728614485.298,-59.082,-35.645,-47.852,-11.230,0.000
1728614485.302,-36.621,-34.180,-41.016,27.344,0.000
1728614485.306,-30.273,-38.574,-36.621,-3.418,0.000
1728614485.310,-7.812,-46.387,-42.480,-48.340,0.000
1728614485.314,-18.066,-47.852,-48.828,-51.758,0.000
1728614485.318,-76.172,-54.688,-47.363,-32.227,0.000
1728614485.322,-57.129,-50.781,-40.527,3.418,0.000
1728614485.326,-33.203,-44.922,-37.598,-12.207,0.000
1728614485.330,2.930,-52.246,-37.109,-46.875,0.000
1728614485.334,10.742,-56.152,-34.180,-58.105,0.000
1728614485.338,-56.641,-48.340,-33.203,-29.785,0.000
1728614485.341,-62.988,-55.664,-35.645,15.625,0.000
1728614485.345,-62.012,-67.383,-35.156,-12.207,0.000
1728614485.349,-41.992,-61.035,-34.668,-55.664,0.000
1728614485.353,-17.578,-51.758,-36.133,-64.941,0.000
1728614485.357,-73.242,-46.875,-32.227,-49.316,0.000
1728614485.361,-68.848,-46.875,-32.715,-0.977,0.000
1728614485.365,-33.203,-42.480,-35.156,-7.324,0.000
1728614485.369,-12.207,-42.480,-37.109,-57.129,0.000
1728614485.373,-11.230,-56.152,-40.039,-54.688,0.000
1728614485.377,-71.289,-68.848,-41.016,-38.574,0.000
1728614485.380,-69.824,-65.430,-37.109,-13.672,0.000
1728614485.384,-43.457,-57.617,-39.062,-3.906,0.000
1728614485.388,-25.391,-49.805,-43.945,-52.734,0.000
1728614485.392,3.906,-42.480,-48.828,-73.242,0.000
1728614485.396,-52.246,-41.992,-50.781,-62.012,0.000
1728614485.400,-82.031,-41.992,-54.199,-28.320,0.000
1728614485.404,-47.852,-36.133,-61.035,-14.160,0.000
1728614485.408,-45.898,-41.016,-60.059,-66.406,0.000
1728614485.412,-17.090,-50.781,-60.059,-87.891,0.000
1728614485.416,-41.992,-46.875,-64.453,-71.289,0.000
1728614485.420,-63.477,-41.992,-62.500,-20.996,0.000
1728614485.423,-32.227,-37.598,-62.500,-2.930,0.000
1728614485.427,-29.785,-36.621,-61.035,-52.246,0.000
1728614485.431,-3.418,-34.668,-60.547,-68.848,0.000
1728614485.435,-26.855,-25.391,-64.453,-59.570,0.000
1728614485.439,-81.055,-36.133,-67.383,-29.785,0.000
1728614485.443,-62.012,-50.293,-65.918,3.418,0.000
1728614485.447,-37.109,-42.480,-62.988,-30.273,0.000
1728614485.451,1.953,-35.645,-64.453,-69.336,0.000
1728614485.455,-27.344,-42.969,-67.383,-68.359,0.000
1728614485.459,-83.008,-49.316,-65.918,-41.016,0.000
1728614485.463,-45.898,-4.395,-58.105,-8.789,0.000
1728614485.466,-30.273,59.570,-51.758,-41.016,0.000
1728614485.470,-17.090,77.148,-54.199,-74.219,0.000
1728614485.474,-32.715,58.594,-59.082,-71.777,0.000
1728614485.478,-75.684,56.641,-58.594,-44.922,0.000
1728614485.482,-46.875,62.500,-60.059,-9.277,0.000
1728614485.486,-39.551,49.805,-58.105,-31.250,0.000
1728614485.490,-9.277,42.480,-49.316,-62.500,0.000
1728614485.494,-11.719,41.992,-46.875,-67.383,0.000
1728614485.498,-79.590,46.387,-50.293,-43.945,0.000
1728614485.502,-65.430,36.133,-48.340,0.000,0.000
1728614485.505,-42.969,20.996,-38.574,-23.438,0.000
1728614485.509,-5.859,23.438,-41.016,-58.594,0.000
1728614485.513,-0.488,23.926,-49.805,-62.012,0.000
1728614485.517,-71.777,20.508,-48.340,-41.992,0.000
1728614485.521,-63.477,14.160,-46.387,-6.348,0.000
1728614485.525,-30.762,9.766,-43.457,-15.625,0.000
1728614485.529,-8.301,12.207,-42.480,-45.410,0.000
1728614485.533,-4.883,8.301,-46.875,-59.570,0.000
1728614485.537,-72.754,-5.859,-51.270,-52.734,0.000
1728614485.541,-81.055,-7.324,-52.246,1.953,0.000
1728614485.545,-54.199,-6.836,-54.688,-3.418,0.000
1728614485.548,-27.344,-18.066,-54.688,-60.547,0.000
1728614485.552,-10.742,-13.672,-53.223,-75.195,0.000
1728614485.556,-64.453,-6.348,-49.805,-56.641,0.000
1728614485.560,-74.707,-7.812,-47.852,-10.254,0.000
1728614485.564,-46.387,-7.324,-52.246,-18.066,0.000
1728614485.568,-26.855,-13.184,-54.199,-67.871,0.000
1728614485.572,3.418,-7.812,-50.781,-72.266,0.000
1728614485.576,-39.551,-5.371,-51.758,-50.293,0.000
1728614485.580,-37.598,-0.977,-52.734,-7.812,0.000
1728614485.584,-5.859,2.441,-56.641,-5.371,0.000
1728614485.588,-10.742,-11.719,-62.988,-55.664,0.000
1728614485.591,-2.441,-13.672,-62.988,-71.777,0.000
1728614485.595,-56.641,-12.207,-63.965,-61.035,0.000
1728614485.599,-88.867,-16.113,-61.035,-19.531,0.000
1728614485.603,-54.199,-7.812,-54.688,-1.953,0.000
1728614485.607,-35.156,-9.277,-48.340,-53.223,0.000
1728614485.611,-8.789,-13.184,-50.293,-54.688,0.000
1728614485.615,-39.551,-15.625,-51.270,-39.062,0.000
1728614485.619,-64.453,-7.324,-49.316,-10.742,0.000
1728614485.623,-41.016,-12.207,-46.387,23.438,0.000
1728614485.627,-39.062,-32.715,-51.270,-36.621,0.000
1728614485.630,-11.719,-30.762,-50.781,-75.684,0.000
1728614485.634,-32.715,-26.855,-45.898,-69.336,0.000
1728614485.638,-81.055,-26.367,-44.434,-44.434,0.000
1728614485.642,-54.688,-32.715,-47.363,-10.742,0.000
1728614485.646,-39.062,-40.039,-45.898,-29.785,0.000
1728614485.650,-0.488,-33.203,-41.992,-65.918,0.000
1728614485.654,-17.578,-34.668,-41.016,-71.777,0.000
1728614485.658,-87.402,-46.875,-38.574,-39.062,0.000
1728614485.662,-63.477,-38.086,-40.527,-5.859,0.000
1728614485.666,-42.969,-37.598,-41.992,-32.715,0.000
1728614485.670,-9.766,-47.363,-43.457,-68.848,0.000
1728614485.673,-9.766,-40.039,-42.969,-71.289,0.000
1728614485.677,-70.312,-40.527,-45.898,-44.922,0.000
1728614485.681,-58.105,-44.434,-49.805,0.000,0.000
1728614485.685,-43.457,-41.016,-46.875,-16.602,0.000
1728614485.689,-16.602,-35.645,-38.574,-51.270,0.000
1728614485.693,-11.719,-30.273,-34.668,-46.387,0.000
1728614485.697,-79.102,-32.715,-38.086,-35.645,0.000
1728614485.701,-67.871,-32.227,-41.504,-0.977,0.000
1728614485.705,-33.691,-34.180,-41.992,-11.230,0.000
1728614485.709,-14.160,-30.273,-45.410,-51.758,0.000
1728614485.712,-8.789,-24.414,-49.805,-50.293,0.000
1728614485.716,-69.336,-29.785,-51.758,-35.645,0.000
1728614485.720,-68.359,-26.855,-59.082,1.465,0.000
1728614485.724,-32.227,-21.973,-64.941,-8.301,0.000
1728614485.728,-0.488,-26.367,-61.035,-61.523,0.000
1728614485.732,5.371,-30.762,-58.594,-72.754,0.000
1728614485.736,-59.082,-28.320,-60.547,-59.082,0.000
1728614485.740,-65.430,-30.273,-59.082,-20.996,0.000
1728614485.744,-50.781,-40.039,-58.594,-24.902,0.000
1728614485.748,-36.621,-35.156,-58.594,-67.383,0.000
1728614485.752,-13.184,-30.273,-60.059,-73.242,0.000
1728614485.755,-67.871,-33.691,-56.641,-60.547,0.000
1728614485.759,-76.172,-36.133,-53.223,-19.531,0.000
1728614485.763,-29.785,-39.062,-48.828,-3.418,0.000
1728614485.767,-26.367,-36.621,-44.922,-45.898,0.000
1728614485.771,-1.953,-32.227,-40.527,-59.082,0.000
1728614485.775,-47.363,-29.297,-37.598,-48.828,0.000
1728614485.779,-78.125,-31.250,-37.598,-11.719,0.000
1728614485.783,-41.504,-29.785,-36.133,7.324,0.000
1728614485.787,-31.738,-26.855,-35.645,-46.387,0.000
1728614485.791,0.000,-25.879,-34.668,-64.453,0.000
1728614485.795,-31.250,-17.090,-35.645,-44.922,0.000
1728614485.798,-83.008,-12.207,-37.598,-18.555,0.000
1728614485.802,-60.059,-1.953,-33.203,0.488,0.000
1728614485.806,-46.875,2.930,-32.715,-33.691,0.000
1728614485.810,-8.301,-2.441,-33.691,-64.453,0.000
1728614485.814,-27.344,-1.465,-30.762,-56.152,0.000
1728614485.818,-83.008,0.977,-29.785,-23.926,0.000
1728614485.822,-56.152,-4.395,-32.715,14.160,0.000
1728614485.826,-46.875,-18.066,-33.691,-20.996,0.000
1728614485.830,-20.996,-23.926,-33.203,-66.406,0.000
1728614485.834,-15.137,-10.742,-35.156,-54.199,0.000
1728614485.837,-71.777,-4.883,-36.133,-15.137,0.000
1728614485.841,-60.547,-10.742,-40.039,5.371,0.000
1728614485.845,-47.363,-9.277,-40.527,-30.273,0.000
1728614485.849,-9.277,-9.766,-37.598,-60.547,0.000
1728614485.853,-11.230,-11.230,-39.551,-62.012,0.000
1728614485.857,0.000,-7.812,-41.016,-43.945,0.000
1728614485.861,0.000,-16.113,-50.293,-4.395,0.000
1728614485.865,0.000,-24.414,-57.129,-19.043,0.000
1728614485.869,0.000,-18.066,-51.270,-59.570,0.000
1728614485.873,0.000,-14.648,-50.293,-67.871,0.000
1728614485.877,0.000,-15.137,-47.852,-47.363,0.000
1728614485.880,0.000,-21.484,-45.410,-8.789,0.000
1728614485.884,0.000,-27.832,-48.828,-20.020,0.000
1728614485.888,0.000,-19.531,-53.711,-66.406,0.000
1728614485.892,0.000,-10.742,-59.082,-71.777,0.000
1728614485.896,0.000,-18.066,-61.523,-52.734,0.000
1728614485.900,0.000,-26.367,-62.500,-10.742,0.000
1728614485.904,-33.203,-19.531,-54.688,-11.719,0.000
1728614485.908,-1.465,-18.555,-54.199,-57.129,0.000
1728614485.912,11.719,-22.949,-54.688,-71.777,0.000
1728614485.916,-41.504,-12.695,-49.316,-58.594,0.000
1728614485.920,-42.480,-4.883,-45.410,-22.949,0.000
1728614485.923,-18.555,-5.859,-46.875,-12.695,0.000
1728614485.927,-13.672,-9.766,-49.805,-59.082,0.000
1728614485.931,12.695,-20.020,-41.016,-71.777,0.000
1728614485.935,-39.551,-19.043,-40.039,-58.594,0.000
1728614485.939,-59.570,-16.602,-44.434,-27.344,0.000
1728614485.943,-36.621,-29.297,-39.062,-9.277,0.000
1728614485.947,-35.645,-33.691,-35.156,-50.293,0.000
1728614485.951,-4.395,-32.227,-33.691,-71.289,0.000
1728614485.955,-63.477,-31.738,-30.273,-57.617,0.000
1728614485.959,-82.520,-37.598,-33.203,-18.555,0.000
1728614485.962,-48.340,-44.434,-29.785,5.859,0.000
1728614485.966,-41.504,-45.898,-28.320,-41.504,0.000
1728614485.970,-8.789,-43.457,-37.598,-65.918,0.000
1728614485.974,-47.363,-44.922,-39.062,-48.340,0.000
1728614485.978,-86.426,-45.898,-33.203,-9.766,0.000
1728614485.982,-41.504,-39.551,-34.668,20.996,0.000
1728614485.986,-28.320,-33.691,-41.504,-15.625,0.000
1728614485.990,-15.625,-42.480,-38.574,-51.758,0.000
1728614485.994,-49.805,-49.805,-37.109,-68.848,0.000
1728614485.998,-84.961,-53.711,-42.480,-44.434,0.000
1728614486.002,-39.551,-47.363,-47.852,-1.953,0.000
1728614486.005,-34.180,-44.922,-46.875,-33.203,0.000
1728614486.009,-18.066,-49.316,-46.875,-72.266,0.000
1728614486.013,-30.762,-42.969,-49.316,-73.242,0.000
1728614486.017,-84.473,-42.480,-51.758,-55.664,0.000
1728614486.021,-70.312,-52.734,-49.805,-10.254,0.000
1728614486.025,-41.016,-47.363,-53.711,-34.180,0.000
1728614486.029,-5.371,-36.621,-56.152,-75.195,0.000
1728614486.033,-16.113,-36.621,-52.734,-73.730,0.000
1728614486.037,-83.496,-37.109,-53.711,-46.875,0.000
1728614486.041,-65.918,-36.133,-59.570,-15.625,0.000
1728614486.045,-40.039,-40.039,-65.430,-33.203,0.000
1728614486.048,-7.812,-41.504,-62.500,-64.453,0.000
1728614486.052,-0.488,-33.691,-57.617,-66.895,0.000
1728614486.056,-65.918,-28.809,-52.246,-45.898,0.000
1728614486.060,-57.617,-37.109,-50.293,-9.766,0.000
1728614486.064,-27.832,-44.434,-47.363,-13.672,0.000
1728614486.068,0.977,-41.016,-44.922,-51.758,0.000
1728614486.072,3.418,-33.691,-46.387,-66.406,0.000
1728614486.076,-69.336,-33.203,-43.945,-60.059,0.000
1728614486.080,-57.617,-37.109,-45.898,-23.438,0.000
1728614486.084,-29.297,-34.668,-45.898,-10.742,0.000
1728614486.087,-15.137,-38.086,-43.945,-66.895,0.000
1728614486.091,8.789,-38.086,-45.898,-86.914,0.000
1728614486.095,-38.086,-32.227,-46.875,-56.152,0.000
1728614486.099,-64.941,-37.598,-44.434,-15.625,0.000
1728614486.103,-59.082,-50.781,-43.945,-18.066,0.000
1728614486.107,-39.551,-47.363,-41.504,-58.105,0.000
1728614486.111,-3.418,-38.574,-41.992,-68.848,0.000
1728614486.115,-54.199,-43.457,-43.457,-59.570,0.000
1728614486.119,-72.266,-45.410,-38.086,-6.348,0.000
1728614486.123,-41.992,-47.852,-31.250,13.672,0.000
1728614486.127,-33.203,-41.016,-32.715,-32.715,0.000
1728614486.130,5.371,-37.109,-32.715,-48.828,0.000
1728614486.134,-41.504,-39.062,-26.855,-35.156,0.000
1728614486.138,-74.707,-31.250,-27.344,-0.977,0.000
1728614486.142,-37.598,-39.062,-35.645,15.137,0.000
1728614486.146,-29.785,-43.457,-36.621,-27.832,0.000
1728614486.150,-4.883,-36.621,-35.645,-60.547,0.000
1728614486.154,-45.410,-40.527,-41.016,-54.688,0.000
1728614486.158,-79.102,-42.969,-42.969,-16.602,0.000
1728614486.162,-43.945,-38.574,-48.340,4.395,0.000
1728614486.166,-36.133,-36.133,-53.711,-39.551,0.000
1728614486.170,0.977,-35.645,-53.711,-66.895,0.000
1728614486.173,-8.789,-30.273,-50.293,-62.988,0.000
1728614486.177,-54.199,-33.203,-46.387,-43.945,0.000
1728614486.181,-46.875,-32.227,-44.922,0.488,0.000
1728614486.185,-48.340,-29.297,-45.898,-24.902,0.000
1728614486.189,-24.902,-35.156,-47.363,-62.012,0.000
1728614486.193,-35.645,-32.227,-52.246,-65.430,0.000
1728614486.197,-72.266,-27.832,-50.781,-45.898,0.000
1728614486.201,-52.246,-33.203,-42.480,1.953,0.000
1728614486.205,-44.434,-35.645,-40.527,-19.043,0.000
1728614486.209,-5.859,-28.320,-44.434,-59.082,0.000
1728614486.212,-13.672,-28.320,-41.992,-62.500,0.000
