timestamps,TP9,AF7,AF8,TP10,Right AUX
1728614638.174,-14.160,-55.176,-55.664,-20.020,0.000
1728614638.178,11.719,-54.199,-51.758,-54.688,0.000
1728614638.182,16.113,-40.039,-50.293,-60.547,0.000
1728614638.186,-44.434,-38.574,-52.734,-36.621,0.000
1728614638.190,-38.086,-52.246,-60.059,11.230,0.000
1728614638.194,-24.902,-61.035,-60.547,-10.742,0.000
1728614638.198,-2.441,-62.012,-54.199,-58.594,0.000
1728614638.202,11.719,-55.664,-50.293,-54.688,0.000
1728614638.206,-52.246,-54.688,-46.387,-33.691,0.000
1728614638.210,-43.945,-55.176,-42.969,7.324,0.000
1728614638.214,-20.020,-47.363,-41.016,-9.277,0.000
1728614638.217,-6.836,-52.734,-37.109,-43.945,0.000
1728614638.221,10.742,-59.570,-37.109,-39.062,0.000
1728614638.225,-38.086,-61.523,-45.410,-27.832,0.000
1728614638.229,-33.203,-63.965,-37.598,4.883,0.000
1728614638.233,-10.742,-73.730,-31.250,0.488,0.000
1728614638.237,-17.578,-81.055,-37.598,-39.551,0.000
1728614638.241,10.742,-66.895,-37.598,-48.828,0.000
1728614638.245,-27.344,-60.059,-35.156,-33.203,0.000
1728614638.249,-44.434,-62.500,-37.109,7.324,0.000
1728614638.253,-22.461,-57.129,-34.668,27.832,0.000
1728614638.257,-20.020,-57.617,-35.645,-10.742,0.000
1728614638.260,4.395,-64.941,-35.156,-34.668,0.000
1728614638.264,-37.598,-76.172,-35.645,-29.297,0.000
1728614638.268,-64.453,-74.707,-41.504,-9.277,0.000
1728614638.272,-31.738,-64.453,-36.621,1.465,0.000
1728614638.276,-20.508,-63.965,-44.434,-49.316,0.000
1728614638.280,4.883,-67.871,-53.223,-74.707,0.000
1728614638.284,-20.508,-66.406,-46.387,-52.734,0.000
1728614638.288,-46.387,-51.270,-46.387,-20.508,0.000
1728614638.292,-26.367,-56.641,-46.875,-0.488,0.000
1728614638.296,-35.156,-64.453,-51.758,-34.180,0.000
1728614638.300,-20.020,-60.547,-58.105,-61.523,0.000
1728614638.303,-46.875,-66.406,-57.617,-61.523,0.000
1728614638.307,-71.777,-62.988,-61.035,-25.391,0.000
1728614638.311,-27.344,-49.805,-58.594,17.090,0.000
1728614638.315,-32.227,-46.875,-56.641,-17.090,0.000
1728614638.319,-16.113,-48.340,-62.500,-57.617,0.000
1728614638.323,-17.090,-49.316,-60.059,-62.500,0.000
1728614638.327,-58.594,-51.270,-53.711,-33.203,0.000
1728614638.331,-28.320,-54.199,-49.805,12.695,0.000
1728614638.335,-11.230,-63.477,-46.387,2.930,0.000
1728614638.339,3.906,-69.824,-48.340,-30.762,0.000
1728614638.343,12.695,-59.082,-43.457,-35.645,0.000
1728614638.346,-41.992,-55.664,-39.551,-3.906,0.000
1728614638.350,-30.762,-62.012,-39.551,28.809,0.000
1728614638.354,-20.508,-63.477,-35.645,9.766,0.000
1728614638.358,-12.695,-61.523,-29.785,-26.855,0.000
1728614638.362,6.348,-60.059,-34.180,-24.902,0.000
1728614638.366,-35.645,-68.359,-40.039,-10.742,0.000
1728614638.370,-31.250,-72.266,-39.551,35.645,0.000
1728614638.374,-18.555,-64.453,-42.480,25.391,0.000
1728614638.378,-10.254,-65.430,-41.016,-35.645,0.000
1728614638.382,0.977,-62.500,-41.504,-45.410,0.000
1728614638.386,-45.410,-58.594,-46.875,-30.273,0.000
1728614638.389,-36.133,-57.617,-44.434,19.043,0.000
1728614638.393,-8.301,-55.664,-47.363,3.418,0.000
1728614638.397,-13.184,-58.594,-53.711,-41.992,0.000
1728614638.401,-0.488,-67.871,-53.223,-41.016,0.000
1728614638.405,-44.922,-63.965,-52.246,-41.992,0.000
1728614638.409,0.000,-58.594,-57.129,-11.719,0.000
1728614638.413,0.000,-59.570,-57.129,-8.789,0.000
1728614638.417,0.000,-56.641,-49.316,-45.898,0.000
1728614638.421,0.000,-63.965,-51.270,-56.641,0.000
1728614638.425,0.000,-64.941,-53.711,-68.359,0.000
1728614638.429,0.000,-58.594,-50.293,-26.855,0.000
1728614638.432,0.000,-56.641,-56.641,3.418,0.000
1728614638.436,0.000,-58.594,-59.570,-41.016,0.000
1728614638.440,0.000,-58.594,-55.664,-63.965,0.000
1728614638.444,0.000,-57.129,-57.129,-62.012,0.000
1728614638.448,0.000,-55.664,-55.176,-19.531,0.000
1728614638.452,0.000,-56.641,-53.223,9.766,0.000
1728614638.456,-21.484,-57.129,-49.316,-25.879,0.000
1728614638.460,5.859,-51.758,-45.898,-42.969,0.000
1728614638.464,-24.902,-49.316,-48.340,-43.457,0.000
1728614638.468,-51.270,-55.176,-46.387,-9.766,0.000
1728614638.472,-15.137,-55.664,-40.039,40.527,0.000
1728614638.475,-22.461,-62.012,-34.668,6.348,0.000
1728614638.479,2.930,-70.312,-37.109,-37.598,0.000
1728614638.483,-0.977,-60.547,-43.945,-45.898,0.000
1728614638.487,-33.691,-48.828,-42.480,-22.949,0.000
1728614638.491,-10.742,-49.316,-40.039,14.160,0.000
1728614638.495,-13.672,-55.664,-43.457,-17.578,0.000
1728614638.499,-2.930,-55.664,-41.992,-44.922,0.000
1728614638.503,-2.930,-51.758,-40.039,-39.551,0.000
1728614638.507,-46.875,-52.246,-33.691,-20.508,0.000
1728614638.511,-35.645,-55.664,-28.809,10.254,0.000
1728614638.515,-20.508,-54.199,-34.180,-14.648,0.000
1728614638.518,-0.488,-57.129,-33.203,-39.062,0.000
1728614638.522,4.883,-54.199,-29.785,-29.785,0.000
1728614638.526,-42.480,-46.875,-31.250,-14.160,0.000
1728614638.530,-26.367,-50.781,-32.227,7.812,0.000
1728614638.534,-12.695,-57.129,-37.598,-17.578,0.000
1728614638.538,-10.254,-50.293,-38.086,-52.734,0.000
1728614638.542,-7.812,-55.664,-35.645,-47.852,0.000
1728614638.546,-52.246,-60.059,-36.133,-30.762,0.000
1728614638.550,-47.363,-61.523,-36.621,7.324,0.000
1728614638.554,-28.809,-58.105,-41.504,-2.441,0.000
1728614638.558,-18.555,-45.410,-46.387,-50.293,0.000
1728614638.561,13.672,-46.875,-48.828,-56.152,0.000
1728614638.565,-22.949,-53.711,-42.969,-30.762,0.000
1728614638.569,-41.016,-60.059,-42.969,10.254,0.000
1728614638.573,-22.461,-57.617,-45.898,7.324,0.000
1728614638.577,-22.949,-50.293,-42.480,-33.203,0.000
1728614638.581,-3.418,-52.734,-38.086,-49.316,0.000
1728614638.585,-31.250,-48.828,-29.297,-38.086,0.000
1728614638.589,-51.270,-42.480,-31.738,0.977,0.000
1728614638.593,-25.879,-50.293,-41.504,13.672,0.000
1728614638.597,0.000,-51.758,-42.480,-31.738,0.000
1728614638.601,0.000,-41.992,-42.969,-49.316,0.000
1728614638.604,0.000,-35.645,-37.109,-35.156,0.000
1728614638.608,0.000,-39.062,-35.645,-4.395,0.000
1728614638.612,0.000,-47.852,-37.598,13.184,0.000
1728614638.616,0.000,-46.875,-34.180,-24.902,0.000
1728614638.620,0.000,-44.922,-35.156,-46.875,0.000
1728614638.624,0.000,-53.711,-40.039,-49.805,0.000
1728614638.628,0.000,-57.129,-39.551,-17.578,0.000
1728614638.632,0.000,-51.758,-39.062,19.043,0.000
1728614638.636,0.000,-44.922,-38.574,-29.785,0.000
1728614638.640,0.000,-35.645,-29.297,-54.199,0.000
1728614638.644,-11.719,-31.250,-25.879,-35.645,0.000
1728614638.647,-56.641,-41.504,-24.902,-15.625,0.000
1728614638.651,-33.691,-43.457,-25.879,19.043,0.000
1728614638.655,-31.250,-47.363,-34.180,2.441,0.000
1728614638.659,-13.672,-53.711,-40.039,-33.691,0.000
1728614638.663,-6.836,-52.734,-41.504,-43.945,0.000
1728614638.667,-55.664,-45.410,-43.945,-37.598,0.000
1728614638.671,-34.180,-31.250,-41.992,2.441,0.000
1728614638.675,-17.090,-29.297,-31.738,-1.465,0.000
1728614638.679,-11.719,-37.109,-32.227,-44.922,0.000
1728614638.683,-0.488,-44.434,-32.715,-44.922,0.000
1728614638.687,-35.156,-40.039,-33.691,-29.297,0.000
1728614638.691,-48.340,-38.086,-44.434,-8.301,0.000
1728614638.694,-44.434,-45.410,-49.805,-11.719,0.000
1728614638.698,-21.484,-49.316,-43.945,-46.387,0.000
1728614638.702,-4.883,-47.852,-42.480,-62.012,0.000
1728614638.706,-37.598,-47.852,-43.945,-45.410,0.000
1728614638.710,-33.691,-45.898,-38.086,0.000,0.000
1728614638.714,-9.277,-48.828,-36.133,9.277,0.000
1728614638.718,9.277,-49.316,-36.621,-31.250,0.000
1728614638.722,35.645,-44.922,-33.203,-42.480,0.000
1728614638.726,-14.648,-41.504,-31.738,-26.855,0.000
1728614638.730,-40.527,-40.039,-32.715,3.906,0.000
1728614638.733,-9.766,-39.062,-31.738,13.184,0.000
1728614638.737,-1.465,-35.645,-31.738,-16.113,0.000
1728614638.741,23.926,-32.227,-23.926,-28.320,0.000
1728614638.745,-18.066,-35.156,-17.090,-34.180,0.000
1728614638.749,-48.828,-45.410,-26.367,-9.277,0.000
1728614638.753,-16.602,-51.270,-29.785,12.695,0.000
1728614638.757,-16.602,-47.363,-26.855,-28.320,0.000
1728614638.761,5.859,-43.945,-28.320,-59.082,0.000
1728614638.765,-36.133,-50.293,-28.320,-55.664,0.000
1728614638.769,-76.660,-47.852,-23.438,-17.578,0.000
1728614638.773,-41.992,-43.457,-25.391,7.812,0.000
1728614638.776,-41.016,-55.176,-35.156,-32.715,0.000
1728614638.780,-5.859,-59.570,-34.668,-56.152,0.000
1728614638.784,-11.230,-43.457,-30.273,-58.594,0.000
1728614638.788,-58.594,-40.527,-35.156,-31.738,0.000
1728614638.792,-32.715,-48.340,-36.133,4.883,0.000
1728614638.796,-29.297,-52.734,-36.621,-40.527,0.000
1728614638.800,-8.789,-53.711,-32.227,-71.289,0.000
1728614638.804,-17.090,-44.434,-26.367,-58.105,0.000
1728614638.808,-61.523,-51.758,-30.273,-31.738,0.000
1728614638.812,-28.320,-51.270,-31.738,15.625,0.000
1728614638.816,-29.785,-35.645,-29.785,-8.789,0.000
1728614638.819,-27.344,-45.898,-28.320,-57.129,0.000
1728614638.823,-17.090,-58.594,-33.203,-59.082,0.000
1728614638.827,-64.941,-60.059,-28.320,-27.832,0.000
1728614638.831,-53.223,-61.035,-21.973,8.301,0.000
1728614638.835,-30.273,-58.105,-22.461,-4.395,0.000
1728614638.839,-15.625,-55.664,-20.020,-41.504,0.000
1728614638.843,-7.324,-46.875,-25.879,-60.059,0.000
1728614638.847,-54.688,-37.109,-30.273,-48.828,0.000
1728614638.851,-44.922,-44.434,-20.996,2.441,0.000
1728614638.855,-29.785,-53.223,-22.949,0.000,0.000
1728614638.858,-20.020,-48.340,-30.273,-50.781,0.000
1728614638.862,-10.254,-51.758,-30.273,-56.641,0.000
1728614638.866,-62.988,-52.734,-25.391,-37.109,0.000
1728614638.870,-35.156,-40.527,-24.414,6.836,0.000
1728614638.874,-0.977,-50.293,-21.484,9.277,0.000
1728614638.878,-25.391,-59.570,-20.020,-28.320,0.000
1728614638.882,-6.836,-43.457,-22.461,-40.527,0.000
1728614638.886,-29.297,-33.203,-25.391,-23.438,0.000
1728614638.890,-34.668,-40.039,-30.273,16.113,0.000
1728614638.894,-17.090,-47.852,-24.902,11.230,0.000
1728614638.898,-12.207,-50.293,-26.855,-20.996,0.000
1728614638.901,5.371,-39.062,-30.273,-35.645,0.000
1728614638.905,-40.527,-37.598,-28.809,-43.457,0.000
1728614638.909,-55.176,-46.387,-26.855,0.488,0.000
1728614638.913,-26.367,-36.621,-24.902,22.949,0.000
1728614638.917,-25.879,-33.691,-32.715,-24.902,0.000
1728614638.921,-9.277,-49.316,-38.086,-49.316,0.000
1728614638.925,-41.992,-47.363,-39.551,-56.152,0.000
1728614638.929,-68.848,-40.039,-33.691,-17.090,0.000
1728614638.933,-36.621,-46.875,-24.414,20.508,0.000
1728614638.937,-41.992,-41.016,-21.484,-26.855,0.000
1728614638.941,-23.926,-39.551,-25.879,-55.664,0.000
1728614638.944,-32.227,-35.645,-30.273,-45.898,0.000
1728614638.948,-72.266,-24.902,-32.227,-20.508,0.000
1728614638.952,-38.086,-29.785,-36.133,3.906,0.000
1728614638.956,-7.812,-32.227,-41.504,-30.273,0.000
1728614638.960,3.906,-26.855,-38.086,-58.594,0.000
1728614638.964,-31.250,-31.250,-26.367,-51.758,0.000
1728614638.968,-66.895,-32.715,-21.973,-12.695,0.000
1728614638.972,-35.156,-33.203,-27.344,17.090,0.000
1728614638.976,-20.508,-35.645,-30.273,-15.625,0.000
1728614638.980,1.465,-34.180,-25.879,-48.828,0.000
1728614638.984,-8.301,-41.016,-23.438,-40.039,0.000
1728614638.987,-56.152,-39.551,-32.227,-19.043,0.000
1728614638.991,-39.062,-37.109,-35.645,8.789,0.000
1728614638.995,-19.531,-41.504,-33.691,-6.348,0.000
1728614638.999,2.930,-35.156,-33.203,-41.504,0.000
1728614639.003,6.348,-27.344,-29.785,-32.227,0.000
1728614639.007,-67.383,-39.551,-33.691,-17.578,0.000
1728614639.011,-60.059,-42.969,-35.156,12.695,0.000
1728614639.015,-10.742,-32.227,-31.250,0.977,0.000
1728614639.019,-4.395,-35.156,-30.762,-45.410,0.000
1728614639.023,0.488,-42.480,-32.715,-49.316,0.000
1728614639.027,-45.410,-39.062,-32.227,-24.902,0.000
1728614639.031,-39.062,-34.668,-31.250,13.184,0.000
1728614639.034,-16.113,-43.945,-35.156,2.441,0.000
1728614639.038,-10.742,-42.480,-36.621,-45.410,0.000
1728614639.042,2.441,-37.598,-39.551,-63.477,0.000
1728614639.046,-58.105,-44.922,-44.434,-43.945,0.000
1728614639.050,-67.383,-42.480,-39.062,-8.789,0.000
1728614639.054,-36.621,-47.363,-33.691,-7.812,0.000
1728614639.058,-33.203,-44.434,-39.551,-49.805,0.000
1728614639.062,-2.441,-35.645,-42.969,-59.082,0.000
1728614639.066,-42.480,-39.551,-41.016,-39.062,0.000
1728614639.070,-70.801,-38.574,-36.621,-17.090,0.000
1728614639.074,-22.461,-33.203,-37.598,-1.465,0.000
1728614639.077,-21.973,-31.738,-36.621,-32.227,0.000
1728614639.081,-21.484,-32.715,-33.203,-52.734,0.000
1728614639.085,-43.945,-41.504,-36.133,-52.246,0.000
1728614639.089,-69.824,-51.758,-37.598,-18.555,0.000
1728614639.093,-20.508,-47.363,-33.203,31.250,0.000
1728614639.097,-4.395,-33.203,-31.250,-7.324,0.000
1728614639.101,-7.812,-31.738,-34.180,-50.781,0.000
1728614639.105,-32.715,-30.273,-38.574,-39.551,0.000
1728614639.109,-58.594,-24.902,-41.504,-9.766,0.000
1728614639.113,-22.461,-32.227,-39.551,19.531,0.000
1728614639.116,-16.113,-39.062,-40.527,-26.855,0.000
1728614639.120,1.953,-38.574,-38.574,-63.477,0.000
1728614639.124,-10.742,-35.645,-37.109,-32.227,0.000
1728614639.128,-56.152,-36.621,-32.715,-0.977,0.000
1728614639.132,-25.879,-33.203,-30.762,10.254,0.000
1728614639.136,-1.953,-31.738,-34.180,-18.555,0.000
1728614639.140,17.578,-25.391,-33.691,-50.781,0.000
1728614639.144,10.742,-25.391,-33.203,-51.270,0.000
1728614639.148,-44.922,-35.645,-30.762,-28.809,0.000
1728614639.152,-41.016,-35.645,-29.297,22.461,0.000
1728614639.156,-33.691,-36.133,-28.809,14.160,0.000
1728614639.159,-27.344,-37.109,-32.227,-39.062,0.000
1728614639.163,-21.973,-39.062,-37.598,-56.641,0.000
1728614639.167,-67.383,-41.992,-38.086,-40.039,0.000
1728614639.171,-58.105,-40.527,-39.551,-4.883,0.000
1728614639.175,-35.156,-36.133,-39.062,-1.953,0.000
1728614639.179,-15.625,-34.180,-29.297,-49.316,0.000
1728614639.183,-1.953,-37.598,-24.902,-58.105,0.000
1728614639.187,-49.316,-36.133,-31.250,-36.621,0.000
1728614639.191,-54.688,-34.668,-36.621,-14.160,0.000
1728614639.195,-37.109,-37.109,-37.598,-24.414,0.000
1728614639.199,-17.578,-34.180,-42.480,-65.918,0.000
1728614639.202,4.395,-36.133,-44.434,-68.359,0.000
1728614639.206,-42.480,-37.109,-41.504,-61.035,0.000
1728614639.210,-44.434,-30.273,-45.410,-25.879,0.000
1728614639.214,-25.391,-36.621,-46.387,-6.836,0.000
1728614639.218,-32.227,-35.156,-42.480,-54.688,0.000
1728614639.222,-1.953,-26.855,-43.457,-71.777,0.000
1728614639.226,-46.387,-28.809,-41.992,-52.246,0.000
1728614639.230,-77.637,-37.109,-38.086,-15.625,0.000
1728614639.234,-41.992,-34.668,-37.109,-0.977,0.000
1728614639.238,-31.250,-27.832,-32.715,-42.480,0.000
1728614639.242,-1.953,-35.156,-40.039,-65.918,0.000
1728614639.245,-45.898,-41.504,-49.805,-59.082,0.000
1728614639.249,-74.219,-29.297,-40.527,-18.555,0.000
1728614639.253,-29.297,-25.879,-38.086,6.348,0.000
1728614639.257,-34.180,-36.133,-44.922,-42.480,0.000
1728614639.261,-17.578,-34.180,-36.621,-62.988,0.000
1728614639.265,-36.133,-29.785,-34.668,-55.664,0.000
1728614639.269,-60.059,-37.109,-32.715,-21.973,0.000
1728614639.273,-22.949,-40.039,-28.320,7.324,0.000
1728614639.277,-22.461,-36.133,-32.227,-26.367,0.000
1728614639.281,-8.301,-31.250,-31.250,-45.898,0.000
1728614639.284,-25.391,-39.062,-37.109,-42.480,0.000
1728614639.288,-69.824,-40.039,-38.086,-24.414,0.000
1728614639.292,-43.457,-33.691,-37.109,0.000,0.000
1728614639.296,-35.645,-35.156,-38.086,-28.809,0.000
1728614639.300,-17.578,-32.715,-39.551,-56.152,0.000
1728614639.304,-6.348,-26.855,-38.086,-55.176,0.000
1728614639.308,-46.387,-24.902,-36.133,-38.574,0.000
1728614639.312,-36.621,-32.227,-40.039,-3.418,0.000
1728614639.316,-27.344,-33.203,-40.527,-24.414,0.000
1728614639.320,-0.488,-27.832,-40.039,-59.082,0.000
1728614639.324,4.883,-19.531,-40.039,-54.199,0.000
1728614639.327,-65.918,-27.344,-41.992,-41.016,0.000
1728614639.331,-61.523,-37.109,-43.945,-4.883,0.000
1728614639.335,-33.691,-35.645,-51.270,-17.578,0.000
1728614639.339,-20.508,-30.762,-49.805,-63.965,0.000
1728614639.343,-7.812,-20.508,-42.969,-70.312,0.000
1728614639.347,-53.223,-27.832,-38.086,-44.434,0.000
1728614639.351,-45.898,-32.715,-35.645,4.883,0.000
1728614639.355,-30.273,-27.832,-36.133,-8.789,0.000
1728614639.359,-37.109,-35.645,-36.621,-62.012,0.000
1728614639.363,-11.719,-29.297,-38.574,-60.547,0.000
1728614639.367,-45.898,-28.320,-40.039,-51.758,0.000
1728614639.371,-58.594,-33.203,-41.016,-14.648,0.000
1728614639.374,-33.203,-35.645,-40.039,4.883,0.000
1728614639.378,-24.902,-34.180,-33.691,-45.898,0.000
1728614639.382,0.977,-29.297,-30.273,-69.824,0.000
1728614639.386,-36.133,-33.203,-31.250,-58.105,0.000
1728614639.390,-52.246,-40.039,-29.297,-19.043,0.000
1728614639.394,-32.227,-34.180,-32.227,-11.230,0.000
1728614639.398,-33.203,-26.367,-39.062,-54.199,0.000
1728614639.402,0.488,-34.180,-39.551,-69.824,0.000
1728614639.406,-41.992,-47.363,-40.527,-62.988,0.000
1728614639.410,-78.613,-43.945,-39.551,-24.902,0.000
1728614639.414,-41.504,-37.598,-38.574,-5.859,0.000
1728614639.417,-42.480,-39.062,-38.574,-47.852,0.000
1728614639.421,-11.230,-41.504,-35.156,-58.594,0.000
1728614639.425,-24.902,-40.039,-35.156,-41.016,0.000
1728614639.429,-66.406,-29.785,-40.527,-25.879,0.000
1728614639.433,-40.527,-31.250,-44.922,-4.395,0.000
1728614639.437,-34.180,-41.992,-45.410,-41.504,0.000
1728614639.441,-18.066,-35.645,-39.062,-67.383,0.000
1728614639.445,-41.504,-30.273,-35.645,-51.758,0.000
1728614639.449,-81.543,-40.039,-44.434,-29.785,0.000
1728614639.453,-43.945,-35.156,-41.504,0.488,0.000
1728614639.456,-34.668,-28.320,-34.668,-17.578,0.000
1728614639.460,-17.578,-27.344,-34.180,-51.758,0.000
1728614639.464,-12.207,-21.484,-28.320,-58.594,0.000
1728614639.468,-59.570,-27.832,-31.250,-31.250,0.000
1728614639.472,-36.133,-31.250,-34.668,2.441,0.000
1728614639.476,-22.461,-30.273,-35.156,-32.227,0.000
1728614639.480,-4.883,-22.949,-38.086,-62.012,0.000
1728614639.484,1.953,-9.766,-34.180,-58.105,0.000
1728614639.488,-60.059,-20.020,-32.227,-54.199,0.000
1728614639.492,-44.434,-28.320,-35.645,-15.625,0.000
1728614639.496,-8.789,-31.250,-40.039,-19.043,0.000
1728614639.499,-4.395,-32.715,-41.504,-44.922,0.000
1728614639.503,-7.812,-25.391,-38.574,-48.828,0.000
1728614639.507,-61.523,-22.949,-35.645,-32.715,0.000
1728614639.511,-49.805,-24.414,-40.527,7.812,0.000
1728614639.515,-22.461,-21.484,-47.363,-0.488,0.000
1728614639.519,-39.551,-18.066,-41.504,-40.039,0.000
1728614639.523,-30.762,-18.066,-32.227,-44.434,0.000
1728614639.527,-67.871,-32.715,-29.785,-27.344,0.000
1728614639.531,-62.500,-37.598,-26.367,-4.395,0.000
1728614639.535,-36.621,-32.227,-26.855,-10.254,0.000
1728614639.539,-37.109,-29.297,-27.832,-51.758,0.000
1728614639.542,-7.812,-31.250,-30.273,-71.289,0.000
1728614639.546,-51.270,-38.086,-38.574,-63.965,0.000
1728614639.550,-68.848,-36.133,-43.457,-21.484,0.000
1728614639.554,-22.461,-28.809,-47.852,-16.113,0.000
1728614639.558,-15.625,-36.621,-42.480,-47.363,0.000
1728614639.562,4.883,-41.992,-30.273,-47.363,0.000
1728614639.566,-34.180,-36.621,-30.762,-58.105,0.000
1728614639.570,-69.336,-41.992,-32.227,-30.273,0.000
1728614639.574,-43.945,-43.457,-38.574,-4.883,0.000
1728614639.578,-43.945,-36.621,-46.875,-45.410,0.000
1728614639.582,-6.836,-31.250,-44.922,-64.453,0.000
1728614639.585,-10.254,-40.039,-47.852,-55.664,0.000
1728614639.589,-51.758,-37.598,-51.758,-25.879,0.000
1728614639.593,-40.527,-27.344,-43.945,6.348,0.000
1728614639.597,-43.457,-26.367,-43.457,-20.996,0.000
1728614639.601,-21.973,-25.879,-50.781,-59.570,0.000
1728614639.605,-34.180,-29.785,-52.246,-68.848,0.000
1728614639.609,-60.547,-29.297,-45.898,-46.387,0.000
1728614639.613,-36.621,-29.785,-41.016,-4.395,0.000
1728614639.617,-35.645,-24.902,-37.109,-18.066,0.000
1728614639.621,3.418,-7.324,-31.738,-62.012,0.000
1728614639.624,-7.812,-0.488,-29.785,-65.918,0.000
1728614639.628,-71.777,-5.859,-26.855,-37.109,0.000
1728614639.632,-52.246,-19.043,-26.855,-8.789,0.000
1728614639.636,-49.316,-22.461,-20.508,-33.691,0.000
1728614639.640,-41.504,-7.324,-11.230,-65.918,0.000
1728614639.644,-31.250,-8.301,-13.672,-74.219,0.000
1728614639.648,-85.938,-7.324,-9.277,-64.941,0.000
1728614639.652,-104.492,19.531,-6.836,-47.852,0.000
1728614639.656,-97.168,28.320,4.395,-79.102,0.000
1728614639.660,-90.332,24.414,15.137,-127.930,0.000
1728614639.664,-98.633,22.949,25.879,-145.508,0.000
1728614639.667,-178.711,21.973,33.203,-140.137,0.000
1728614639.671,-194.336,31.250,22.461,-125.488,0.000
1728614639.675,-142.578,41.504,22.949,-143.066,0.000
1728614639.679,-126.465,42.480,31.738,-187.988,0.000
1728614639.683,-132.812,34.668,23.926,-214.355,0.000
1728614639.687,-210.449,34.180,16.113,-207.031,0.000
1728614639.691,-243.652,40.527,21.973,-171.387,0.000
1728614639.695,-207.520,46.875,22.461,-173.828,0.000
1728614639.699,-185.059,50.781,20.020,-210.449,0.000
1728614639.703,-151.367,46.875,25.879,-217.773,0.000
1728614639.707,-176.270,43.457,34.668,-200.684,0.000
1728614639.710,-204.102,42.969,25.879,-159.180,0.000
1728614639.714,-178.711,34.668,14.648,-136.230,0.000
1728614639.718,-152.344,20.508,2.930,-167.480,0.000
1728614639.722,-118.164,10.254,-7.324,-190.430,0.000
1728614639.726,-150.879,11.719,-2.930,-188.477,0.000
1728614639.730,-170.410,17.578,-0.977,-134.277,0.000
1728614639.734,-132.812,21.484,-6.836,-91.309,0.000
1728614639.738,-122.559,2.441,-3.906,-136.230,0.000
1728614639.742,-78.125,-24.414,1.465,-138.184,0.000
1728614639.746,-74.707,-19.043,-8.789,-111.328,0.000
1728614639.750,-113.770,-10.254,-20.020,-76.172,0.000
1728614639.753,-76.172,-24.414,-25.879,-34.180,0.000
1728614639.757,-60.059,-32.227,-25.879,-62.012,0.000
1728614639.761,-34.180,-32.227,-31.738,-87.402,0.000
1728614639.765,-34.668,-37.109,-46.387,-78.613,0.000
1728614639.769,-77.148,-49.805,-46.875,-32.227,0.000
1728614639.773,-44.922,-61.035,-41.992,16.602,0.000
1728614639.777,-7.812,-60.059,-50.293,-12.695,0.000
1728614639.781,22.461,-61.035,-57.129,-36.621,0.000
1728614639.785,14.160,-66.895,-55.176,-31.250,0.000
1728614639.789,-30.762,-70.312,-56.641,-7.324,0.000
1728614639.793,6.836,-66.406,-55.176,42.969,0.000
1728614639.796,24.414,-62.500,-46.875,44.434,0.000
1728614639.800,24.902,-67.871,-50.293,14.648,0.000
1728614639.804,28.320,-73.730,-58.105,8.301,0.000
1728614639.808,-3.906,-78.125,-50.781,28.809,0.000
1728614639.812,31.738,-72.754,-46.875,72.754,0.000
1728614639.816,43.457,-68.359,-47.852,62.500,0.000
1728614639.820,43.945,-70.801,-45.898,15.625,0.000
1728614639.824,51.758,-74.707,-47.363,11.719,0.000
1728614639.828,2.441,-79.102,-47.363,38.574,0.000
1728614639.832,20.020,-69.824,-43.945,86.426,0.000
1728614639.836,52.734,-66.895,-45.410,90.332,0.000
1728614639.839,43.945,-75.684,-43.457,43.457,0.000
1728614639.843,58.594,-69.336,-42.969,32.227,0.000
1728614639.847,22.949,-62.988,-43.945,45.898,0.000
1728614639.851,19.043,-62.988,-47.852,75.684,0.000
1728614639.855,52.246,-58.594,-56.641,80.078,0.000
1728614639.859,51.758,-50.781,-53.223,40.527,0.000
1728614639.863,65.918,-47.363,-44.922,18.555,0.000
1728614639.867,23.926,-51.758,-46.875,20.508,0.000
1728614639.871,9.277,-50.781,-48.828,61.035,0.000
1728614639.875,34.668,-52.246,-44.922,75.195,0.000
1728614639.879,38.086,-47.363,-40.527,37.109,0.000
1728614639.882,69.824,-34.180,-41.016,20.020,0.000
1728614639.886,35.156,-43.457,-48.340,22.949,0.000
1728614639.890,-0.977,-61.035,-47.852,54.199,0.000
1728614639.894,37.109,-53.711,-51.758,73.242,0.000
1728614639.898,50.293,-38.574,-53.223,37.598,0.000
1728614639.902,65.918,-37.598,-43.457,17.090,0.000
1728614639.906,40.527,-47.363,-40.527,35.156,0.000
1728614639.910,15.137,-47.363,-37.598,64.941,0.000
1728614639.914,35.645,-41.504,-35.645,70.801,0.000
1728614639.918,21.484,-41.992,-37.598,20.996,0.000
1728614639.922,32.715,-38.574,-38.574,-9.766,0.000
1728614639.925,14.648,-45.410,-41.504,-12.207,0.000
1728614639.929,-32.227,-52.246,-37.109,16.113,0.000
1728614639.933,-2.441,-50.781,-37.109,62.012,0.000
1728614639.937,18.066,-46.875,-40.527,28.809,0.000
1728614639.941,32.715,-41.016,-40.039,-20.020,0.000
1728614639.945,38.086,-37.598,-39.062,-11.719,0.000
1728614639.949,-5.371,-34.180,-36.621,13.672,0.000
1728614639.953,7.324,-32.227,-36.133,49.805,0.000
1728614639.957,21.973,-35.156,-36.133,37.598,0.000
1728614639.961,37.598,-34.180,-46.875,-7.324,0.000
1728614639.964,39.551,-33.691,-55.664,-13.184,0.000
1728614639.968,-29.785,-37.598,-55.664,-0.488,0.000
1728614639.972,-23.438,-34.180,-51.758,46.387,0.000
1728614639.976,2.441,-31.738,-51.758,30.273,0.000
1728614639.980,2.441,-32.227,-50.293,-32.227,0.000
1728614639.984,7.324,-31.250,-46.875,-42.969,0.000
1728614639.988,-28.320,-29.785,-50.781,-28.320,0.000
1728614639.992,-28.320,-36.621,-52.734,10.742,0.000
1728614639.996,-9.277,-33.691,-48.828,5.859,0.000
1728614640.000,-7.812,-28.809,-46.387,-43.457,0.000
1728614640.004,16.602,-31.250,-43.457,-46.387,0.000
1728614640.007,-25.879,-30.762,-44.434,-38.574,0.000
1728614640.011,-52.246,-31.250,-49.316,-14.648,0.000
1728614640.015,-17.578,-31.250,-46.387,0.488,0.000
1728614640.019,-6.348,-32.715,-36.621,-39.062,0.000
1728614640.023,1.465,-33.203,-33.691,-56.152,0.000
1728614640.027,-39.551,-38.086,-34.668,-38.574,0.000
1728614640.031,-56.641,-46.387,-30.273,-7.812,0.000
1728614640.035,-24.414,-40.039,-27.344,-0.488,0.000
1728614640.039,-15.137,-27.344,-27.832,-28.320,0.000
1728614640.043,0.488,-23.438,-33.203,-38.574,0.000
1728614640.047,-36.621,-23.438,-37.598,-39.062,0.000
1728614640.050,-60.547,-22.949,-33.691,-21.484,0.000
1728614640.054,-34.668,-22.949,-34.668,2.930,0.000
1728614640.058,-34.180,-32.227,-37.109,-37.598,0.000
1728614640.062,-5.371,-31.250,-34.668,-63.477,0.000
1728614640.066,-30.762,-26.855,-31.250,-55.664,0.000
1728614640.070,-61.523,-28.320,-34.180,-27.344,0.000
1728614640.074,-22.461,-31.738,-44.434,-1.465,0.000
1728614640.078,-14.648,-28.809,-46.875,-28.320,0.000
1728614640.082,-1.465,-19.043,-39.062,-48.828,0.000
1728614640.086,-17.090,-20.996,-36.133,-51.758,0.000
1728614640.090,-58.594,-27.832,-40.527,-45.898,0.000
1728614640.093,-26.855,-28.320,-42.480,-17.578,0.000
1728614640.097,-14.648,-25.879,-41.016,-36.621,0.000
1728614640.101,1.953,-28.809,-37.598,-81.055,0.000
1728614640.105,1.953,-23.438,-37.598,-64.453,0.000
1728614640.109,-46.875,-21.484,-35.645,-35.645,0.000
1728614640.113,-28.320,-26.367,-31.738,0.000,0.000
1728614640.117,-9.277,-29.297,-30.273,-9.766,0.000
1728614640.121,-4.395,-29.297,-33.691,-46.875,0.000
1728614640.125,-9.766,-27.832,-37.598,-46.875,0.000
1728614640.129,-61.523,-34.180,-30.273,-20.508,0.000
1728614640.133,-40.039,-37.109,-27.344,23.438,0.000
1728614640.136,-25.879,-31.250,-36.133,2.441,0.000
1728614640.140,-36.133,-35.645,-34.668,-51.270,0.000
1728614640.144,-11.719,-34.180,-29.785,-58.105,0.000
1728614640.148,-46.875,-22.949,-34.180,-46.875,0.000
1728614640.152,-62.012,-24.902,-41.504,-18.555,0.000
1728614640.156,-48.340,-39.062,-43.945,-14.160,0.000
1728614640.160,-39.551,-45.410,-42.480,-56.641,0.000
1728614640.164,-21.484,-37.598,-36.133,-74.707,0.000
1728614640.168,-74.219,-33.203,-37.109,-62.012,0.000
1728614640.172,-76.660,-40.039,-43.457,-20.020,0.000
1728614640.176,-43.457,-41.992,-48.340,-15.137,0.000
1728614640.179,-44.922,-38.574,-46.387,-62.500,0.000
1728614640.183,-19.043,-30.762,-41.992,-79.590,0.000
1728614640.187,-53.711,-25.391,-41.016,-59.082,0.000
1728614640.191,-74.707,-32.227,-47.852,-20.020,0.000
1728614640.195,-53.711,-35.156,-49.316,-0.488,0.000
1728614640.199,-39.551,-35.645,-47.363,-35.156,0.000
1728614640.203,8.301,-29.785,-42.969,-59.082,0.000
1728614640.207,-26.855,-32.227,-36.621,-48.828,0.000
1728614640.211,-46.387,-41.504,-40.527,-16.602,0.000
1728614640.215,-11.719,-23.926,-43.945,10.742,0.000
1728614640.219,-30.762,-22.461,-36.621,-16.602,0.000
1728614640.222,-19.043,-41.504,-32.227,-37.598,0.000
1728614640.226,-50.293,-32.227,-34.668,-34.668,0.000
1728614640.230,-76.660,-24.902,-40.527,-20.996,0.000
1728614640.234,-40.527,-32.227,-41.992,3.418,0.000
1728614640.238,-24.902,-26.367,-34.668,-30.273,0.000
1728614640.242,-3.418,-24.414,-37.109,-65.918,0.000
1728614640.246,-30.762,-34.668,-39.062,-49.316,0.000
1728614640.250,-68.848,-27.832,-35.645,-15.625,0.000
1728614640.254,-36.133,-23.438,-44.434,-0.488,0.000
1728614640.258,-29.785,-41.016,-48.828,-34.668,0.000
1728614640.262,-8.789,-45.898,-46.387,-72.266,0.000
1728614640.265,-10.742,-35.156,-49.805,-73.242,0.000
1728614640.269,-57.617,-33.691,-46.387,-54.688,0.000
1728614640.273,-31.250,-34.668,-37.109,-7.324,0.000
1728614640.277,-25.879,-36.621,-34.180,-15.137,0.000
1728614640.281,-21.973,-43.945,-43.457,-62.988,0.000
1728614640.285,-9.766,-41.992,-42.480,-57.617,0.000
1728614640.289,-52.246,-40.527,-33.203,-32.227,0.000
1728614640.293,-43.945,-37.598,-33.691,9.766,0.000
1728614640.297,-29.785,-33.203,-32.227,5.371,0.000
1728614640.301,-17.578,-37.598,-35.645,-41.992,0.000
1728614640.305,-2.930,-39.062,-42.969,-59.082,0.000
1728614640.308,-40.527,-36.133,-44.434,-45.898,0.000
1728614640.312,-46.387,-35.156,-43.945,6.348,0.000
1728614640.316,-45.410,-34.668,-43.457,-0.488,0.000
1728614640.320,-41.016,-33.691,-43.945,-49.316,0.000
1728614640.324,-12.695,-34.668,-46.875,-56.641,0.000
1728614640.328,-49.805,-39.062,-49.316,-39.551,0.000
1728614640.332,-57.129,-40.039,-48.340,11.230,0.000
1728614640.336,-20.508,-36.133,-49.316,19.531,0.000
1728614640.340,-20.020,-30.273,-50.781,-32.227,0.000
1728614640.344,-20.508,-29.785,-43.457,-46.875,0.000
1728614640.347,-49.805,-35.156,-33.203,-38.574,0.000
1728614640.351,-51.758,-31.250,-32.715,-6.836,0.000
1728614640.355,-40.527,-27.832,-31.738,7.812,0.000
1728614640.359,-51.758,-33.691,-30.762,-34.180,0.000
1728614640.363,-19.043,-33.691,-33.691,-59.082,0.000
1728614640.367,-49.316,-38.086,-35.156,-70.312,0.000
1728614640.371,-73.730,-39.551,-30.762,-23.926,0.000
1728614640.375,-32.715,-35.645,-28.320,21.484,0.000
1728614640.379,-34.180,-39.062,-32.227,-38.086,0.000
1728614640.383,-15.137,-43.457,-26.855,-75.195,0.000
1728614640.387,-41.504,-43.945,-20.020,-54.688,0.000
1728614640.390,-70.312,-31.738,-20.996,-16.113,0.000
1728614640.394,-36.133,-33.691,-23.438,10.254,0.000
1728614640.398,-38.086,-38.086,-27.832,-24.414,0.000
1728614640.402,-23.438,-42.480,-32.715,-59.570,0.000
1728614640.406,-29.785,-43.457,-33.203,-60.547,0.000
1728614640.410,-58.105,-37.598,-31.738,-22.461,0.000
1728614640.414,-36.621,-36.133,-34.668,15.625,0.000
1728614640.418,-30.273,-35.156,-40.527,-25.391,0.000
1728614640.422,-4.883,-30.273,-42.480,-50.293,0.000
1728614640.426,-9.766,-24.902,-42.480,-46.875,0.000
1728614640.430,-56.641,-21.484,-34.668,-32.715,0.000
1728614640.433,-31.738,-23.438,-28.809,22.949,0.000
1728614640.437,-23.438,-30.762,-38.086,4.395,0.000
1728614640.441,-25.391,-35.645,-42.480,-49.805,0.000
1728614640.445,-14.160,-37.598,-43.945,-58.105,0.000
1728614640.449,-44.434,-29.297,-50.781,-47.852,0.000
1728614640.453,-25.391,-21.484,-50.293,-3.418,0.000
1728614640.457,-21.973,-28.809,-53.223,-11.230,0.000
1728614640.461,-34.180,-30.762,-53.711,-54.688,0.000
1728614640.465,-21.484,-21.973,-47.852,-53.223,0.000
1728614640.469,-61.523,-22.949,-47.363,-49.316,0.000
1728614640.473,-51.270,-34.668,-43.457,-23.926,0.000
1728614640.476,-21.973,-27.344,-38.086,-5.371,0.000
1728614640.480,-13.184,-17.090,-41.992,-38.574,0.000
1728614640.484,15.137,-23.926,-46.387,-50.293,0.000
1728614640.488,-30.762,-29.297,-45.410,-30.273,0.000
1728614640.492,-57.129,-26.855,-44.434,-0.488,0.000
1728614640.496,-23.926,-22.461,-38.086,0.000,0.000
1728614640.500,-22.949,-28.320,-32.227,-41.992,0.000
1728614640.504,-12.207,-37.109,-34.180,-62.988,0.000
1728614640.508,-51.270,-30.762,-27.832,-65.918,0.000
1728614640.512,-64.941,-21.484,-21.973,-35.645,0.000
1728614640.516,-22.949,-28.809,-19.531,-11.230,0.000
1728614640.519,-14.160,-33.691,-21.973,-51.758,0.000
1728614640.523,-2.930,-30.762,-28.320,-78.125,0.000
1728614640.527,-49.316,-34.668,-26.367,-57.617,0.000
1728614640.531,-85.938,-47.852,-22.461,-18.066,0.000
1728614640.535,-58.594,-45.898,-22.461,3.906,0.000
1728614640.539,-45.898,-36.621,-29.297,-41.504,0.000
1728614640.543,-16.113,-35.645,-36.621,-77.148,0.000
1728614640.547,-44.434,-23.926,-41.016,-62.500,0.000
1728614640.551,-72.266,-24.414,-38.574,-19.531,0.000
1728614640.555,-33.203,-31.250,-35.156,6.836,0.000
1728614640.559,-26.367,-26.855,-41.504,-33.691,0.000
1728614640.562,-3.906,-21.973,-41.504,-62.012,0.000
1728614640.566,-5.859,-17.578,-33.691,-50.293,0.000
1728614640.570,-39.551,-25.879,-33.203,-28.809,0.000
1728614640.574,-26.367,-34.668,-36.621,4.883,0.000
1728614640.578,-38.574,-25.391,-38.086,-20.020,0.000
1728614640.582,-31.250,-22.461,-33.691,-50.293,0.000
1728614640.586,-24.414,-25.391,-30.762,-42.480,0.000
1728614640.590,-49.805,-27.832,-28.320,-12.695,0.000
1728614640.594,-30.762,-37.598,-37.598,15.625,0.000
1728614640.598,-15.137,-37.598,-51.758,-20.020,0.000
1728614640.602,8.301,-29.785,-41.504,-61.523,0.000
1728614640.605,-5.371,-28.809,-32.715,-54.199,0.000
1728614640.609,-78.613,-35.156,-32.227,-44.434,0.000
1728614640.613,-67.871,-39.062,-28.320,-8.301,0.000
1728614640.617,-47.852,-30.273,-30.273,-11.230,0.000
1728614640.621,-41.992,-34.180,-33.203,-50.293,0.000
1728614640.625,-26.855,-38.574,-38.574,-73.242,0.000
1728614640.629,-63.477,-30.273,-42.480,-62.988,0.000
1728614640.633,-52.246,-30.273,-39.551,-10.742,0.000
1728614640.637,-38.086,-30.273,-31.738,-20.508,0.000
1728614640.641,-38.086,-37.109,-24.414,-55.664,0.000
1728614640.644,-6.348,-37.598,-22.949,-64.453,0.000
1728614640.648,-43.945,-27.344,-22.461,-62.012,0.000
1728614640.652,-54.688,-23.926,-24.902,-24.902,0.000
1728614640.656,-28.320,-21.973,-32.715,-12.695,0.000
1728614640.660,-48.828,-29.297,-39.062,-49.805,0.000
1728614640.664,-40.039,-37.109,-34.180,-52.734,0.000
1728614640.668,-65.430,-29.785,-29.297,-40.039,0.000
1728614640.672,-69.824,-29.297,-25.391,-8.789,0.000
1728614640.676,-27.344,-39.062,-24.414,0.488,0.000
1728614640.680,-25.879,-34.180,-27.832,-47.852,0.000
1728614640.684,-13.184,-22.949,-26.855,-57.617,0.000
1728614640.687,-49.316,-27.344,-32.227,-41.016,0.000
1728614640.691,-68.359,-29.785,-37.598,-13.672,0.000
1728614640.695,-29.297,-21.973,-28.320,19.043,0.000
1728614640.699,-36.621,-14.160,-29.297,-19.531,0.000
1728614640.703,-23.438,-18.066,-37.598,-51.270,0.000
1728614640.707,-38.574,-26.367,-35.156,-48.828,0.000
1728614640.711,-63.965,-25.879,-30.762,-27.832,0.000
1728614640.715,-38.086,-22.949,-34.180,-2.441,0.000
1728614640.719,-41.016,-20.996,-38.086,-38.086,0.000
1728614640.723,-20.020,-22.949,-32.715,-71.289,0.000
1728614640.727,-34.180,-25.391,-29.297,-68.848,0.000
1728614640.730,-63.965,-26.367,-39.062,-32.227,0.000
1728614640.734,-26.367,-29.297,-41.992,4.395,0.000
1728614640.738,-30.273,-26.855,-33.203,-24.414,0.000
1728614640.742,-38.086,-26.855,-32.715,-55.664,0.000
1728614640.746,-56.152,-25.391,-36.133,-59.570,0.000
1728614640.750,-107.910,-26.367,-40.527,-41.504,0.000
1728614640.754,-77.148,-35.156,-41.992,0.977,0.000
1728614640.758,-42.480,-36.621,-37.598,-15.625,0.000
1728614640.762,-29.297,-32.227,-36.621,-67.383,0.000
1728614640.766,-28.809,-34.668,-42.480,-70.801,0.000
1728614640.770,-77.148,-34.180,-43.457,-40.527,0.000
1728614640.773,-55.176,-22.949,-41.992,-0.488,0.000
1728614640.777,-25.391,-24.902,-41.504,-4.395,0.000
1728614640.781,-18.066,-29.297,-41.992,-43.945,0.000
1728614640.785,-24.902,-26.855,-39.062,-58.594,0.000
1728614640.789,-70.312,-26.367,-34.180,-33.691,0.000
1728614640.793,-54.199,-20.508,-38.574,2.441,0.000
1728614640.797,-38.086,-21.484,-45.410,-7.324,0.000
1728614640.801,-37.598,-25.879,-42.969,-42.480,0.000
1728614640.805,-3.418,-22.461,-42.480,-47.363,0.000
1728614640.809,-29.785,-25.391,-47.363,-36.133,0.000
1728614640.813,-36.133,-25.879,-43.457,-11.230,0.000
1728614640.816,-25.879,-17.578,-37.598,-7.324,0.000
1728614640.820,-34.180,-23.926,-37.109,-36.621,0.000
1728614640.824,-4.883,-22.461,-39.551,-41.504,0.000
1728614640.828,-41.016,-16.602,-41.504,-39.551,0.000
1728614640.832,-60.547,-29.785,-45.898,-8.301,0.000
1728614640.836,-37.598,-34.668,-43.457,12.207,0.000
1728614640.840,-25.879,-26.367,-29.785,-34.180,0.000
1728614640.844,1.465,-29.785,-36.621,-59.570,0.000
1728614640.848,-51.758,-38.086,-44.922,-49.805,0.000
1728614640.852,-80.566,-41.504,-47.363,-29.785,0.000
1728614640.856,-48.828,-38.574,-52.246,-13.672,0.000
1728614640.860,-43.945,-38.086,-49.316,-57.617,0.000
1728614640.863,-12.207,-35.156,-46.875,-76.660,0.000
1728614640.867,-23.438,-31.250,-38.574,-40.527,0.000
1728614640.871,-68.359,-32.715,-39.062,-17.090,0.000
1728614640.875,-47.852,-28.809,-42.480,-10.742,0.000
1728614640.879,-31.738,-35.156,-33.203,-29.785,0.000
1728614640.883,-15.625,-40.039,-37.109,-56.641,0.000
1728614640.887,-43.457,-43.945,-41.992,-65.430,0.000
1728614640.891,-86.914,-56.152,-41.992,-37.109,0.000
1728614640.895,-44.434,-45.898,-42.480,-1.465,0.000
1728614640.899,-23.926,-30.762,-46.387,-34.180,0.000
1728614640.903,-14.648,-35.156,-51.270,-69.336,0.000
1728614640.906,-23.438,-30.273,-43.945,-67.383,0.000
1728614640.910,-62.500,-31.250,-31.738,-33.203,0.000
1728614640.914,-41.992,-32.227,-32.227,20.996,0.000
1728614640.918,-32.227,-18.555,-34.180,0.977,0.000
1728614640.922,-27.832,-25.879,-34.668,-45.898,0.000
1728614640.926,-24.414,-45.410,-39.062,-53.223,0.000
1728614640.930,-68.848,-41.504,-36.621,-33.203,0.000
1728614640.934,-57.617,-23.926,-33.691,11.719,0.000
1728614640.938,-36.133,-33.691,-36.621,-1.465,0.000
1728614640.942,-17.090,-42.969,-39.551,-51.758,0.000
1728614640.945,-4.395,-36.133,-40.527,-64.941,0.000
1728614640.949,-55.176,-41.992,-41.992,-49.805,0.000
1728614640.953,-41.504,-37.109,-32.715,2.441,0.000
1728614640.957,-29.297,-29.785,-31.250,-5.371,0.000
1728614640.961,-30.273,-32.227,-38.086,-53.223,0.000
1728614640.965,4.883,-31.738,-35.645,-63.477,0.000
1728614640.969,-33.203,-31.738,-41.016,-59.570,0.000
1728614640.973,-40.039,-35.156,-45.410,-17.090,0.000
1728614640.977,-32.227,-35.156,-41.016,-7.812,0.000
1728614640.981,-38.574,-32.715,-38.086,-53.223,0.000
1728614640.985,-12.207,-33.203,-37.109,-57.129,0.000
1728614640.988,-54.199,-40.527,-34.180,-43.945,0.000
1728614640.992,-67.383,-40.039,-34.668,-16.113,0.000
1728614640.996,-38.574,-35.645,-36.133,0.977,0.000
1728614641.000,-39.062,-38.086,-38.574,-43.457,0.000
1728614641.004,-20.996,-30.273,-35.156,-69.336,0.000
1728614641.008,-65.430,-29.297,-37.598,-74.707,0.000
1728614641.012,-83.984,-36.621,-46.875,-41.504,0.000
1728614641.016,-44.922,-48.340,-43.945,-9.277,0.000
1728614641.020,-47.852,-48.828,-48.340,-37.109,0.000
1728614641.024,-21.973,-38.086,-49.805,-62.988,0.000
1728614641.028,-32.227,-33.203,-40.527,-62.988,0.000
1728614641.031,-65.918,-32.715,-41.504,-35.156,0.000
1728614641.035,-39.062,-39.062,-44.922,-15.625,0.000
1728614641.039,-22.949,-42.969,-45.898,-40.527,0.000
1728614641.043,12.695,-45.410,-43.945,-65.430,0.000
1728614641.047,-0.488,-41.504,-44.922,-66.406,0.000
1728614641.051,-59.082,-35.156,-46.387,-34.668,0.000
1728614641.055,-34.180,-36.133,-41.992,-6.836,0.000
1728614641.059,-9.277,-33.203,-38.574,-28.809,0.000
1728614641.063,5.371,-24.902,-40.039,-52.734,0.000
1728614641.067,-4.883,-28.320,-40.527,-58.105,0.000
1728614641.071,-47.363,-32.715,-36.621,-24.902,0.000
1728614641.074,-33.203,-26.367,-29.785,15.625,0.000
1728614641.078,-34.668,-28.809,-30.762,-16.113,0.000
1728614641.082,-25.879,-34.668,-38.574,-59.082,0.000
1728614641.086,-8.789,-34.180,-41.992,-64.453,0.000
1728614641.090,-67.871,-38.086,-38.574,-45.410,0.000
1728614641.094,-57.129,-42.969,-36.133,-11.719,0.000
1728614641.098,-45.898,-39.062,-39.551,-23.926,0.000
1728614641.102,-54.199,-39.551,-37.598,-54.199,0.000
1728614641.106,-38.574,-36.133,-40.527,-58.594,0.000
1728614641.110,-78.613,-28.809,-42.480,-49.316,0.000
1728614641.113,-69.824,-26.367,-34.180,-15.625,0.000
1728614641.117,-41.016,-28.809,-32.715,-6.348,0.000
1728614641.121,-22.461,-30.273,-31.250,-41.016,0.000
1728614641.125,0.000,-35.156,-27.344,-58.594,0.000
1728614641.129,0.000,-43.457,-32.715,-50.781,0.000
1728614641.133,0.000,-44.434,-36.621,-9.277,0.000
1728614641.137,0.000,-44.922,-38.086,-2.441,0.000
1728614641.141,0.000,-38.086,-34.180,-49.316,0.000
1728614641.145,0.000,-30.273,-33.691,-64.941,0.000
1728614641.149,0.000,-35.645,-35.645,-55.176,0.000
1728614641.153,0.000,-38.086,-30.273,-21.484,0.000
1728614641.156,0.000,-34.180,-33.203,-6.836,0.000
1728614641.160,0.000,-35.645,-41.504,-51.270,0.000
1728614641.164,0.000,-30.762,-35.645,-62.012,0.000
1728614641.168,0.000,-30.273,-34.180,-29.297,0.000
1728614641.172,0.000,-42.969,-40.527,-4.395,0.000
1728614641.176,-27.832,-37.109,-35.645,7.812,0.000
1728614641.180,-12.207,-32.227,-33.203,-23.438,0.000
1728614641.184,5.859,-38.574,-31.738,-52.734,0.000
1728614641.188,-19.531,-37.598,-37.598,-49.805,0.000
1728614641.192,-47.852,-34.180,-38.086,-18.066,0.000
1728614641.196,-15.625,-35.156,-34.180,11.719,0.000
1728614641.199,-21.484,-29.297,-31.738,-20.508,0.000
1728614641.203,-18.555,-31.738,-27.832,-52.734,0.000
1728614641.207,-43.457,-38.086,-32.715,-57.617,0.000
1728614641.211,-78.613,-30.273,-31.738,-31.250,0.000
1728614641.215,-48.340,-36.621,-29.297,8.789,0.000
1728614641.219,-47.363,-45.898,-32.715,-11.719,0.000
1728614641.223,-18.066,-32.227,-35.156,-57.617,0.000
1728614641.227,-18.066,-29.297,-33.691,-70.801,0.000
1728614641.231,-62.988,-37.109,-36.133,-53.711,0.000
1728614641.235,-59.570,-28.320,-40.039,-5.371,0.000
1728614641.239,-52.246,-25.391,-34.668,-16.113,0.000
1728614641.242,-18.066,-30.762,-30.762,-62.012,0.000
1728614641.246,-20.020,-30.273,-34.668,-66.406,0.000
1728614641.250,-63.477,-30.762,-33.203,-35.156,0.000
1728614641.254,-45.898,-39.551,-35.645,0.488,0.000
1728614641.258,-25.879,-40.039,-43.457,-19.531,0.000
1728614641.262,-14.648,-32.227,-38.086,-49.805,0.000
1728614641.266,-15.625,-30.762,-31.250,-58.105,0.000
1728614641.270,-70.801,-35.645,-31.250,-28.809,0.000
1728614641.274,-55.176,-36.133,-29.785,18.555,0.000
1728614641.278,-36.133,-33.203,-32.227,-10.742,0.000
1728614641.282,-41.504,-34.180,-36.621,-56.641,0.000
1728614641.285,-15.625,-31.738,-37.598,-50.781,0.000
1728614641.289,-52.734,-33.691,-37.109,-37.109,0.000
1728614641.293,-55.664,-41.992,-41.992,-23.438,0.000
1728614641.297,-25.879,-35.156,-44.922,-20.508,0.000
1728614641.301,-28.320,-27.832,-36.133,-55.176,0.000
1728614641.305,-6.836,-19.043,-39.062,-72.754,0.000
1728614641.309,-38.086,-19.531,-47.852,-66.406,0.000
1728614641.313,-49.316,-26.367,-43.457,-27.344,0.000
1728614641.317,-36.133,-26.855,-36.133,-3.906,0.000
1728614641.321,-29.785,-29.785,-35.645,-38.574,0.000
1728614641.325,13.184,-33.203,-35.156,-61.523,0.000
1728614641.328,-35.645,-36.621,-35.156,-55.176,0.000
1728614641.332,-70.312,-39.062,-34.668,-15.137,0.000
1728614641.336,-43.945,-40.039,-37.598,1.953,0.000
1728614641.340,-36.133,-35.645,-39.551,-45.410,0.000
1728614641.344,-9.277,-29.785,-33.203,-53.223,0.000
1728614641.348,-46.875,-37.598,-27.344,-35.156,0.000
1728614641.352,-73.730,-37.109,-25.391,-18.555,0.000
1728614641.356,-40.527,-30.273,-28.809,3.906,0.000
1728614641.360,-37.109,-37.598,-32.227,-31.738,0.000
1728614641.364,-17.090,-37.598,-27.832,-59.082,0.000
1728614641.368,-40.527,-29.297,-25.879,-41.992,0.000
1728614641.371,-77.637,-25.391,-31.250,-13.184,0.000
1728614641.375,-48.340,-29.785,-40.527,-1.953,0.000
1728614641.379,-59.082,-39.551,-40.039,-29.785,0.000
1728614641.383,-36.621,-43.457,-33.203,-62.988,0.000
1728614641.387,-20.508,-34.180,-36.133,-76.660,0.000
1728614641.391,-79.590,-32.715,-44.922,-39.551,0.000
1728614641.395,-71.289,-36.621,-44.434,-2.441,0.000
1728614641.399,-57.129,-31.738,-44.922,-38.086,0.000
1728614641.403,-25.879,-24.414,-50.781,-71.777,0.000
1728614641.407,-14.160,-29.297,-46.387,-66.895,0.000
1728614641.411,-74.707,-33.203,-40.527,-52.246,0.000
1728614641.414,-49.805,-29.785,-38.574,-17.578,0.000
1728614641.418,-15.137,-35.645,-35.645,-24.902,0.000
1728614641.422,-22.949,-33.691,-35.156,-44.434,0.000
1728614641.426,-28.809,-36.621,-37.598,-54.688,0.000
1728614641.430,-77.637,-43.945,-34.180,-41.504,0.000
1728614641.434,-70.801,-39.551,-37.109,9.277,0.000
1728614641.438,-38.086,-26.855,-39.551,2.441,0.000
1728614641.442,-21.973,-21.484,-39.062,-48.828,0.000
1728614641.446,-5.859,-35.156,-42.480,-70.312,0.000
1728614641.450,-50.293,-43.945,-36.133,-46.387,0.000
1728614641.453,-54.688,-36.133,-35.645,-3.906,0.000
1728614641.457,-42.480,-33.203,-41.992,-9.766,0.000
1728614641.461,-53.223,-40.527,-44.434,-56.152,0.000
1728614641.465,-17.090,-38.086,-43.945,-64.941,0.000
1728614641.469,-49.805,-36.621,-40.527,-52.734,0.000
1728614641.473,-69.336,-38.574,-39.062,-24.902,0.000
1728614641.477,-33.691,-35.645,-35.156,-2.930,0.000
1728614641.481,-19.043,-30.273,-31.738,-29.297,0.000
1728614641.485,-6.836,-24.414,-33.203,-43.457,0.000
1728614641.489,-54.688,-28.320,-37.109,-45.410,0.000
1728614641.493,-72.266,-45.410,-41.504,-21.973,0.000
1728614641.496,-38.086,-48.340,-41.504,2.441,0.000
1728614641.500,-39.551,-33.691,-33.691,-41.504,0.000
1728614641.504,-8.789,-27.344,-33.203,-62.988,0.000
1728614641.508,-27.344,-30.273,-35.645,-55.664,0.000
1728614641.512,-68.359,-37.109,-35.156,-21.973,0.000
1728614641.516,-47.363,-41.992,-36.133,1.953,0.000
1728614641.520,-42.969,-35.156,-38.086,-32.227,0.000
1728614641.524,-20.508,-32.715,-41.016,-50.293,0.000
1728614641.528,-17.578,-35.156,-42.480,-51.758,0.000
1728614641.532,-46.875,-31.738,-40.039,-23.438,0.000
1728614641.536,-31.738,-27.832,-36.621,16.602,0.000
1728614641.539,-32.227,-28.320,-40.527,-19.043,0.000
1728614641.543,-14.648,-27.344,-41.992,-51.270,0.000
1728614641.547,-11.230,-23.926,-38.574,-32.715,0.000
1728614641.551,-42.969,-24.902,-39.062,-20.020,0.000
1728614641.555,-33.203,-31.738,-43.457,3.906,0.000
1728614641.559,-26.367,-32.227,-43.945,-7.812,0.000
1728614641.563,1.953,-28.809,-39.062,-45.410,0.000
1728614641.567,-5.371,-32.227,-42.969,-60.547,0.000
1728614641.571,-67.383,-34.180,-45.410,-41.992,0.000
1728614641.575,-43.457,-31.738,-38.574,2.930,0.000
1728614641.579,-4.395,-30.273,-36.133,-12.695,0.000
1728614641.582,4.395,-29.297,-42.480,-48.340,0.000
1728614641.586,3.906,-31.738,-40.527,-53.711,0.000
1728614641.590,-48.340,-33.203,-40.039,-47.363,0.000
1728614641.594,-39.062,-29.785,-47.852,-9.766,0.000
1728614641.598,-20.996,-31.738,-43.945,4.395,0.000
1728614641.602,-18.555,-39.062,-41.992,-43.457,0.000
1728614641.606,-15.137,-36.621,-41.992,-65.430,0.000
1728614641.610,-63.477,-33.203,-39.551,-49.316,0.000
1728614641.614,-57.617,-37.109,-39.551,-18.555,0.000
1728614641.618,-38.574,-38.574,-38.086,-8.789,0.000
1728614641.622,-34.668,-28.809,-30.762,-49.805,0.000
1728614641.625,-11.230,-26.367,-34.180,-68.359,0.000
1728614641.629,-57.617,-38.574,-41.016,-47.852,0.000
1728614641.633,-74.707,-46.875,-34.668,-9.766,0.000
1728614641.637,-33.203,-41.504,-35.645,-2.930,0.000
1728614641.641,-25.879,-37.598,-41.016,-52.246,0.000
1728614641.645,-2.930,-37.109,-41.016,-58.105,0.000
1728614641.649,-20.996,-32.715,-40.527,-39.551,0.000
1728614641.653,-51.758,-31.250,-42.480,-18.066,0.000
1728614641.657,-32.227,-29.785,-43.457,-1.465,0.000
1728614641.661,-28.809,-31.250,-42.480,-37.598,0.000
1728614641.665,-3.418,-45.898,-40.527,-63.965,0.000
1728614641.668,-33.691,-52.246,-41.016,-54.688,0.000
1728614641.672,-72.754,-44.922,-38.574,-18.066,0.000
1728614641.676,-37.109,-41.504,-37.109,8.301,0.000
1728614641.680,-23.438,-37.598,-42.480,-40.039,0.000
1728614641.684,-8.789,-36.133,-42.480,-74.219,0.000
1728614641.688,-31.250,-36.133,-37.598,-56.152,0.000
1728614641.692,-61.523,-29.297,-36.621,-23.926,0.000
1728614641.696,-28.320,-25.879,-38.086,8.301,0.000
1728614641.700,-28.809,-34.180,-36.133,-17.578,0.000
1728614641.704,-15.625,-39.062,-34.180,-54.199,0.000
1728614641.708,-19.531,-38.574,-30.762,-61.523,0.000
1728614641.711,-73.242,-37.109,-25.879,-30.273,0.000
1728614641.715,-49.316,-37.109,-26.855,5.859,0.000
1728614641.719,-28.320,-42.480,-25.879,-11.230,0.000
1728614641.723,-18.555,-39.062,-27.344,-57.617,0.000
1728614641.727,-23.926,-36.133,-38.086,-73.730,0.000
1728614641.731,-69.336,-40.527,-37.598,-48.340,0.000
1728614641.735,-52.734,-45.410,-37.109,-8.301,0.000
1728614641.739,-37.598,-45.898,-39.062,-11.719,0.000
1728614641.743,-25.391,-43.457,-36.133,-41.992,0.000
1728614641.747,-18.066,-43.945,-27.832,-48.828,0.000
1728614641.751,-66.895,-44.922,-26.367,-34.180,0.000
1728614641.754,-65.430,-41.504,-37.109,-10.742,0.000
1728614641.758,-51.270,-38.086,-42.480,-27.344,0.000
1728614641.762,-22.461,-31.250,-41.992,-55.664,0.000
1728614641.766,-1.465,-33.691,-40.039,-60.547,0.000
1728614641.770,-78.125,-42.969,-45.410,-56.641,0.000
1728614641.774,-88.379,-49.316,-50.781,-10.254,0.000
1728614641.778,-39.062,-42.480,-44.922,2.441,0.000
1728614641.782,-21.973,-28.320,-40.039,-42.480,0.000
1728614641.786,7.324,-22.949,-40.527,-52.246,0.000
1728614641.790,-34.668,-21.973,-41.504,-50.293,0.000
1728614641.794,-51.270,-21.973,-38.574,-17.578,0.000
1728614641.797,-23.926,-26.367,-34.180,14.160,0.000
1728614641.801,-28.809,-33.203,-35.645,-31.738,0.000
1728614641.805,-1.465,-30.273,-36.133,-65.430,0.000
1728614641.809,-37.598,-41.016,-41.992,-48.828,0.000
1728614641.813,-65.430,-44.434,-41.504,-7.324,0.000
1728614641.817,-30.762,-30.762,-32.715,12.695,0.000
1728614641.821,-29.785,-22.949,-36.133,-36.621,0.000
1728614641.825,-16.113,-27.344,-38.574,-57.129,0.000
1728614641.829,-55.176,-38.574,-32.715,-35.645,0.000
1728614641.833,-84.961,-36.133,-32.227,-33.691,0.000
1728614641.836,-49.316,-35.156,-40.039,-18.066,0.000
1728614641.840,-27.832,-33.691,-37.598,-31.250,0.000
1728614641.844,7.324,-34.668,-33.203,-70.801,0.000
1728614641.848,-15.137,-41.016,-37.109,-71.289,0.000
1728614641.852,-45.410,-34.180,-39.551,-22.949,0.000
1728614641.856,-23.926,-38.574,-43.945,5.371,0.000
1728614641.860,-17.578,-40.039,-49.316,-36.621,0.000
1728614641.864,12.695,-28.320,-47.852,-70.312,0.000
1728614641.868,-2.930,-25.391,-35.156,-56.641,0.000
1728614641.872,-61.523,-28.809,-28.320,-26.367,0.000
1728614641.876,-36.133,-31.738,-33.203,7.812,0.000
1728614641.879,-25.391,-37.109,-40.527,-24.902,0.000
1728614641.883,-13.672,-36.621,-44.434,-63.477,0.000
1728614641.887,-9.766,-34.180,-41.504,-48.340,0.000
1728614641.891,-60.547,-36.621,-32.715,-28.809,0.000
1728614641.895,-46.387,-37.598,-37.598,0.000,0.000
1728614641.899,-32.715,-45.410,-44.434,-2.441,0.000
1728614641.903,-32.715,-42.969,-38.574,-46.387,0.000
1728614641.907,-22.461,-37.109,-39.062,-66.895,0.000
1728614641.911,-67.871,-40.527,-39.551,-52.734,0.000
1728614641.915,-63.965,-42.480,-41.504,-18.066,0.000
1728614641.918,-41.992,-50.293,-45.898,-29.297,0.000
1728614641.922,-28.809,-41.992,-44.434,-61.523,0.000
1728614641.926,-2.441,-28.809,-41.504,-58.105,0.000
1728614641.930,-56.641,-36.621,-43.945,-43.457,0.000
1728614641.934,-68.359,-37.598,-41.016,8.301,0.000
1728614641.938,-42.969,-40.039,-37.598,4.395,0.000
1728614641.942,-31.738,-42.480,-38.574,-45.410,0.000
1728614641.946,-0.977,-39.551,-38.574,-60.059,0.000
1728614641.950,-34.668,-45.410,-40.527,-57.129,0.000
1728614641.954,-44.922,-41.504,-41.992,-20.020,0.000
1728614641.958,-35.156,-42.480,-38.086,-5.859,0.000
1728614641.962,-47.363,-40.527,-36.133,-53.711,0.000
1728614641.965,-21.484,-36.621,-40.039,-77.637,0.000
1728614641.969,-57.617,-49.316,-39.551,-60.059,0.000
1728614641.973,-74.707,-53.711,-38.086,-20.996,0.000
1728614641.977,-40.527,-42.969,-36.133,8.301,0.000
1728614641.981,-42.969,-41.992,-41.016,-37.598,0.000
1728614641.985,-8.789,-44.922,-41.016,-74.219,0.000
1728614641.989,-41.992,-41.992,-36.133,-62.988,0.000
1728614641.993,-88.867,-39.551,-38.086,-17.090,0.000
1728614641.997,-36.621,-44.434,-35.645,28.320,0.000
1728614642.001,-14.160,-41.992,-34.180,-7.324,0.000
1728614642.005,6.348,-41.504,-30.762,-38.574,0.000
1728614642.008,-15.625,-46.387,-21.973,-39.062,0.000
1728614642.012,-58.105,-39.062,-28.809,-15.625,0.000
1728614642.016,-36.133,-38.574,-43.945,15.137,0.000
1728614642.020,-33.203,-46.875,-45.410,-32.715,0.000
1728614642.024,-13.672,-42.480,-42.969,-66.895,0.000
1728614642.028,-6.836,-36.621,-40.527,-51.270,0.000
1728614642.032,-50.781,-39.551,-37.598,-22.949,0.000
1728614642.036,-37.598,-35.645,-33.691,10.742,0.000
1728614642.040,-21.973,-43.457,-30.273,-21.484,0.000
1728614642.044,-16.113,-40.527,-34.180,-63.965,0.000
1728614642.048,-30.273,-26.367,-31.738,-55.664,0.000
1728614642.051,-82.031,-33.203,-29.785,-31.738,0.000
1728614642.055,-55.664,-32.715,-29.297,4.883,0.000
1728614642.059,-34.668,-32.227,-28.320,-4.883,0.000
1728614642.063,-21.484,-44.434,-30.273,-50.781,0.000
1728614642.067,-10.742,-46.875,-26.367,-57.129,0.000
1728614642.071,-66.895,-41.992,-24.902,-27.832,0.000
1728614642.075,-58.105,-43.457,-23.438,11.230,0.000
1728614642.079,-35.156,-46.875,-23.438,5.859,0.000
1728614642.083,-15.625,-39.551,-27.832,-37.109,0.000
1728614642.087,9.766,-36.133,-29.297,-41.016,0.000
1728614642.091,-47.363,-37.598,-35.645,-36.621,0.000
1728614642.094,-52.246,-33.691,-37.109,-8.301,0.000
1728614642.098,-19.531,-36.133,-31.250,10.254,0.000
1728614642.102,-26.367,-36.621,-34.668,-38.574,0.000
1728614642.106,-16.602,-39.062,-33.203,-51.758,0.000
1728614642.110,-40.527,-37.598,-26.855,-37.109,0.000
1728614642.114,-43.945,-35.645,-29.297,-1.953,0.000
1728614642.118,-29.297,-38.574,-33.691,-0.488,0.000
1728614642.122,-32.227,-37.598,-38.086,-50.781,0.000
1728614642.126,-3.418,-41.992,-41.016,-63.965,0.000
1728614642.130,-25.879,-41.992,-34.180,-48.828,0.000
1728614642.133,-46.875,-41.016,-26.367,-6.348,0.000
1728614642.137,-19.531,-39.551,-30.273,13.672,0.000
1728614642.141,-30.762,-41.016,-38.574,-29.297,0.000
1728614642.145,-9.277,-44.434,-45.410,-62.988,0.000
1728614642.149,-21.973,-41.504,-43.457,-69.336,0.000
1728614642.153,-62.988,-41.504,-46.875,-34.668,0.000
1728614642.157,-38.574,-48.828,-55.664,-5.371,0.000
1728614642.161,0.000,-52.246,-54.688,-48.340,0.000
1728614642.165,0.000,-48.340,-50.781,-69.336,0.000
1728614642.169,0.000,-42.969,-49.316,-67.871,0.000
1728614642.173,0.000,-46.387,-45.410,-43.457,0.000
1728614642.176,0.000,-35.156,-43.457,4.395,0.000
1728614642.180,0.000,-24.414,-48.340,-26.855,0.000
1728614642.184,0.000,-40.039,-54.199,-69.336,0.000
1728614642.188,0.000,-41.504,-50.781,-58.594,0.000
1728614642.192,0.000,-35.645,-44.434,-34.180,0.000
1728614642.196,0.000,-39.551,-47.852,-2.441,0.000
1728614642.200,0.000,-40.039,-50.293,-21.973,0.000
1728614642.204,0.000,-38.574,-46.875,-65.430,0.000
1728614642.208,-23.926,-35.645,-50.781,-71.777,0.000
1728614642.212,-62.988,-23.438,-51.270,-42.480,0.000
1728614642.216,-37.598,-20.996,-48.340,-4.883,0.000
1728614642.219,-23.438,-35.156,-48.340,-15.625,0.000
1728614642.223,-31.250,-36.133,-48.828,-51.270,0.000
1728614642.227,-23.926,-32.715,-46.875,-61.035,0.000
1728614642.231,-62.988,-28.809,-46.875,-37.598,0.000
1728614642.235,-52.246,-28.320,-41.016,-4.883,0.000
1728614642.239,-29.785,-34.180,-38.086,-6.348,0.000
1728614642.243,-21.484,-35.645,-41.016,-43.945,0.000
1728614642.247,-11.230,-32.715,-39.551,-66.406,0.000
1728614642.251,-61.035,-34.668,-42.969,-50.781,0.000
1728614642.255,-62.988,-39.551,-37.109,2.930,0.000
1728614642.258,-46.875,-43.457,-36.133,7.812,0.000
1728614642.262,-36.621,-43.457,-44.434,-43.945,0.000
1728614642.266,-10.742,-38.086,-45.410,-64.941,0.000
1728614642.270,-62.500,-27.832,-40.527,-59.570,0.000
1728614642.274,-64.941,-27.832,-37.598,-16.113,0.000
1728614642.278,-32.715,-30.762,-41.504,3.418,0.000
1728614642.282,-31.738,-25.391,-42.480,-36.133,0.000
1728614642.286,6.836,-26.855,-37.109,-56.152,0.000
1728614642.290,-38.574,-35.645,-32.227,-48.828,0.000
1728614642.294,-85.449,-40.527,-35.156,-13.184,0.000
1728614642.298,-44.434,-34.180,-34.180,6.348,0.000
1728614642.302,-36.133,-28.320,-34.180,-41.992,0.000
1728614642.305,-26.367,-31.738,-38.086,-51.270,0.000
1728614642.309,-53.223,-41.504,-38.574,-42.969,0.000
1728614642.313,-80.566,-42.480,-36.621,-23.926,0.000
1728614642.317,-51.270,-39.551,-34.180,8.301,0.000
1728614642.321,-23.926,-36.133,-35.645,-29.785,0.000
1728614642.325,7.324,-35.645,-35.156,-71.289,0.000
1728614642.329,-18.066,-37.598,-35.156,-74.219,0.000
1728614642.333,-52.246,-35.645,-38.086,-35.156,0.000
1728614642.337,-26.855,-33.691,-32.715,13.672,0.000
1728614642.341,-28.809,-28.809,-30.762,-22.949,0.000
1728614642.345,-8.301,-33.691,-33.691,-64.453,0.000
1728614642.348,-12.207,-44.922,-40.039,-61.523,0.000
1728614642.352,-66.895,-38.086,-43.457,-31.250,0.000
1728614642.356,-43.457,-27.344,-42.969,13.672,0.000
1728614642.360,-21.973,-32.715,-43.457,-16.602,0.000
1728614642.364,-17.090,-25.391,-41.992,-52.734,0.000
1728614642.368,-32.715,-19.043,-44.434,-57.129,0.000
1728614642.372,-72.754,-28.320,-45.898,-39.551,0.000
1728614642.376,-53.711,-35.645,-40.039,1.953,0.000
1728614642.380,-38.574,-39.062,-41.016,-18.066,0.000
1728614642.384,-29.297,-41.016,-46.875,-69.824,0.000
1728614642.388,-20.508,-30.762,-44.434,-69.336,0.000
1728614642.391,-61.035,-36.133,-50.293,-41.992,0.000
1728614642.395,-40.039,-40.039,-53.711,4.883,0.000
1728614642.399,-13.184,-25.879,-54.199,-2.441,0.000
1728614642.403,-13.184,-23.926,-52.246,-57.129,0.000
1728614642.407,0.000,-32.227,-46.387,-51.758,0.000
1728614642.411,-45.410,-31.250,-48.828,-40.039,0.000
1728614642.415,-51.270,-28.809,-54.688,-28.320,0.000
1728614642.419,-33.203,-33.203,-54.688,-23.438,0.000
1728614642.423,-25.391,-32.227,-46.875,-54.688,0.000
1728614642.427,-2.930,-26.855,-41.992,-64.453,0.000
1728614642.431,-49.316,-24.414,-41.992,-45.898,0.000
1728614642.434,-68.848,-36.133,-36.621,-3.418,0.000
1728614642.438,-48.340,-53.711,-41.016,8.301,0.000
1728614642.442,-30.762,-44.922,-45.898,-37.109,0.000
1728614642.446,-5.371,-32.715,-40.039,-62.500,0.000
1728614642.450,-43.945,-36.621,-39.551,-42.480,0.000
1728614642.454,-68.848,-44.922,-44.922,2.441,0.000
1728614642.458,-41.504,-44.434,-41.992,7.812,0.000
1728614642.462,-22.461,-31.738,-38.086,-28.320,0.000
1728614642.466,5.371,-27.832,-40.039,-54.199,0.000
1728614642.470,-40.527,-36.621,-40.039,-52.246,0.000
1728614642.474,-75.195,-40.039,-36.621,-13.184,0.000
1728614642.477,-42.969,-42.969,-38.574,20.020,0.000
1728614642.481,-39.062,-41.504,-43.457,-16.113,0.000
1728614642.485,-4.395,-36.133,-45.410,-59.082,0.000
1728614642.489,-15.137,-35.645,-44.434,-56.152,0.000
1728614642.493,-51.758,-30.762,-42.480,-19.043,0.000
1728614642.497,-26.367,-22.949,-39.062,17.090,0.000
1728614642.501,-29.297,-29.297,-39.062,-22.461,0.000
1728614642.505,-19.531,-35.156,-44.922,-64.453,0.000
1728614642.509,-22.949,-38.086,-45.898,-57.617,0.000
1728614642.513,-53.711,-41.992,-44.922,-37.598,0.000
1728614642.516,-36.133,-37.598,-44.922,-8.789,0.000
1728614642.520,-39.062,-35.156,-48.828,-39.551,0.000
1728614642.524,-38.086,-37.598,-45.898,-77.148,0.000
1728614642.528,-58.105,-42.480,-35.645,-62.988,0.000
1728614642.532,-83.008,-46.875,-37.598,-28.809,0.000
1728614642.536,-49.316,-41.992,-45.898,4.883,0.000
1728614642.540,-40.527,-41.016,-44.434,-15.625,0.000
1728614642.544,-20.020,-44.922,-45.898,-51.270,0.000
1728614642.548,-5.371,-37.109,-42.969,-58.594,0.000
1728614642.552,-51.758,-35.156,-33.203,-38.086,0.000
1728614642.556,-44.922,-40.527,-34.180,3.418,0.000
1728614642.559,-30.762,-40.527,-42.480,-10.254,0.000
1728614642.563,-26.855,-35.645,-41.504,-51.758,0.000
1728614642.567,-11.230,-34.180,-36.621,-60.059,0.000
1728614642.571,-58.594,-45.410,-38.086,-49.316,0.000
1728614642.575,-47.852,-47.363,-37.598,-7.812,0.000
1728614642.579,-13.184,-41.992,-33.691,-4.395,0.000
1728614642.583,-20.996,-35.645,-33.691,-53.223,0.000
1728614642.587,-4.395,-39.062,-34.180,-55.664,0.000
1728614642.591,-34.180,-37.109,-28.320,-45.410,0.000
1728614642.595,-37.598,-24.414,-29.297,-16.113,0.000
1728614642.599,-11.719,-27.832,-37.109,-9.277,0.000
1728614642.602,-37.109,-41.992,-42.969,-63.477,0.000
1728614642.606,-41.016,-43.457,-37.109,-71.777,0.000
1728614642.610,-65.918,-39.551,-35.156,-62.988,0.000
1728614642.614,-74.219,-42.969,-39.062,-35.156,0.000
1728614642.618,-41.016,-46.387,-39.062,-5.859,0.000
1728614642.622,-31.250,-37.109,-32.227,-37.598,0.000
1728614642.626,-5.371,-27.344,-23.438,-55.176,0.000
1728614642.630,-36.133,-27.344,-27.344,-42.480,0.000
1728614642.634,-72.754,-37.109,-29.297,-18.066,0.000
1728614642.638,-47.363,-45.410,-31.738,19.043,0.000
1728614642.641,-30.762,-41.504,-30.762,-6.348,0.000
1728614642.645,-2.441,-45.410,-30.273,-52.246,0.000
1728614642.649,-30.762,-43.945,-33.203,-43.945,0.000
1728614642.653,-68.848,-38.574,-34.668,-20.996,0.000
1728614642.657,-33.691,-33.203,-33.203,6.836,0.000
1728614642.661,-32.227,-32.227,-24.902,-19.043,0.000
1728614642.665,-22.949,-33.691,-20.020,-46.875,0.000
1728614642.669,-27.832,-33.203,-22.461,-50.293,0.000
1728614642.673,-60.547,-36.133,-32.227,-44.922,0.000
1728614642.677,-19.531,-28.809,-37.598,-2.441,0.000
1728614642.681,-15.625,-29.297,-34.180,-17.578,0.000
1728614642.685,-20.996,-41.992,-34.180,-49.805,0.000
1728614642.688,-20.508,-38.086,-36.621,-55.664,0.000
1728614642.692,-69.336,-26.367,-31.738,-44.434,0.000
1728614642.696,-47.363,-27.832,-33.691,-9.277,0.000
1728614642.700,-23.438,-29.785,-33.691,-21.484,0.000
1728614642.704,-15.137,-32.227,-34.668,-58.105,0.000
1728614642.708,-13.672,-34.180,-46.387,-66.406,0.000
1728614642.712,-65.918,-37.109,-41.504,-48.828,0.000
1728614642.716,-48.828,-37.598,-39.551,-12.207,0.000
1728614642.720,-14.648,-36.133,-49.805,-24.414,0.000
1728614642.724,-16.113,-40.527,-42.480,-57.617,0.000
1728614642.728,-16.113,-42.969,-38.574,-54.688,0.000
1728614642.731,-56.641,-35.645,-40.527,-50.781,0.000
1728614642.735,-54.688,-36.133,-39.551,-12.695,0.000
1728614642.739,-39.062,-37.598,-39.062,-1.465,0.000
1728614642.743,-36.133,-34.668,-40.527,-44.434,0.000
1728614642.747,-14.160,-32.227,-44.922,-63.965,0.000
1728614642.751,-49.805,-27.832,-45.410,-57.129,0.000
1728614642.755,-46.875,-35.645,-41.992,-13.184,0.000
1728614642.759,-17.090,-38.574,-38.574,3.418,0.000
1728614642.763,-18.066,-37.598,-38.574,-41.016,0.000
1728614642.767,4.395,-39.062,-36.621,-58.105,0.000
1728614642.771,0.000,-41.504,-40.527,-41.016,0.000
1728614642.774,0.000,-45.898,-44.922,-6.348,0.000
1728614642.778,0.000,-38.574,-41.504,13.672,0.000
1728614642.782,0.000,-38.086,-40.039,-29.785,0.000
1728614642.786,0.000,-38.086,-33.691,-57.129,0.000
1728614642.790,0.000,-40.039,-29.297,-44.434,0.000
1728614642.794,0.000,-39.551,-29.785,-10.254,0.000
1728614642.798,0.000,-33.691,-27.832,13.184,0.000
1728614642.802,0.000,-38.574,-30.762,-17.578,0.000
1728614642.806,0.000,-31.250,-33.203,-41.992,0.000
1728614642.810,0.000,-34.180,-30.273,-48.828,0.000
1728614642.813,0.000,-44.922,-35.156,-22.949,0.000
1728614642.817,-37.109,-43.457,-42.480,-3.418,0.000
1728614642.821,-31.250,-52.246,-46.387,-36.621,0.000
1728614642.825,-7.324,-57.617,-41.992,-55.176,0.000
1728614642.829,-19.043,-47.363,-37.598,-62.012,0.000
1728614642.833,-73.730,-38.086,-41.992,-41.504,0.000
1728614642.837,-48.828,-37.598,-40.527,5.859,0.000
1728614642.841,-34.180,-36.133,-35.156,-14.648,0.000
1728614642.845,-20.996,-37.598,-40.039,-59.082,0.000
1728614642.849,-23.438,-43.457,-39.062,-53.223,0.000
1728614642.853,-62.988,-41.992,-32.715,-28.809,0.000
1728614642.856,-26.367,-38.574,-36.621,3.418,0.000
1728614642.860,5.859,-37.598,-37.598,-6.836,0.000
1728614642.864,4.395,-33.203,-33.691,-33.691,0.000
1728614642.868,-16.602,-27.832,-34.668,-42.969,0.000
1728614642.872,-68.848,-29.785,-32.715,-37.109,0.000
1728614642.876,-44.434,-33.203,-36.133,9.277,0.000
1728614642.880,-12.695,-38.086,-38.086,-1.465,0.000
1728614642.884,-0.977,-36.133,-36.621,-53.711,0.000
1728614642.888,1.465,-31.250,-44.922,-55.664,0.000
1728614642.892,-61.523,-36.133,-44.922,-35.645,0.000
1728614642.896,-69.336,-37.598,-34.668,-1.465,0.000
1728614642.899,-43.457,-36.621,-39.062,-10.742,0.000
1728614642.903,-26.367,-41.016,-41.016,-54.199,0.000
1728614642.907,-9.766,-37.598,-30.762,-59.082,0.000
1728614642.911,-52.246,-37.109,-28.320,-51.270,0.000
1728614642.915,-49.805,-35.645,-32.715,-8.789,0.000
1728614642.919,-18.066,-37.598,-35.645,6.348,0.000
1728614642.923,-21.973,-39.551,-30.273,-48.828,0.000
1728614642.927,-12.695,-41.992,-32.715,-55.176,0.000
1728614642.931,-61.523,-51.270,-43.945,-44.922,0.000
1728614642.935,-92.773,-53.223,-46.387,-23.438,0.000
1728614642.939,-47.852,-45.410,-42.480,0.977,0.000
1728614642.942,-39.062,-36.621,-38.086,-39.062,0.000
1728614642.946,-9.766,-31.250,-38.086,-62.012,0.000
1728614642.950,-29.785,-30.273,-43.945,-58.594,0.000
1728614642.954,-58.594,-34.668,-42.969,-17.578,0.000
1728614642.958,-30.762,-33.691,-42.969,5.859,0.000
1728614642.962,-16.113,-34.180,-46.875,-27.832,0.000
1728614642.966,9.766,-39.551,-46.875,-48.340,0.000
1728614642.970,-23.926,-38.086,-38.574,-56.152,0.000
1728614642.974,-69.824,-34.668,-37.598,-36.621,0.000
1728614642.978,-46.875,-36.621,-44.922,-6.348,0.000
1728614642.981,-37.109,-36.621,-48.340,-33.203,0.000
1728614642.985,-9.766,-35.156,-52.734,-73.242,0.000
1728614642.989,-25.391,-38.574,-47.852,-70.801,0.000
1728614642.993,-74.219,-40.039,-40.527,-25.879,0.000
1728614642.997,-49.805,-45.410,-40.039,10.254,0.000
1728614643.001,-47.363,-43.945,-43.457,-22.461,0.000
1728614643.005,0.000,-39.062,-42.969,-48.828,0.000
1728614643.009,0.000,-39.551,-43.945,-62.012,0.000
1728614643.013,0.000,-33.691,-47.363,-49.316,0.000
1728614643.017,0.000,-29.297,-46.387,-6.348,0.000
1728614643.021,0.000,-32.227,-46.387,-24.414,0.000
1728614643.024,0.000,-40.039,-42.969,-53.223,0.000
1728614643.028,0.000,-28.809,-38.574,-49.316,0.000
1728614643.032,0.000,-28.320,-40.527,-28.320,0.000
1728614643.036,0.000,-42.969,-39.551,4.395,0.000
1728614643.040,0.000,-41.992,-38.574,-10.742,0.000
1728614643.044,0.000,-41.016,-39.551,-53.711,0.000
1728614643.048,0.000,-41.016,-33.203,-63.477,0.000
1728614643.052,-54.688,-33.691,-27.832,-43.945,0.000
1728614643.056,-41.504,-36.621,-30.762,0.488,0.000
1728614643.060,-17.090,-35.156,-30.273,2.441,0.000
1728614643.064,-23.926,-22.949,-25.391,-23.438,0.000
1728614643.067,1.953,-26.855,-27.344,-33.691,0.000
1728614643.071,-39.551,-36.621,-31.250,-40.527,0.000
1728614643.075,-53.223,-39.062,-34.180,-8.789,0.000
1728614643.079,-24.414,-39.062,-31.250,2.441,0.000
1728614643.083,-34.180,-37.109,-33.691,-40.527,0.000
1728614643.087,-19.531,-36.133,-38.086,-57.617,0.000
1728614643.091,-51.758,-37.109,-37.109,-58.105,0.000
1728614643.095,-66.406,-34.668,-36.621,-20.020,0.000
1728614643.099,0.000,-34.668,-33.691,4.395,0.000
1728614643.103,0.000,-40.527,-30.273,-45.898,0.000
1728614643.107,0.000,-40.039,-34.180,-64.453,0.000
1728614643.110,0.000,-36.133,-35.156,-40.527,0.000
1728614643.114,0.000,-37.598,-28.809,-6.348,0.000
1728614643.118,0.000,-31.250,-30.762,5.371,0.000
1728614643.122,0.000,-32.227,-41.016,-49.805,0.000
1728614643.126,0.000,-30.273,-42.969,-65.430,0.000
1728614643.130,0.000,-26.367,-41.992,-48.828,0.000
1728614643.134,0.000,-32.715,-43.457,-16.602,0.000
1728614643.138,0.000,-35.156,-47.363,21.484,0.000
1728614643.142,0.000,-41.504,-47.363,-18.066,0.000
1728614643.146,-3.906,-39.062,-41.016,-62.988,0.000
1728614643.150,-2.441,-28.809,-32.715,-57.617,0.000
1728614643.153,-64.941,-38.086,-34.668,-31.250,0.000
1728614643.157,-55.664,-39.062,-35.645,1.465,0.000
1728614643.161,-41.016,-37.109,-39.551,-23.926,0.000
1728614643.165,-31.250,-45.898,-42.969,-62.988,0.000
1728614643.169,-29.297,-43.457,-40.039,-59.082,0.000
1728614643.173,-75.195,-43.457,-37.598,-33.691,0.000
1728614643.177,-56.641,-43.457,-38.086,6.348,0.000
1728614643.181,-48.340,-41.504,-41.504,-20.020,0.000
1728614643.185,-39.551,-42.480,-39.551,-61.523,0.000
1728614643.189,-21.484,-33.691,-38.574,-61.523,0.000
1728614643.193,-82.031,-29.297,-37.109,-46.875,0.000
1728614643.196,-68.359,-34.668,-30.762,-3.418,0.000
1728614643.200,-29.785,-36.621,-28.320,-4.395,0.000
1728614643.204,-21.484,-36.621,-30.762,-54.688,0.000
1728614643.208,-7.812,-34.668,-31.738,-60.547,0.000
1728614643.212,-45.410,-32.227,-30.762,-31.250,0.000
1728614643.216,-40.527,-32.715,-33.203,11.230,0.000
1728614643.220,-23.438,-31.738,-36.133,8.301,0.000
1728614643.224,-23.438,-34.180,-35.645,-37.598,0.000
1728614643.228,-16.602,-49.805,-34.668,-66.406,0.000
1728614643.232,-59.082,-48.340,-33.691,-53.223,0.000
1728614643.236,-54.199,-38.086,-38.086,-1.465,0.000
1728614643.239,-14.648,-47.363,-42.480,1.953,0.000
1728614643.243,-17.578,-48.340,-42.480,-39.062,0.000
1728614643.247,-7.324,-38.086,-41.992,-39.062,0.000
1728614643.251,-32.227,-27.832,-40.039,-36.133,0.000
1728614643.255,-56.152,-23.438,-38.086,-10.742,0.000
1728614643.259,-50.293,-32.227,-39.551,10.254,0.000
1728614643.263,-50.293,-40.039,-42.480,-31.738,0.000
1728614643.267,-12.207,-32.715,-38.086,-51.270,0.000
1728614643.271,-30.273,-27.832,-34.668,-52.246,0.000
1728614643.275,-57.617,-28.809,-34.180,-23.438,0.000
1728614643.278,-36.621,-31.250,-41.992,2.930,0.000
1728614643.282,-38.086,-36.621,-46.875,-40.527,0.000
1728614643.286,-6.348,-37.109,-42.969,-63.477,0.000
1728614643.290,-30.273,-26.367,-36.621,-50.781,0.000
1728614643.294,-64.453,-14.160,-21.973,-6.836,0.000
1728614643.298,-30.273,-11.230,-9.766,8.301,0.000
1728614643.302,-36.621,-20.020,-14.160,-46.875,0.000
1728614643.306,-25.879,-27.832,-24.902,-64.453,0.000
1728614643.310,-45.898,-22.949,-20.996,-72.266,0.000
1728614643.314,-82.520,-13.184,-14.648,-80.078,0.000
1728614643.318,-46.875,-6.836,-1.953,-54.199,0.000
1728614643.321,-61.523,-9.766,9.277,-71.777,0.000
1728614643.325,-97.168,4.395,3.418,-121.094,0.000
1728614643.329,-128.906,8.301,12.695,-148.438,0.000
1728614643.333,-171.387,6.836,13.672,-141.602,0.000
1728614643.337,-145.508,15.625,16.602,-96.680,0.000
1728614643.341,-145.508,29.297,21.484,-125.488,0.000
1728614643.345,-140.625,39.062,18.555,-190.918,0.000
1728614643.349,-133.301,41.992,12.207,-209.961,0.000
1728614643.353,-205.078,42.480,6.348,-199.707,0.000
1728614643.357,-203.613,45.898,-0.977,-148.926,0.000
1728614643.361,-181.641,46.875,-3.418,-164.551,0.000
1728614643.364,-174.316,54.199,-4.395,-210.449,0.000
1728614643.368,-150.391,49.316,0.000,-201.172,0.000
1728614643.372,-181.152,41.016,1.953,-178.223,0.000
1728614643.376,-183.594,34.668,-7.324,-139.160,0.000
1728614643.380,-152.832,14.160,-20.020,-144.043,0.000
1728614643.384,-123.047,4.883,-28.320,-171.387,0.000
1728614643.388,-91.797,-1.953,-30.762,-162.598,0.000
1728614643.392,-132.812,-6.836,-25.879,-144.531,0.000
1728614643.396,-131.836,-19.043,-30.273,-93.262,0.000
1728614643.400,-97.168,-34.668,-40.039,-72.266,0.000
1728614643.404,-81.055,-38.574,-41.992,-95.215,0.000
1728614643.407,-44.434,-43.945,-41.016,-91.309,0.000
1728614643.411,-76.660,-52.734,-36.133,-71.777,0.000
1728614643.415,-72.754,-58.105,-34.668,-22.949,0.000
1728614643.419,-37.598,-69.824,-41.504,10.254,0.000
1728614643.423,-39.062,-81.543,-46.875,-26.367,0.000
1728614643.427,0.000,-84.961,-51.270,-51.270,0.000
1728614643.431,-12.207,-82.031,-53.711,-35.645,0.000
1728614643.435,-24.414,-77.148,-56.152,5.371,0.000
1728614643.439,15.137,-80.566,-60.059,32.715,0.000
1728614643.443,3.418,-89.844,-65.918,12.207,0.000
1728614643.447,14.648,-90.820,-65.918,-0.488,0.000
1728614643.451,11.230,-86.914,-60.547,-3.418,0.000
1728614643.454,-10.742,-83.496,-67.383,32.715,0.000
1728614643.458,25.879,-77.148,-64.453,78.125,0.000
1728614643.462,36.133,-73.242,-59.082,29.785,0.000
1728614643.466,66.406,-76.660,-62.500,-7.812,0.000
1728614643.470,52.246,-72.266,-56.152,20.508,0.000
1728614643.474,7.812,-72.754,-54.199,54.199,0.000
1728614643.478,45.898,-71.777,-55.664,85.938,0.000
1728614643.482,38.086,-66.406,-57.617,54.199,0.000
1728614643.486,49.316,-73.730,-57.617,17.578,0.000
1728614643.490,51.758,-71.289,-59.082,16.113,0.000
1728614643.494,11.719,-56.641,-61.523,37.598,0.000
1728614643.497,37.109,-63.477,-66.406,79.590,0.000
1728614643.501,48.828,-70.801,-61.523,64.941,0.000
1728614643.505,54.688,-62.988,-56.152,16.602,0.000
1728614643.509,49.805,-56.152,-54.199,8.301,0.000
1728614643.513,-2.930,-61.523,-54.688,29.297,0.000
1728614643.517,12.695,-64.453,-57.617,66.406,0.000
1728614643.521,0.000,-61.035,-53.711,51.758,0.000
1728614643.525,0.000,-69.336,-56.641,0.977,0.000
1728614643.529,0.000,-63.965,-58.105,-11.230,0.000
1728614643.533,0.000,-61.035,-56.641,18.555,0.000
1728614643.537,0.000,-60.547,-50.293,72.266,0.000
1728614643.540,0.000,-56.152,-47.852,55.664,0.000
1728614643.544,0.000,-52.734,-52.246,0.977,0.000
1728614643.548,0.000,-46.875,-50.781,-8.301,0.000
1728614643.552,0.000,-56.152,-49.316,-4.883,0.000
1728614643.556,0.000,-60.059,-53.223,28.320,0.000
1728614643.560,0.000,-57.617,-55.664,23.438,0.000
1728614643.564,0.000,-56.641,-49.316,-7.812,0.000
1728614643.568,26.855,-55.664,-47.363,-14.160,0.000
1728614643.572,-11.230,-53.223,-50.781,-11.230,0.000
1728614643.576,-33.691,-53.711,-51.270,33.691,0.000
1728614643.580,6.348,-56.641,-52.734,55.176,0.000
1728614643.583,4.883,-51.270,-56.152,12.695,0.000
1728614643.587,20.020,-44.922,-50.781,-21.973,0.000
1728614643.591,-11.230,-54.688,-45.898,-28.809,0.000
1728614643.595,-41.992,-59.570,-47.363,4.883,0.000
1728614643.599,-11.719,-59.570,-45.898,27.832,0.000
1728614643.603,-3.418,-55.176,-44.922,-7.812,0.000
1728614643.607,21.973,-41.992,-40.039,-35.156,0.000
1728614643.611,-10.742,-48.828,-41.504,-27.832,0.000
1728614643.615,-65.430,-56.152,-48.340,0.000,0.000
1728614643.619,-27.344,-47.363,-46.387,21.973,0.000
1728614643.622,-9.766,-48.828,-43.457,1.465,0.000
1728614643.626,10.254,-50.781,-41.016,-21.484,0.000
1728614643.630,-5.859,-36.621,-39.551,-20.996,0.000
1728614643.634,-66.895,-40.527,-39.551,0.977,0.000
1728614643.638,-43.457,-51.758,-39.551,21.973,0.000
1728614643.642,-32.227,-47.852,-41.016,-4.883,0.000
1728614643.646,-11.719,-35.645,-41.016,-42.969,0.000
1728614643.650,-10.742,-30.273,-40.527,-55.664,0.000
1728614643.654,-64.453,-41.016,-39.551,-33.203,0.000
1728614643.658,-43.945,-45.898,-42.480,14.648,0.000
1728614643.662,-26.855,-46.387,-44.922,-8.301,0.000
1728614643.665,-14.160,-41.992,-42.480,-40.039,0.000
1728614643.669,-3.418,-30.273,-40.039,-28.320,0.000
1728614643.673,-50.293,-35.156,-41.504,-23.438,0.000
1728614643.677,-44.434,-42.480,-46.875,-6.836,0.000
1728614643.681,-32.715,-46.387,-45.410,-19.043,0.000
1728614643.685,-18.555,-44.434,-41.016,-54.688,0.000
1728614643.689,-24.414,-41.504,-38.086,-56.641,0.000
1728614643.693,-73.730,-47.852,-40.527,-35.156,0.000
1728614643.697,-47.363,-43.945,-41.504,4.395,0.000
1728614643.701,-29.785,-38.086,-36.621,-0.977,0.000
1728614643.705,-24.414,-42.969,-39.062,-56.641,0.000
1728614643.708,-2.930,-41.504,-46.875,-71.777,0.000
1728614643.712,-30.762,-37.598,-43.945,-56.641,0.000
1728614643.716,-35.645,-32.227,-39.062,-6.836,0.000
1728614643.720,-36.133,-34.668,-39.551,8.789,0.000
1728614643.724,-41.992,-44.922,-40.039,-45.410,0.000
1728614643.728,-16.602,-43.945,-41.016,-71.289,0.000
1728614643.732,-58.105,-42.480,-41.016,-61.035,0.000
1728614643.736,-82.031,-42.969,-38.086,-13.184,0.000
1728614643.740,-43.945,-43.945,-39.062,9.766,0.000
1728614643.744,-32.227,-44.922,-39.551,-43.457,0.000
1728614643.747,-5.859,-50.293,-39.062,-69.336,0.000
1728614643.751,-26.855,-39.062,-40.039,-50.781,0.000
1728614643.755,-44.922,-29.785,-34.180,-5.371,0.000
1728614643.759,-12.207,-41.016,-27.344,18.066,0.000
1728614643.763,-17.090,-37.598,-34.668,-35.156,0.000
1728614643.767,-9.277,-33.203,-40.039,-60.547,0.000
1728614643.771,-29.785,-34.668,-40.039,-59.570,0.000
1728614643.775,-53.223,-33.691,-44.434,-25.879,0.000
1728614643.779,-19.043,-33.203,-41.504,19.043,0.000
1728614643.783,-18.066,-31.738,-31.738,-22.949,0.000
1728614643.787,-1.465,-26.855,-25.391,-60.059,0.000
1728614643.790,-22.949,-35.645,-25.391,-51.270,0.000
1728614643.794,-64.453,-43.945,-29.297,-25.879,0.000
1728614643.798,-39.062,-41.504,-39.062,-3.418,0.000
1728614643.802,-32.715,-39.551,-47.363,-27.832,0.000
1728614643.806,-25.879,-45.898,-51.270,-57.129,0.000
1728614643.810,-24.414,-44.434,-47.363,-71.289,0.000
1728614643.814,-66.895,-42.969,-39.062,-52.246,0.000
1728614643.818,-66.406,-52.734,-40.039,-9.766,0.000
1728614643.822,-59.082,-52.734,-39.551,-38.086,0.000
1728614643.826,-47.852,-46.875,-42.480,-76.172,0.000
1728614643.830,-34.180,-49.316,-47.852,-73.730,0.000
1728614643.833,-63.477,-52.246,-41.504,-51.270,0.000
1728614643.837,-36.621,-43.945,-39.062,-6.836,0.000
1728614643.841,-32.715,-39.062,-46.875,-18.555,0.000
1728614643.845,-37.598,-45.898,-46.387,-57.617,0.000
1728614643.849,0.000,-43.945,-41.016,-60.547,0.000
1728614643.853,0.000,-41.992,-40.039,-51.270,0.000
1728614643.857,0.000,-42.969,-36.621,-3.906,0.000
1728614643.861,0.000,-32.715,-34.668,-4.883,0.000
1728614643.865,0.000,-38.574,-38.086,-65.918,0.000
1728614643.869,0.000,-47.363,-41.504,-69.824,0.000
1728614643.873,0.000,-37.598,-39.551,-42.480,0.000
1728614643.876,0.000,-36.133,-40.527,-7.324,0.000
1728614643.880,0.000,-42.969,-41.016,-2.930,0.000
1728614643.884,0.000,-38.574,-37.598,-35.645,0.000
1728614643.888,0.000,-28.809,-34.180,-53.223,0.000
1728614643.892,0.000,-35.156,-37.109,-55.664,0.000
1728614643.896,-59.082,-47.852,-38.086,-16.113,0.000
1728614643.900,-21.973,-49.316,-37.598,1.953,0.000
1728614643.904,-20.020,-41.504,-43.457,-42.480,0.000
1728614643.908,3.906,-38.086,-40.527,-48.340,0.000
1728614643.912,-39.551,-48.828,-39.551,-35.645,0.000
1728614643.916,-77.148,-51.270,-42.969,-6.348,0.000
1728614643.919,-40.039,-43.457,-41.016,10.742,0.000
1728614643.923,-26.367,-34.668,-38.086,-28.809,0.000
1728614643.927,1.465,-33.691,-41.992,-54.199,0.000
1728614643.931,-27.832,-40.527,-47.363,-61.523,0.000
1728614643.935,-56.152,-45.410,-48.340,-33.691,0.000
1728614643.939,-25.391,-45.898,-46.387,7.324,0.000
1728614643.943,-36.621,-38.574,-41.992,-3.418,0.000
1728614643.947,-15.625,-34.668,-45.410,-40.039,0.000
1728614643.951,-30.273,-41.016,-47.363,-52.734,0.000
1728614643.955,-67.383,-41.016,-44.922,-31.738,0.000
1728614643.959,-26.367,-32.715,-45.410,-1.953,0.000
1728614643.963,-22.461,-30.273,-40.527,-26.855,0.000
1728614643.966,-16.602,-38.574,-38.574,-41.992,0.000
1728614643.970,-22.461,-42.969,-37.109,-40.527,0.000
1728614643.974,-70.801,-39.551,-39.551,-33.691,0.000
1728614643.978,-51.758,-40.039,-42.969,-1.953,0.000
1728614643.982,-39.551,-37.598,-41.992,-11.230,0.000
1728614643.986,-20.996,-34.668,-46.387,-50.293,0.000
1728614643.990,-8.789,-39.062,-44.434,-59.082,0.000
1728614643.994,-58.105,-40.527,-41.504,-43.457,0.000
1728614643.998,-46.387,-38.574,-40.039,11.230,0.000
1728614644.002,-28.809,-38.574,-38.574,4.395,0.000
1728614644.005,-14.160,-33.691,-41.504,-51.758,0.000
1728614644.009,0.000,-36.133,-38.574,-48.340,0.000
1728614644.013,-48.340,-46.875,-41.992,-31.250,0.000
1728614644.017,-47.363,-43.457,-47.852,-2.441,0.000
1728614644.021,-33.203,-37.109,-49.805,-4.883,0.000
1728614644.025,-25.879,-39.551,-41.016,-50.293,0.000
1728614644.029,3.418,-39.062,-32.715,-59.570,0.000
1728614644.033,-39.551,-41.504,-37.109,-48.340,0.000
1728614644.037,-42.480,-40.039,-39.551,-8.789,0.000
1728614644.041,0.488,-32.227,-36.621,11.719,0.000
1728614644.045,-1.465,-36.621,-41.016,-34.668,0.000
1728614644.048,-9.277,-45.898,-48.828,-49.805,0.000
1728614644.052,-50.293,-46.875,-49.316,-49.805,0.000
1728614644.056,-50.781,-41.016,-48.828,-16.602,0.000
1728614644.060,-19.043,-39.062,-49.316,13.184,0.000
1728614644.064,-17.578,-39.062,-49.805,-35.645,0.000
1728614644.068,-9.766,-36.621,-41.504,-65.918,0.000
1728614644.072,-50.293,-29.785,-39.062,-54.688,0.000
1728614644.076,-62.012,-25.879,-38.574,-16.602,0.000
1728614644.080,-31.250,-26.855,-32.715,8.301,0.000
1728614644.084,-37.598,-34.668,-36.621,-35.156,0.000
1728614644.088,-12.207,-39.062,-40.527,-64.453,0.000
1728614644.091,-30.273,-37.109,-41.992,-59.570,0.000
1728614644.095,-66.406,-41.992,-49.805,-26.367,0.000
1728614644.099,-42.480,-39.062,-44.434,0.000,0.000
1728614644.103,-40.039,-33.691,-41.504,-36.133,0.000
1728614644.107,-14.648,-37.109,-44.434,-53.711,0.000
1728614644.111,-32.227,-35.156,-43.945,-49.316,0.000
1728614644.115,-67.383,-35.156,-42.969,-30.273,0.000
1728614644.119,-12.207,-39.551,-39.551,13.184,0.000
1728614644.123,-18.066,-42.969,-41.992,-17.578,0.000
1728614644.127,-26.367,-36.621,-41.504,-58.105,0.000
1728614644.130,-30.273,-33.691,-41.504,-50.293,0.000
1728614644.134,-75.684,-39.062,-44.434,-17.090,0.000
1728614644.138,-45.410,-41.016,-44.434,25.391,0.000
1728614644.142,-30.762,-47.363,-41.992,-4.395,0.000
1728614644.146,-20.020,-49.316,-42.969,-47.363,0.000
1728614644.150,-14.160,-44.922,-39.062,-44.434,0.000
1728614644.154,-58.594,-49.316,-36.621,-32.715,0.000
1728614644.158,-40.039,-46.387,-34.668,3.418,0.000
1728614644.162,-29.297,-44.434,-30.273,-0.977,0.000
1728614644.166,-22.461,-49.316,-24.902,-40.039,0.000
1728614644.170,-12.207,-43.457,-26.367,-54.199,0.000
1728614644.173,-64.941,-38.574,-32.227,-44.434,0.000
1728614644.177,-58.105,-44.922,-32.227,4.395,0.000
1728614644.181,-43.945,-44.434,-37.109,-14.160,0.000
1728614644.185,-30.762,-38.086,-43.945,-70.801,0.000
1728614644.189,0.488,-34.180,-44.922,-65.430,0.000
1728614644.193,-51.270,-40.527,-42.480,-55.664,0.000
1728614644.197,-53.223,-38.574,-43.457,-23.438,0.000
1728614644.201,-25.391,-31.738,-40.039,-13.184,0.000
1728614644.205,-37.109,-33.203,-40.527,-51.270,0.000
1728614644.209,-13.184,-36.621,-45.410,-65.918,0.000
1728614644.213,-54.688,-36.133,-47.852,-55.664,0.000
1728614644.216,-73.730,-29.785,-45.898,-20.020,0.000
1728614644.220,-42.969,-25.391,-36.621,-4.883,0.000
1728614644.224,-38.574,-27.344,-39.551,-41.504,0.000
1728614644.228,-11.719,-38.086,-47.852,-52.734,0.000
1728614644.232,-40.527,-38.574,-45.410,-43.457,0.000
1728614644.236,-54.688,-29.297,-40.527,-5.859,0.000
1728614644.240,-13.184,-20.508,-39.551,18.555,0.000
1728614644.244,1.953,-23.438,-36.621,-17.578,0.000
1728614644.248,12.695,-24.902,-35.156,-46.875,0.000
1728614644.252,-26.367,-23.926,-35.645,-47.363,0.000
1728614644.256,-56.152,-27.344,-32.715,-12.207,0.000
1728614644.259,-20.996,-23.926,-39.551,4.395,0.000
1728614644.263,-22.461,-23.926,-39.551,-25.879,0.000
1728614644.267,2.930,-35.156,-28.320,-28.809,0.000
1728614644.271,0.000,-36.621,-25.879,-27.832,0.000
1728614644.275,0.000,-34.668,-28.809,-18.066,0.000
1728614644.279,0.000,-38.086,-30.762,13.672,0.000
1728614644.283,0.000,-36.621,-36.621,-25.391,0.000
1728614644.287,0.000,-37.109,-36.133,-69.336,0.000
1728614644.291,0.000,-34.180,-32.227,-69.824,0.000
1728614644.295,0.000,-41.992,-33.691,-43.945,0.000
1728614644.299,0.000,-50.293,-32.715,-8.301,0.000
1728614644.302,0.000,-41.992,-31.250,-34.180,0.000
1728614644.306,0.000,-39.062,-36.133,-69.336,0.000
1728614644.310,0.000,-45.898,-38.086,-67.383,0.000
1728614644.314,0.000,-52.246,-37.598,-39.551,0.000
1728614644.318,-46.875,-46.875,-37.598,-0.977,0.000
1728614644.322,-39.551,-37.109,-38.574,-15.137,0.000
1728614644.326,-31.250,-37.598,-42.969,-57.129,0.000
1728614644.330,-10.742,-39.062,-40.527,-53.223,0.000
1728614644.334,-51.270,-35.645,-38.086,-37.109,0.000
1728614644.338,-34.180,-37.109,-36.133,-3.418,0.000
1728614644.342,-5.371,-36.621,-33.691,0.000,0.000
1728614644.345,-4.883,-32.227,-32.715,-29.785,0.000
1728614644.349,9.766,-28.320,-38.086,-48.828,0.000
1728614644.353,-51.270,-24.902,-37.598,-46.875,0.000
1728614644.357,-77.637,-28.809,-36.133,0.488,0.000
1728614644.361,-50.293,-39.062,-46.875,-2.930,0.000
1728614644.365,-41.504,-41.504,-51.758,-55.664,0.000
1728614644.369,-11.230,-34.668,-43.457,-67.871,0.000
1728614644.373,-41.016,-39.062,-38.086,-60.547,0.000
1728614644.377,-58.594,-37.598,-39.551,-19.043,0.000
1728614644.381,-37.598,-36.621,-40.039,10.254,0.000
1728614644.385,-33.691,-43.457,-46.875,-46.387,0.000
1728614644.388,-4.395,-42.480,-49.805,-71.777,0.000
1728614644.392,-40.527,-41.992,-37.598,-48.828,0.000
1728614644.396,-76.660,-41.016,-28.809,-9.277,0.000
1728614644.400,-37.109,-44.434,-24.902,9.277,0.000
1728614644.404,-33.203,-45.898,-31.738,-28.809,0.000
1728614644.408,-18.066,-33.691,-34.668,-51.758,0.000
1728614644.412,-42.969,-35.156,-29.297,-53.223,0.000
1728614644.416,-57.617,-43.457,-30.273,-23.926,0.000
1728614644.420,-25.879,-45.898,-33.203,9.766,0.000
1728614644.424,-46.875,-54.688,-39.551,-36.621,0.000
1728614644.427,-34.180,-62.012,-45.898,-62.012,0.000
1728614644.431,-40.527,-52.734,-48.828,-53.223,0.000
1728614644.435,-74.219,-38.574,-50.293,-39.551,0.000
1728614644.439,-48.828,-37.109,-51.758,-12.695,0.000
1728614644.443,-48.340,-45.410,-48.340,-42.969,0.000
1728614644.447,-30.762,-45.898,-49.316,-77.637,0.000
1728614644.451,-28.809,-40.527,-48.340,-78.125,0.000
1728614644.455,-79.590,-43.457,-43.945,-57.129,0.000
1728614644.459,-51.270,-31.250,-47.852,-11.230,0.000
1728614644.463,-25.391,-23.926,-59.082,-31.738,0.000
1728614644.467,-19.531,-41.504,-60.547,-73.242,0.000
1728614644.470,-34.668,-43.457,-53.711,-73.242,0.000
1728614644.474,-87.402,-38.574,-53.711,-34.180,0.000
1728614644.478,-67.871,-47.852,-48.828,12.695,0.000
1728614644.482,-31.738,-44.922,-48.828,-24.902,0.000
1728614644.486,-15.137,-38.574,-47.852,-54.199,0.000
1728614644.490,-13.672,-41.992,-40.039,-49.805,0.000
1728614644.494,-55.664,-38.574,-41.992,-42.969,0.000
1728614644.498,-53.711,-34.180,-43.945,3.418,0.000
1728614644.502,-46.875,-35.645,-38.574,-5.371,0.000
1728614644.506,-41.992,-37.598,-35.645,-54.688,0.000
1728614644.509,-13.672,-41.992,-33.691,-57.617,0.000
1728614644.513,-49.316,-42.480,-31.738,-37.109,0.000
1728614644.517,-44.922,-36.621,-31.250,8.301,0.000
1728614644.521,-23.438,-38.574,-31.738,8.301,0.000
1728614644.525,-21.973,-39.551,-33.691,-42.480,0.000
1728614644.529,5.859,-39.551,-30.762,-58.105,0.000
1728614644.533,-42.969,-44.922,-27.344,-52.734,0.000
1728614644.537,-59.570,-48.340,-32.715,-17.578,0.000
1728614644.541,-34.180,-40.039,-35.156,-8.789,0.000
1728614644.545,-23.926,-38.086,-35.156,-55.176,0.000
1728614644.549,0.000,-47.363,-42.480,-73.242,0.000
1728614644.553,-40.039,-46.387,-43.945,-66.406,0.000
1728614644.556,-62.500,-38.574,-46.387,-22.461,0.000
1728614644.560,-46.875,-35.156,-45.898,5.371,0.000
1728614644.564,-48.340,-31.738,-44.922,-39.551,0.000
1728614644.568,-21.484,-30.273,-46.875,-62.988,0.000
1728614644.572,-43.457,-36.621,-48.828,-60.547,0.000
1728614644.576,-69.824,-40.039,-51.270,-27.832,0.000
1728614644.580,-49.316,-47.363,-53.223,0.488,0.000
1728614644.584,-43.945,-43.457,-51.758,-33.691,0.000
1728614644.588,-9.277,-33.203,-52.246,-64.453,0.000
1728614644.592,-28.809,-30.273,-55.176,-50.293,0.000
1728614644.595,-67.383,-35.156,-49.805,-20.996,0.000
1728614644.599,-27.832,-33.691,-49.805,-2.441,0.000
1728614644.603,-16.602,-30.762,-51.758,-35.156,0.000
1728614644.607,-9.766,-33.203,-44.922,-69.336,0.000
1728614644.611,-16.602,-30.273,-48.340,-64.941,0.000
1728614644.615,-47.363,-27.344,-43.457,-25.391,0.000
1728614644.619,-26.855,-28.809,-42.480,14.648,0.000
1728614644.623,-21.973,-38.086,-44.434,-10.254,0.000
1728614644.627,-12.207,-41.504,-43.945,-54.688,0.000
1728614644.631,-11.719,-26.855,-41.992,-56.641,0.000
1728614644.635,-51.758,-22.949,-35.645,-30.273,0.000
1728614644.638,-41.016,-38.574,-41.504,-6.348,0.000
1728614644.642,-31.738,-39.551,-43.945,-24.414,0.000
1728614644.646,-11.230,-32.227,-40.527,-53.223,0.000
1728614644.650,-5.371,-37.598,-45.898,-57.617,0.000
1728614644.654,-51.270,-44.434,-45.898,-43.945,0.000
1728614644.658,-44.434,-45.410,-43.457,-0.977,0.000
1728614644.662,-31.250,-42.969,-42.969,-10.742,0.000
1728614644.666,-29.785,-42.480,-43.945,-56.641,0.000
1728614644.670,-9.766,-36.621,-45.898,-62.500,0.000
1728614644.674,-52.246,-32.227,-46.875,-57.129,0.000
1728614644.678,-61.035,-35.156,-47.363,-15.625,0.000
1728614644.681,-40.527,-36.133,-49.805,-13.672,0.000
1728614644.685,-32.227,-38.086,-47.852,-66.895,0.000
1728614644.689,-14.160,-41.016,-49.316,-83.008,0.000
1728614644.693,-54.199,-46.387,-53.711,-70.312,0.000
1728614644.697,-48.828,-50.293,-50.293,-27.344,0.000
1728614644.701,-31.738,-42.969,-41.016,-8.301,0.000
1728614644.705,-50.293,-41.504,-37.109,-49.316,0.000
1728614644.709,-15.137,-38.086,-37.109,-58.594,0.000
1728614644.713,-41.016,-31.738,-39.062,-42.480,0.000
1728614644.717,-65.430,-37.598,-46.387,-12.207,0.000
1728614644.721,-37.109,-41.016,-43.945,12.207,0.000
1728614644.724,-34.180,-36.133,-40.039,-32.715,0.000
1728614644.728,-11.230,-34.668,-39.062,-59.082,0.000
1728614644.732,-44.922,-38.086,-41.992,-48.340,0.000
1728614644.736,-67.383,-35.645,-39.062,-12.695,0.000
1728614644.740,-31.250,-33.691,-32.715,22.461,0.000
1728614644.744,-36.133,-35.156,-32.227,-11.230,0.000
1728614644.748,-14.160,-37.598,-32.715,-48.340,0.000
1728614644.752,-31.738,-40.039,-34.668,-49.805,0.000
1728614644.756,-75.195,-37.598,-38.086,-20.020,0.000
1728614644.760,-43.457,-41.992,-40.039,10.742,0.000
1728614644.764,-38.086,-46.387,-37.109,-27.832,0.000
1728614644.767,-22.949,-42.969,-27.832,-62.012,0.000
1728614644.771,-23.438,-40.527,-26.855,-49.805,0.000
1728614644.775,-49.316,-32.227,-29.297,-22.949,0.000
1728614644.779,-30.273,-28.809,-29.297,7.324,0.000
1728614644.783,-35.645,-40.039,-33.691,-14.160,0.000
1728614644.787,-22.949,-38.086,-34.180,-43.457,0.000
1728614644.791,-22.949,-35.156,-37.109,-46.387,0.000
1728614644.795,-71.289,-50.781,-45.898,-37.109,0.000
1728614644.799,-49.805,-50.781,-41.504,-2.930,0.000
1728614644.803,-24.902,-42.480,-42.969,-19.531,0.000
1728614644.806,-8.301,-42.969,-45.410,-63.965,0.000
1728614644.810,-17.090,-44.434,-36.621,-62.988,0.000
1728614644.814,-84.473,-46.387,-31.738,-37.109,0.000
1728614644.818,-68.848,-52.734,-28.320,-3.906,0.000
1728614644.822,-45.410,-52.734,-35.156,-10.742,0.000
1728614644.826,-36.133,-41.016,-42.480,-64.453,0.000
1728614644.830,-20.508,-44.922,-43.457,-81.055,0.000
1728614644.834,-64.453,-48.828,-44.922,-54.688,0.000
1728614644.838,-58.594,-41.504,-46.875,-9.277,0.000
1728614644.842,-37.598,-39.551,-43.945,-3.418,0.000
1728614644.846,-28.320,-38.086,-38.574,-43.457,0.000
1728614644.849,-5.859,-35.645,-36.621,-54.199,0.000
1728614644.853,-56.152,-32.715,-36.621,-41.016,0.000
1728614644.857,-61.035,-30.762,-36.133,7.324,0.000
1728614644.861,-28.809,-33.203,-34.668,23.438,0.000
1728614644.865,-26.855,-41.992,-37.109,-30.762,0.000
1728614644.869,-2.441,-40.527,-37.109,-40.039,0.000
1728614644.873,-40.039,-36.133,-32.227,-31.250,0.000
1728614644.877,-56.152,-44.922,-31.250,-8.789,0.000
1728614644.881,0.000,-45.898,-36.621,7.324,0.000
1728614644.885,0.000,-34.180,-32.715,-30.762,0.000
1728614644.889,0.000,-33.203,-29.785,-54.688,0.000
1728614644.892,0.000,-35.645,-32.715,-47.852,0.000
1728614644.896,0.000,-35.156,-32.715,-5.371,0.000
1728614644.900,0.000,-38.574,-23.926,23.926,0.000
1728614644.904,0.000,-36.133,-20.996,-16.602,0.000
1728614644.908,0.000,-29.297,-29.297,-56.152,0.000
1728614644.912,0.000,-33.691,-33.203,-54.199,0.000
1728614644.916,0.000,-33.203,-33.203,-10.742,0.000
1728614644.920,0.000,-31.250,-34.180,13.672,0.000
1728614644.924,0.000,-39.551,-40.527,-27.832,0.000
1728614644.928,-10.742,-36.133,-37.109,-57.617,0.000
1728614644.932,2.930,-32.227,-35.645,-58.105,0.000
1728614644.935,-46.387,-56.152,-46.875,-32.227,0.000
1728614644.939,-45.410,-67.383,-55.176,-3.906,0.000
1728614644.943,-44.434,-51.758,-55.176,-36.621,0.000
1728614644.947,-29.297,-46.875,-45.898,-64.453,0.000
1728614644.951,-33.203,-52.246,-48.828,-64.453,0.000
1728614644.955,-79.102,-54.688,-56.152,-41.992,0.000
1728614644.959,-41.992,-43.945,-51.270,-2.441,0.000
1728614644.963,-33.203,-41.504,-45.410,-19.531,0.000
1728614644.967,-37.109,-49.316,-49.316,-64.453,0.000
1728614644.971,-21.484,-46.387,-57.617,-77.637,0.000
1728614644.975,0.000,-43.945,-51.758,-44.434,0.000
1728614644.978,0.000,-48.828,-48.340,1.465,0.000
1728614644.982,0.000,-43.945,-49.805,-11.719,0.000
1728614644.986,0.000,-34.668,-46.387,-40.039,0.000
1728614644.990,0.000,-38.086,-45.410,-46.875,0.000
1728614644.994,0.000,-42.969,-51.758,-52.734,0.000
1728614644.998,0.000,-42.480,-55.664,-10.742,0.000
1728614645.002,0.000,-42.480,-50.781,-3.418,0.000
1728614645.006,0.000,-49.805,-47.852,-42.969,0.000
1728614645.010,0.000,-50.293,-50.293,-59.570,0.000
1728614645.014,0.000,-46.387,-49.316,-60.059,0.000
1728614645.017,0.000,-48.828,-43.945,-7.324,0.000
1728614645.021,-33.203,-46.875,-37.109,5.371,0.000
1728614645.025,-20.996,-42.480,-41.016,-51.758,0.000
1728614645.029,0.488,-35.156,-46.387,-70.801,0.000
1728614645.033,-39.062,-36.621,-46.875,-47.363,0.000
1728614645.037,-57.617,-53.711,-47.852,-22.949,0.000
1728614645.041,-47.363,-57.129,-45.898,-14.160,0.000
1728614645.045,-44.922,-51.270,-47.852,-46.875,0.000
1728614645.049,-12.207,-50.781,-43.457,-67.383,0.000
1728614645.053,-30.762,-49.805,-44.922,-65.430,0.000
1728614645.057,-53.223,-43.945,-51.270,-43.457,0.000
1728614645.060,-33.203,-54.199,-46.875,-8.301,0.000
1728614645.064,-35.156,-47.852,-41.504,-36.133,0.000
1728614645.068,-18.555,-32.227,-41.992,-61.035,0.000
1728614645.072,-45.410,-42.480,-42.480,-54.688,0.000
1728614645.076,-75.684,-41.504,-44.434,-33.203,0.000
1728614645.080,-30.762,-33.691,-49.805,-1.953,0.000
1728614645.084,-27.344,-39.551,-48.828,-33.203,0.000
1728614645.088,-18.555,-46.387,-48.340,-70.312,0.000
1728614645.092,-34.668,-39.551,-52.734,-65.430,0.000
1728614645.096,-75.684,-43.457,-57.129,-37.598,0.000
1728614645.100,-41.016,-48.828,-49.316,1.953,0.000
1728614645.103,-34.180,-37.109,-49.316,-22.949,0.000
1728614645.107,-15.137,-33.691,-52.246,-57.129,0.000
1728614645.111,-5.859,-41.992,-49.316,-51.758,0.000
1728614645.115,-57.617,-45.410,-51.758,-39.551,0.000
1728614645.119,-54.199,-37.109,-46.387,-8.301,0.000
1728614645.123,-37.109,-31.738,-39.062,-13.184,0.000
1728614645.127,-19.531,-34.668,-40.039,-45.410,0.000
1728614645.131,-15.625,-38.086,-39.551,-54.688,0.000
1728614645.135,-63.477,-34.180,-38.086,-40.527,0.000
1728614645.139,-52.246,-36.621,-39.062,7.324,0.000
1728614645.143,-27.832,-43.457,-40.039,-4.395,0.000
1728614645.146,-11.719,-41.504,-39.551,-49.805,0.000
1728614645.150,1.465,-40.527,-39.551,-60.059,0.000
1728614645.154,-44.434,-42.480,-37.598,-32.715,0.000
1728614645.158,-35.645,-34.180,-39.551,20.020,0.000
1728614645.162,-10.254,-26.367,-42.480,8.789,0.000
1728614645.166,-3.906,-33.203,-37.598,-38.574,0.000
1728614645.170,4.883,-39.062,-33.203,-52.246,0.000
1728614645.174,-60.059,-41.504,-37.598,-47.363,0.000
1728614645.178,-62.988,-38.086,-40.039,-3.906,0.000
1728614645.182,-25.391,-40.527,-39.551,3.906,0.000
1728614645.186,-31.738,-44.922,-39.551,-38.574,0.000
1728614645.189,-15.625,-42.969,-37.109,-51.758,0.000
1728614645.193,-46.875,-41.504,-41.504,-51.270,0.000
1728614645.197,-57.129,-42.969,-39.551,-12.695,0.000
1728614645.201,-32.715,-44.434,-36.621,-5.859,0.000
1728614645.205,-33.691,-42.480,-41.504,-52.734,0.000
1728614645.209,0.000,-31.250,-45.410,-63.477,0.000
1728614645.213,-32.227,-32.227,-43.945,-58.105,0.000
1728614645.217,-56.641,-39.551,-43.457,-21.973,0.000
1728614645.221,-26.855,-45.410,-42.969,0.977,0.000
1728614645.225,-23.926,-47.852,-40.527,-32.227,0.000
1728614645.228,-9.766,-38.086,-38.574,-41.992,0.000
1728614645.232,-35.156,-41.016,-40.527,-47.852,0.000
1728614645.236,-45.898,-38.086,-36.133,-17.090,0.000
1728614645.240,-16.602,-27.344,-32.227,20.508,0.000
1728614645.244,-24.902,-33.691,-42.480,-17.090,0.000
1728614645.248,-5.371,-33.203,-42.480,-39.062,0.000
1728614645.252,-20.508,-24.902,-43.457,-34.668,0.000
1728614645.256,-72.266,-26.367,-46.387,-25.879,0.000
1728614645.260,-50.781,-39.062,-44.434,12.207,0.000
1728614645.264,-38.574,-46.387,-47.363,-10.254,0.000
1728614645.268,-14.160,-40.039,-40.527,-66.406,0.000
1728614645.271,-9.766,-32.715,-38.086,-59.082,0.000
1728614645.275,-55.664,-32.715,-41.016,-12.207,0.000
1728614645.279,-31.250,-35.645,-39.062,22.949,0.000
1728614645.283,-13.672,-41.504,-42.969,-14.648,0.000
1728614645.287,-10.254,-40.527,-41.016,-50.781,0.000
1728614645.291,-13.672,-36.621,-38.086,-53.711,0.000
1728614645.295,-61.035,-41.992,-42.969,-49.316,0.000
1728614645.299,-52.734,-48.340,-39.551,-8.789,0.000
1728614645.303,-28.320,-50.781,-40.527,-17.578,0.000
1728614645.307,-20.996,-44.434,-37.598,-44.434,0.000
1728614645.311,-14.160,-41.016,-34.180,-44.922,0.000
1728614645.314,-51.758,-44.922,-41.016,-34.668,0.000
1728614645.318,-54.688,-45.410,-43.945,14.648,0.000
1728614645.322,-45.410,-38.574,-46.387,3.418,0.000
1728614645.326,-26.855,-32.227,-43.945,-40.527,0.000
1728614645.330,-2.441,-34.180,-39.551,-46.875,0.000
1728614645.334,-52.246,-29.785,-39.062,-35.645,0.000
1728614645.338,-53.711,-34.668,-46.387,-6.836,0.000
1728614645.342,-35.645,-31.250,-40.039,-17.578,0.000
1728614645.346,-38.086,-24.902,-28.809,-56.152,0.000
1728614645.350,-24.414,-39.062,-35.645,-67.871,0.000
1728614645.354,-77.637,-44.922,-49.805,-64.941,0.000
1728614645.357,-82.520,-47.852,-51.758,-20.996,0.000
1728614645.361,-26.367,-44.434,-43.457,-3.418,0.000
1728614645.365,-13.184,-36.621,-43.457,-44.922,0.000
1728614645.369,6.836,-47.363,-45.898,-67.871,0.000
1728614645.373,-31.250,-51.270,-46.387,-50.781,0.000
1728614645.377,-65.430,-41.504,-39.062,-8.789,0.000
1728614645.381,-29.297,-40.039,-40.039,20.996,0.000
1728614645.385,-24.414,-45.898,-48.340,-15.625,0.000
1728614645.389,5.371,-48.340,-43.457,-52.246,0.000
1728614645.393,-16.113,-41.992,-33.691,-41.504,0.000
1728614645.397,-49.805,-38.574,-30.762,-5.859,0.000
1728614645.400,-22.949,-46.875,-42.480,10.254,0.000
1728614645.404,-33.203,-45.898,-43.945,-27.832,0.000
1728614645.408,-16.602,-41.016,-40.039,-61.035,0.000
1728614645.412,-21.973,-40.527,-45.410,-56.152,0.000
1728614645.416,-48.340,-40.039,-38.086,-27.344,0.000
1728614645.420,-26.367,-39.062,-27.832,4.395,0.000
1728614645.424,-34.180,-39.551,-29.297,-12.207,0.000
1728614645.428,-16.602,-42.480,-36.621,-50.781,0.000
1728614645.432,-22.461,-41.504,-35.645,-60.059,0.000
1728614645.436,-68.359,-38.574,-31.250,-29.785,0.000
1728614645.439,-35.156,-34.180,-31.250,9.277,0.000
1728614645.443,-30.273,-34.180,-41.992,-45.410,0.000
1728614645.447,-35.156,-41.016,-44.434,-84.473,0.000
1728614645.451,-25.879,-44.922,-39.551,-62.988,0.000
1728614645.455,-68.359,-48.340,-42.969,-49.316,0.000
1728614645.459,-60.059,-52.246,-44.922,-5.371,0.000
1728614645.463,-45.898,-58.105,-47.363,-16.602,0.000
1728614645.467,-32.715,-57.617,-46.875,-62.012,0.000
1728614645.471,-7.812,-49.316,-42.480,-57.129,0.000
1728614645.475,-46.875,-44.922,-41.504,-39.551,0.000
1728614645.479,-56.152,-43.457,-46.387,7.324,0.000
1728614645.482,-39.551,-50.293,-46.387,10.254,0.000
1728614645.486,-20.020,-48.828,-37.598,-46.875,0.000
1728614645.490,6.348,-41.504,-33.203,-56.152,0.000
1728614645.494,-41.016,-41.992,-38.086,-38.086,0.000
1728614645.498,-43.457,-37.109,-39.551,5.371,0.000
1728614645.502,-14.160,-39.062,-37.109,10.254,0.000
1728614645.506,-3.418,-43.457,-34.668,-41.016,0.000
1728614645.510,6.836,-40.039,-37.109,-56.152,0.000
1728614645.514,-50.293,-47.363,-41.016,-41.992,0.000
1728614645.518,-67.871,-58.105,-41.504,-8.301,0.000
1728614645.522,-28.809,-53.223,-43.457,-6.348,0.000
1728614645.525,-15.137,-34.668,-44.434,-43.945,0.000
1728614645.529,-6.348,-32.227,-39.551,-45.410,0.000
1728614645.533,-49.316,-41.504,-42.969,-33.203,0.000
1728614645.537,-63.965,-44.434,-43.945,-7.324,0.000
1728614645.541,-25.879,-45.410,-40.039,19.043,0.000
1728614645.545,-28.320,-49.316,-44.434,-23.926,0.000
1728614645.549,-23.438,-50.293,-43.945,-59.082,0.000
1728614645.553,-56.641,-50.293,-40.527,-61.035,0.000
1728614645.557,-76.172,-46.875,-40.527,-33.203,0.000
1728614645.561,-40.527,-41.992,-39.062,12.207,0.000
1728614645.565,-36.621,-44.434,-40.039,-31.738,0.000
1728614645.568,-28.320,-45.410,-44.434,-74.219,0.000
1728614645.572,-51.758,-48.828,-43.457,-52.246,0.000
1728614645.576,-72.266,-53.711,-41.504,-18.066,0.000
1728614645.580,-41.504,-50.293,-48.340,7.812,0.000
1728614645.584,-32.715,-45.410,-46.875,-28.809,0.000
1728614645.588,-6.836,-44.434,-47.363,-68.359,0.000
1728614645.592,-13.184,-48.340,-55.176,-74.219,0.000
1728614645.596,-62.500,-50.781,-55.664,-44.922,0.000
1728614645.600,-34.180,-54.199,-61.523,-0.977,0.000
1728614645.604,-18.066,-51.270,-62.012,-19.043,0.000
1728614645.607,-13.672,-44.434,-54.688,-54.199,0.000
1728614645.611,-5.859,-48.340,-48.340,-57.129,0.000
1728614645.615,-30.273,-47.852,-43.457,-51.270,0.000
1728614645.619,-20.020,-47.363,-41.992,-21.973,0.000
1728614645.623,-23.926,-45.898,-43.945,-30.762,0.000
1728614645.627,-19.043,-41.016,-42.480,-58.594,0.000
1728614645.631,-6.836,-42.480,-37.598,-50.293,0.000
1728614645.635,-60.547,-52.246,-43.945,-42.969,0.000
1728614645.639,-66.406,-47.363,-45.898,-1.953,0.000
1728614645.643,-51.270,-41.016,-44.434,7.324,0.000
1728614645.647,-32.715,-45.410,-37.109,-24.902,0.000
1728614645.650,4.395,-36.133,-29.297,-41.992,0.000
1728614645.654,-52.734,-36.133,-33.203,-47.852,0.000
1728614645.658,-78.613,-38.086,-41.016,-9.277,0.000
1728614645.662,-36.621,-31.738,-44.922,5.371,0.000
1728614645.666,-27.832,-35.645,-45.898,-42.480,0.000
1728614645.670,0.000,-34.668,-41.992,-59.570,0.000
1728614645.674,-32.227,-30.273,-42.480,-53.711,0.000
1728614645.678,-57.617,-36.621,-45.410,-10.742,0.000
1728614645.682,-40.527,-39.551,-41.016,18.066,0.000
1728614645.686,-36.133,-35.645,-38.574,-25.391,0.000
1728614645.690,-7.324,-31.738,-40.039,-61.035,0.000
1728614645.693,-42.480,-38.574,-38.086,-56.152,0.000
1728614645.697,-59.082,-39.062,-41.016,-7.812,0.000
1728614645.701,-30.273,-33.691,-41.016,4.883,0.000
1728614645.705,-24.414,-34.180,-37.598,-47.363,0.000
1728614645.709,0.000,-27.344,-37.109,-63.477,0.000
1728614645.713,-32.715,-24.414,-39.551,-56.152,0.000
1728614645.717,-64.453,-35.645,-41.016,-31.250,0.000
1728614645.721,-37.598,-40.527,-44.922,4.883,0.000
1728614645.725,-28.320,-41.016,-49.316,-23.926,0.000
1728614645.729,-7.812,-33.691,-38.574,-53.223,0.000
1728614645.733,-29.297,-34.180,-32.715,-47.852,0.000
1728614645.736,-52.246,-42.969,-39.551,-3.906,0.000
1728614645.740,-31.250,-41.992,-38.574,26.855,0.000
1728614645.744,-32.227,-40.039,-31.250,-21.973,0.000
1728614645.748,-5.859,-44.922,-24.902,-41.992,0.000
1728614645.752,-13.184,-43.457,-29.297,-33.691,0.000
1728614645.756,-61.523,-35.156,-33.203,-28.320,0.000
1728614645.760,-55.176,-37.598,-37.598,2.930,0.000
1728614645.764,-52.734,-42.480,-42.969,-29.785,0.000
1728614645.768,-27.344,-43.457,-38.086,-72.266,0.000
1728614645.772,-21.973,-40.039,-33.691,-65.918,0.000
1728614645.776,-64.941,-36.621,-37.109,-49.805,0.000
1728614645.779,-44.922,-37.598,-43.457,-5.371,0.000
1728614645.783,-33.203,-41.504,-48.340,-20.508,0.000
1728614645.787,-28.809,-41.504,-45.898,-68.848,0.000
1728614645.791,-24.414,-34.180,-39.551,-68.359,0.000
1728614645.795,-80.078,-29.297,-45.410,-51.758,0.000
1728614645.799,-52.734,-35.156,-46.875,-15.137,0.000
1728614645.803,-28.320,-37.598,-46.387,-18.555,0.000
1728614645.807,-29.297,-35.645,-53.223,-72.266,0.000
1728614645.811,-14.648,-44.922,-53.223,-90.332,0.000
1728614645.815,-62.988,-52.246,-47.852,-71.777,0.000
1728614645.819,-61.523,-48.828,-40.527,-23.438,0.000
1728614645.822,-41.504,-43.945,-36.133,-13.672,0.000
1728614645.826,-31.738,-41.016,-43.945,-59.082,0.000
1728614645.830,4.395,-44.922,-46.875,-71.289,0.000
1728614645.834,-42.480,-48.340,-43.945,-59.082,0.000
1728614645.838,-61.523,-46.387,-44.434,-25.391,0.000
1728614645.842,-38.574,-44.922,-46.875,-18.555,0.000
1728614645.846,-32.715,-46.875,-48.340,-55.664,0.000
1728614645.850,-6.348,-50.293,-41.992,-66.406,0.000
1728614645.854,-57.129,-40.039,-34.668,-51.270,0.000
1728614645.858,-83.496,-31.738,-31.250,-9.277,0.000
1728614645.861,-32.715,-32.227,-33.203,-2.930,0.000
1728614645.865,-15.625,-37.109,-42.480,-47.852,0.000
1728614645.869,-9.277,-45.898,-39.551,-65.430,0.000
1728614645.873,-48.828,-39.062,-36.133,-60.547,0.000
1728614645.877,-66.895,-38.574,-43.945,-29.297,0.000
1728614645.881,-20.508,-46.387,-48.828,2.930,0.000
1728614645.885,-20.508,-40.527,-45.410,-33.203,0.000
1728614645.889,-20.020,-38.086,-43.457,-54.688,0.000
1728614645.893,-43.457,-42.969,-46.875,-51.758,0.000
1728614645.897,-70.312,-41.992,-44.922,-34.180,0.000
1728614645.901,-22.461,-41.016,-42.480,9.277,0.000
1728614645.904,-15.137,-40.039,-47.852,-26.367,0.000
1728614645.908,-9.277,-32.715,-46.875,-62.500,0.000
1728614645.912,-42.480,-32.715,-43.457,-74.707,0.000
1728614645.916,-95.215,-41.504,-46.875,-53.711,0.000
1728614645.920,-52.734,-47.363,-43.457,-3.906,0.000
1728614645.924,-36.621,-46.875,-44.434,-29.785,0.000
1728614645.928,-16.602,-42.969,-48.340,-65.918,0.000
1728614645.932,-21.484,-43.945,-43.945,-53.711,0.000
1728614645.936,-74.219,-42.480,-46.875,-35.645,0.000
1728614645.940,-59.082,-30.273,-49.316,-4.883,0.000
1728614645.944,-44.922,-28.809,-45.410,-28.809,0.000
1728614645.947,-26.855,-31.738,-45.410,-67.383,0.000
1728614645.951,-17.578,-39.551,-48.340,-65.918,0.000
1728614645.955,-67.383,-48.828,-50.293,-47.852,0.000
1728614645.959,-51.758,-46.875,-54.199,-8.789,0.000
1728614645.963,-24.902,-44.922,-53.223,-22.461,0.000
1728614645.967,-31.738,-43.457,-43.945,-57.617,0.000
1728614645.971,-14.160,-34.668,-39.551,-61.523,0.000
1728614645.975,-51.270,-29.785,-36.621,-39.062,0.000
1728614645.979,-59.570,-37.109,-34.180,5.859,0.000
1728614645.983,-32.227,-44.922,-32.227,17.578,0.000
1728614645.986,-33.203,-42.969,-36.621,-34.180,0.000
1728614645.990,-16.113,-37.598,-35.645,-58.594,0.000
1728614645.994,-43.945,-37.598,-32.715,-31.738,0.000
1728614645.998,-56.641,-39.551,-34.668,1.953,0.000
1728614646.002,-24.902,-38.086,-32.715,10.742,0.000
1728614646.006,-9.277,-35.645,-29.785,-24.902,0.000
1728614646.010,17.090,-26.367,-26.367,-40.527,0.000
1728614646.014,-21.973,-23.438,-26.855,-27.344,0.000
1728614646.018,-42.969,-24.414,-26.855,3.418,0.000
1728614646.022,-24.414,-35.156,-30.762,14.648,0.000
1728614646.026,-29.785,-44.434,-36.133,-30.762,0.000
1728614646.029,-8.789,-40.039,-40.039,-61.035,0.000
1728614646.033,-35.156,-36.621,-43.457,-59.570,0.000
1728614646.037,-65.918,-33.203,-46.387,-24.414,0.000
1728614646.041,-36.133,-37.598,-46.387,-4.883,0.000
1728614646.045,-33.691,-37.109,-41.016,-43.457,0.000
1728614646.049,-17.578,-28.809,-37.598,-56.152,0.000
1728614646.053,-21.484,-32.227,-42.480,-55.176,0.000
1728614646.057,-51.270,-39.062,-46.875,-31.250,0.000
1728614646.061,-30.273,-39.551,-42.969,7.324,0.000
1728614646.065,-24.414,-34.668,-38.574,-24.414,0.000
1728614646.069,-18.066,-38.574,-40.527,-67.383,0.000
1728614646.072,-31.250,-44.922,-46.875,-63.965,0.000
1728614646.076,-62.988,-38.086,-42.480,-22.461,0.000
1728614646.080,-44.434,-34.668,-40.039,5.859,0.000
1728614646.084,-27.832,-35.645,-37.109,-20.508,0.000
1728614646.088,-3.906,-29.297,-37.598,-52.246,0.000
1728614646.092,-24.414,-29.785,-38.574,-55.664,0.000
1728614646.096,-76.172,-40.039,-34.668,-25.391,0.000
1728614646.100,0.000,-47.852,-41.992,6.836,0.000
1728614646.104,0.000,-47.363,-42.480,-18.555,0.000
1728614646.108,0.000,-41.504,-42.480,-60.059,0.000
1728614646.112,0.000,-36.621,-45.410,-73.242,0.000
1728614646.115,0.000,-38.086,-44.922,-52.734,0.000
1728614646.119,0.000,-44.922,-48.828,-10.742,0.000
1728614646.123,0.000,-37.598,-49.805,-27.344,0.000
1728614646.127,0.000,-38.086,-45.410,-61.035,0.000
1728614646.131,0.000,-47.363,-36.621,-49.805,0.000
1728614646.135,0.000,-43.945,-36.621,-31.250,0.000
1728614646.139,0.000,-51.758,-37.598,1.465,0.000
1728614646.143,0.000,-55.664,-37.109,5.371,0.000
1728614646.147,-41.992,-51.758,-42.480,-40.527,0.000
1728614646.151,-7.324,-39.551,-38.086,-55.664,0.000
1728614646.155,-53.711,-39.062,-35.645,-36.621,0.000
1728614646.158,-60.059,-52.246,-41.016,13.672,0.000
1728614646.162,-40.039,-47.852,-38.086,14.160,0.000
1728614646.166,-43.945,-45.898,-34.180,-46.387,0.000
1728614646.170,-6.836,-54.199,-36.621,-57.617,0.000
1728614646.174,-39.062,-51.758,-37.109,-43.945,0.000
1728614646.178,-56.641,-51.270,-39.551,-5.859,0.000
1728614646.182,-27.832,-53.223,-39.551,9.766,0.000
1728614646.186,-16.113,-52.734,-36.133,-40.527,0.000
1728614646.190,0.000,-53.711,-36.621,-58.105,0.000
1728614646.194,-41.992,-51.270,-36.133,-41.016,0.000
1728614646.198,-51.270,-39.551,-33.203,4.395,0.000
1728614646.201,-24.414,-38.086,-33.691,23.438,0.000
1728614646.205,-22.461,-44.434,-34.668,-31.738,0.000
1728614646.209,-6.348,-45.898,-34.668,-62.500,0.000
1728614646.213,-35.156,-44.922,-36.133,-54.688,0.000
1728614646.217,-70.312,-42.480,-40.039,-29.297,0.000
1728614646.221,-42.969,-45.410,-37.109,0.977,0.000
1728614646.225,-26.367,-41.504,-32.227,-29.297,0.000
1728614646.229,-7.812,-33.691,-36.133,-67.871,0.000
1728614646.233,-28.320,-41.016,-39.551,-66.406,0.000
1728614646.237,-69.336,-40.039,-39.062,-45.410,0.000
1728614646.240,-45.898,-33.203,-42.969,-12.695,0.000
1728614646.244,-54.688,-34.668,-42.969,-20.996,0.000
1728614646.248,-38.574,-32.227,-39.551,-61.035,0.000
1728614646.252,-30.762,-32.715,-47.852,-71.777,0.000
1728614646.256,-72.754,-37.598,-49.805,-38.086,0.000
1728614646.260,-48.340,-34.180,-36.621,11.719,0.000
1728614646.264,-37.598,-40.039,-36.621,-18.555,0.000
1728614646.268,-15.625,-46.387,-42.480,-56.641,0.000
1728614646.272,-2.930,-36.133,-41.016,-56.641,0.000
1728614646.276,-47.852,-36.133,-39.062,-40.527,0.000
1728614646.280,-45.898,-43.457,-40.039,-13.672,0.000
1728614646.283,-48.340,-47.852,-36.133,-17.090,0.000
1728614646.287,-36.133,-41.992,-31.250,-35.156,0.000
1728614646.291,-13.184,-32.715,-30.273,-51.270,0.000
1728614646.295,-57.617,-40.527,-35.645,-42.480,0.000
1728614646.299,-40.527,-41.992,-40.039,-0.977,0.000
1728614646.303,-12.207,-30.762,-34.668,3.418,0.000
1728614646.307,-1.465,-33.203,-34.668,-52.734,0.000
1728614646.311,15.625,-36.621,-33.691,-63.477,0.000
1728614646.315,-43.945,-35.645,-30.762,-32.715,0.000
1728614646.319,-59.570,-36.621,-35.156,-2.930,0.000
1728614646.323,-37.109,-43.945,-41.992,-9.277,0.000
1728614646.326,-34.180,-48.340,-50.781,-52.246,0.000
1728614646.330,-17.090,-45.898,-47.852,-68.848,0.000
1728614646.334,-56.641,-40.039,-39.551,-44.922,0.000
1728614646.338,-53.711,-38.574,-37.598,-1.953,0.000
1728614646.342,-25.391,-38.086,-39.062,12.207,0.000
1728614646.346,-41.992,-43.945,-46.875,-37.109,0.000
1728614646.350,-20.996,-53.711,-47.363,-66.406,0.000
1728614646.354,-43.945,-53.711,-43.457,-51.270,0.000
1728614646.358,-71.777,-46.387,-38.574,-9.277,0.000
1728614646.362,-52.734,-40.039,-38.086,1.953,0.000
1728614646.365,-44.922,-41.504,-44.922,-41.504,0.000
1728614646.369,-14.648,-41.504,-43.945,-56.641,0.000
1728614646.373,-35.645,-37.598,-36.133,-58.105,0.000
1728614646.377,-64.941,-34.668,-36.133,-29.297,0.000
1728614646.381,-31.250,-34.180,-38.574,12.695,0.000
1728614646.385,-24.414,-40.039,-39.062,-22.949,0.000
1728614646.389,1.465,-44.434,-41.992,-66.406,0.000
1728614646.393,-24.414,-40.527,-40.527,-61.523,0.000
1728614646.397,-85.938,-42.969,-40.039,-25.879,0.000
1728614646.401,-59.570,-46.875,-38.086,16.602,0.000
1728614646.405,-52.246,-43.457,-37.109,-17.090,0.000
1728614646.408,-30.762,-33.691,-41.992,-54.688,0.000
1728614646.412,-28.320,-24.902,-43.945,-52.734,0.000
1728614646.416,-61.523,-30.273,-41.016,-37.598,0.000
1728614646.420,-33.691,-36.133,-40.527,6.836,0.000
1728614646.424,-12.695,-37.109,-36.133,6.348,0.000
1728614646.428,5.371,-36.621,-36.133,-49.316,0.000
1728614646.432,-1.953,-34.180,-40.527,-69.336,0.000
1728614646.436,-45.410,-39.551,-42.969,-49.805,0.000
1728614646.440,-34.668,-40.527,-48.828,-20.996,0.000
1728614646.444,-21.484,-41.504,-44.434,-25.879,0.000
1728614646.448,-24.902,-44.434,-38.574,-53.711,0.000
1728614646.451,-28.809,-40.039,-38.574,-52.246,0.000
1728614646.455,-71.289,-36.621,-34.668,-35.645,0.000
1728614646.459,-56.641,-45.410,-26.855,-3.418,0.000
1728614646.463,-31.738,-44.434,-28.320,-15.625,0.000
1728614646.467,-22.461,-37.109,-36.133,-72.754,0.000
1728614646.471,-14.160,-34.668,-31.250,-68.848,0.000
1728614646.475,-67.871,-32.227,-30.762,-48.340,0.000
1728614646.479,-62.012,-36.621,-36.621,-23.438,0.000
1728614646.483,-30.273,-39.551,-41.016,-25.879,0.000
1728614646.487,-22.461,-31.250,-43.945,-58.105,0.000
1728614646.491,-14.160,-32.227,-42.969,-60.059,0.000
1728614646.494,-66.406,-40.039,-50.781,-58.594,0.000
1728614646.498,-64.941,-39.551,-54.199,-11.230,0.000
1728614646.502,-32.227,-39.551,-51.758,0.000,0.000
1728614646.506,-28.320,-41.992,-57.129,-43.457,0.000
1728614646.510,-10.254,-36.133,-59.082,-42.969,0.000
1728614646.514,-40.039,-36.621,-51.758,-47.852,0.000
1728614646.518,-62.012,-47.852,-54.199,-19.043,0.000
1728614646.522,0.000,-53.223,-61.035,8.789,0.000
1728614646.526,0.000,-48.340,-65.430,-34.180,0.000
1728614646.530,0.000,-42.969,-73.730,-69.824,0.000
1728614646.534,0.000,-42.969,-72.754,-66.895,0.000
1728614646.537,0.000,-45.410,-67.871,-31.250,0.000
1728614646.541,0.000,-44.434,-58.594,7.324,0.000
1728614646.545,0.000,-38.086,-55.176,-20.508,0.000
1728614646.549,0.000,-40.527,-55.664,-50.293,0.000
1728614646.553,0.000,-49.316,-57.617,-42.480,0.000
1728614646.557,0.000,-45.898,-60.059,-26.367,0.000
1728614646.561,0.000,-40.039,-54.199,3.418,0.000
1728614646.565,0.000,-34.180,-51.758,-18.066,0.000
1728614646.569,-45.410,-24.902,-54.688,-56.641,0.000
1728614646.572,-47.363,-26.855,-55.664,-61.035,0.000
1728614646.576,-22.949,-33.203,-48.340,-33.691,0.000
1728614646.580,-40.527,-33.203,-43.945,17.578,0.000
1728614646.584,-71.289,-28.320,-46.387,0.488,0.000
1728614646.588,-36.621,-35.156,-41.504,-49.316,0.000
1728614646.592,-27.344,-39.551,-39.551,-45.898,0.000
1728614646.596,0.000,-28.320,-45.898,-15.137,0.000
1728614646.600,-16.113,-30.273,-45.410,15.137,0.000
1728614646.604,-62.012,-36.133,-37.598,9.277,0.000
1728614646.608,-37.598,-27.344,-30.273,-32.715,0.000
1728614646.611,-34.180,-24.414,-35.645,-51.758,0.000
1728614646.615,-65.430,-24.902,-38.574,-41.504,0.000
1728614646.619,-47.363,-17.090,-34.668,2.441,0.000
1728614646.623,-20.020,-20.996,-32.227,5.859,0.000
1728614646.627,-11.719,-26.855,-35.156,-41.016,0.000
1728614646.631,3.418,-25.879,-42.480,-59.082,0.000
1728614646.635,-53.223,-25.879,-44.434,-48.828,0.000
1728614646.639,-53.711,-34.180,-40.527,-5.371,0.000
1728614646.643,-31.250,-32.227,-43.457,-0.977,0.000
1728614646.647,-41.992,-29.297,-41.504,-45.898,0.000
1728614646.651,-21.973,-33.691,-37.109,-62.988,0.000
1728614646.654,-72.266,-33.203,-44.922,-55.176,0.000
1728614646.658,-78.125,-31.738,-39.551,-23.438,0.000
1728614646.662,-40.039,-18.066,-31.250,-14.648,0.000
1728614646.666,-29.297,-11.719,-34.180,-60.547,0.000
1728614646.670,2.930,-20.996,-34.180,-79.590,0.000
1728614646.674,-38.086,-24.414,-35.645,-56.641,0.000
1728614646.678,-79.590,-28.320,-37.109,-18.066,0.000
1728614646.682,-63.477,-11.719,-26.855,-23.926,0.000
1728614646.686,-62.500,9.277,-20.020,-75.195,0.000
1728614646.690,-53.711,-2.441,-17.090,-105.957,0.000
1728614646.694,-90.820,8.301,-1.953,-115.234,0.000
1728614646.697,-132.812,25.879,3.418,-96.191,0.000
1728614646.701,-125.488,19.043,9.766,-84.961,0.000
1728614646.705,-141.602,13.672,17.090,-143.555,0.000
1728614646.709,-127.930,18.555,12.695,-198.730,0.000
1728614646.713,-147.949,29.785,10.742,-210.938,0.000
1728614646.717,-198.730,38.086,18.066,-181.641,0.000
1728614646.721,-204.590,37.598,16.113,-165.039,0.000
1728614646.725,-228.027,41.992,16.113,-208.496,0.000
1728614646.729,-206.543,48.828,20.508,-229.004,0.000
1728614646.733,-186.035,48.828,23.438,-231.445,0.000
1728614646.736,-221.680,50.293,21.973,-217.773,0.000
1728614646.740,-202.148,53.223,19.043,-160.645,0.000
1728614646.744,-181.152,52.246,24.902,-165.527,0.000
1728614646.748,-172.852,41.016,18.555,-208.008,0.000
1728614646.752,-179.688,40.527,9.766,-220.703,0.000
1728614646.756,-207.031,41.016,6.836,-184.570,0.000
1728614646.760,-177.246,36.621,6.348,-128.418,0.000
1728614646.764,-149.414,38.086,8.789,-138.184,0.000
1728614646.768,-119.141,35.156,4.883,-172.852,0.000
1728614646.772,-85.938,22.949,5.371,-165.527,0.000
1728614646.776,-120.117,5.371,-8.301,-129.395,0.000
1728614646.779,-120.117,-0.977,-23.926,-91.797,0.000
1728614646.783,-97.168,-4.883,-23.438,-82.031,0.000
1728614646.787,-73.242,-20.508,-31.738,-96.191,0.000
1728614646.791,-51.270,-36.621,-43.945,-113.770,0.000
1728614646.795,-109.863,-47.363,-48.828,-101.562,0.000
1728614646.799,-90.332,-43.945,-51.270,-40.039,0.000
1728614646.803,-55.176,-46.875,-55.176,-24.414,0.000
1728614646.807,-68.848,-62.500,-55.664,-55.176,0.000
1728614646.811,-38.574,-75.195,-54.688,-59.082,0.000
1728614646.815,-60.059,-83.008,-59.570,-40.039,0.000
1728614646.819,-51.758,-92.285,-64.941,15.625,0.000
1728614646.822,-2.441,-90.332,-63.965,31.250,0.000
1728614646.826,0.000,-86.914,-64.941,-0.977,0.000
1728614646.830,17.090,-88.379,-68.848,-6.348,0.000
1728614646.834,-9.766,-89.355,-66.406,-4.395,0.000
1728614646.838,-30.762,-81.543,-62.988,33.203,0.000
1728614646.842,3.418,-83.496,-68.848,45.898,0.000
1728614646.846,18.555,-95.215,-70.801,5.371,0.000
1728614646.850,52.246,-97.168,-69.824,1.465,0.000
1728614646.854,35.156,-94.238,-71.289,7.812,0.000
1728614646.858,21.484,-87.402,-76.660,30.762,0.000
1728614646.862,58.594,-84.961,-73.730,77.637,0.000
1728614646.865,59.570,-79.102,-72.266,55.176,0.000
1728614646.869,90.820,-71.777,-72.754,21.973,0.000
1728614646.873,74.219,-65.918,-68.848,27.344,0.000
1728614646.877,41.016,-64.941,-69.824,62.988,0.000
1728614646.881,68.848,-71.777,-70.312,104.492,0.000
1728614646.885,66.895,-71.289,-63.965,75.195,0.000
1728614646.889,69.336,-70.312,-61.523,38.086,0.000
1728614646.893,51.758,-71.289,-58.594,41.016,0.000
1728614646.897,28.320,-64.453,-56.152,68.848,0.000
1728614646.901,57.617,-59.082,-54.199,102.051,0.000
1728614646.905,54.688,-57.129,-53.223,66.406,0.000
1728614646.908,71.777,-48.828,-59.082,21.484,0.000
1728614646.912,77.637,-52.734,-59.570,23.926,0.000
1728614646.916,21.484,-68.359,-58.105,48.340,0.000
1728614646.920,39.062,-67.383,-62.988,83.008,0.000
1728614646.924,66.406,-61.523,-63.477,56.152,0.000
1728614646.928,75.684,-62.012,-53.711,20.020,0.000
1728614646.932,64.941,-67.871,-50.293,12.695,0.000
1728614646.936,7.324,-67.871,-55.664,17.090,0.000
1728614646.940,17.090,-70.312,-55.176,66.895,0.000
1728614646.944,33.203,-63.965,-50.293,58.105,0.000
1728614646.948,33.691,-61.523,-50.781,13.184,0.000
1728614646.951,50.293,-68.359,-50.781,7.812,0.000
1728614646.955,-4.883,-63.477,-54.688,27.344,0.000
1728614646.959,-18.555,-58.594,-59.570,53.711,0.000
1728614646.963,9.766,-55.664,-60.059,46.875,0.000
1728614646.967,15.625,-56.152,-60.547,9.766,0.000
1728614646.971,27.832,-65.918,-54.688,-9.766,0.000
