timestamps,TP9,AF7,AF8,TP10,Right AUX
1728626671.568,-7.324,-34.180,-17.578,-29.785,0.000
1728626671.571,-34.180,-36.133,-32.227,-25.879,0.000
1728626671.575,-62.500,-42.480,-44.922,-37.109,0.000
1728626671.579,-55.664,-27.344,-37.109,-47.363,0.000
1728626671.583,-13.672,-21.484,-27.832,-40.039,0.000
1728626671.587,7.812,-32.715,-38.574,-19.043,0.000
1728626671.591,-16.602,-35.156,-41.504,-19.043,0.000
1728626671.595,-49.316,-44.922,-44.922,-42.969,0.000
1728626671.599,-57.617,-51.270,-48.340,-46.387,0.000
1728626671.603,-24.414,-47.363,-43.945,-35.156,0.000
1728626671.607,-3.906,-34.668,-37.109,-38.086,0.000
1728626671.610,-23.438,-25.391,-37.109,-30.762,0.000
1728626671.614,-51.758,-25.391,-43.457,-33.691,0.000
1728626671.618,-50.781,-20.020,-38.086,-40.039,0.000
1728626671.622,-12.207,-12.207,-26.855,-23.926,0.000
1728626671.626,11.230,-6.836,-24.414,-7.812,0.000
1728626671.630,-0.488,-19.043,-28.320,-10.254,0.000
1728626671.634,-29.297,-37.598,-36.621,-10.742,0.000
1728626671.638,-42.969,-38.086,-43.457,-20.996,0.000
1728626671.642,-6.348,-25.879,-36.133,-27.832,0.000
1728626671.646,19.531,-24.414,-41.016,-14.648,0.000
1728626671.650,3.418,-41.504,-46.875,-13.184,0.000
1728626671.653,-30.762,-42.969,-44.922,-20.020,0.000
1728626671.657,-50.781,-34.668,-55.176,-30.762,0.000
1728626671.661,-23.438,-30.762,-42.480,-22.949,0.000
1728626671.665,14.160,-27.832,-28.320,-10.742,0.000
1728626671.669,4.883,-33.203,-36.133,-14.648,0.000
1728626671.673,-34.668,-41.016,-43.457,-14.160,0.000
1728626671.677,-55.664,-46.875,-41.504,-23.438,0.000
1728626671.681,-33.203,-34.180,-36.621,-31.738,0.000
1728626671.685,-1.953,-19.531,-30.762,-23.926,0.000
1728626671.689,2.441,-25.879,-36.133,-19.531,0.000
1728626671.692,-31.738,-43.945,-52.246,-23.438,0.000
1728626671.696,-69.336,-41.016,-49.805,-36.133,0.000
1728626671.700,-45.410,-39.062,-41.016,-37.109,0.000
1728626671.704,2.930,-34.668,-44.434,-15.625,0.000
1728626671.708,0.000,-13.184,-35.645,-10.742,0.000
1728626671.712,0.000,-11.230,-34.180,-23.438,0.000
1728626671.716,0.000,-31.738,-39.551,-29.297,0.000
1728626671.720,0.000,-38.086,-31.250,-29.297,0.000
1728626671.724,0.000,-31.738,-19.043,-15.137,0.000
1728626671.728,0.000,-31.250,-21.484,0.977,0.000
1728626671.732,0.000,-35.645,-30.273,-3.418,0.000
1728626671.735,0.000,-50.293,-42.480,-12.207,0.000
1728626671.739,0.000,-57.129,-46.875,-17.090,0.000
1728626671.743,0.000,-34.180,-28.320,-22.949,0.000
1728626671.747,0.000,-19.043,-20.508,-22.949,0.000
1728626671.751,0.000,-34.668,-31.250,-21.973,0.000
1728626671.755,8.789,-49.805,-36.621,-32.227,0.000
1728626671.759,-19.531,-41.504,-30.762,-46.875,0.000
1728626671.763,-44.922,-31.738,-20.996,-41.504,0.000
1728626671.767,-32.227,-36.621,-20.996,-35.156,0.000
1728626671.771,-0.488,-55.664,-33.691,-42.969,0.000
1728626671.774,10.254,-67.871,-55.664,-53.711,0.000
1728626671.778,-19.531,-61.523,-59.082,-60.059,0.000
1728626671.782,-54.688,-55.176,-42.969,-41.504,0.000
1728626671.786,-50.293,-50.781,-34.180,-32.227,0.000
1728626671.790,-17.578,-49.805,-38.574,-41.016,0.000
1728626671.794,0.488,-55.664,-56.641,-41.504,0.000
1728626671.798,-32.227,-49.805,-54.199,-42.480,0.000
1728626671.802,-16.602,-38.086,-35.156,-33.691,0.000
1728626671.806,9.277,-34.180,-33.203,-17.090,0.000
1728626671.810,-8.789,-34.668,-37.598,-10.742,0.000
1728626671.814,-42.480,-36.621,-38.574,-13.672,0.000
1728626671.817,-50.293,-34.180,-34.668,-13.184,0.000
1728626671.821,-15.625,-30.273,-20.508,-5.371,0.000
1728626671.825,20.020,-30.762,-22.949,9.766,0.000
1728626671.829,16.113,-35.156,-34.668,14.648,0.000
1728626671.833,-25.391,-38.086,-33.203,1.465,0.000
1728626671.837,-49.316,-47.363,-36.133,-10.742,0.000
1728626671.841,-10.742,-35.156,-30.762,-5.859,0.000
1728626671.845,26.855,-15.625,-20.508,3.418,0.000
1728626671.849,23.926,-13.184,-22.949,1.465,0.000
1728626671.853,-0.977,-28.809,-36.621,-4.883,0.000
1728626671.857,-30.762,-42.969,-47.852,-16.113,0.000
1728626671.860,-22.461,-23.438,-34.180,-26.855,0.000
1728626671.864,6.348,-8.301,-20.020,-20.508,0.000
1728626671.868,10.254,-16.113,-29.785,-14.648,0.000
1728626671.872,-24.902,-35.156,-50.781,-25.391,0.000
1728626671.876,-65.918,-38.086,-48.828,-42.480,0.000
1728626671.880,-51.270,-34.180,-28.809,-47.363,0.000
1728626671.884,-7.812,-39.551,-18.066,-33.691,0.000
1728626671.888,3.906,-31.738,-25.391,-25.879,0.000
1728626671.892,-23.438,-33.691,-38.086,-25.391,0.000
1728626671.896,-63.965,-46.387,-47.852,-32.715,0.000
1728626671.899,-56.152,-46.387,-43.457,-33.203,0.000
1728626671.903,-10.742,-32.715,-28.809,-20.996,0.000
1728626671.907,-1.465,-30.273,-34.668,-16.602,0.000
1728626671.911,-24.414,-43.457,-47.363,-24.414,0.000
1728626671.915,-51.758,-58.594,-61.523,-28.320,0.000
1728626671.919,-48.828,-54.688,-48.828,-22.949,0.000
1728626671.923,-7.324,-43.457,-20.508,-16.113,0.000
1728626671.927,10.742,-42.480,-23.926,-11.230,0.000
1728626671.931,-12.695,-44.922,-35.645,-6.836,0.000
1728626671.935,-42.480,-48.828,-36.133,-10.254,0.000
1728626671.939,-40.527,-47.363,-26.855,-20.020,0.000
1728626671.942,-8.301,-35.156,-17.578,-21.973,0.000
1728626671.946,24.902,-27.832,-16.602,-7.812,0.000
1728626671.950,16.113,-31.738,-20.020,-6.348,0.000
1728626671.954,-33.203,-38.086,-29.297,-17.578,0.000
1728626671.958,-40.039,-34.180,-34.180,-18.555,0.000
1728626671.962,6.836,-20.020,-10.742,-9.766,0.000
1728626671.966,27.344,-17.578,-2.441,-8.301,0.000
1728626671.970,-3.418,-23.926,-12.695,-15.625,0.000
1728626671.974,-45.898,-39.551,-26.855,-35.156,0.000
1728626671.978,-52.246,-50.781,-37.109,-34.668,0.000
1728626671.982,-13.672,-31.738,-16.602,-27.344,0.000
1728626671.985,5.371,-17.578,-8.789,-28.809,0.000
1728626671.989,-21.973,-26.367,-27.832,-24.902,0.000
1728626671.993,-65.430,-45.410,-42.969,-30.273,0.000
1728626671.997,-80.078,-42.969,-37.598,-31.738,0.000
1728626672.001,-40.039,-28.809,-20.020,-20.508,0.000
1728626672.005,-5.371,-31.738,-15.625,-16.113,0.000
1728626672.009,-13.184,-47.852,-26.855,-22.949,0.000
1728626672.013,-50.293,-55.664,-40.039,-32.715,0.000
1728626672.017,-83.984,-52.734,-44.434,-39.551,0.000
1728626672.021,-54.688,-47.852,-34.180,-41.016,0.000
1728626672.024,-9.277,-31.738,-21.484,-26.367,0.000
1728626672.028,-21.484,-31.250,-25.391,-29.297,0.000
1728626672.032,-54.199,-55.176,-41.992,-41.016,0.000
1728626672.036,-65.430,-60.547,-50.781,-47.363,0.000
1728626672.040,-43.457,-40.039,-41.992,-37.109,0.000
1728626672.044,-4.395,-31.250,-33.691,-25.391,0.000
1728626672.048,0.000,-35.156,-35.156,-28.809,0.000
1728626672.052,-39.551,-52.246,-53.711,-33.203,0.000
1728626672.056,-62.988,-54.688,-63.477,-33.203,0.000
1728626672.060,-41.016,-38.086,-41.504,-31.250,0.000
1728626672.064,-5.371,-27.832,-29.297,-25.391,0.000
1728626672.067,5.859,-39.062,-37.598,-11.230,0.000
1728626672.071,-28.320,-44.922,-33.203,-13.184,0.000
1728626672.075,-64.453,-40.039,-35.645,-26.855,0.000
1728626672.079,-54.688,-39.062,-33.691,-30.762,0.000
1728626672.083,-17.578,-25.391,-15.625,-19.531,0.000
1728626672.087,-0.488,-20.996,-13.184,-13.672,0.000
1728626672.091,-28.320,-34.180,-27.344,-16.113,0.000
1728626672.095,-68.359,-45.410,-44.922,-23.438,0.000
1728626672.099,-67.871,-34.668,-39.062,-31.250,0.000
1728626672.103,-21.973,-18.066,-22.949,-25.391,0.000
1728626672.107,7.324,-9.766,-14.160,-25.879,0.000
1728626672.110,-22.461,-22.461,-27.344,-28.809,0.000
1728626672.114,-62.012,-37.109,-46.875,-28.809,0.000
1728626672.118,-61.523,-33.203,-43.945,-42.480,0.000
1728626672.122,-17.578,-22.461,-36.133,-36.133,0.000
1728626672.126,11.230,-18.555,-42.480,-30.273,0.000
1728626672.130,0.000,-25.391,-55.664,-35.156,0.000
1728626672.134,0.000,-38.574,-68.359,-43.945,0.000
1728626672.138,0.000,-37.598,-68.848,-60.059,0.000
1728626672.142,0.000,-20.508,-55.664,-55.176,0.000
1728626672.146,0.000,-13.672,-47.852,-47.852,0.000
1728626672.150,0.000,-20.996,-52.246,-47.852,0.000
1728626672.153,0.000,-32.227,-63.477,-41.992,0.000
1728626672.157,0.000,-47.852,-68.359,-30.762,0.000
1728626672.161,0.000,-37.598,-47.363,-33.203,0.000
1728626672.165,0.000,-29.297,-25.879,-35.156,0.000
1728626672.169,0.000,-43.457,-27.344,-25.879,0.000
1728626672.173,0.000,-53.711,-44.922,-30.273,0.000
1728626672.177,-74.707,-56.152,-52.734,-46.387,0.000
1728626672.181,-44.922,-48.828,-36.133,-37.598,0.000
1728626672.185,-4.395,-42.480,-29.785,-21.484,0.000
1728626672.189,-11.719,-32.715,-33.203,-23.438,0.000
1728626672.192,-44.434,-35.645,-32.715,-21.484,0.000
1728626672.196,-66.895,-60.059,-41.016,-26.367,0.000
1728626672.200,-50.781,-54.688,-35.156,-29.785,0.000
1728626672.204,-7.812,-29.785,-24.414,-22.461,0.000
1728626672.208,2.441,-30.762,-26.855,-28.809,0.000
1728626672.212,-34.180,-48.828,-39.551,-40.039,0.000
1728626672.216,-64.453,-57.129,-52.246,-41.504,0.000
1728626672.220,-52.246,-43.945,-38.574,-38.574,0.000
1728626672.224,-5.371,-21.973,-15.137,-23.926,0.000
1728626672.228,15.137,-25.879,-21.973,-18.555,0.000
1728626672.232,-19.043,-42.480,-39.062,-23.926,0.000
1728626672.235,-57.129,-42.480,-36.621,-25.879,0.000
1728626672.239,-51.270,-33.203,-27.832,-25.391,0.000
1728626672.243,-1.953,-23.926,-19.531,-20.996,0.000
1728626672.247,22.949,-20.020,-22.461,-12.207,0.000
1728626672.251,-12.207,-20.996,-25.391,-9.766,0.000
1728626672.255,-56.152,-27.832,-29.785,-21.484,0.000
1728626672.259,-48.340,-24.902,-26.367,-22.461,0.000
1728626672.263,-4.883,-17.578,-12.695,-12.207,0.000
1728626672.267,17.090,-19.531,-11.230,0.488,0.000
1728626672.271,-7.812,-34.180,-21.973,-0.488,0.000
1728626672.274,-44.434,-48.828,-34.180,-12.207,0.000
1728626672.278,-41.992,-41.992,-34.180,-21.484,0.000
1728626672.282,-10.742,-18.555,-24.414,-17.578,0.000
1728626672.286,9.277,-13.184,-24.414,-15.137,0.000
1728626672.290,-11.719,-25.879,-38.574,-18.066,0.000
1728626672.294,-47.363,-38.574,-57.129,-20.508,0.000
1728626672.298,-55.176,-36.621,-55.664,-29.785,0.000
1728626672.302,-17.090,-21.973,-41.504,-28.809,0.000
1728626672.306,17.578,-30.762,-34.668,-17.578,0.000
1728626672.310,5.859,-47.852,-34.668,-20.996,0.000
1728626672.314,-42.969,-51.758,-42.969,-33.691,0.000
1728626672.317,-61.035,-53.223,-44.434,-36.621,0.000
1728626672.321,-24.414,-49.805,-29.785,-27.832,0.000
1728626672.325,3.418,-42.969,-25.879,-18.555,0.000
1728626672.329,-9.766,-37.109,-33.203,-22.949,0.000
1728626672.333,-54.688,-51.270,-44.434,-32.227,0.000
1728626672.337,-85.938,-73.730,-56.641,-43.945,0.000
1728626672.341,-64.453,-65.430,-48.340,-46.875,0.000
1728626672.345,-17.090,-43.457,-37.598,-36.621,0.000
1728626672.349,-17.578,-43.457,-38.574,-25.391,0.000
1728626672.353,-48.340,-57.129,-53.223,-12.207,0.000
1728626672.357,-69.336,-54.199,-52.734,-19.043,0.000
1728626672.360,-44.922,-36.621,-35.156,-26.855,0.000
1728626672.364,-2.441,-25.391,-29.297,-17.578,0.000
1728626672.368,0.488,-35.645,-38.574,-12.695,0.000
1728626672.372,-28.809,-42.480,-46.387,-20.020,0.000
1728626672.376,-56.641,-44.434,-52.246,-28.809,0.000
1728626672.380,-33.691,-37.109,-46.875,-20.508,0.000
1728626672.384,14.160,-25.391,-38.574,-10.254,0.000
1728626672.388,11.719,-20.508,-34.180,-8.789,0.000
1728626672.392,-28.320,-23.438,-40.527,-18.066,0.000
1728626672.396,-53.223,-39.551,-56.641,-24.902,0.000
1728626672.399,-32.715,-34.180,-44.922,-27.344,0.000
1728626672.403,17.090,-5.859,-19.043,-23.438,0.000
1728626672.407,29.297,0.000,-21.484,-12.695,0.000
1728626672.411,-5.371,-15.625,-36.133,-13.672,0.000
1728626672.415,-36.621,-24.414,-41.504,-19.531,0.000
1728626672.419,-37.598,-19.531,-38.574,-21.484,0.000
1728626672.423,-0.977,-12.695,-28.809,-22.461,0.000
1728626672.427,17.578,-21.973,-24.414,-15.137,0.000
1728626672.431,-16.113,-33.691,-31.250,-13.672,0.000
1728626672.435,-54.199,-37.598,-41.016,-27.344,0.000
1728626672.439,-60.059,-37.598,-36.133,-35.156,0.000
1728626672.442,-26.855,-35.156,-27.344,-18.066,0.000
1728626672.446,-0.977,-30.762,-23.926,-22.461,0.000
1728626672.450,-28.809,-36.133,-32.715,-36.621,0.000
1728626672.454,-70.312,-54.688,-56.152,-46.875,0.000
1728626672.458,-68.848,-67.871,-70.801,-43.457,0.000
1728626672.462,-44.434,-49.316,-41.016,-35.645,0.000
1728626672.466,-17.578,-41.016,-24.902,-38.086,0.000
1728626672.470,-26.367,-51.758,-39.551,-36.133,0.000
1728626672.474,-62.500,-53.711,-54.688,-41.992,0.000
1728626672.478,-74.707,-55.176,-58.105,-45.898,0.000
1728626672.482,-44.434,-53.223,-47.363,-49.316,0.000
1728626672.485,-7.812,-50.781,-43.945,-43.945,0.000
1728626672.489,-16.113,-49.805,-47.363,-32.227,0.000
1728626672.493,-62.012,-49.805,-48.828,-48.828,0.000
1728626672.497,-77.637,-55.176,-55.664,-58.594,0.000
1728626672.501,-44.434,-50.781,-48.340,-40.039,0.000
1728626672.505,-6.836,-42.480,-40.527,-35.156,0.000
1728626672.509,-5.859,-46.387,-49.316,-34.668,0.000
1728626672.513,-45.898,-55.176,-58.594,-25.879,0.000
1728626672.517,-69.336,-52.246,-56.152,-27.832,0.000
1728626672.521,-48.828,-37.598,-40.527,-25.879,0.000
1728626672.525,-7.812,-27.344,-32.715,-18.066,0.000
1728626672.528,5.859,-20.996,-35.156,-10.254,0.000
1728626672.532,-25.879,-33.691,-48.828,-7.324,0.000
1728626672.536,-63.477,-36.621,-51.758,-29.297,0.000
1728626672.540,-47.363,-28.320,-29.297,-30.762,0.000
1728626672.544,4.395,-24.902,-17.090,-10.742,0.000
1728626672.548,15.137,-19.043,-23.926,-13.184,0.000
1728626672.552,-25.391,-20.996,-40.527,-15.137,0.000
1728626672.556,-53.223,-22.461,-48.340,-19.531,0.000
1728626672.560,-25.391,-21.973,-38.086,-23.438,0.000
1728626672.564,11.230,-17.090,-29.785,-24.414,0.000
1728626672.567,13.672,-14.648,-32.715,-28.809,0.000
1728626672.571,-19.531,-32.227,-42.969,-31.250,0.000
1728626672.575,-58.105,-67.383,-55.664,-39.062,0.000
1728626672.579,-59.082,-76.660,-50.293,-43.457,0.000
1728626672.583,-23.926,-48.828,-26.855,-45.898,0.000
1728626672.587,-5.859,-45.410,-29.785,-41.504,0.000
1728626672.591,-34.180,-55.664,-47.363,-35.645,0.000
1728626672.595,-72.266,-53.711,-48.828,-42.969,0.000
1728626672.599,0.000,-52.246,-44.434,-43.457,0.000
1728626672.603,0.000,-56.641,-39.551,-38.574,0.000
1728626672.607,0.000,-56.641,-38.086,-47.363,0.000
1728626672.610,0.000,-56.152,-47.363,-60.547,0.000
1728626672.614,0.000,-69.336,-62.012,-67.871,0.000
1728626672.618,0.000,-71.777,-59.082,-67.871,0.000
1728626672.622,0.000,-63.965,-43.457,-47.363,0.000
1728626672.626,0.000,-56.152,-35.645,-40.039,0.000
1728626672.630,0.000,-55.664,-48.340,-49.316,0.000
1728626672.634,0.000,-63.477,-61.523,-52.734,0.000
1728626672.638,0.000,-57.617,-55.176,-53.711,0.000
1728626672.642,0.000,-32.227,-42.969,-45.898,0.000
1728626672.646,-75.684,-23.926,-41.504,-41.016,0.000
1728626672.649,-51.270,-39.062,-48.340,-46.387,0.000
1728626672.653,-28.809,-49.805,-52.734,-45.898,0.000
1728626672.657,-39.551,-49.805,-58.105,-40.527,0.000
1728626672.661,-83.984,-45.410,-43.945,-31.738,0.000
1728626672.665,-90.332,-38.086,-32.227,-19.531,0.000
1728626672.669,-49.805,-39.551,-41.992,-7.812,0.000
1728626672.673,-21.973,-32.227,-44.434,-14.648,0.000
1728626672.677,-31.250,-20.508,-50.293,-23.926,0.000
1728626672.681,-64.453,-7.324,-43.945,-18.555,0.000
1728626672.685,-72.266,0.977,-30.273,-12.695,0.000
1728626672.688,-33.691,-9.277,-35.645,-18.555,0.000
1728626672.692,-41.992,-33.691,0.000,-37.598,0.000
1728626672.696,-68.359,-52.246,0.000,-47.852,0.000
1728626672.700,-45.898,-41.504,0.000,-42.480,0.000
1728626672.704,-3.418,-26.367,0.000,-38.574,0.000
1728626672.708,3.418,-28.809,0.000,-31.738,0.000
1728626672.712,-23.926,-50.293,0.000,-25.879,0.000
1728626672.716,-57.129,-52.734,0.000,-33.203,0.000
1728626672.720,-47.363,-33.203,0.000,-31.250,0.000
1728626672.724,-4.395,-20.020,0.000,-12.695,0.000
1728626672.728,7.324,-23.926,0.000,2.930,0.000
1728626672.731,-33.203,-33.203,0.000,-14.160,0.000
1728626672.735,-70.312,-44.434,0.000,-35.156,0.000
1728626672.739,-59.570,-40.527,-47.852,-35.645,0.000
1728626672.743,-19.043,-32.715,-32.715,-25.879,0.000
1728626672.747,-0.488,-30.273,-25.391,-20.996,0.000
1728626672.751,-33.691,-40.527,-39.551,-23.926,0.000
1728626672.755,-72.266,-57.617,-59.570,-23.438,0.000
1728626672.759,-67.383,-62.988,-56.152,-24.414,0.000
1728626672.763,-31.738,-44.434,-34.668,-24.902,0.000
1728626672.767,-10.742,-31.250,-34.668,-33.203,0.000
1728626672.771,-24.902,-44.922,-54.199,-41.016,0.000
1728626672.774,-67.871,-55.664,-61.523,-40.039,0.000
1728626672.778,-82.031,-43.945,-45.898,-46.387,0.000
1728626672.782,-42.969,-34.180,-35.645,-43.457,0.000
1728626672.786,-16.602,-31.250,-37.109,-31.250,0.000
1728626672.790,-27.344,-30.762,-38.086,-26.855,0.000
1728626672.794,-56.641,-38.086,-46.875,-34.668,0.000
1728626672.798,-67.871,-36.621,-50.781,-38.086,0.000
1728626672.802,-28.809,-31.738,-39.062,-26.855,0.000
1728626672.806,4.395,-27.344,-30.273,-18.066,0.000
1728626672.810,-13.672,-28.320,-28.809,-19.531,0.000
1728626672.814,-51.270,-43.457,-42.969,-35.645,0.000
1728626672.817,-68.359,-50.781,-56.641,-34.668,0.000
1728626672.821,-39.062,-33.203,-38.574,-26.855,0.000
1728626672.825,0.977,-14.160,-25.879,-21.973,0.000
1728626672.829,-2.930,-18.066,-33.691,-17.090,0.000
1728626672.833,-37.109,-37.598,-43.945,-23.438,0.000
1728626672.837,-58.594,-45.410,-46.387,-23.926,0.000
1728626672.841,-40.527,-28.809,-40.039,-25.879,0.000
1728626672.845,-3.418,-22.949,-42.480,-24.902,0.000
1728626672.849,-2.441,-33.203,-44.434,-19.043,0.000
1728626672.853,-45.898,-42.969,-49.805,-17.578,0.000
1728626672.856,-74.707,-44.434,-53.711,-27.832,0.000
1728626672.860,-41.016,-37.109,-39.062,-19.531,0.000
1728626672.864,5.859,-22.949,-33.203,-8.301,0.000
1728626672.868,2.441,-13.184,-35.645,-18.066,0.000
1728626672.872,-27.344,-23.926,-47.852,-18.555,0.000
1728626672.876,-59.570,-31.250,-62.988,-27.344,0.000
1728626672.880,-48.828,-31.250,-54.688,-29.297,0.000
1728626672.884,-7.324,-30.762,-45.898,-26.855,0.000
1728626672.888,-3.418,-27.832,-48.340,-26.367,0.000
1728626672.892,-27.832,-29.785,-60.059,-30.273,0.000
1728626672.896,-62.500,-34.180,-60.059,-42.480,0.000
1728626672.899,-61.035,-29.297,-45.410,-42.480,0.000
1728626672.903,-21.973,-23.438,-36.133,-36.621,0.000
1728626672.907,-6.348,-31.250,-45.898,-30.273,0.000
1728626672.911,-40.527,-33.691,-52.246,-31.738,0.000
1728626672.915,-74.707,-38.574,-49.316,-41.504,0.000
1728626672.919,-64.453,-41.992,-46.875,-47.852,0.000
1728626672.923,-24.902,-37.598,-33.691,-34.668,0.000
1728626672.927,2.441,-31.250,-29.785,-16.602,0.000
1728626672.931,-15.137,-30.762,-39.551,-18.066,0.000
1728626672.935,-58.594,-41.992,-50.293,-30.762,0.000
1728626672.939,-62.500,-37.109,-44.922,-36.621,0.000
1728626672.942,-14.648,-28.809,-29.297,-25.391,0.000
1728626672.946,8.789,-28.320,-26.367,-20.996,0.000
1728626672.950,-14.648,-35.645,-39.062,-21.973,0.000
1728626672.954,-42.969,-50.293,-47.852,-23.438,0.000
1728626672.958,-56.641,-43.945,-34.668,-35.645,0.000
1728626672.962,-22.949,-27.344,-20.508,-29.785,0.000
1728626672.966,19.043,-23.438,-20.996,-17.578,0.000
1728626672.970,-2.441,-29.297,-32.715,-15.137,0.000
1728626672.974,-48.828,-46.387,-44.434,-28.320,0.000
1728626672.978,-54.199,-50.781,-43.457,-32.227,0.000
1728626672.981,-17.090,-37.109,-32.227,-17.578,0.000
1728626672.985,10.742,-25.879,-17.090,-10.742,0.000
1728626672.989,7.324,-25.879,-18.066,-10.742,0.000
1728626672.993,-27.832,-40.527,-37.598,-26.855,0.000
1728626672.997,-50.781,-55.176,-46.875,-34.180,0.000
1728626673.001,-32.227,-43.457,-26.855,-35.156,0.000
1728626673.005,-4.395,-25.879,-18.066,-40.527,0.000
1728626673.009,-2.930,-33.203,-30.762,-39.551,0.000
1728626673.013,-42.969,-44.922,-42.480,-40.527,0.000
1728626673.017,-72.266,-45.898,-44.922,-51.758,0.000
1728626673.021,-48.340,-33.203,-40.039,-47.363,0.000
1728626673.024,-9.277,-23.438,-34.668,-34.668,0.000
1728626673.028,-8.301,-31.250,-33.691,-32.227,0.000
1728626673.032,-42.969,-32.715,-35.645,-33.691,0.000
1728626673.036,-70.312,-33.203,-32.715,-32.715,0.000
1728626673.040,-43.457,-40.039,-23.926,-27.832,0.000
1728626673.044,1.953,-35.156,-17.578,-18.555,0.000
1728626673.048,-7.324,-30.762,-13.672,-19.043,0.000
1728626673.052,-41.016,-47.852,-29.785,-24.902,0.000
1728626673.056,-62.012,-58.105,-46.387,-26.855,0.000
1728626673.060,-49.316,-42.969,-36.621,-26.367,0.000
1728626673.063,-12.207,-24.902,-18.066,-18.066,0.000
1728626673.067,9.277,-24.902,-19.531,-10.254,0.000
1728626673.071,-9.766,-38.574,-38.574,-15.137,0.000
1728626673.075,-46.387,-48.340,-40.039,-25.879,0.000
1728626673.079,-46.387,-36.621,-22.949,-33.691,0.000
1728626673.083,-7.812,-23.438,-16.113,-29.297,0.000
1728626673.087,15.625,-24.902,-17.090,-19.043,0.000
1728626673.091,-12.207,-25.879,-27.832,-23.438,0.000
1728626673.095,-60.059,-34.668,-42.969,-40.527,0.000
1728626673.099,-62.500,-43.945,-43.945,-50.293,0.000
1728626673.103,-14.648,-39.551,-38.086,-32.715,0.000
1728626673.106,0.488,-27.344,-33.203,-37.109,0.000
1728626673.110,-29.297,-29.297,-35.156,-41.992,0.000
1728626673.114,-58.594,-43.945,-46.387,-37.109,0.000
1728626673.118,-54.199,-50.293,-45.898,-37.109,0.000
1728626673.122,-28.809,-37.598,-37.109,-25.879,0.000
1728626673.126,-5.371,-27.832,-33.691,-17.090,0.000
1728626673.130,-19.531,-34.668,-39.062,-16.602,0.000
1728626673.134,-52.246,-39.551,-50.293,-19.531,0.000
1728626673.138,-60.547,-38.574,-47.852,-29.297,0.000
1728626673.142,-40.527,-33.203,-39.551,-32.715,0.000
1728626673.146,-7.324,-31.250,-35.156,-26.367,0.000
1728626673.149,-16.602,-30.273,-35.645,-24.902,0.000
1728626673.153,-57.617,-34.180,-43.945,-36.133,0.000
1728626673.157,-74.219,-41.016,-46.387,-46.387,0.000
1728626673.161,-42.480,-37.109,-43.457,-41.016,0.000
1728626673.165,-9.277,-20.020,-37.598,-39.062,0.000
1728626673.169,-26.855,-15.625,-34.180,-53.223,0.000
1728626673.173,-71.777,-29.297,-50.293,-60.547,0.000
1728626673.177,-94.238,-23.926,-55.664,-62.500,0.000
1728626673.181,-80.078,-17.090,-40.527,-78.125,0.000
1728626673.185,-55.664,-18.555,-30.762,-83.984,0.000
1728626673.189,-50.781,-18.066,-30.762,-73.242,0.000
1728626673.192,-96.191,-32.227,-38.574,-78.613,0.000
1728626673.196,-138.672,-37.598,-35.156,-102.051,0.000
1728626673.200,-120.605,-20.020,-22.949,-106.934,0.000
1728626673.204,-91.797,-19.043,-20.508,-110.840,0.000
1728626673.208,-93.750,-26.855,-26.855,-110.840,0.000
1728626673.212,-137.207,-24.902,-38.086,-120.117,0.000
1728626673.216,-170.898,-29.297,-48.340,-137.207,0.000
1728626673.220,-154.297,-29.785,-42.480,-142.578,0.000
1728626673.224,-123.535,-20.020,-33.691,-140.625,0.000
1728626673.228,-129.395,-21.973,-41.992,-147.949,0.000
1728626673.231,-176.758,-41.992,-53.711,-160.645,0.000
1728626673.235,-202.637,-64.453,-72.754,-166.504,0.000
1728626673.239,-180.176,-59.570,-74.219,-166.992,0.000
1728626673.243,-136.719,-33.203,-54.688,-160.645,0.000
1728626673.247,-127.930,-28.809,-55.664,-149.902,0.000
1728626673.251,-145.508,-39.551,-58.105,-136.230,0.000
1728626673.255,-167.969,-44.922,-60.547,-141.113,0.000
1728626673.259,-160.645,-42.480,-60.059,-139.648,0.000
1728626673.263,-104.980,-40.039,-52.734,-117.188,0.000
1728626673.267,-90.820,-44.922,-55.664,-114.258,0.000
1728626673.271,-107.910,-50.781,-61.035,-106.934,0.000
1728626673.274,-114.258,-59.082,-64.453,-86.914,0.000
1728626673.278,-118.164,-61.035,-62.012,-90.332,0.000
1728626673.282,-74.707,-60.547,-58.594,-73.730,0.000
1728626673.286,-34.668,-44.434,-42.969,-57.129,0.000
1728626673.290,-42.480,-42.480,-45.410,-56.152,0.000
1728626673.294,-69.336,-63.965,-59.082,-54.688,0.000
1728626673.298,-79.590,-64.941,-47.363,-63.477,0.000
1728626673.302,-40.527,-57.129,-33.691,-57.129,0.000
1728626673.306,-13.184,-55.664,-23.438,-45.898,0.000
1728626673.310,-17.090,-61.035,-26.855,-37.109,0.000
1728626673.314,-38.574,-75.684,-36.133,-30.273,0.000
1728626673.317,-54.688,-81.055,-33.691,-32.715,0.000
1728626673.321,-25.879,-70.801,-26.367,-19.043,0.000
1728626673.325,15.625,-62.500,-19.531,11.230,0.000
1728626673.329,14.160,-70.312,-22.949,23.926,0.000
1728626673.333,-21.484,-78.613,-32.715,6.836,0.000
1728626673.337,-32.715,-89.355,-32.715,4.883,0.000
1728626673.341,7.324,-80.566,-18.066,21.973,0.000
1728626673.345,61.035,-57.617,-8.789,35.156,0.000
1728626673.349,61.523,-54.199,-11.230,38.574,0.000
1728626673.353,25.879,-63.965,-23.438,36.133,0.000
1728626673.356,5.859,-69.336,-35.156,27.832,0.000
1728626673.360,29.297,-53.711,-22.461,35.645,0.000
1728626673.364,72.266,-35.156,-10.254,50.781,0.000
1728626673.368,70.312,-43.457,-21.973,51.758,0.000
1728626673.372,41.504,-61.035,-34.668,52.246,0.000
1728626673.376,13.672,-56.152,-29.785,46.875,0.000
1728626673.380,13.672,-46.875,-21.484,33.203,0.000
1728626673.384,50.781,-44.922,-17.090,33.691,0.000
1728626673.388,66.895,-46.875,-19.531,41.992,0.000
1728626673.392,42.480,-47.363,-29.785,41.504,0.000
1728626673.396,3.906,-44.434,-37.598,31.738,0.000
1728626673.399,18.066,-38.574,-28.809,39.062,0.000
1728626673.403,64.453,-38.086,-19.043,56.641,0.000
1728626673.407,72.266,-41.016,-20.020,59.570,0.000
1728626673.411,38.086,-44.922,-24.902,50.293,0.000
1728626673.415,6.836,-55.664,-41.016,46.387,0.000
1728626673.419,19.043,-60.059,-38.086,44.434,0.000
1728626673.423,58.594,-38.574,-14.648,39.062,0.000
1728626673.427,73.242,-30.273,-8.789,42.480,0.000
1728626673.431,43.457,-43.457,-21.484,42.480,0.000
1728626673.435,1.953,-43.945,-35.645,37.109,0.000
1728626673.438,-4.395,-36.621,-28.320,25.879,0.000
1728626673.442,30.762,-30.762,-17.578,26.855,0.000
1728626673.446,54.688,-32.227,-22.949,37.598,0.000
1728626673.450,40.527,-36.621,-26.855,38.086,0.000
1728626673.454,2.441,-42.480,-33.203,22.461,0.000
1728626673.458,-9.277,-47.852,-37.109,18.555,0.000
1728626673.462,30.762,-39.551,-22.461,35.645,0.000
1728626673.466,60.547,-35.645,-15.137,32.227,0.000
1728626673.470,42.480,-32.715,-19.531,23.438,0.000
1728626673.474,6.348,-38.086,-43.945,22.461,0.000
1728626673.478,-12.695,-48.828,-53.711,28.809,0.000
1728626673.481,19.043,-25.879,-24.414,31.738,0.000
1728626673.485,52.734,-12.695,-13.184,32.715,0.000
1728626673.489,35.645,-28.320,-25.391,30.273,0.000
1728626673.493,-3.906,-38.086,-36.621,19.043,0.000
1728626673.497,-30.273,-39.551,-37.109,5.859,0.000
1728626673.501,-9.766,-31.250,-22.949,-4.395,0.000
1728626673.505,21.484,-23.438,-20.020,-4.395,0.000
1728626673.509,12.695,-29.297,-29.297,-8.789,0.000
1728626673.513,-27.832,-40.039,-46.875,-20.508,0.000
1728626673.517,-54.199,-42.969,-51.270,-29.297,0.000
1728626673.521,-22.949,-40.039,-32.227,-18.555,0.000
1728626673.524,26.367,-33.203,-18.066,2.441,0.000
1728626673.528,12.207,-22.949,-19.043,0.488,0.000
1728626673.532,-27.344,-32.715,-38.574,-4.883,0.000
1728626673.536,-51.758,-50.781,-44.922,-8.789,0.000
1728626673.540,-40.039,-44.922,-36.133,-12.207,0.000
1728626673.544,0.000,-28.809,-29.785,-7.812,0.000
1728626673.548,7.812,-23.438,-22.949,0.977,0.000
1728626673.552,-33.203,-42.480,-37.598,-9.766,0.000
1728626673.556,-58.594,-54.199,-46.387,-22.461,0.000
1728626673.560,-40.527,-41.992,-38.574,-19.531,0.000
1728626673.563,-2.930,-27.832,-29.785,-8.789,0.000
1728626673.567,14.160,-31.738,-29.785,4.883,0.000
1728626673.571,-18.066,-30.762,-37.109,-4.883,0.000
1728626673.575,-51.270,-32.227,-45.410,-28.809,0.000
1728626673.579,-38.574,-41.504,-35.156,-20.996,0.000
1728626673.583,-5.859,-27.344,-17.090,-2.441,0.000
1728626673.587,8.301,-20.996,-18.066,-1.465,0.000
1728626673.591,-19.043,-26.855,-30.273,-9.766,0.000
1728626673.595,-60.059,-33.203,-44.922,-24.902,0.000
1728626673.599,-62.988,-38.574,-46.387,-35.645,0.000
1728626673.603,-24.902,-31.738,-30.273,-20.508,0.000
1728626673.606,6.348,-25.879,-29.297,-13.672,0.000
1728626673.610,-15.625,-34.180,-46.387,-18.555,0.000
1728626673.614,-51.270,-52.734,-50.293,-25.391,0.000
1728626673.618,-54.688,-43.457,-36.133,-37.598,0.000
1728626673.622,-20.020,-24.414,-25.391,-31.738,0.000
1728626673.626,7.324,-25.391,-26.367,-23.926,0.000
1728626673.630,0.000,-26.855,-28.809,-24.902,0.000
1728626673.634,0.000,-33.691,-35.156,-30.273,0.000
1728626673.638,0.000,-46.387,-45.898,-43.945,0.000
1728626673.642,0.000,-38.086,-36.621,-43.457,0.000
1728626673.646,0.000,-28.809,-26.855,-31.250,0.000
1728626673.649,0.000,-34.668,-36.621,-31.250,0.000
1728626673.653,0.000,-46.387,-48.828,-35.156,0.000
1728626673.657,0.000,-64.453,-52.734,-34.180,0.000
1728626673.661,0.000,-51.270,-32.227,-30.273,0.000
1728626673.665,0.000,-26.855,-23.926,-19.531,0.000
1728626673.669,0.000,-28.320,-31.738,-20.020,0.000
1728626673.673,0.000,-44.922,-39.551,-27.344,0.000
1728626673.677,-71.777,-55.664,-48.828,-43.457,0.000
1728626673.681,-53.711,-49.316,-44.434,-56.152,0.000
1728626673.685,-11.719,-38.086,-34.180,-48.828,0.000
1728626673.688,-5.371,-37.109,-35.156,-39.551,0.000
1728626673.692,-39.062,-40.039,-48.340,-33.691,0.000
1728626673.696,-64.941,-40.527,-59.082,-42.480,0.000
1728626673.700,-42.969,-31.738,-48.828,-39.062,0.000
1728626673.704,-3.906,-23.926,-44.434,-23.438,0.000
1728626673.708,-6.348,-18.555,-42.480,-31.738,0.000
1728626673.712,-37.109,-32.227,-44.434,-32.715,0.000
1728626673.716,-62.500,-39.062,-56.641,-40.039,0.000
1728626673.720,-53.223,-22.949,-52.246,-41.504,0.000
1728626673.724,-19.531,-16.602,-37.598,-30.762,0.000
1728626673.728,5.859,-20.508,-38.574,-24.902,0.000
1728626673.731,-15.625,-32.227,-53.711,-20.508,0.000
1728626673.735,-63.965,-36.133,-58.594,-35.645,0.000
1728626673.739,-59.570,-29.785,-45.410,-35.645,0.000
1728626673.743,-9.277,-21.973,-35.645,-30.762,0.000
1728626673.747,12.695,-19.043,-45.898,-26.855,0.000
1728626673.751,-21.484,-27.832,-51.758,-26.855,0.000
1728626673.755,-56.641,-36.133,-53.223,-39.062,0.000
1728626673.759,-52.246,-29.297,-43.457,-43.457,0.000
1728626673.763,-20.508,-22.461,-28.809,-30.762,0.000
1728626673.767,0.977,-24.902,-36.621,-26.367,0.000
1728626673.771,-21.484,-42.969,-51.758,-35.156,0.000
1728626673.774,-71.777,-50.781,-61.035,-50.781,0.000
1728626673.778,-80.566,-40.527,-57.129,-58.594,0.000
1728626673.782,-31.250,-28.809,-37.109,-50.293,0.000
1728626673.786,-1.953,-27.344,-24.902,-34.668,0.000
1728626673.790,-20.996,-35.156,-40.039,-23.926,0.000
1728626673.794,-49.805,-37.109,-57.617,-27.344,0.000
1728626673.798,-62.012,-36.133,-53.711,-38.086,0.000
1728626673.802,-30.273,-31.738,-36.133,-23.926,0.000
1728626673.806,0.977,-27.832,-32.715,-16.602,0.000
1728626673.810,-21.484,-33.203,-42.969,-31.738,0.000
1728626673.813,-61.035,-43.457,-54.688,-41.504,0.000
1728626673.817,-64.941,-45.410,-53.223,-42.480,0.000
1728626673.821,-28.320,-36.133,-47.852,-31.250,0.000
1728626673.825,0.977,-24.414,-41.504,-21.484,0.000
1728626673.829,-1.953,-19.043,-41.504,-16.113,0.000
1728626673.833,-30.762,-23.438,-57.129,-19.043,0.000
1728626673.837,-53.711,-37.598,-62.012,-29.785,0.000
1728626673.841,-26.855,-34.668,-39.062,-21.973,0.000
1728626673.845,6.348,-16.113,-26.367,-19.043,0.000
1728626673.849,-2.441,-21.484,-43.457,-30.273,0.000
1728626673.853,-36.133,-41.992,-58.594,-31.250,0.000
1728626673.856,-61.523,-40.039,-56.152,-40.039,0.000
1728626673.860,-43.945,-28.809,-44.434,-36.133,0.000
1728626673.864,-10.254,-21.973,-38.086,-25.879,0.000
1728626673.868,-4.395,-28.809,-41.504,-32.227,0.000
1728626673.872,-28.320,-41.992,-44.434,-41.992,0.000
1728626673.876,-60.059,-47.852,-48.828,-47.852,0.000
1728626673.880,-49.316,-40.527,-40.039,-40.039,0.000
1728626673.884,-2.930,-32.227,-33.691,-30.762,0.000
1728626673.888,8.789,-28.320,-36.621,-26.855,0.000
1728626673.892,-28.320,-29.785,-47.363,-36.621,0.000
1728626673.896,-62.500,-47.363,-61.523,-40.039,0.000
1728626673.899,-53.711,-52.734,-56.152,-35.156,0.000
1728626673.903,-9.766,-35.645,-38.086,-39.551,0.000
1728626673.907,12.207,-38.574,-39.551,-34.180,0.000
1728626673.911,-27.344,-41.016,-52.734,-31.738,0.000
1728626673.915,-64.453,-41.016,-62.500,-47.363,0.000
1728626673.919,-56.641,-34.668,-52.246,-43.457,0.000
1728626673.923,-14.648,-20.996,-34.668,-26.367,0.000
1728626673.927,7.812,-17.578,-36.133,-25.879,0.000
1728626673.931,-15.137,-25.391,-44.922,-32.227,0.000
1728626673.935,-52.246,-42.480,-53.223,-39.062,0.000
1728626673.938,-47.363,-44.434,-45.410,-41.504,0.000
1728626673.942,-4.883,-46.387,-38.086,-23.926,0.000
1728626673.946,8.789,-41.992,-33.203,-19.531,0.000
1728626673.950,-12.207,-38.574,-34.180,-29.297,0.000
1728626673.954,-46.875,-51.270,-51.758,-33.691,0.000
1728626673.958,0.000,-47.852,-53.223,-46.875,0.000
1728626673.962,0.000,-33.691,-31.250,-33.691,0.000
1728626673.966,0.000,-26.367,-20.508,-19.043,0.000
1728626673.970,0.000,-28.809,-29.297,-22.461,0.000
1728626673.974,0.000,-34.668,-48.828,-28.809,0.000
1728626673.978,0.000,-38.574,-51.758,-34.180,0.000
1728626673.981,0.000,-36.133,-29.785,-24.414,0.000
1728626673.985,0.000,-33.691,-20.996,-19.043,0.000
1728626673.989,0.000,-35.645,-30.273,-15.625,0.000
1728626673.993,0.000,-34.180,-41.016,-28.320,0.000
1728626673.997,0.000,-32.227,-48.828,-42.480,0.000
1728626674.001,0.000,-28.809,-38.574,-32.715,0.000
1728626674.005,-0.488,-20.996,-30.762,-24.414,0.000
1728626674.009,-2.930,-20.996,-36.133,-22.461,0.000
1728626674.013,-27.344,-31.250,-46.875,-18.066,0.000
1728626674.017,-44.922,-29.785,-52.734,-29.785,0.000
1728626674.021,-21.973,-21.973,-42.480,-38.574,0.000
1728626674.024,3.906,-20.508,-38.574,-29.297,0.000
1728626674.028,2.930,-17.578,-44.434,-25.391,0.000
1728626674.032,-29.785,-37.109,-57.129,-25.391,0.000
1728626674.036,-62.988,-51.758,-57.129,-36.621,0.000
1728626674.040,-43.457,-42.480,-36.133,-44.922,0.000
1728626674.044,0.000,-34.180,-29.297,-23.438,0.000
1728626674.048,2.930,-26.855,-38.086,-12.207,0.000
1728626674.052,-39.062,-34.668,-48.340,-28.320,0.000
1728626674.056,-70.312,-43.457,-55.664,-41.016,0.000
1728626674.060,-51.270,-30.762,-46.387,-30.273,0.000
1728626674.063,-4.883,-19.531,-24.902,-9.277,0.000
1728626674.067,4.883,-27.344,-25.391,-4.883,0.000
1728626674.071,-29.785,-38.574,-43.945,-7.324,0.000
1728626674.075,-64.941,-46.875,-58.105,-14.648,0.000
1728626674.079,-61.035,-48.340,-49.316,-19.531,0.000
1728626674.083,-23.438,-29.785,-25.391,-17.090,0.000
1728626674.087,0.488,-27.832,-23.926,-23.926,0.000
1728626674.091,-24.414,-41.992,-35.645,-31.250,0.000
1728626674.095,-55.664,-41.016,-42.480,-32.715,0.000
1728626674.099,-49.805,-33.691,-36.133,-39.062,0.000
1728626674.103,-25.391,-28.809,-25.391,-29.785,0.000
1728626674.106,-2.930,-35.645,-23.438,-22.461,0.000
1728626674.110,-23.926,-44.434,-26.367,-32.227,0.000
1728626674.114,-70.312,-48.828,-43.457,-44.922,0.000
1728626674.118,-68.848,-46.875,-47.363,-39.062,0.000
1728626674.122,-18.555,-39.551,-38.574,-20.020,0.000
1728626674.126,-0.977,-33.203,-35.156,-20.020,0.000
1728626674.130,-22.949,-32.715,-38.574,-30.762,0.000
1728626674.134,-47.852,-41.504,-51.758,-35.156,0.000
1728626674.138,-55.176,-45.410,-52.246,-35.645,0.000
1728626674.142,-23.438,-33.691,-35.156,-33.691,0.000
1728626674.146,-4.883,-31.738,-28.809,-29.785,0.000
1728626674.149,-20.996,-33.691,-38.574,-21.484,0.000
1728626674.153,-57.129,-41.504,-51.270,-21.973,0.000
1728626674.157,-68.848,-46.875,-49.805,-33.691,0.000
1728626674.161,-35.156,-40.039,-41.992,-40.527,0.000
1728626674.165,-0.977,-39.551,-40.039,-24.414,0.000
1728626674.169,-13.184,-37.109,-43.457,-18.066,0.000
1728626674.173,-59.082,-36.133,-47.852,-40.039,0.000
1728626674.177,-73.730,-50.781,-46.387,-55.664,0.000
1728626674.181,-44.922,-48.828,-34.180,-45.410,0.000
1728626674.185,-15.137,-33.691,-29.297,-37.598,0.000
1728626674.188,-20.508,-35.156,-32.227,-41.016,0.000
1728626674.192,-43.457,-50.293,-42.969,-38.574,0.000
1728626674.196,-66.406,-56.152,-50.781,-41.016,0.000
1728626674.200,-47.363,-45.410,-35.645,-44.922,0.000
1728626674.204,-8.789,-31.250,-25.391,-40.039,0.000
1728626674.208,5.859,-28.809,-28.320,-31.738,0.000
1728626674.212,-11.719,-40.039,-42.480,-28.320,0.000
1728626674.216,-42.480,-39.062,-52.734,-35.645,0.000
1728626674.220,-35.645,-21.973,-34.180,-34.180,0.000
1728626674.224,5.371,-16.113,-19.531,-14.160,0.000
1728626674.228,11.230,-26.367,-30.273,1.465,0.000
1728626674.231,-29.297,-28.809,-34.668,-14.160,0.000
1728626674.235,-62.012,-32.227,-39.062,-34.668,0.000
1728626674.239,-52.246,-35.156,-37.598,-28.809,0.000
1728626674.243,-13.672,-26.855,-30.273,-24.902,0.000
1728626674.247,-5.371,-28.809,-30.273,-23.926,0.000
1728626674.251,-37.598,-42.969,-40.039,-20.020,0.000
1728626674.255,-61.523,-47.852,-47.852,-26.855,0.000
1728626674.259,-50.781,-46.875,-44.922,-38.574,0.000
1728626674.263,-8.789,-37.598,-35.156,-38.574,0.000
1728626674.267,10.254,-18.555,-23.438,-23.438,0.000
1728626674.270,-14.648,-20.996,-34.180,-12.695,0.000
1728626674.274,-58.594,-40.527,-54.199,-32.227,0.000
1728626674.278,-67.383,-32.227,-41.016,-50.781,0.000
1728626674.282,-25.391,-17.090,-25.391,-31.250,0.000
1728626674.286,9.766,-20.996,0.000,-23.438,0.000
1728626674.290,0.000,-29.785,0.000,-22.461,0.000
1728626674.294,-46.387,-32.715,0.000,-30.273,0.000
1728626674.298,-65.430,-39.551,0.000,-48.828,0.000
1728626674.302,-19.043,-37.598,0.000,-38.086,0.000
1728626674.306,2.441,-20.508,0.000,-25.391,0.000
1728626674.310,-22.949,-19.531,0.000,-18.066,0.000
1728626674.313,-55.176,-41.016,0.000,-29.297,0.000
1728626674.317,-68.848,-49.805,0.000,-34.668,0.000
1728626674.321,-40.527,-35.156,0.000,-25.391,0.000
1728626674.325,-6.348,-22.949,0.000,-27.832,0.000
1728626674.329,-8.789,-30.273,0.000,-27.832,0.000
1728626674.333,0.000,-41.504,-35.156,-30.273,0.000
1728626674.337,0.000,-38.574,-31.250,-34.180,0.000
1728626674.341,0.000,-27.832,-22.461,-29.297,0.000
1728626674.345,0.000,-24.414,-20.996,-28.320,0.000
1728626674.349,0.000,-32.227,-31.250,-31.250,0.000
1728626674.353,0.000,-47.852,-44.434,-31.738,0.000
1728626674.356,0.000,-58.594,-49.316,-51.270,0.000
1728626674.360,0.000,-51.758,-42.969,-49.805,0.000
1728626674.364,0.000,-43.457,-32.715,-27.832,0.000
1728626674.368,0.000,-37.598,-26.367,-28.320,0.000
1728626674.372,0.000,-41.016,-37.109,-26.855,0.000
1728626674.376,0.000,-46.387,-50.781,-21.973,0.000
1728626674.380,-45.898,-32.227,-41.504,-29.297,0.000
1728626674.384,-13.184,-25.879,-31.250,-22.461,0.000
1728626674.388,2.441,-31.250,-36.621,-18.555,0.000
1728626674.392,-34.180,-33.203,-48.340,-30.273,0.000
1728626674.396,-74.707,-42.480,-55.176,-43.945,0.000
1728626674.399,-53.223,-45.898,-41.016,-34.668,0.000
1728626674.403,-8.301,-32.715,-29.297,-16.602,0.000
1728626674.407,11.230,-30.273,-33.691,-14.648,0.000
1728626674.411,-20.020,-29.297,-36.621,-19.531,0.000
1728626674.415,-66.406,-30.762,-46.387,-29.297,0.000
1728626674.419,-65.918,-40.527,-40.527,-32.227,0.000
1728626674.423,-19.043,-42.480,-25.391,-27.832,0.000
1728626674.427,12.695,-25.391,-23.438,-17.578,0.000
1728626674.431,-10.742,-26.367,-24.902,-12.207,0.000
1728626674.435,-53.711,-40.527,-40.527,-28.320,0.000
1728626674.438,-58.594,-31.738,-42.969,-36.621,0.000
1728626674.442,-20.020,-19.531,-23.926,-24.414,0.000
1728626674.446,1.465,-25.391,-29.297,-23.438,0.000
1728626674.450,-6.348,-28.809,-34.668,-19.531,0.000
1728626674.454,-28.809,-34.180,-39.062,-15.625,0.000
1728626674.458,-57.129,-29.785,-32.227,-26.855,0.000
1728626674.462,-26.367,-20.020,-22.949,-26.855,0.000
1728626674.466,-0.488,-27.832,-35.156,-29.785,0.000
1728626674.470,-25.391,-40.527,-41.992,-31.738,0.000
1728626674.474,-59.570,-50.293,-44.434,-32.227,0.000
1728626674.478,-68.848,-42.969,-41.992,-37.598,0.000
1728626674.481,-23.438,-32.227,-31.250,-23.438,0.000
1728626674.485,10.254,-25.879,-25.391,-19.043,0.000
1728626674.489,-6.348,-26.367,-35.645,-22.949,0.000
1728626674.493,-45.410,-39.551,-56.152,-23.926,0.000
1728626674.497,-69.824,-54.199,-66.406,-30.762,0.000
1728626674.501,-49.316,-46.387,-46.387,-34.180,0.000
1728626674.505,0.977,-33.203,-22.461,-28.320,0.000
1728626674.509,1.953,-40.527,-26.367,-23.926,0.000
1728626674.513,-46.387,-50.781,-41.504,-31.738,0.000
1728626674.517,-73.242,-49.805,-48.828,-46.875,0.000
1728626674.520,0.000,-40.527,-36.133,-40.039,0.000
1728626674.524,0.000,-36.621,-28.320,-25.391,0.000
1728626674.528,0.000,-33.691,-40.527,-22.461,0.000
1728626674.532,0.000,-41.016,-51.270,-29.297,0.000
1728626674.536,0.000,-50.781,-48.828,-32.227,0.000
1728626674.540,0.000,-47.852,-44.922,-24.414,0.000
1728626674.544,0.000,-44.434,-37.109,-20.508,0.000
1728626674.548,0.000,-43.457,-30.762,-26.855,0.000
1728626674.552,0.000,-48.828,-38.574,-29.785,0.000
1728626674.556,0.000,-48.828,-45.898,-34.668,0.000
1728626674.560,0.000,-44.922,-38.574,-38.574,0.000
1728626674.563,0.000,-42.480,-30.273,-31.250,0.000
1728626674.567,-4.395,-40.527,-32.715,-29.785,0.000
1728626674.571,-33.203,-46.387,-43.457,-32.715,0.000
1728626674.575,-66.406,-48.340,-50.293,-37.598,0.000
1728626674.579,-53.223,-39.551,-33.691,-36.621,0.000
1728626674.583,-8.301,-34.180,-21.484,-28.809,0.000
1728626674.587,8.789,-33.203,-25.879,-26.367,0.000
1728626674.591,-23.438,-39.062,-33.691,-27.344,0.000
1728626674.595,-72.266,-45.898,-43.457,-41.016,0.000
1728626674.599,-72.754,-46.387,-40.039,-43.945,0.000
1728626674.603,-20.020,-42.969,-36.621,-20.996,0.000
1728626674.606,4.883,-31.738,-35.156,-15.625,0.000
1728626674.610,-14.648,-30.273,-34.180,-20.996,0.000
1728626674.614,-42.480,-40.527,-38.574,-20.508,0.000
1728626674.618,-54.688,-44.434,-37.109,-22.949,0.000
1728626674.622,-28.320,-35.156,-28.809,-21.973,0.000
1728626674.626,0.488,-24.902,-31.738,-24.902,0.000
1728626674.630,-8.789,-31.738,-42.969,-28.320,0.000
1728626674.634,-46.387,-48.828,-55.176,-35.156,0.000
1728626674.638,-61.035,-46.875,-56.152,-45.410,0.000
1728626674.642,-23.438,-31.250,-39.062,-42.480,0.000
1728626674.645,6.348,-31.738,-34.180,-29.297,0.000
1728626674.649,-2.441,-36.133,-41.016,-19.531,0.000
1728626674.653,-40.527,-40.039,-37.598,-22.461,0.000
1728626674.657,-52.734,-47.363,-36.133,-28.320,0.000
1728626674.661,0.000,-40.039,-26.855,-26.367,0.000
1728626674.665,0.000,-20.996,-20.996,-24.414,0.000
1728626674.669,0.000,-23.926,-29.785,-20.020,0.000
1728626674.673,0.000,-43.457,-45.410,-29.785,0.000
1728626674.677,0.000,-49.805,-50.781,-38.574,0.000
1728626674.681,0.000,-38.086,-38.574,-38.086,0.000
1728626674.685,0.000,-28.809,-31.250,-29.785,0.000
1728626674.688,0.000,-35.645,-33.203,-27.832,0.000
1728626674.692,0.000,-54.688,-45.410,-25.391,0.000
1728626674.696,0.000,-54.199,-49.805,-32.715,0.000
1728626674.700,0.000,-34.180,-32.227,-40.039,0.000
1728626674.704,0.000,-24.414,-23.926,-28.809,0.000
1728626674.708,-20.020,-30.273,-32.227,-25.879,0.000
1728626674.712,9.766,-38.574,-46.875,-40.527,0.000
1728626674.716,5.859,-45.410,-52.734,-51.758,0.000
1728626674.720,-39.062,-43.945,-42.969,-51.270,0.000
1728626674.724,-63.965,-35.645,-30.762,-41.992,0.000
1728626674.727,-36.133,-40.527,-33.691,-36.621,0.000
1728626674.731,-4.395,-43.457,-40.527,-41.992,0.000
1728626674.735,-1.465,-53.223,-41.016,-37.109,0.000
1728626674.739,-26.367,-49.805,-35.645,-26.855,0.000
1728626674.743,-53.223,-29.297,-18.555,-23.926,0.000
1728626674.747,-40.527,-23.926,-20.508,-21.973,0.000
1728626674.751,-2.441,-35.156,-41.992,-28.320,0.000
1728626674.755,-64.941,-48.340,0.000,-32.715,0.000
1728626674.759,-53.711,-48.340,0.000,-28.809,0.000
1728626674.763,-4.395,-39.551,0.000,-21.973,0.000
1728626674.767,17.578,-28.809,0.000,-23.926,0.000
1728626674.770,-11.230,-30.762,0.000,-28.809,0.000
1728626674.774,-46.387,-46.387,0.000,-35.645,0.000
1728626674.778,-48.828,-49.316,0.000,-37.109,0.000
1728626674.782,-12.695,-46.387,0.000,-20.996,0.000
1728626674.786,7.324,-35.156,0.000,-18.555,0.000
1728626674.790,-19.043,-28.809,0.000,-29.297,0.000
1728626674.794,-59.570,-41.504,0.000,-38.086,0.000
1728626674.798,-65.430,-50.293,0.000,-41.992,0.000
1728626674.802,-33.691,-43.457,-36.133,-35.645,0.000
1728626674.806,-19.043,-32.227,-26.367,-22.949,0.000
1728626674.810,-33.203,-32.715,-34.668,-20.996,0.000
1728626674.813,-62.500,-46.875,-41.504,-28.320,0.000
1728626674.817,-74.219,-56.641,-47.363,-35.645,0.000
1728626674.821,-37.598,-44.922,-33.203,-32.227,0.000
1728626674.825,3.418,-32.227,-23.926,-20.996,0.000
1728626674.829,1.953,-42.969,-34.180,-15.137,0.000
1728626674.833,-42.480,-39.062,-40.527,-22.949,0.000
1728626674.837,-65.918,-36.621,-49.805,-34.668,0.000
1728626674.841,-39.062,-30.762,-43.457,-28.809,0.000
1728626674.845,1.953,-22.461,-30.762,-20.020,0.000
1728626674.849,-5.859,-32.227,-34.668,-22.461,0.000
1728626674.852,-52.734,-44.434,-48.828,-35.645,0.000
1728626674.856,-67.383,-49.316,-59.082,-52.246,0.000
1728626674.860,-42.480,-32.227,-46.387,-55.176,0.000
1728626674.864,-7.812,-19.531,-30.762,-40.527,0.000
1728626674.868,-9.277,-28.320,-30.273,-25.391,0.000
1728626674.872,-44.922,-44.922,-45.410,-24.902,0.000
1728626674.876,-72.266,-47.363,-43.945,-39.551,0.000
1728626674.880,-50.781,-37.598,-28.320,-42.480,0.000
1728626674.884,5.371,-29.297,-23.438,-20.508,0.000
1728626674.888,5.371,-28.809,-28.320,-16.113,0.000
1728626674.892,-39.062,-34.668,-38.086,-26.855,0.000
1728626674.895,-72.754,-41.504,-47.852,-34.668,0.000
1728626674.899,-66.406,-46.387,-47.363,-37.598,0.000
1728626674.903,-19.043,-38.086,-35.645,-30.762,0.000
1728626674.907,-1.465,-30.273,-27.832,-22.461,0.000
1728626674.911,-30.762,-38.086,-33.203,-30.762,0.000
1728626674.915,-59.082,-49.805,-45.898,-36.621,0.000
1728626674.919,-48.828,-46.387,-40.039,-25.879,0.000
1728626674.923,-17.578,-24.414,-17.578,-24.902,0.000
1728626674.927,1.465,-20.996,-20.996,-16.113,0.000
1728626674.931,-15.625,-35.156,-41.992,-10.254,0.000
1728626674.934,-51.270,-43.457,-49.805,-23.438,0.000
1728626674.938,-50.781,-32.715,-41.504,-20.996,0.000
1728626674.942,-9.766,-17.578,-30.273,-17.090,0.000
1728626674.946,11.719,-20.508,-32.715,-17.090,0.000
1728626674.950,-7.812,-27.344,-43.457,-14.160,0.000
1728626674.954,-44.434,-35.156,-42.969,-16.602,0.000
1728626674.958,-47.852,-35.645,-28.320,-15.137,0.000
1728626674.962,-11.230,-29.297,-17.578,-9.766,0.000
1728626674.966,12.207,-23.438,-19.531,-16.602,0.000
1728626674.970,-18.555,-19.531,-23.926,-26.367,0.000
1728626674.974,-62.012,-29.785,-38.086,-36.133,0.000
1728626674.977,-61.523,-43.945,-45.898,-40.527,0.000
1728626674.981,-22.949,-30.762,-25.391,-36.621,0.000
1728626674.985,13.184,-5.371,-13.184,-28.809,0.000
1728626674.989,4.395,-17.090,-22.949,-23.926,0.000
1728626674.993,-38.574,-40.527,-37.598,-23.438,0.000
1728626674.997,-64.453,-39.551,-39.062,-26.367,0.000
1728626675.001,-33.691,-16.602,-20.996,-20.996,0.000
1728626675.005,25.879,-4.883,-10.254,-9.277,0.000
1728626675.009,20.508,-20.020,-20.996,-9.766,0.000
1728626675.013,-32.715,-33.691,-36.621,-26.367,0.000
1728626675.017,-70.312,-36.133,-41.016,-42.969,0.000
1728626675.020,-43.457,-34.180,-36.621,-41.504,0.000
1728626675.024,0.977,-32.715,-26.855,-27.832,0.000
1728626675.028,-10.742,-19.531,-20.508,-34.180,0.000
1728626675.032,-45.898,-33.691,-30.273,-32.715,0.000
1728626675.036,-71.777,-54.688,-42.480,-37.109,0.000
1728626675.040,-57.617,-40.527,-35.645,-45.898,0.000
1728626675.044,-1.953,-21.484,-23.438,-33.203,0.000
1728626675.048,14.648,-21.973,-28.320,-20.996,0.000
1728626675.052,-39.551,-41.504,-43.945,-24.902,0.000
1728626675.056,-71.777,-44.434,-48.340,-38.086,0.000
1728626675.060,-48.828,-27.832,-36.133,-39.062,0.000
1728626675.063,-6.348,-18.066,-23.438,-25.879,0.000
1728626675.067,7.324,-28.809,-33.691,-15.625,0.000
1728626675.071,-31.738,-31.738,-45.410,-20.996,0.000
1728626675.075,-64.941,-28.809,-45.898,-27.832,0.000
1728626675.079,-48.828,-27.344,-46.387,-27.344,0.000
1728626675.083,-7.324,-15.625,-41.016,-27.344,0.000
1728626675.087,16.602,-18.066,-28.809,-26.855,0.000
1728626675.091,3.418,-24.902,-32.227,-25.391,0.000
1728626675.095,-38.086,-34.180,-44.922,-33.203,0.000
1728626675.099,-50.293,-35.645,-42.480,-37.598,0.000
1728626675.102,-6.348,-23.438,-31.250,-24.414,0.000
1728626675.106,12.695,-21.484,-35.156,-19.531,0.000
1728626675.110,-13.672,-39.551,-57.617,-22.949,0.000
1728626675.114,-43.945,-58.105,-66.895,-22.949,0.000
1728626675.118,-51.758,-45.410,-48.828,-35.645,0.000
1728626675.122,-15.137,-29.785,-37.598,-36.133,0.000
1728626675.126,21.973,-23.926,-40.527,-23.438,0.000
1728626675.130,0.000,-21.973,-42.969,-14.648,0.000
1728626675.134,0.000,-35.156,-49.316,-18.555,0.000
1728626675.138,0.000,-46.875,-54.688,-28.809,0.000
1728626675.142,0.000,-42.480,-44.434,-30.273,0.000
1728626675.145,0.000,-35.156,-38.086,-22.461,0.000
1728626675.149,0.000,-41.016,-50.781,-21.484,0.000
1728626675.153,0.000,-56.152,-62.988,-27.344,0.000
1728626675.157,0.000,-71.777,-61.035,-25.879,0.000
1728626675.161,0.000,-50.293,-37.598,-28.320,0.000
1728626675.165,0.000,-20.508,-18.555,-27.344,0.000
1728626675.169,0.000,-19.531,-22.949,-18.555,0.000
1728626675.173,0.000,-28.320,-34.668,-16.113,0.000
1728626675.177,-68.848,-23.926,-38.574,-25.879,0.000
1728626675.181,-33.203,-17.090,-26.855,-28.320,0.000
1728626675.185,2.441,-26.367,-24.414,-23.926,0.000
1728626675.188,-13.184,-28.809,-33.203,-23.438,0.000
1728626675.192,-44.434,-29.297,-41.504,-27.344,0.000
1728626675.196,-65.918,-40.527,-53.711,-37.109,0.000
1728626675.200,-44.922,-47.363,-47.363,-28.809,0.000
1728626675.204,-0.488,-43.945,-33.691,-12.695,0.000
1728626675.208,-2.930,-26.855,-32.715,-22.461,0.000
1728626675.212,-42.480,-26.367,-45.410,-30.762,0.000
1728626675.216,-64.941,-40.527,-55.176,-37.109,0.000
1728626675.220,-51.270,-37.598,-51.270,-39.062,0.000
1728626675.224,-16.602,-30.273,-36.133,-27.832,0.000
1728626675.227,-3.906,-31.738,-32.227,-19.531,0.000
1728626675.231,-34.180,-48.340,-48.340,-18.066,0.000
1728626675.235,-73.730,-56.152,-51.270,-29.785,0.000
1728626675.239,-49.316,-41.504,-35.156,-34.180,0.000
1728626675.243,4.395,-28.320,-24.414,-15.625,0.000
1728626675.247,17.578,-26.367,-27.344,-4.883,0.000
1728626675.251,-12.207,-25.391,-28.809,-11.230,0.000
1728626675.255,-54.199,-31.250,-35.645,-25.391,0.000
1728626675.259,-60.547,-39.062,-42.969,-31.250,0.000
1728626675.263,-18.555,-27.344,-32.715,-18.555,0.000
1728626675.267,8.789,-27.344,-22.461,-17.090,0.000
1728626675.270,-31.250,-38.086,-28.320,-20.020,0.000
1728626675.274,-64.941,-46.387,-42.969,-20.020,0.000
1728626675.278,-52.246,-50.293,-46.387,-31.738,0.000
1728626675.282,-25.391,-38.086,-33.691,-21.973,0.000
1728626675.286,6.348,-32.715,-27.344,-6.836,0.000
1728626675.290,0.488,-45.410,-40.527,-16.113,0.000
1728626675.294,-55.664,-60.059,-60.547,-30.762,0.000
1728626675.298,-75.195,-56.641,-56.152,-46.875,0.000
1728626675.302,-40.039,-39.551,-38.574,-51.758,0.000
1728626675.306,-4.395,-32.715,-33.203,-41.992,0.000
1728626675.309,-19.531,-38.086,-36.133,-31.250,0.000
1728626675.313,-61.035,-46.875,-42.969,-31.250,0.000
1728626675.317,-76.660,-55.664,-51.758,-40.039,0.000
1728626675.321,-39.551,-49.316,-49.805,-33.691,0.000
1728626675.325,-1.953,-38.574,-27.832,-16.602,0.000
1728626675.329,-19.531,-33.203,-22.949,-24.902,0.000
1728626675.333,-60.547,-36.133,-38.574,-34.180,0.000
1728626675.337,-69.336,-45.898,-44.922,-35.156,0.000
1728626675.341,-30.273,-34.180,-30.273,-37.109,0.000
1728626675.345,7.324,-12.207,-18.066,-26.367,0.000
1728626675.349,-2.930,-22.949,-28.320,-13.672,0.000
1728626675.352,-41.504,-54.688,-46.875,-15.137,0.000
1728626675.356,-60.547,-55.176,-46.387,-30.762,0.000
1728626675.360,-29.297,-36.133,-32.715,-34.180,0.000
1728626675.364,8.789,-26.855,-23.438,-11.230,0.000
1728626675.368,1.465,-34.668,-22.949,-7.324,0.000
1728626675.372,-41.992,-46.387,-31.250,-25.391,0.000
1728626675.376,-64.453,-43.945,-43.457,-41.992,0.000
1728626675.380,-43.945,-36.133,-43.457,-48.340,0.000
1728626675.384,-17.090,-30.273,-29.297,-44.434,0.000
1728626675.388,-16.113,-29.785,-21.484,-38.574,0.000
1728626675.392,-58.105,-38.086,-30.273,-44.922,0.000
1728626675.395,-78.125,-50.781,-49.805,-46.387,0.000
1728626675.399,-42.969,-45.898,-46.875,-38.574,0.000
1728626675.403,-6.348,-20.508,-22.949,-29.297,0.000
1728626675.407,2.441,-21.484,-25.879,-26.367,0.000
1728626675.411,-30.762,-45.410,-36.133,-36.621,0.000
1728626675.415,-62.988,-53.711,-40.527,-42.969,0.000
1728626675.419,-59.570,-45.410,-39.062,-45.898,0.000
1728626675.423,-17.090,-36.621,-23.926,-43.945,0.000
1728626675.427,9.277,-32.715,-23.926,-35.645,0.000
1728626675.431,-24.414,-36.621,-36.133,-34.180,0.000
1728626675.435,-59.082,-53.223,-43.945,-45.898,0.000
1728626675.438,-54.688,-48.340,-44.922,-46.875,0.000
1728626675.442,-16.113,-33.203,-38.574,-29.297,0.000
1728626675.446,10.742,-18.555,-26.367,-20.020,0.000
1728626675.450,-13.184,-16.113,-30.273,-24.414,0.000
1728626675.454,-58.105,-42.480,-51.270,-43.457,0.000
1728626675.458,-64.453,-40.039,-49.316,-49.316,0.000
1728626675.462,-25.879,-11.230,-29.785,-30.273,0.000
1728626675.466,4.395,-16.602,-30.273,-18.555,0.000
1728626675.470,-13.672,-28.809,-35.156,-23.438,0.000
1728626675.474,-48.340,-38.086,-44.434,-31.250,0.000
1728626675.477,-49.805,-47.363,-44.434,-34.668,0.000
1728626675.481,-27.832,-34.180,-25.391,-30.273,0.000
1728626675.485,-1.953,-22.461,-24.414,-15.137,0.000
1728626675.489,-4.395,-25.879,-34.180,-8.301,0.000
1728626675.493,-45.410,-25.879,-41.504,-26.855,0.000
1728626675.497,-61.035,-25.879,-47.852,-41.504,0.000
1728626675.501,-25.879,-26.367,-44.922,-37.598,0.000
1728626675.505,17.090,-19.531,-36.133,-24.902,0.000
1728626675.509,17.090,-27.344,-36.621,-14.648,0.000
1728626675.513,-22.461,-42.480,-55.664,-19.043,0.000
1728626675.517,-46.875,-41.504,-60.059,-35.156,0.000
1728626675.520,-29.297,-28.320,-42.480,-37.109,0.000
1728626675.524,-4.883,-20.508,-38.574,-35.645,0.000
1728626675.528,-8.301,-24.414,-38.086,-38.086,0.000
1728626675.532,-45.410,-39.551,-45.898,-32.227,0.000
1728626675.536,-75.684,-44.922,-57.617,-35.645,0.000
1728626675.540,-54.688,-34.668,-46.875,-33.691,0.000
1728626675.544,-4.395,-32.715,-33.691,-20.020,0.000
1728626675.548,-4.395,-43.945,-40.527,-28.320,0.000
1728626675.552,-45.898,-47.852,-49.316,-33.203,0.000
1728626675.556,-70.801,-45.410,-48.340,-39.062,0.000
1728626675.560,-46.387,-41.504,-33.691,-46.387,0.000
1728626675.563,-4.883,-29.297,-18.066,-28.320,0.000
1728626675.567,6.836,-18.066,-18.555,-19.531,0.000
1728626675.571,-20.508,-22.461,-29.297,-17.090,0.000
1728626675.575,-46.875,-41.992,-37.109,-15.625,0.000
1728626675.579,-37.598,-52.734,-36.133,-13.184,0.000
1728626675.583,-10.742,-39.551,-26.367,-18.555,0.000
1728626675.587,-2.441,-29.785,-20.020,-23.438,0.000
1728626675.591,-25.879,-42.480,-28.809,-17.578,0.000
1728626675.595,-57.617,-52.734,-39.551,-27.344,0.000
1728626675.599,-44.922,-35.645,-27.832,-39.551,0.000
1728626675.602,-5.371,-21.484,-15.625,-31.250,0.000
1728626675.606,10.742,-19.531,-16.602,-19.043,0.000
1728626675.610,-14.648,-20.020,-23.926,-22.949,0.000
1728626675.614,-64.453,-41.504,-41.992,-39.062,0.000
1728626675.618,-70.801,-63.477,-51.758,-42.480,0.000
1728626675.622,-31.250,-63.477,-42.480,-26.855,0.000
1728626675.626,-7.812,-46.387,-34.180,-24.902,0.000
1728626675.630,-29.297,-40.527,-37.109,-23.926,0.000
1728626675.634,-66.406,-53.223,-50.781,-27.832,0.000
1728626675.638,-68.848,-47.852,-49.805,-36.621,0.000
1728626675.642,-32.227,-33.691,-35.156,-31.738,0.000
1728626675.645,-8.789,-35.645,-26.367,-20.996,0.000
1728626675.649,-10.742,-42.969,-27.344,-15.137,0.000
1728626675.653,-43.457,-44.434,-35.645,-24.414,0.000
1728626675.657,-65.918,-47.852,-37.598,-30.273,0.000
1728626675.661,-31.250,-42.480,-27.344,-24.902,0.000
1728626675.665,6.836,-42.480,-27.832,-20.996,0.000
1728626675.669,1.465,-52.246,-37.109,-12.695,0.000
1728626675.673,-45.898,-47.852,-33.203,-27.344,0.000
1728626675.677,-73.730,-52.246,-34.180,-38.574,0.000
1728626675.681,-41.992,-47.852,-33.203,-36.621,0.000
1728626675.684,-5.371,-33.203,-26.855,-25.391,0.000
1728626675.688,-0.488,-28.809,-25.391,-11.230,0.000
1728626675.692,-23.438,-39.551,-36.621,-19.043,0.000
1728626675.696,-51.270,-48.828,-43.457,-25.879,0.000
1728626675.700,-32.227,-35.156,-31.250,-22.461,0.000
1728626675.704,7.812,-29.785,-24.414,-24.414,0.000
1728626675.708,9.277,-33.203,-30.273,-23.926,0.000
1728626675.712,-20.508,-49.805,-43.457,-19.043,0.000
1728626675.716,-48.828,-55.664,-45.898,-32.227,0.000
1728626675.720,-38.574,-38.574,-28.320,-36.621,0.000
1728626675.724,-2.441,-24.902,-20.996,-13.184,0.000
1728626675.727,13.672,-27.344,-23.438,0.977,0.000
1728626675.731,-22.461,-34.180,-28.809,-11.230,0.000
1728626675.735,-53.711,-34.180,-40.039,-23.438,0.000
1728626675.739,-48.828,-33.203,-36.621,-24.414,0.000
1728626675.743,-26.855,-33.691,-31.250,-27.832,0.000
1728626675.747,-5.371,-40.527,-29.297,-22.461,0.000
1728626675.751,-27.344,-49.805,-30.762,-20.996,0.000
1728626675.755,-60.547,-53.223,-41.016,-27.832,0.000
1728626675.759,-50.293,-45.898,-35.645,-29.785,0.000
1728626675.763,-8.301,-25.391,-20.020,-23.438,0.000
1728626675.767,7.324,-18.066,-16.602,-16.602,0.000
1728626675.770,-4.883,-29.297,-33.203,-7.812,0.000
1728626675.774,-46.387,-48.828,-52.734,-4.883,0.000
1728626675.778,-60.547,-41.992,-40.039,-25.879,0.000
1728626675.782,-18.555,-31.250,-30.762,-34.668,0.000
1728626675.786,4.883,-40.039,0.000,-35.156,0.000
1728626675.790,-22.949,-44.922,0.000,-36.621,0.000
1728626675.794,-61.035,-47.852,0.000,-41.016,0.000
1728626675.798,-65.918,-44.434,0.000,-41.992,0.000
1728626675.802,-35.645,-37.598,0.000,-35.645,0.000
1728626675.806,-1.465,-31.250,0.000,-25.391,0.000
1728626675.809,-9.277,-25.879,0.000,-21.484,0.000
1728626675.813,-54.199,-35.156,0.000,-19.043,0.000
1728626675.817,-72.266,-50.293,0.000,-23.438,0.000
1728626675.821,-41.016,-31.738,0.000,-31.250,0.000
1728626675.825,-4.883,-20.020,0.000,-24.902,0.000
1728626675.829,-0.977,-34.668,0.000,-19.531,0.000
1728626675.833,-37.598,-40.527,-43.945,-24.902,0.000
1728626675.837,-69.824,-39.062,-45.898,-42.969,0.000
1728626675.841,-43.457,-35.156,-37.109,-50.781,0.000
1728626675.845,3.906,-28.320,-29.297,-41.504,0.000
1728626675.849,-14.160,-27.344,-36.621,-37.598,0.000
1728626675.852,-63.477,-34.180,-47.363,-35.645,0.000
1728626675.856,-74.219,-41.016,-51.758,-39.062,0.000
1728626675.860,-47.363,-33.691,-38.086,-35.156,0.000
1728626675.864,-1.465,-30.273,-31.250,-18.555,0.000
1728626675.868,1.465,-24.414,-30.273,-20.996,0.000
1728626675.872,-30.273,-32.715,-38.574,-35.156,0.000
1728626675.876,-55.664,-42.969,-49.316,-41.504,0.000
1728626675.880,0.000,-28.320,-38.574,-36.621,0.000
1728626675.884,0.000,-13.672,-25.391,-33.691,0.000
1728626675.888,0.000,-17.090,-33.203,-23.926,0.000
1728626675.892,0.000,-25.391,-40.527,-26.855,0.000
1728626675.895,0.000,-34.668,-40.527,-45.410,0.000
1728626675.899,0.000,-36.133,-40.527,-41.504,0.000
1728626675.903,0.000,-27.832,-31.250,-31.738,0.000
1728626675.907,0.000,-29.297,-28.809,-15.137,0.000
1728626675.911,0.000,-33.203,-36.133,-22.461,0.000
1728626675.915,0.000,-39.062,-43.457,-49.316,0.000
1728626675.919,0.000,-42.480,-40.527,-47.852,0.000
1728626675.923,0.000,-34.180,-27.344,-36.621,0.000
1728626675.927,-1.953,-22.949,-24.414,-29.785,0.000
1728626675.931,-31.738,-31.738,-39.551,-31.738,0.000
1728626675.935,-61.035,-45.898,-50.293,-38.086,0.000
1728626675.938,-61.523,-38.574,-42.480,-39.551,0.000
1728626675.942,-27.832,-37.109,-30.762,-38.086,0.000
1728626675.946,-7.324,-43.945,-33.203,-32.227,0.000
1728626675.950,-32.715,-46.875,-48.340,-35.156,0.000
1728626675.954,-64.941,-52.246,-58.594,-41.016,0.000
1728626675.958,-71.289,-39.551,-47.852,-51.758,0.000
1728626675.962,-45.410,-22.949,-35.156,-51.758,0.000
1728626675.966,-12.207,-32.715,-30.762,-38.574,0.000
1728626675.970,-20.508,-45.898,-32.715,-30.762,0.000
1728626675.974,-62.988,-50.781,-42.969,-38.574,0.000
1728626675.977,-70.312,-49.316,-45.410,-48.340,0.000
1728626675.981,-41.504,-41.016,-36.133,-41.016,0.000
1728626675.985,-8.789,-27.344,-23.926,-25.879,0.000
1728626675.989,-5.859,-24.414,-25.879,-22.461,0.000
1728626675.993,-42.480,-34.668,-44.922,-29.297,0.000
1728626675.997,-61.523,-37.598,-52.246,-25.879,0.000
1728626676.001,-44.922,-27.832,-35.645,-27.832,0.000
1728626676.005,-12.207,-20.020,-24.414,-30.273,0.000
1728626676.009,-4.883,-27.344,-28.809,-20.020,0.000
1728626676.013,-45.410,-37.109,-41.016,-26.367,0.000
1728626676.017,-76.172,-34.668,-41.016,-37.109,0.000
1728626676.020,-41.504,-29.297,-25.391,-37.109,0.000
1728626676.024,3.418,-31.250,-22.949,-30.762,0.000
1728626676.028,-4.883,-39.062,-32.715,-24.902,0.000
1728626676.032,-35.156,-36.133,-38.574,-26.855,0.000
1728626676.036,-70.312,-40.039,-45.898,-40.039,0.000
1728626676.040,-56.152,-46.387,-41.016,-33.203,0.000
1728626676.044,-8.301,-41.992,-34.668,-16.602,0.000
1728626676.048,-7.812,-38.086,-39.551,-25.879,0.000
1728626676.052,-40.527,-42.969,-54.688,-33.203,0.000
1728626676.056,-72.266,-53.223,-63.965,-42.480,0.000
1728626676.059,-58.105,-41.992,-51.270,-46.875,0.000
1728626676.063,-16.113,-27.832,-29.785,-37.598,0.000
1728626676.067,0.000,-27.344,-28.320,-29.297,0.000
1728626676.071,0.000,-36.133,-43.457,-23.926,0.000
1728626676.075,0.000,-52.734,-54.688,-37.598,0.000
1728626676.079,0.000,-45.898,-41.992,-40.527,0.000
1728626676.083,0.000,-23.926,-23.926,-18.555,0.000
1728626676.087,0.000,-16.113,-30.273,-13.672,0.000
1728626676.091,0.000,-28.809,-41.016,-25.391,0.000
1728626676.095,0.000,-40.039,-44.922,-34.668,0.000
1728626676.099,0.000,-39.062,-39.062,-39.551,0.000
1728626676.102,0.000,-43.457,-32.227,-34.668,0.000
1728626676.106,0.000,-30.762,-27.832,-32.715,0.000
1728626676.110,0.000,-23.438,-33.203,-35.645,0.000
1728626676.114,-41.992,-35.645,-44.434,-37.109,0.000
1728626676.118,-41.992,-36.621,-40.039,-33.203,0.000
1728626676.122,-11.719,-29.297,-26.367,-30.762,0.000
1728626676.126,13.184,-28.320,-24.902,-24.902,0.000
1728626676.130,-9.766,-37.109,-40.039,-22.461,0.000
1728626676.134,-51.270,-43.457,-53.711,-32.715,0.000
1728626676.138,-61.035,-40.527,-48.828,-41.504,0.000
1728626676.142,-28.320,-29.297,-38.086,-29.785,0.000
1728626676.145,5.859,-24.414,-37.109,-16.602,0.000
1728626676.149,-8.789,-31.250,-44.434,-22.949,0.000
1728626676.153,-56.152,-30.762,-46.875,-41.016,0.000
1728626676.157,-74.707,-28.809,-46.387,-45.898,0.000
1728626676.161,-46.875,-27.344,-40.039,-39.551,0.000
1728626676.165,-14.648,-19.043,-34.180,-42.480,0.000
1728626676.169,-19.531,-17.578,-25.879,-33.691,0.000
1728626676.173,-56.152,-32.715,-34.668,-37.598,0.000
1728626676.177,-80.566,-41.016,-44.434,-57.129,0.000
1728626676.181,-52.734,-29.297,-28.809,-46.875,0.000
1728626676.184,-23.438,-12.695,-23.926,-50.781,0.000
1728626676.188,-35.156,-20.996,-34.180,-66.895,0.000
1728626676.192,-64.453,-37.598,-47.363,-63.477,0.000
1728626676.196,-92.285,-22.461,-43.457,-77.148,0.000
1728626676.200,-95.215,-8.301,-25.879,-101.074,0.000
1728626676.204,-59.570,-11.719,-14.648,-93.750,0.000
1728626676.208,-57.617,-20.996,-16.602,-97.656,0.000
1728626676.212,-117.676,-29.785,-34.668,-123.535,0.000
1728626676.216,-152.832,-30.273,-42.969,-132.324,0.000
1728626676.220,-136.230,-26.855,-40.039,-140.625,0.000
1728626676.224,-108.398,-29.297,-37.109,-147.461,0.000
1728626676.227,-109.375,-39.062,-43.457,-151.367,0.000
1728626676.231,-164.062,-44.434,-62.012,-166.504,0.000
1728626676.235,-204.102,-55.664,-75.684,-178.223,0.000
1728626676.239,-191.406,-64.941,-71.777,-182.617,0.000
1728626676.243,-158.203,-50.781,-54.199,-194.824,0.000
1728626676.247,-141.602,-47.363,-51.270,-187.012,0.000
1728626676.251,-158.203,-59.570,-69.336,-171.875,0.000
1728626676.255,-190.918,-63.477,-74.707,-182.129,0.000
1728626676.259,-183.594,-64.453,-61.523,-183.594,0.000
1728626676.263,-146.484,-53.223,-50.293,-161.133,0.000
1728626676.267,-125.488,-37.109,-43.457,-140.625,0.000
1728626676.270,-143.066,-40.039,-52.734,-137.207,0.000
1728626676.274,-184.570,-58.105,-67.383,-151.367,0.000
1728626676.278,-185.059,-61.035,-65.430,-156.250,0.000
1728626676.282,-125.488,-52.246,-56.152,-130.859,0.000
1728626676.286,-85.449,-47.363,-50.293,-118.164,0.000
1728626676.290,-101.074,-50.293,-56.641,-119.141,0.000
1728626676.294,-123.535,-56.152,-68.848,-109.863,0.000
1728626676.298,-123.535,-53.223,-65.430,-112.305,0.000
1728626676.302,-96.191,-38.574,-50.781,-104.004,0.000
1728626676.306,-65.918,-38.086,-43.457,-81.055,0.000
1728626676.309,-63.965,-42.969,-49.316,-65.918,0.000
1728626676.313,-74.219,-48.828,-60.059,-55.176,0.000
1728626676.317,-79.102,-56.641,-58.594,-50.293,0.000
1728626676.321,-50.293,-47.363,-41.992,-37.598,0.000
1728626676.325,-10.742,-45.898,-37.598,-14.648,0.000
1728626676.329,-4.883,-63.965,-46.875,-0.977,0.000
1728626676.333,-36.621,-72.754,-48.828,-7.324,0.000
1728626676.337,-50.293,-76.172,-49.316,-11.719,0.000
1728626676.341,-13.672,-74.707,-40.527,0.977,0.000
1728626676.345,36.621,-60.059,-26.855,19.531,0.000
1728626676.349,46.387,-60.059,-30.762,26.855,0.000
1728626676.352,18.555,-74.219,-42.969,25.879,0.000
1728626676.356,-7.812,-82.520,-46.875,22.949,0.000
1728626676.360,11.230,-70.312,-29.297,30.762,0.000
1728626676.364,57.617,-55.176,-19.531,39.551,0.000
1728626676.368,68.848,-56.641,-22.461,40.527,0.000
1728626676.372,33.691,-74.707,-32.227,49.805,0.000
1728626676.376,-4.395,-69.824,-38.086,37.598,0.000
1728626676.380,20.996,-53.711,-23.438,29.297,0.000
1728626676.384,79.102,-57.129,-16.602,44.434,0.000
1728626676.388,87.402,-54.688,-23.438,53.223,0.000
1728626676.392,48.340,-59.082,-30.273,53.223,0.000
1728626676.395,17.090,-65.430,-37.109,46.387,0.000
1728626676.399,31.738,-64.941,-37.598,46.387,0.000
1728626676.403,80.566,-51.758,-26.855,63.965,0.000
1728626676.407,92.285,-31.250,-20.020,70.312,0.000
1728626676.411,57.129,-43.945,-29.785,53.223,0.000
1728626676.415,23.438,-61.523,-39.062,46.387,0.000
1728626676.419,31.250,-56.152,-35.156,54.688,0.000
1728626676.423,68.848,-28.809,-15.625,43.457,0.000
1728626676.427,91.309,-22.461,-13.672,46.387,0.000
1728626676.431,62.500,-43.457,-29.297,56.641,0.000
1728626676.434,11.230,-57.129,-37.109,41.504,0.000
1728626676.438,13.672,-51.270,-29.297,37.598,0.000
1728626676.442,55.664,-38.086,-20.020,46.387,0.000
1728626676.446,68.359,-29.297,-28.320,50.293,0.000
1728626676.450,42.969,-33.691,-37.109,45.410,0.000
1728626676.454,3.906,-43.945,-38.574,38.574,0.000
1728626676.458,-0.977,-44.434,-35.645,33.203,0.000
1728626676.462,42.480,-32.715,-20.020,30.273,0.000
1728626676.466,64.453,-24.414,-12.695,34.668,0.000
1728626676.470,42.480,-27.344,-25.391,33.691,0.000
1728626676.474,11.719,-33.691,-31.250,28.320,0.000
1728626676.477,-6.836,-41.016,-32.227,25.391,0.000
1728626676.481,11.719,-29.297,-20.996,12.695,0.000
1728626676.485,37.598,-19.043,-19.043,8.789,0.000
1728626676.489,25.391,-27.832,-31.250,14.160,0.000
1728626676.493,-10.742,-39.551,-40.527,2.930,0.000
1728626676.497,-29.297,-31.250,-41.992,-5.859,0.000
1728626676.501,-6.348,-13.184,-26.855,-2.441,0.000
1728626676.505,28.809,-13.672,-18.066,0.000,0.000
1728626676.509,22.461,-31.738,-30.762,6.836,0.000
1728626676.513,-19.531,-37.109,-43.457,0.488,0.000
1728626676.517,-41.504,-29.785,-41.016,-12.207,0.000
1728626676.520,-15.137,-20.508,-26.855,5.371,0.000
1728626676.524,21.973,-14.160,-20.508,18.066,0.000
1728626676.528,13.184,-10.742,-23.926,3.418,0.000
1728626676.532,-20.996,-18.066,-39.551,-4.395,0.000
1728626676.536,-42.969,-29.297,-47.852,-9.277,0.000
1728626676.540,-19.531,-26.855,-36.133,-7.812,0.000
1728626676.544,25.391,-21.484,-30.762,5.859,0.000
1728626676.548,20.508,-12.207,-27.832,5.371,0.000
1728626676.552,-12.695,-13.672,-40.039,-6.836,0.000
1728626676.556,-37.109,-23.926,-53.711,-14.648,0.000
1728626676.559,-29.785,-18.066,-40.527,-14.648,0.000
1728626676.563,13.184,0.488,-22.461,0.000,0.000
1728626676.567,40.527,-1.465,-21.973,23.926,0.000
1728626676.571,8.301,-11.719,-24.902,18.066,0.000
1728626676.575,-31.738,-26.855,-36.621,-10.254,0.000
1728626676.579,-24.902,-27.344,-38.574,-23.438,0.000
1728626676.583,9.766,-13.184,-29.297,-9.766,0.000
1728626676.587,17.090,-11.719,-26.855,-5.371,0.000
1728626676.591,-11.719,-15.625,-27.832,-14.160,0.000
1728626676.595,-48.340,-25.879,-35.645,-19.043,0.000
1728626676.599,-39.551,-26.855,-30.762,-18.555,0.000
1728626676.602,-0.488,-11.719,-19.531,-6.836,0.000
1728626676.606,6.348,-6.836,-23.926,-3.418,0.000
1728626676.610,-6.836,-21.973,-38.574,-5.859,0.000
1728626676.614,-30.762,-35.645,-47.363,-10.254,0.000
1728626676.618,-47.363,-30.273,-41.016,-24.414,0.000
1728626676.622,-14.160,-15.625,-34.668,-23.438,0.000
1728626676.626,8.789,-16.113,-33.691,-21.973,0.000
1728626676.630,-23.926,-35.645,-46.387,-27.344,0.000
1728626676.634,-62.988,-44.922,-58.105,-38.574,0.000
1728626676.638,-68.848,-45.410,-54.199,-45.410,0.000
1728626676.642,-29.297,-34.180,-41.504,-42.480,0.000
1728626676.645,8.301,-16.113,-33.203,-40.527,0.000
1728626676.649,-11.230,-20.996,-40.527,-37.109,0.000
1728626676.653,-57.129,-40.527,-51.270,-45.410,0.000
1728626676.657,-62.988,-53.223,-53.711,-46.387,0.000
1728626676.661,-31.738,-37.109,-41.504,-42.969,0.000
1728626676.665,-13.672,-20.996,-34.668,-42.969,0.000
1728626676.669,-19.531,-32.715,-42.480,-40.039,0.000
1728626676.673,-48.828,-40.039,-46.387,-35.645,0.000
1728626676.677,-74.707,-36.133,-40.039,-40.527,0.000
1728626676.681,-49.805,-28.320,-27.344,-43.945,0.000
1728626676.684,-1.465,-29.297,-20.020,-32.715,0.000
1728626676.688,-5.859,-35.156,-22.461,-27.832,0.000
1728626676.692,-39.551,-38.086,-32.715,-35.156,0.000
1728626676.696,-62.012,-45.410,-44.922,-41.992,0.000
1728626676.700,-49.805,-40.527,-39.062,-32.715,0.000
1728626676.704,-3.418,-30.273,-22.461,-9.277,0.000
1728626676.708,-4.883,-28.320,-17.090,-15.137,0.000
1728626676.712,-47.363,-37.109,-39.062,-26.855,0.000
1728626676.716,-66.406,-43.457,-49.805,-37.598,0.000
1728626676.720,-47.363,-34.668,-33.203,-36.621,0.000
1728626676.724,-13.672,-21.973,-23.438,-28.320,0.000
1728626676.727,-3.418,-20.996,-30.762,-28.809,0.000
1728626676.731,-25.879,-32.227,-39.551,-26.367,0.000
1728626676.735,-56.641,-30.762,-41.992,-31.250,0.000
1728626676.739,-46.387,-18.555,-25.391,-29.785,0.000
1728626676.743,11.230,-10.742,-14.160,-19.043,0.000
1728626676.747,23.438,-13.672,-19.043,-11.719,0.000
1728626676.751,-25.391,-24.414,-30.762,-18.066,0.000
1728626676.755,-66.406,-29.785,-41.016,-28.809,0.000
1728626676.759,-58.594,-30.762,-36.621,-27.832,0.000
1728626676.763,-11.719,-36.621,-30.273,-19.531,0.000
1728626676.767,3.906,-33.203,-26.855,-21.973,0.000
1728626676.770,-21.973,-37.598,-26.855,-24.902,0.000
1728626676.774,-58.594,-48.828,-37.109,-32.715,0.000
1728626676.778,-67.871,-41.992,-39.062,-38.574,0.000
1728626676.782,-23.438,-28.809,-26.367,-29.297,0.000
1728626676.786,7.324,-22.461,-21.973,-23.438,0.000
1728626676.790,-11.719,-25.879,-37.109,-20.996,0.000
1728626676.794,-52.246,-35.645,-53.223,-26.367,0.000
1728626676.798,-69.824,-33.203,-41.504,-41.504,0.000
1728626676.802,-34.668,-25.879,-28.320,-39.551,0.000
1728626676.806,-4.395,-27.832,-36.621,-32.715,0.000
1728626676.809,-15.137,-36.133,-46.387,-33.691,0.000
1728626676.813,-48.340,-41.992,-47.363,-45.898,0.000
1728626676.817,-66.895,-47.363,-55.664,-57.129,0.000
1728626676.821,-40.527,-46.875,-47.852,-48.340,0.000
1728626676.825,-10.254,-33.691,-32.715,-36.133,0.000
1728626676.829,-20.508,-23.438,-30.273,-36.621,0.000
1728626676.833,-48.828,-28.320,-41.504,-43.457,0.000
1728626676.837,-64.941,-31.738,-55.176,-46.875,0.000
1728626676.841,-36.133,-23.926,-41.504,-42.480,0.000
1728626676.845,-2.930,-24.414,-23.926,-29.297,0.000
1728626676.849,-13.672,-29.297,-35.156,-24.414,0.000
1728626676.852,-46.387,-48.340,-57.617,-24.902,0.000
1728626676.856,-70.312,-58.105,-54.199,-36.621,0.000
1728626676.860,-42.969,-39.062,-32.715,-32.715,0.000
1728626676.864,9.277,-25.879,-25.879,-12.695,0.000
1728626676.868,9.277,-31.738,-31.738,-10.254,0.000
1728626676.872,-36.133,-38.574,-42.969,-20.020,0.000
1728626676.876,-57.617,-36.133,-54.688,-32.715,0.000
1728626676.880,-42.480,-27.344,-38.574,-31.738,0.000
1728626676.884,-10.254,-24.902,-28.320,-17.090,0.000
1728626676.888,-5.371,-30.762,-31.738,-13.672,0.000
1728626676.892,-36.133,-33.203,-38.574,-17.090,0.000
1728626676.895,-58.594,-38.574,-56.641,-20.996,0.000
1728626676.899,-48.828,-46.387,-53.223,-32.227,0.000
1728626676.903,-13.672,-28.320,-30.273,-35.156,0.000
1728626676.907,0.000,-20.996,-31.250,-30.273,0.000
1728626676.911,-24.902,-36.133,-53.711,-38.086,0.000
1728626676.915,-60.059,-41.992,-69.336,-46.387,0.000
1728626676.919,-58.105,-38.086,-53.711,-35.156,0.000
1728626676.923,-11.230,-29.785,-34.180,-29.785,0.000
1728626676.927,10.742,-32.715,-39.062,-35.156,0.000
1728626676.931,-20.508,-47.363,-49.316,-31.250,0.000
1728626676.934,-66.406,-55.176,-54.688,-34.668,0.000
1728626676.938,-69.336,-41.016,-46.387,-41.016,0.000
1728626676.942,-14.160,-35.645,-34.180,-20.996,0.000
1728626676.946,3.418,-31.250,-30.273,-12.207,0.000
1728626676.950,-24.902,-34.668,-40.527,-17.578,0.000
1728626676.954,-52.246,-57.129,-55.664,-26.367,0.000
1728626676.958,-60.059,-60.547,-46.387,-35.156,0.000
1728626676.962,-21.484,-41.992,-23.926,-29.785,0.000
1728626676.966,5.859,-30.762,-24.902,-19.531,0.000
1728626676.970,-20.996,-38.574,-42.480,-27.344,0.000
1728626676.974,-54.688,-47.852,-49.805,-35.156,0.000
1728626676.977,-66.406,-51.270,-48.828,-45.898,0.000
1728626676.981,-34.180,-39.551,-30.273,-33.691,0.000
1728626676.985,8.301,-29.785,-21.973,-11.230,0.000
1728626676.989,-2.930,-41.016,-32.715,-15.625,0.000
1728626676.993,-50.781,-45.898,-37.598,-33.203,0.000
1728626676.997,-65.918,-56.152,-38.086,-38.574,0.000
1728626677.001,-31.250,-54.688,-28.809,-33.691,0.000
1728626677.005,1.465,-35.156,-19.043,-31.738,0.000
1728626677.009,0.977,-28.320,-18.555,-30.762,0.000
1728626677.013,-33.203,-39.062,-39.062,-38.086,0.000
1728626677.017,-62.500,-46.387,-51.758,-44.434,0.000
1728626677.020,-35.645,-40.039,-37.109,-41.016,0.000
1728626677.024,0.977,-32.227,-31.738,-28.809,0.000
1728626677.028,-7.324,-41.016,-37.109,-13.184,0.000
1728626677.032,-31.250,-53.711,-52.734,-4.395,0.000
1728626677.036,-57.129,-41.016,-52.246,-10.742,0.000
1728626677.040,-46.387,-39.062,-37.598,-20.996,0.000
1728626677.044,-4.395,-44.434,-38.086,-13.184,0.000
1728626677.048,-3.418,-36.621,-43.457,-12.207,0.000
1728626677.052,-38.086,-38.574,-49.805,-21.484,0.000
1728626677.056,-65.430,-48.340,-55.176,-25.391,0.000
1728626677.059,-53.223,-44.434,-44.922,-25.391,0.000
1728626677.063,-13.184,-28.320,-39.551,-20.020,0.000
1728626677.067,-4.883,-27.344,-43.945,-25.879,0.000
1728626677.071,-34.668,-43.457,-49.805,-25.879,0.000
1728626677.075,-59.082,-53.711,-58.594,-34.668,0.000
1728626677.079,-50.781,-48.340,-54.199,-39.551,0.000
1728626677.083,-26.855,-30.762,-36.621,-42.480,0.000
1728626677.087,-13.184,-31.250,-33.203,-36.133,0.000
1728626677.091,-30.273,-41.504,-45.898,-26.855,0.000
1728626677.095,-65.430,-43.945,-54.688,-38.574,0.000
1728626677.099,-54.688,-41.016,-43.457,-34.668,0.000
1728626677.102,-2.930,-32.227,-33.203,-25.391,0.000
1728626677.106,9.766,-31.250,-34.668,-20.508,0.000
1728626677.110,-16.602,-33.691,-40.039,-20.996,0.000
1728626677.114,-53.223,-44.434,-48.828,-29.785,0.000
1728626677.118,-59.570,-53.223,-47.852,-34.180,0.000
1728626677.122,-22.461,-39.062,-40.527,-20.020,0.000
1728626677.126,8.301,-20.996,-31.250,-14.160,0.000
1728626677.130,-4.395,-20.996,-34.668,-22.949,0.000
1728626677.134,-44.434,-41.992,-48.340,-28.320,0.000
1728626677.138,-49.805,-47.852,-43.457,-27.832,0.000
1728626677.142,-16.602,-28.809,-29.785,-19.043,0.000
1728626677.145,5.371,-23.438,-28.809,-14.160,0.000
1728626677.149,-7.812,-33.691,-36.621,-15.625,0.000
1728626677.153,-42.480,-41.504,-48.828,-20.020,0.000
1728626677.157,-53.223,-35.645,-42.480,-22.949,0.000
1728626677.161,-25.879,-31.738,-29.297,-14.160,0.000
1728626677.165,12.207,-30.273,-22.461,-5.859,0.000
1728626677.169,11.230,-31.738,-28.809,-3.906,0.000
1728626677.173,-44.434,-39.062,-38.086,-12.695,0.000
1728626677.177,-65.918,-42.480,-41.504,-22.461,0.000
1728626677.181,-30.762,-27.832,-28.320,-23.438,0.000
1728626677.184,-1.465,-22.949,-12.207,-21.973,0.000
1728626677.188,-6.836,-24.414,-17.090,-25.391,0.000
1728626677.192,0.000,-24.902,-33.691,-33.203,0.000
1728626677.196,0.000,-36.133,-48.828,-42.480,0.000
1728626677.200,0.000,-31.738,-39.551,-45.898,0.000
1728626677.204,0.000,-18.555,-17.578,-42.969,0.000
1728626677.208,0.000,-20.020,-19.531,-33.203,0.000
1728626677.212,0.000,-37.598,-40.527,-29.297,0.000
1728626677.216,0.000,-43.945,-49.805,-33.691,0.000
1728626677.220,0.000,-37.109,-34.668,-40.039,0.000
1728626677.224,0.000,-34.180,-15.137,-42.969,0.000
1728626677.227,0.000,-41.016,-21.484,-31.250,0.000
1728626677.231,0.000,-42.480,-32.227,-33.691,0.000
1728626677.235,0.000,-38.574,-38.574,-51.270,0.000
1728626677.239,-59.570,-38.574,-37.598,-52.734,0.000
1728626677.243,-16.602,-35.156,-28.320,-34.668,0.000
1728626677.247,-1.953,-35.156,-25.879,-31.250,0.000
1728626677.251,-26.855,-42.969,-34.668,-36.133,0.000
1728626677.255,-49.805,-47.852,-48.340,-36.621,0.000
1728626677.259,-45.410,-45.898,-46.875,-40.527,0.000
1728626677.263,-13.672,-29.297,-23.926,-34.180,0.000
1728626677.267,13.672,-18.066,-17.090,-24.414,0.000
1728626677.270,-12.695,-32.227,-37.109,-19.531,0.000
1728626677.274,-58.105,-56.152,-53.223,-20.020,0.000
1728626677.278,-57.129,-50.781,-39.551,-25.391,0.000
1728626677.282,-19.043,-28.809,-22.949,-25.879,0.000
1728626677.286,11.719,-20.996,-23.438,-21.973,0.000
1728626677.290,-0.488,-18.555,-31.738,-19.531,0.000
1728626677.294,-39.551,-28.809,-42.969,-32.227,0.000
1728626677.298,-50.781,-41.992,-42.969,-43.945,0.000
1728626677.302,-12.695,-29.785,-33.691,-32.715,0.000
1728626677.306,26.855,-20.020,-22.461,-16.602,0.000
1728626677.309,6.836,-14.648,-15.625,-7.812,0.000
1728626677.313,-44.434,-22.461,-24.902,-21.973,0.000
1728626677.317,-52.734,-42.480,-33.691,-29.297,0.000
1728626677.321,-17.578,-23.926,-16.113,-20.020,0.000
1728626677.325,17.578,-6.348,-6.836,-16.602,0.000
1728626677.329,14.160,-20.020,-25.879,-14.160,0.000
1728626677.333,-21.973,-31.250,-38.574,-12.695,0.000
1728626677.337,-46.875,-34.180,-38.086,-24.902,0.000
1728626677.341,-27.832,-29.297,-32.715,-28.320,0.000
1728626677.345,12.695,-24.902,-24.902,-12.207,0.000
1728626677.349,16.113,-27.344,-26.855,-12.207,0.000
1728626677.352,-35.645,-42.480,-39.551,-25.879,0.000
1728626677.356,-59.570,-44.434,-41.992,-36.133,0.000
1728626677.360,-27.344,-19.531,-30.273,-29.297,0.000
1728626677.364,3.906,-3.906,-20.020,-14.648,0.000
1728626677.368,7.324,-12.207,-14.160,-8.789,0.000
1728626677.372,-28.809,-32.227,-30.762,-14.160,0.000
1728626677.376,-65.430,-51.758,-53.711,-28.809,0.000
1728626677.380,-53.711,-39.551,-33.691,-25.879,0.000
1728626677.384,-11.230,-15.137,-14.160,-13.184,0.000
1728626677.388,-3.418,-22.949,-27.832,-16.602,0.000
1728626677.392,-34.668,-37.598,-45.410,-25.391,0.000
1728626677.395,-62.012,-39.062,-51.758,-39.062,0.000
1728626677.399,-55.664,-32.715,-37.109,-41.016,0.000
1728626677.403,-13.672,-18.555,-30.273,-26.367,0.000
1728626677.407,2.441,-24.414,-39.062,-20.996,0.000
1728626677.411,-32.715,-36.621,-41.016,-26.367,0.000
1728626677.415,-61.035,-31.738,-42.969,-34.668,0.000
1728626677.419,-52.734,-28.320,-39.062,-35.156,0.000
1728626677.423,-16.113,-30.273,-26.367,-27.344,0.000
1728626677.427,5.371,-28.809,-25.879,-17.578,0.000
1728626677.431,-10.254,-23.926,-30.762,-10.742,0.000
1728626677.434,-47.852,-41.504,-39.062,-18.066,0.000
1728626677.438,-52.246,-54.688,-40.039,-31.738,0.000
1728626677.442,-11.719,-37.598,-27.344,-33.691,0.000
1728626677.446,0.000,-29.785,-28.320,-31.250,0.000
1728626677.450,-25.879,-40.039,-41.016,-23.438,0.000
1728626677.454,-48.340,-47.852,-51.270,-17.090,0.000
1728626677.458,-54.199,-35.645,-41.016,-36.133,0.000
1728626677.462,-27.344,-25.391,-24.414,-31.250,0.000
1728626677.466,1.465,-21.973,-26.855,-18.066,0.000
1728626677.470,-13.672,-23.438,-33.691,-20.508,0.000
1728626677.474,-48.828,-30.762,-36.621,-25.879,0.000
1728626677.477,-56.152,-39.062,-42.969,-34.180,0.000
1728626677.481,-23.926,-48.340,-43.945,-38.086,0.000
1728626677.485,-3.906,-38.086,-33.691,-35.156,0.000
1728626677.489,-21.973,-28.320,-33.691,-26.855,0.000
1728626677.493,-62.988,-42.480,-52.734,-37.109,0.000
1728626677.497,-76.172,-56.641,-64.453,-51.758,0.000
1728626677.501,-42.480,-40.527,-42.969,-40.039,0.000
1728626677.505,-10.254,-22.461,-31.250,-32.715,0.000
1728626677.509,-17.090,-36.621,-43.457,-33.691,0.000
1728626677.513,-53.711,-53.711,-50.781,-29.297,0.000
1728626677.517,-73.242,-51.758,-54.688,-33.203,0.000
1728626677.520,0.000,-35.156,-49.316,-38.574,0.000
1728626677.524,0.000,-25.879,-37.598,-29.785,0.000
1728626677.528,0.000,-32.715,-40.527,-28.809,0.000
1728626677.532,0.000,-42.969,-52.734,-37.598,0.000
1728626677.536,0.000,-46.387,-61.523,-51.270,0.000
1728626677.540,0.000,-41.016,-57.617,-54.199,0.000
1728626677.544,0.000,-28.809,-42.480,-28.809,0.000
1728626677.548,0.000,-15.137,-34.180,-26.367,0.000
1728626677.552,0.000,-24.414,-42.480,-28.809,0.000
1728626677.556,0.000,-41.504,-49.316,-26.367,0.000
1728626677.559,0.000,-37.109,-37.109,-29.785,0.000
1728626677.563,0.000,-15.137,-16.113,-21.484,0.000
1728626677.567,24.902,-4.883,-13.672,-13.184,0.000
1728626677.571,-13.184,-27.344,-29.785,-17.578,0.000
1728626677.575,-60.547,-45.410,-42.969,-30.762,0.000
1728626677.579,-63.965,-34.668,-35.645,-36.133,0.000
1728626677.583,-21.484,-20.996,-25.391,-31.738,0.000
1728626677.587,7.324,-22.949,-26.367,-16.602,0.000
1728626677.591,-23.926,-39.062,-29.297,-15.625,0.000
1728626677.595,-67.383,-44.434,-38.086,-35.645,0.000
1728626677.599,-61.035,-34.668,-33.691,-34.668,0.000
1728626677.602,-17.578,-29.785,-24.414,-19.531,0.000
1728626677.606,-1.465,-17.578,-17.578,-19.043,0.000
1728626677.610,-25.391,-17.578,-22.949,-20.020,0.000
1728626677.614,-60.059,-33.203,-37.598,-17.578,0.000
1728626677.618,-62.988,-41.504,-38.086,-27.344,0.000
1728626677.622,-25.879,-36.621,-25.391,-34.668,0.000
1728626677.626,-1.465,-33.203,-25.391,-35.156,0.000
1728626677.630,-27.344,-38.086,-36.621,-39.062,0.000
1728626677.634,-65.430,-41.992,-45.898,-39.062,0.000
1728626677.638,-69.824,-43.945,-43.457,-50.781,0.000
1728626677.642,-31.250,-31.738,-29.785,-48.828,0.000
1728626677.645,1.465,-25.879,-29.785,-30.273,0.000
1728626677.649,-12.695,-31.250,-40.039,-20.020,0.000
1728626677.653,-51.758,-30.762,-42.969,-33.691,0.000
1728626677.657,-73.730,-42.969,-48.340,-52.246,0.000
1728626677.661,-51.270,-51.270,-47.363,-49.316,0.000
1728626677.665,-15.137,-42.480,-34.668,-30.762,0.000
1728626677.669,-15.625,-35.645,-34.668,-33.691,0.000
1728626677.673,-54.688,-39.062,-44.922,-46.875,0.000
1728626677.677,-76.660,-51.758,-52.734,-47.363,0.000
1728626677.681,-54.199,-48.828,-43.457,-42.480,0.000
1728626677.684,-14.160,-33.203,-32.227,-32.227,0.000
1728626677.688,-4.883,-33.203,-45.410,-31.738,0.000
1728626677.692,-45.898,-43.945,-55.664,-37.109,0.000
1728626677.696,-72.754,-41.504,-43.457,-49.316,0.000
1728626677.700,-44.434,-37.598,-34.180,-55.664,0.000
1728626677.704,-11.719,-44.922,-33.203,-44.434,0.000
1728626677.708,-12.207,-56.152,-35.645,-29.297,0.000
1728626677.712,-39.062,-47.852,-41.016,-31.250,0.000
1728626677.716,-63.965,-46.875,-56.641,-45.410,0.000
1728626677.720,-52.734,-49.805,-52.246,-44.434,0.000
1728626677.724,-15.137,-33.691,-41.016,-34.668,0.000
1728626677.727,-3.906,-24.414,-44.922,-28.809,0.000
1728626677.731,-30.273,-27.832,-43.945,-33.203,0.000
1728626677.735,-54.199,-38.086,-52.734,-43.457,0.000
1728626677.739,-35.156,-46.387,-47.852,-36.621,0.000
1728626677.743,-1.953,-28.809,-20.508,-32.227,0.000
1728626677.747,2.930,-27.344,-20.020,-31.738,0.000
1728626677.751,-22.949,-38.574,-38.086,-30.273,0.000
1728626677.755,0.000,-35.156,-44.434,-34.668,0.000
1728626677.759,0.000,-36.133,-33.691,-38.574,0.000
1728626677.763,0.000,-31.250,-24.414,-24.414,0.000
1728626677.767,0.000,-27.344,-26.367,-9.277,0.000
1728626677.770,0.000,-33.203,-27.832,-6.348,0.000
1728626677.774,0.000,-36.133,-33.691,-19.043,0.000
1728626677.778,0.000,-38.574,-29.785,-26.367,0.000
1728626677.782,0.000,-34.668,-20.020,-10.742,0.000
1728626677.786,0.000,-23.438,-16.602,-6.348,0.000
1728626677.790,0.000,-27.832,-22.949,-12.207,0.000
1728626677.794,0.000,-46.875,-41.992,-16.602,0.000
1728626677.798,0.000,-45.898,-44.434,-20.020,0.000
1728626677.802,-25.879,-34.180,-25.391,-15.625,0.000
1728626677.806,2.441,-26.855,-11.719,-7.812,0.000
1728626677.809,-8.789,-28.809,-25.879,-11.230,0.000
1728626677.813,-46.387,-43.945,-41.992,-14.160,0.000
1728626677.817,-66.406,-51.270,-41.504,-24.414,0.000
1728626677.821,-34.180,-39.551,-38.574,-30.762,0.000
1728626677.825,3.418,-36.621,-35.156,-27.344,0.000
1728626677.829,-8.789,-51.270,-41.504,-20.020,0.000
1728626677.833,-48.828,-48.340,-47.852,-27.344,0.000
1728626677.837,-66.406,-42.480,-51.758,-36.133,0.000
1728626677.841,-45.898,-45.410,-48.828,-29.297,0.000
1728626677.845,-4.395,-35.156,-37.598,-23.438,0.000
1728626677.849,-0.488,-23.438,-41.992,-27.832,0.000
1728626677.852,-44.922,-31.250,-56.641,-32.715,0.000
1728626677.856,-63.965,-40.527,-57.129,-35.645,0.000
1728626677.860,-40.527,-34.180,-41.016,-32.227,0.000
1728626677.864,-12.695,-29.785,-32.227,-31.250,0.000
1728626677.868,-9.277,-36.133,-41.016,-27.344,0.000
1728626677.872,-40.527,-39.062,-53.223,-23.438,0.000
1728626677.876,-66.406,-34.180,-49.316,-31.250,0.000
1728626677.880,-47.852,-23.438,-33.203,-35.156,0.000
1728626677.884,6.348,-21.973,-20.020,-22.461,0.000
1728626677.888,23.926,-31.250,-25.879,-9.277,0.000
1728626677.891,-24.414,-35.156,-41.992,-20.996,0.000
1728626677.895,-67.871,-42.969,-61.035,-41.016,0.000
1728626677.899,-56.641,-38.574,-53.711,-38.086,0.000
1728626677.903,-21.484,-31.738,-37.598,-19.043,0.000
1728626677.907,-11.230,-33.203,-32.227,-20.996,0.000
1728626677.911,-30.273,-37.598,-35.156,-30.762,0.000
1728626677.915,-56.641,-43.945,-49.316,-29.297,0.000
1728626677.919,-48.828,-41.016,-48.340,-31.738,0.000
1728626677.923,-4.883,-20.508,-28.320,-33.203,0.000
1728626677.927,15.137,-13.672,-26.855,-25.391,0.000
1728626677.931,-18.555,-35.156,-50.293,-28.320,0.000
1728626677.934,-57.617,-52.246,-65.918,-41.992,0.000
1728626677.938,-58.105,-40.039,-50.293,-45.410,0.000
1728626677.942,-12.695,-16.113,-26.855,-25.879,0.000
1728626677.946,18.066,-13.672,-22.949,-13.184,0.000
1728626677.950,-13.184,-32.715,-31.250,-17.090,0.000
1728626677.954,-52.246,-39.062,-38.574,-31.738,0.000
1728626677.958,-50.781,-37.598,-39.551,-35.645,0.000
1728626677.962,-10.742,-40.039,-34.668,-25.879,0.000
1728626677.966,8.789,-34.668,-28.809,-14.648,0.000
1728626677.970,-11.230,-24.414,-26.855,-12.207,0.000
1728626677.974,-43.457,-33.691,-38.574,-18.066,0.000
1728626677.977,-52.734,-44.922,-52.246,-27.832,0.000
1728626677.981,-31.738,-22.949,-40.039,-30.762,0.000
1728626677.985,-8.301,-13.672,-32.715,-22.949,0.000
1728626677.989,-2.930,-32.227,-41.504,-16.113,0.000
1728626677.993,-32.715,-37.109,-45.898,-18.066,0.000
1728626677.997,-57.617,-35.156,-43.945,-29.297,0.000
1728626678.001,-33.203,-33.691,-32.715,-35.645,0.000
1728626678.005,-3.906,-34.180,-33.203,-29.297,0.000
1728626678.009,-0.977,-32.715,-37.598,-20.020,0.000
1728626678.013,-27.832,-35.645,-43.457,-20.508,0.000
1728626678.017,-65.918,-47.363,-52.734,-35.645,0.000
1728626678.020,-43.457,-47.363,-43.945,-29.297,0.000
1728626678.024,1.953,-33.691,-34.180,-4.395,0.000
1728626678.028,-9.766,-18.066,-35.645,-14.648,0.000
1728626678.032,-43.457,-30.273,-49.805,-24.902,0.000
1728626678.036,-66.406,-44.922,-60.547,-29.785,0.000
1728626678.040,-48.828,-35.156,-43.945,-34.180,0.000
1728626678.044,-4.395,-22.461,-24.414,-25.879,0.000
1728626678.048,9.766,-18.555,-21.973,-16.113,0.000
1728626678.052,-17.578,-31.738,-40.039,-21.973,0.000
1728626678.056,-56.641,-45.410,-52.246,-39.062,0.000
1728626678.059,-58.594,-38.574,-38.574,-40.527,0.000
1728626678.063,-13.184,-26.367,-27.832,-26.367,0.000
1728626678.067,4.883,-29.785,-31.738,-16.602,0.000
1728626678.071,-38.086,-36.621,-36.133,-23.438,0.000
1728626678.075,-68.848,-40.527,-45.898,-36.133,0.000
1728626678.079,-50.293,-28.809,-41.016,-36.133,0.000
1728626678.083,-16.113,-19.531,-25.879,-22.949,0.000
1728626678.087,-2.930,-19.043,-22.461,-15.625,0.000
1728626678.091,-31.738,-27.832,-38.086,-26.367,0.000
1728626678.095,-68.848,-45.410,-54.199,-39.062,0.000
1728626678.099,-65.430,-43.457,-48.828,-42.480,0.000
1728626678.102,-21.973,-24.902,-36.133,-31.250,0.000
1728626678.106,-0.977,-21.484,-38.086,-31.250,0.000
1728626678.110,-17.090,-27.832,-43.457,-28.809,0.000
1728626678.114,-47.852,-39.551,-53.223,-23.438,0.000
1728626678.118,-62.988,-38.574,-46.387,-36.133,0.000
1728626678.122,-28.809,-33.203,-25.391,-28.320,0.000
1728626678.126,0.488,-29.297,-20.508,-20.996,0.000
1728626678.130,-18.555,-25.391,-24.414,-24.902,0.000
1728626678.134,-58.105,-36.133,-35.645,-25.391,0.000
1728626678.138,-69.336,-40.527,-41.016,-27.832,0.000
1728626678.142,-31.250,-29.297,-29.785,-23.926,0.000
1728626678.145,-0.488,-22.949,-23.438,-20.020,0.000
1728626678.149,-16.113,-34.180,-31.250,-10.254,0.000
1728626678.153,-54.199,-46.387,-42.480,-14.648,0.000
1728626678.157,-65.918,-50.781,-49.805,-24.414,0.000
1728626678.161,-32.715,-36.621,-33.691,-19.043,0.000
1728626678.165,6.348,-20.020,-15.137,-16.113,0.000
1728626678.169,-0.977,-25.391,-20.508,-14.648,0.000
1728626678.173,-48.340,-38.086,-40.039,-20.020,0.000
1728626678.177,-74.219,-40.527,-46.387,-41.504,0.000
1728626678.181,-49.805,-26.855,-29.785,-41.504,0.000
1728626678.184,-6.836,-21.973,-25.879,-23.438,0.000
1728626678.188,-5.859,-30.273,-30.762,-17.578,0.000
1728626678.192,-43.457,-38.086,-41.992,-24.414,0.000
1728626678.196,-55.176,-43.457,-51.758,-36.621,0.000
1728626678.200,-30.273,-36.621,-36.133,-36.621,0.000
1728626678.204,2.930,-38.086,-25.391,-22.949,0.000
1728626678.208,-2.441,-34.180,-28.320,-32.715,0.000
1728626678.212,-39.062,-38.086,-39.062,-41.016,0.000
1728626678.216,-67.871,-49.316,-41.992,-41.504,0.000
1728626678.220,-45.410,-39.551,-32.227,-41.504,0.000
1728626678.224,-2.930,-25.879,-19.531,-39.062,0.000
1728626678.227,9.277,-26.367,-23.438,-37.598,0.000
1728626678.231,-21.973,-48.340,-44.434,-31.738,0.000
1728626678.235,-59.082,-59.082,-55.664,-41.504,0.000
1728626678.239,-56.152,-45.410,-44.922,-51.270,0.000
1728626678.243,-15.625,-31.250,-29.785,-33.691,0.000
1728626678.247,6.348,-28.320,-30.273,-15.625,0.000
1728626678.251,-26.855,-32.227,-35.156,-20.996,0.000
1728626678.255,-57.617,-32.227,-34.180,-27.832,0.000
1728626678.259,-52.734,-29.297,-31.738,-28.320,0.000
1728626678.263,-19.043,-23.438,-16.602,-17.578,0.000
1728626678.266,10.742,-21.484,-11.719,-9.766,0.000
1728626678.270,-8.789,-30.762,-29.785,-13.672,0.000
1728626678.274,-49.316,-44.434,-49.316,-28.809,0.000
1728626678.278,-54.199,-52.734,-49.805,-32.227,0.000
1728626678.282,-22.461,-34.668,-32.227,-19.043,0.000
1728626678.286,3.906,-17.090,-19.043,-20.020,0.000
1728626678.290,-9.766,-29.297,-31.738,-14.160,0.000
1728626678.294,-35.645,-43.945,-49.805,-14.160,0.000
1728626678.298,-55.664,-36.133,-40.039,-36.133,0.000
1728626678.302,-29.297,-20.020,-21.973,-26.855,0.000
1728626678.306,2.441,-16.113,-20.996,-17.578,0.000
1728626678.309,-8.301,-20.996,-28.809,-19.043,0.000
1728626678.313,-46.387,-34.668,-47.852,-24.414,0.000
1728626678.317,-65.918,-43.945,-59.082,-30.762,0.000
1728626678.321,-30.762,-42.480,-42.480,-16.602,0.000
1728626678.325,2.930,-35.645,-29.297,-4.883,0.000
1728626678.329,-8.301,-27.344,-32.715,-11.719,0.000
1728626678.333,-52.246,-31.250,-41.016,-19.531,0.000
1728626678.337,-65.918,-38.574,-46.387,-18.555,0.000
1728626678.341,-21.973,-24.414,-25.391,-11.719,0.000
1728626678.345,5.859,-14.648,-12.695,-11.719,0.000
1728626678.349,6.348,-26.367,-24.902,-6.348,0.000
1728626678.352,-24.414,-48.828,-47.852,-13.672,0.000
1728626678.356,-62.012,-56.152,-54.688,-37.598,0.000
1728626678.360,-43.945,-40.039,-34.180,-35.645,0.000
1728626678.364,-6.348,-29.785,-29.297,-25.391,0.000
1728626678.368,-6.348,-33.203,-43.945,-28.320,0.000
1728626678.372,-32.715,-35.645,-48.828,-30.273,0.000
1728626678.376,-62.988,-41.504,-53.711,-31.250,0.000
1728626678.380,-47.852,-36.621,-50.781,-28.809,0.000
1728626678.384,4.395,-21.973,-40.039,-23.926,0.000
1728626678.388,-0.977,-28.320,-39.062,-26.855,0.000
1728626678.391,-46.387,-39.551,-46.875,-37.109,0.000
1728626678.395,-74.219,-56.641,-60.059,-47.852,0.000
1728626678.399,-55.176,-63.965,-54.688,-43.945,0.000
1728626678.403,-13.672,-42.969,-30.273,-36.133,0.000
1728626678.407,-2.441,-39.062,-28.320,-34.668,0.000
1728626678.411,0.000,-47.852,-42.969,-32.715,0.000
1728626678.415,0.000,-49.805,-48.828,-42.480,0.000
1728626678.419,0.000,-40.039,-41.016,-41.016,0.000
1728626678.423,0.000,-22.461,-26.367,-26.855,0.000
1728626678.427,0.000,-20.020,-23.438,-22.461,0.000
1728626678.431,0.000,-37.598,-35.156,-24.902,0.000
1728626678.434,0.000,-56.152,-48.340,-32.227,0.000
1728626678.438,0.000,-56.152,-46.875,-32.227,0.000
1728626678.442,0.000,-49.805,-41.992,-25.879,0.000
1728626678.446,0.000,-35.156,-31.250,-28.809,0.000
1728626678.450,0.000,-22.949,-35.156,-36.133,0.000
1728626678.454,0.000,-32.227,-55.176,-36.621,0.000
1728626678.458,-60.059,-32.227,-53.711,-37.598,0.000
1728626678.462,-14.160,-17.578,-31.250,-24.414,0.000
1728626678.466,6.836,-23.926,-23.926,-12.695,0.000
1728626678.470,-9.766,-38.574,-37.109,-23.438,0.000
1728626678.474,-46.387,-55.176,-49.805,-36.621,0.000
1728626678.477,-61.035,-58.594,-52.734,-44.434,0.000
1728626678.481,-31.738,-41.504,-34.668,-39.551,0.000
1728626678.485,10.742,-27.832,-25.879,-29.297,0.000
1728626678.489,5.371,-32.227,-41.016,-20.996,0.000
1728626678.493,-39.551,-28.809,-43.945,-34.180,0.000
1728626678.497,-56.641,-36.133,-45.410,-42.969,0.000
1728626678.501,-35.156,-51.758,-42.480,-30.273,0.000
1728626678.505,-5.859,-44.922,-35.156,-20.508,0.000
1728626678.509,-8.301,-32.227,-34.180,-18.066,0.000
1728626678.513,-37.598,-38.574,-48.828,-20.996,0.000
1728626678.517,-65.430,-46.387,-55.664,-35.156,0.000
1728626678.520,-45.898,-42.480,-36.621,-35.645,0.000
1728626678.524,1.465,-31.738,-24.902,-25.879,0.000
1728626678.528,4.883,-32.227,-34.180,-27.344,0.000
1728626678.532,-30.273,-44.434,-42.480,-24.414,0.000
1728626678.536,-60.059,-38.086,-36.621,-31.250,0.000
1728626678.540,-47.363,-24.902,-24.902,-35.645,0.000
1728626678.544,-3.906,-24.414,-21.484,-23.438,0.000
1728626678.548,6.348,-29.297,-31.250,-19.531,0.000
1728626678.552,-27.344,-32.227,-34.668,-23.438,0.000
1728626678.556,-64.941,-37.598,-45.410,-32.715,0.000
1728626678.559,-57.617,-43.457,-41.016,-30.273,0.000
1728626678.563,-17.090,-39.062,-22.949,-17.090,0.000
1728626678.567,-0.488,-41.504,-23.926,-20.996,0.000
1728626678.571,-27.344,-47.852,-36.133,-24.902,0.000
1728626678.575,-63.965,-48.340,-48.340,-30.762,0.000
1728626678.579,-47.363,-42.969,-42.969,-23.438,0.000
1728626678.583,-6.836,-24.902,-18.066,-20.996,0.000
1728626678.587,-0.488,-19.043,-14.160,-27.344,0.000
1728626678.591,-22.949,-31.738,-27.344,-23.926,0.000
1728626678.595,-51.758,-39.062,-32.227,-29.297,0.000
1728626678.599,-53.223,-36.133,-28.809,-26.367,0.000
1728626678.602,-11.719,-25.391,-20.996,-10.254,0.000
1728626678.606,11.719,-23.926,-23.926,-14.160,0.000
1728626678.610,-16.602,-28.809,-29.785,-17.578,0.000
1728626678.614,-49.316,-29.297,-38.574,-20.508,0.000
1728626678.618,-51.758,-27.344,-44.922,-30.273,0.000
1728626678.622,-23.438,-31.738,-38.574,-30.762,0.000
1728626678.626,7.324,-32.715,-26.855,-19.531,0.000
1728626678.630,2.930,-28.809,-27.344,-17.578,0.000
1728626678.634,-27.832,-32.715,-43.945,-27.832,0.000
1728626678.638,-53.223,-29.297,-42.480,-20.020,0.000
1728626678.641,-17.578,-8.301,-17.578,-3.906,0.000
1728626678.645,22.461,-6.836,-7.324,-4.883,0.000
1728626678.649,9.277,-18.066,-24.414,-3.418,0.000
1728626678.653,-30.273,-33.691,-43.945,-3.906,0.000
1728626678.657,-64.453,-46.875,-44.922,-31.738,0.000
1728626678.661,-39.551,-33.691,-32.715,-36.621,0.000
1728626678.665,16.113,-20.020,-27.344,-14.648,0.000
1728626678.669,11.230,-19.531,-35.645,-13.184,0.000
1728626678.673,-38.574,-26.367,-40.039,-32.227,0.000
1728626678.677,-69.336,-37.109,-50.781,-48.340,0.000
1728626678.681,-43.945,-27.344,-43.945,-51.270,0.000
1728626678.684,-3.906,-18.066,-28.320,-38.086,0.000
1728626678.688,-6.348,-24.414,-36.621,-40.527,0.000
1728626678.692,-41.016,-39.062,-47.363,-46.387,0.000
1728626678.696,-62.988,-45.898,-42.969,-41.504,0.000
1728626678.700,-49.316,-33.203,-31.250,-42.480,0.000
1728626678.704,-5.859,-18.555,-18.555,-40.039,0.000
1728626678.708,-1.953,-14.160,-23.438,-31.250,0.000
1728626678.712,-36.133,-32.715,-41.016,-28.320,0.000
1728626678.716,-63.965,-43.457,-44.922,-37.598,0.000
1728626678.720,-62.988,-37.598,-34.180,-39.062,0.000
1728626678.724,-12.695,-29.297,-23.438,-25.391,0.000
1728626678.727,11.230,-30.273,-29.785,-9.277,0.000
1728626678.731,-27.832,-31.250,-36.621,-17.090,0.000
1728626678.735,-62.988,-37.109,-44.434,-31.738,0.000
1728626678.739,0.000,-37.109,-45.898,-27.344,0.000
1728626678.743,0.000,-26.367,-31.250,-29.297,0.000
1728626678.747,0.000,-14.648,-24.902,-28.809,0.000
1728626678.751,0.000,-18.066,-33.691,-22.461,0.000
1728626678.755,0.000,-39.551,-51.758,-29.785,0.000
1728626678.759,0.000,-47.363,-52.246,-29.785,0.000
1728626678.763,0.000,-32.227,-33.691,-14.648,0.000
1728626678.766,0.000,-17.090,-24.902,-13.184,0.000
1728626678.770,0.000,-26.855,-35.156,-15.137,0.000
1728626678.774,0.000,-46.387,-47.363,-13.184,0.000
1728626678.778,0.000,-46.387,-32.227,-24.902,0.000
1728626678.782,0.000,-36.133,-22.949,-22.461,0.000
1728626678.786,-51.270,-29.297,-28.320,-12.695,0.000
1728626678.790,-20.996,-31.738,-28.809,-12.207,0.000
1728626678.794,4.883,-43.945,-37.109,-16.113,0.000
1728626678.798,-9.277,-46.387,-36.621,-25.879,0.000
1728626678.802,-54.688,-40.039,-28.809,-27.832,0.000
1728626678.806,-55.176,-31.738,-27.832,-15.137,0.000
1728626678.809,-14.648,-38.086,-39.062,-16.602,0.000
1728626678.813,2.930,-52.246,-54.199,-26.367,0.000
1728626678.817,-11.230,-58.594,-59.570,-29.785,0.000
1728626678.821,-41.016,-47.852,-42.969,-35.156,0.000
1728626678.825,-57.129,-27.344,-30.762,-28.809,0.000
1728626678.829,-29.785,-23.926,-39.551,-26.855,0.000
1728626678.833,-2.930,-42.969,-55.664,-29.785,0.000
1728626678.837,-18.066,-40.039,-58.105,-39.062,0.000
1728626678.841,-51.270,-26.367,-35.156,-38.574,0.000
1728626678.845,-58.105,-28.809,-23.438,-22.949,0.000
1728626678.848,-31.250,-38.574,-31.738,-9.766,0.000
1728626678.852,3.418,-56.641,-43.457,-4.883,0.000
1728626678.856,-7.324,-51.270,-50.293,-18.555,0.000
1728626678.860,-50.781,-37.598,-41.992,-22.461,0.000
1728626678.864,-57.617,-35.645,-30.762,-10.742,0.000
1728626678.868,-30.762,-20.996,-24.902,-14.160,0.000
1728626678.872,2.930,-22.461,-35.645,-22.461,0.000
1728626678.876,3.418,-42.969,-47.852,-30.762,0.000
1728626678.880,-50.293,-46.387,-43.945,-36.621,0.000
1728626678.884,-15.625,-34.668,-32.227,-26.855,0.000
1728626678.888,0.977,-27.344,-36.133,-21.973,0.000
1728626678.891,-40.527,-30.273,-50.781,-28.320,0.000
1728626678.895,-78.613,-35.645,-52.246,-36.621,0.000
1728626678.899,-58.594,-33.691,-41.992,-37.109,0.000
1728626678.903,-16.602,-24.414,-31.250,-27.344,0.000
1728626678.907,-7.324,-31.738,-30.762,-11.719,0.000
1728626678.911,-40.039,-38.574,-33.691,-13.672,0.000
1728626678.915,-62.988,-35.156,-32.227,-23.926,0.000
1728626678.919,-43.945,-25.879,-30.273,-23.926,0.000
1728626678.923,-8.789,-21.484,-27.344,-22.949,0.000
1728626678.927,2.441,-23.926,-30.273,-23.438,0.000
1728626678.930,-12.207,-26.855,-35.156,-20.508,0.000
1728626678.934,-42.480,-38.086,-40.527,-24.902,0.000
1728626678.938,-54.688,-37.109,-39.551,-32.227,0.000
1728626678.942,-20.996,-27.832,-28.320,-25.879,0.000
1728626678.946,5.859,-32.227,-25.879,-21.484,0.000
1728626678.950,-9.766,-44.434,-33.203,-19.531,0.000
1728626678.954,-44.922,-55.664,-50.781,-17.090,0.000
1728626678.958,-56.641,-43.945,-47.852,-31.738,0.000
1728626678.962,-19.531,-27.344,-30.273,-33.203,0.000
1728626678.966,7.812,-21.484,-26.367,-22.461,0.000
1728626678.970,-14.648,-24.902,-37.109,-19.531,0.000
1728626678.973,-49.805,-32.227,-43.945,-26.367,0.000
1728626678.977,-61.035,-37.598,-40.039,-33.691,0.000
1728626678.981,-26.367,-28.320,-34.180,-26.855,0.000
1728626678.985,-0.488,-24.414,-30.273,-28.320,0.000
1728626678.989,-10.742,-31.738,-35.645,-27.832,0.000
1728626678.993,-50.293,-45.410,-50.781,-28.809,0.000
1728626678.997,-73.730,-63.965,-60.059,-38.086,0.000
1728626679.001,-40.039,-53.711,-44.434,-38.574,0.000
1728626679.005,-11.230,-31.250,-32.715,-35.645,0.000
1728626679.009,-15.137,-32.715,-41.016,-33.203,0.000
1728626679.012,-40.039,-44.434,-45.898,-41.504,0.000
1728626679.016,-66.406,-44.922,-47.363,-51.270,0.000
1728626679.020,-49.805,-29.785,-36.621,-42.969,0.000
1728626679.024,-6.348,-22.461,-25.879,-31.250,0.000
1728626679.028,5.371,-40.039,-37.598,-27.344,0.000
1728626679.032,-40.039,-51.758,-53.711,-32.227,0.000
1728626679.036,-66.895,-55.664,-60.547,-41.504,0.000
1728626679.040,-36.133,-54.688,-50.293,-37.109,0.000
1728626679.044,7.324,-41.504,-39.062,-26.367,0.000
1728626679.048,3.906,-25.879,-34.180,-31.250,0.000
1728626679.052,-37.109,-32.227,-42.969,-32.715,0.000
1728626679.055,-65.430,-44.922,-53.711,-39.062,0.000
1728626679.059,-46.387,-36.621,-51.758,-49.316,0.000
1728626679.063,2.930,-28.809,-42.969,-38.574,0.000
1728626679.067,0.000,-35.645,-39.551,-37.109,0.000
1728626679.071,0.000,-45.410,-47.363,-32.715,0.000
1728626679.075,0.000,-50.781,-47.363,-28.809,0.000
1728626679.079,0.000,-42.480,-40.039,-36.133,0.000
1728626679.083,0.000,-31.738,-31.250,-27.344,0.000
1728626679.087,0.000,-30.273,-27.344,-18.066,0.000
1728626679.091,0.000,-39.062,-36.621,-29.297,0.000
1728626679.095,0.000,-46.875,-39.551,-43.457,0.000
1728626679.098,0.000,-49.316,-36.621,-46.387,0.000
1728626679.102,0.000,-50.293,-32.715,-29.785,0.000
1728626679.106,0.000,-41.992,-20.508,-16.602,0.000
1728626679.110,0.000,-35.156,-31.738,-28.320,0.000
1728626679.114,-64.941,-44.922,-53.711,-42.969,0.000
1728626679.118,-67.871,-38.574,-44.922,-40.527,0.000
1728626679.122,-25.879,-22.949,-26.855,-32.227,0.000
1728626679.126,-2.930,-23.438,-28.809,-32.715,0.000
1728626679.130,-15.137,-35.645,-41.992,-23.926,0.000
1728626679.134,-53.223,-47.363,-52.734,-21.973,0.000
1728626679.138,-56.641,-45.410,-49.805,-34.668,0.000
1728626679.141,-16.602,-41.016,-31.738,-36.621,0.000
1728626679.145,19.531,-41.016,-27.344,-23.438,0.000
1728626679.149,4.395,-37.598,-40.039,-13.672,0.000
1728626679.153,-48.828,-28.809,-33.691,-21.484,0.000
1728626679.157,-58.594,-30.273,-30.762,-28.320,0.000
1728626679.161,-28.809,-30.762,-34.180,-31.738,0.000
1728626679.165,2.441,-23.926,-26.367,-20.996,0.000
1728626679.169,3.906,-25.391,-25.879,-15.625,0.000
1728626679.173,-36.621,-41.504,-40.039,-25.391,0.000
1728626679.177,-63.477,-49.805,-46.875,-40.527,0.000
1728626679.180,-28.809,-42.969,-38.086,-47.363,0.000
1728626679.184,-1.953,-26.855,-26.367,-42.480,0.000
1728626679.188,-9.277,-20.996,-29.785,-38.574,0.000
1728626679.192,-26.367,-33.203,-44.922,-29.297,0.000
1728626679.196,-56.641,-38.086,-42.969,-34.668,0.000
1728626679.200,-41.504,-29.785,-28.320,-46.387,0.000
1728626679.204,2.441,-30.273,-27.832,-41.016,0.000
1728626679.208,1.465,-30.762,-35.156,-39.551,0.000
1728626679.212,-41.504,-33.691,-44.922,-41.992,0.000
1728626679.216,-76.172,-40.039,-53.711,-49.316,0.000
1728626679.220,-55.664,-38.574,-47.852,-47.852,0.000
1728626679.223,-6.348,-26.855,-30.273,-32.227,0.000
1728626679.227,10.742,-20.996,-28.320,-25.391,0.000
1728626679.231,-30.762,-27.344,-46.387,-27.344,0.000
1728626679.235,-65.918,-37.598,-52.246,-29.297,0.000
1728626679.239,-43.457,-41.992,-41.992,-22.461,0.000
1728626679.243,-15.625,-28.320,-27.344,-28.809,0.000
1728626679.247,-7.812,-24.902,-21.484,-30.762,0.000
1728626679.251,-30.273,-40.527,-33.203,-23.438,0.000
1728626679.255,-65.918,-50.781,-46.875,-28.809,0.000
1728626679.259,-70.801,-46.875,-41.016,-35.645,0.000
1728626679.263,-29.297,-38.574,-26.855,-26.367,0.000
1728626679.266,-6.348,-40.527,-28.320,-20.020,0.000
1728626679.270,-39.551,-56.152,-36.621,-20.508,0.000
1728626679.274,-69.824,-68.359,-52.734,-30.273,0.000
1728626679.278,-59.082,-55.176,-50.781,-33.203,0.000
1728626679.282,-21.973,-39.062,-38.086,-27.832,0.000
1728626679.286,-3.418,-36.621,-29.785,-28.320,0.000
1728626679.290,-32.715,-39.062,-30.762,-37.598,0.000
1728626679.294,-62.500,-44.922,-43.457,-35.645,0.000
1728626679.298,-62.988,-49.316,-41.016,-32.715,0.000
1728626679.302,-34.668,-40.039,-35.645,-36.621,0.000
1728626679.305,-5.371,-31.738,-35.645,-27.832,0.000
1728626679.309,-13.672,-39.551,-42.480,-28.320,0.000
1728626679.313,-55.176,-52.246,-54.199,-34.668,0.000
1728626679.317,-72.266,-52.734,-48.828,-39.551,0.000
1728626679.321,-40.039,-32.715,-28.320,-34.668,0.000
1728626679.325,0.977,-16.113,-18.555,-19.531,0.000
1728626679.329,2.930,-28.320,-25.391,-6.836,0.000
1728626679.333,-41.016,-36.621,-31.738,-15.137,0.000
1728626679.337,-65.918,-33.691,-42.480,-33.203,0.000
1728626679.341,-37.598,-20.996,-33.203,-31.250,0.000
1728626679.345,-2.441,-16.602,-23.926,-29.785,0.000
1728626679.348,-7.324,-27.832,-35.645,-34.668,0.000
1728626679.352,-34.668,-40.527,-46.875,-31.738,0.000
1728626679.356,-42.969,-43.945,-56.152,-36.621,0.000
1728626679.360,-23.438,-27.832,-39.551,-38.574,0.000
1728626679.364,4.395,-19.531,-24.414,-26.855,0.000
1728626679.368,9.277,-28.320,-31.738,-15.137,0.000
1728626679.372,-29.785,-50.293,-48.340,-15.137,0.000
1728626679.376,-61.035,-48.828,-43.945,-27.344,0.000
1728626679.380,-47.363,-31.738,-26.855,-30.762,0.000
1728626679.384,-7.812,-23.926,-24.902,-18.066,0.000
1728626679.387,4.395,-26.855,-31.738,-16.113,0.000
1728626679.391,-32.227,-38.086,-34.668,-26.855,0.000
1728626679.395,-59.570,-41.992,-43.457,-44.922,0.000
1728626679.399,-49.805,-35.645,-41.992,-42.969,0.000
1728626679.403,-21.484,-33.691,-29.297,-25.879,0.000
1728626679.407,-1.465,-31.738,-21.973,-17.090,0.000
1728626679.411,-20.996,-39.062,-31.250,-15.137,0.000
1728626679.415,-57.617,-63.965,-53.223,-29.785,0.000
1728626679.419,-48.828,-65.918,-51.270,-30.762,0.000
1728626679.423,-14.160,-36.621,-28.809,-31.250,0.000
1728626679.427,-3.906,-23.926,-29.785,-32.227,0.000
1728626679.430,-20.996,-30.762,-42.480,-28.320,0.000
1728626679.434,-56.641,-34.668,-48.340,-34.180,0.000
1728626679.438,-66.895,-33.203,-43.457,-43.457,0.000
1728626679.442,-31.738,-25.879,-27.344,-42.480,0.000
1728626679.446,-4.883,-18.066,-28.320,-32.227,0.000
1728626679.450,-34.180,-29.297,-41.016,-49.805,0.000
1728626679.454,-86.914,-39.551,-52.246,-72.266,0.000
1728626679.458,-106.445,-30.762,-45.410,-71.289,0.000
1728626679.462,-76.660,-20.996,-32.227,-67.871,0.000
1728626679.466,-50.293,-17.090,-30.273,-73.242,0.000
1728626679.470,-86.914,-19.043,-33.203,-95.215,0.000
1728626679.473,-144.531,-41.504,-36.133,-111.328,0.000
1728626679.477,-153.320,-48.340,-37.109,-107.910,0.000
1728626679.481,-126.465,-32.715,-25.879,-115.234,0.000
1728626679.485,-103.516,-24.414,-23.926,-128.906,0.000
1728626679.489,-117.188,-23.926,-38.574,-140.625,0.000
1728626679.493,-157.227,-25.391,-50.781,-147.949,0.000
1728626679.497,-188.965,-33.203,-59.082,-170.898,0.000
1728626679.501,-179.688,-24.414,-49.805,-184.082,0.000
1728626679.505,-145.996,-16.602,-38.574,-169.434,0.000
1728626679.509,-144.531,-37.598,-45.898,-161.133,0.000
1728626679.512,-180.664,-43.945,-59.570,-168.457,0.000
1728626679.516,-213.867,-42.969,-65.918,-191.406,0.000
1728626679.520,-190.918,-46.875,-58.594,-191.406,0.000
1728626679.524,-133.789,-49.805,-43.457,-170.410,0.000
1728626679.528,-132.812,-44.434,-40.039,-164.551,0.000
1728626679.532,-169.434,-49.805,-55.664,-170.410,0.000
1728626679.536,0.000,-58.105,-57.617,-167.969,0.000
1728626679.540,0.000,-52.734,-48.340,-160.645,0.000
1728626679.544,0.000,-38.574,-50.781,-157.227,0.000
1728626679.548,0.000,-30.762,-48.340,-142.090,0.000
1728626679.552,0.000,-38.574,-60.059,-121.094,0.000
1728626679.555,0.000,-44.434,-67.871,-114.258,0.000
1728626679.559,0.000,-38.086,-52.734,-109.375,0.000
1728626679.563,0.000,-29.297,-38.086,-75.684,0.000
1728626679.567,0.000,-28.320,-46.875,-42.969,0.000
1728626679.571,0.000,-36.621,-66.895,-51.270,0.000
1728626679.575,0.000,-46.387,-78.613,-66.406,0.000
1728626679.579,0.000,-42.969,-74.219,-55.664,0.000
1728626679.583,-16.113,-34.668,-50.781,-22.949,0.000
1728626679.587,7.324,-36.133,-39.062,-6.348,0.000
1728626679.591,-6.348,-50.293,-49.316,0.977,0.000
1728626679.595,-27.832,-62.012,-59.082,0.000,0.000
1728626679.598,-27.832,-60.547,-51.270,-1.465,0.000
1728626679.602,16.113,-50.293,-31.738,17.090,0.000
1728626679.606,51.758,-46.875,-27.344,30.273,0.000
1728626679.610,32.227,-58.594,-37.109,34.180,0.000
1728626679.614,-1.465,-74.707,-51.758,25.879,0.000
1728626679.618,-1.953,-64.941,-44.922,24.902,0.000
1728626679.622,24.902,-41.992,-26.855,33.203,0.000
1728626679.626,59.570,-37.109,-28.809,44.922,0.000
1728626679.630,0.000,-50.293,-40.527,57.129,0.000
1728626679.634,0.000,-55.664,-40.039,53.711,0.000
1728626679.638,0.000,-59.570,-32.715,47.363,0.000
1728626679.641,0.000,-41.016,-15.137,57.617,0.000
1728626679.645,0.000,-23.926,-11.719,64.453,0.000
1728626679.649,0.000,-39.062,-31.250,62.500,0.000
1728626679.653,0.000,-51.270,-41.504,58.105,0.000
1728626679.657,0.000,-46.387,-43.945,54.688,0.000
1728626679.661,0.000,-34.668,-30.762,55.664,0.000
1728626679.665,0.000,-24.902,-19.043,50.293,0.000
1728626679.669,0.000,-25.391,-32.227,60.059,0.000
1728626679.673,0.000,-36.621,-50.293,58.105,0.000
1728626679.677,4.883,-41.992,-46.875,38.086,0.000
1728626679.680,33.203,-32.715,-28.320,45.898,0.000
1728626679.684,71.289,-25.879,-25.879,62.012,0.000
1728626679.688,66.406,-27.344,-33.691,58.594,0.000
1728626679.692,29.297,-31.250,-33.203,50.293,0.000
1728626679.696,-1.465,-40.039,-39.062,35.156,0.000
1728626679.700,15.137,-36.133,-36.133,30.762,0.000
1728626679.704,63.477,-30.762,-23.926,57.617,0.000
1728626679.708,58.594,-19.531,-13.672,60.059,0.000
1728626679.712,16.602,-22.461,-26.855,42.969,0.000
1728626679.716,-3.418,-39.551,-44.434,30.273,0.000
1728626679.720,13.184,-34.668,-28.809,21.973,0.000
1728626679.723,43.457,-16.113,-15.625,28.320,0.000
1728626679.727,45.898,-14.160,-23.438,33.203,0.000
1728626679.731,15.625,-27.832,-37.109,20.996,0.000
1728626679.735,-14.648,-31.250,-44.922,6.348,0.000
1728626679.739,-4.395,-21.973,-34.668,0.000,0.000
1728626679.743,34.668,-13.184,-25.391,7.324,0.000
1728626679.747,60.547,-18.555,-37.109,19.531,0.000
1728626679.751,22.949,-31.250,-48.340,10.742,0.000
1728626679.755,-32.715,-36.133,-43.945,-7.812,0.000
1728626679.759,-28.320,-33.691,-36.133,-6.348,0.000
1728626679.762,6.348,-27.832,-26.367,0.488,0.000
1728626679.766,25.391,-20.996,-23.926,7.812,0.000
1728626679.770,8.789,-25.391,-28.320,15.137,0.000
1728626679.774,-26.855,-42.480,-41.992,3.418,0.000
1728626679.778,-38.086,-45.898,-42.480,-2.930,0.000
1728626679.782,-5.371,-28.809,-21.484,6.348,0.000
1728626679.786,18.555,-27.344,-20.996,9.766,0.000
1728626679.790,-4.395,-39.551,-38.086,5.371,0.000
1728626679.794,-45.898,-48.340,-51.270,-11.230,0.000
1728626679.798,-50.293,-47.363,-43.457,-25.879,0.000
1728626679.802,-19.043,-40.527,-25.879,-13.672,0.000
1728626679.805,1.953,-36.133,-29.785,-0.488,0.000
1728626679.809,-5.859,-40.527,-41.504,-4.395,0.000
1728626679.813,-41.992,-51.758,-45.898,-14.648,0.000
1728626679.817,0.000,-51.758,-44.922,-26.367,0.000
1728626679.821,0.000,-37.109,-29.297,-19.531,0.000
1728626679.825,0.000,-24.414,-18.555,-8.789,0.000
1728626679.829,0.000,-20.508,-19.531,-16.113,0.000
1728626679.833,0.000,-30.762,-33.203,-26.367,0.000
1728626679.837,0.000,-44.922,-46.875,-26.855,0.000
1728626679.841,0.000,-39.062,-41.016,-24.902,0.000
1728626679.845,0.000,-27.344,-27.832,-23.438,0.000
1728626679.848,0.000,-29.785,-29.297,-6.836,0.000
1728626679.852,0.000,-41.992,-45.898,-0.488,0.000
1728626679.856,0.000,-44.922,-46.387,-25.879,0.000
1728626679.860,0.000,-25.391,-25.879,-31.738,0.000
1728626679.864,11.230,-11.230,-19.531,-7.812,0.000
1728626679.868,24.414,-19.531,-23.438,0.000,0.000
1728626679.872,-16.602,-32.715,-33.203,-9.766,0.000
1728626679.876,-59.082,-41.504,-46.875,-26.855,0.000
1728626679.880,-50.293,-43.945,-41.504,-32.227,0.000
1728626679.884,-0.977,-37.109,-38.086,-20.508,0.000
1728626679.887,4.395,-31.738,-42.969,-19.531,0.000
1728626679.891,-37.598,-36.133,-44.434,-29.785,0.000
1728626679.895,-61.035,-52.246,-51.270,-40.039,0.000
1728626679.899,-48.340,-51.270,-39.551,-37.109,0.000
1728626679.903,-4.395,-28.320,-19.531,-28.320,0.000
1728626679.907,16.113,-33.203,-27.832,-29.297,0.000
1728626679.911,-16.602,-48.340,-38.086,-28.320,0.000
1728626679.915,-50.293,-49.316,-41.016,-28.809,0.000
1728626679.919,-50.781,-40.527,-39.062,-36.133,0.000
1728626679.923,-22.949,-30.762,-26.855,-26.855,0.000
1728626679.927,1.953,-32.227,-31.250,-16.602,0.000
1728626679.930,-17.578,-42.969,-47.852,-18.066,0.000
1728626679.934,-61.035,-48.340,-54.199,-25.391,0.000
1728626679.938,-60.547,-36.621,-47.363,-35.645,0.000
1728626679.942,-17.090,-33.203,-31.250,-19.531,0.000
1728626679.946,0.488,-32.715,-26.367,-18.555,0.000
1728626679.950,-23.438,-26.855,-29.297,-31.250,0.000
1728626679.954,-60.059,-40.039,-45.410,-32.715,0.000
1728626679.958,-64.941,-48.340,-50.293,-39.551,0.000
1728626679.962,-25.879,-27.832,-27.832,-36.621,0.000
1728626679.966,3.906,-23.926,-24.902,-25.391,0.000
1728626679.970,-12.695,-40.039,-37.109,-24.414,0.000
1728626679.973,-58.594,-44.434,-49.805,-32.227,0.000
1728626679.977,-63.965,-49.805,-47.363,-41.992,0.000
1728626679.981,-23.926,-44.434,-30.762,-43.457,0.000
1728626679.985,-3.418,-30.273,-33.203,-38.086,0.000
1728626679.989,-9.277,-42.480,-44.922,-19.043,0.000
1728626679.993,-49.316,-42.969,-46.387,-23.926,0.000
1728626679.997,-78.613,-40.039,-52.246,-42.480,0.000
1728626680.001,-48.340,-42.480,-45.410,-38.574,0.000
1728626680.005,-8.789,-31.738,-33.691,-28.809,0.000
1728626680.009,-19.043,-29.785,-39.062,-25.391,0.000
1728626680.012,-57.129,-45.410,-55.176,-35.645,0.000
1728626680.016,-74.707,-53.711,-53.223,-49.316,0.000
1728626680.020,-50.781,-41.992,-35.645,-47.363,0.000
1728626680.024,-8.789,-28.809,-29.297,-35.156,0.000
1728626680.028,-9.277,-28.809,-32.715,-26.367,0.000
1728626680.032,-43.945,-34.668,-47.363,-30.273,0.000
1728626680.036,-62.012,-34.668,-48.340,-35.645,0.000
1728626680.040,-46.387,-31.738,-31.250,-35.645,0.000
1728626680.044,-7.324,-34.180,-28.809,-23.926,0.000
1728626680.048,0.977,-37.109,-32.715,-11.230,0.000
1728626680.052,-31.738,-40.527,-38.086,-14.648,0.000
1728626680.055,-56.152,-32.715,-47.852,-32.227,0.000
1728626680.059,-43.457,-21.484,-44.434,-35.645,0.000
1728626680.063,-2.441,-17.090,-29.785,-20.020,0.000
1728626680.067,18.066,-17.090,-28.809,-17.090,0.000
1728626680.071,-15.137,-28.809,-38.574,-31.738,0.000
1728626680.075,-62.988,-43.945,-45.898,-34.180,0.000
1728626680.079,-50.293,-41.992,-39.551,-19.531,0.000
1728626680.083,-8.301,-20.020,-13.184,-17.578,0.000
1728626680.087,14.160,-13.672,-13.672,-13.672,0.000
1728626680.091,-9.277,-32.715,-38.574,-12.207,0.000
1728626680.094,-55.664,-45.898,-51.270,-27.344,0.000
1728626680.098,-58.594,-34.668,-44.922,-37.598,0.000
1728626680.102,-26.855,-25.879,-32.715,-36.621,0.000
1728626680.106,-12.207,-27.832,-34.668,-34.180,0.000
1728626680.110,-30.762,-34.668,-39.062,-36.133,0.000
1728626680.114,-62.988,-48.340,-51.758,-39.551,0.000
1728626680.118,-60.059,-50.293,-51.270,-35.645,0.000
1728626680.122,-20.996,-38.086,-30.762,-23.926,0.000
1728626680.126,8.789,-26.855,-21.484,-13.672,0.000
1728626680.130,-1.953,-29.785,-28.320,-17.090,0.000
1728626680.134,-41.992,-46.387,-42.969,-19.043,0.000
1728626680.137,-51.758,-50.781,-50.781,-25.879,0.000
1728626680.141,-15.625,-35.645,-34.180,-26.367,0.000
1728626680.145,13.672,-23.438,-20.508,-14.160,0.000
1728626680.149,3.906,-41.992,-31.738,-10.742,0.000
1728626680.153,-28.320,-55.176,-45.898,-16.113,0.000
1728626680.157,-54.199,-44.434,-43.457,-18.555,0.000
1728626680.161,-30.273,-28.320,-35.645,-10.254,0.000
1728626680.165,9.277,-27.344,-35.156,-1.465,0.000
1728626680.169,9.766,-37.109,-42.969,2.441,0.000
1728626680.173,-32.227,-32.227,-40.039,-11.230,0.000
1728626680.177,-57.129,-36.133,-35.156,-31.738,0.000
1728626680.180,-31.250,-39.062,-33.203,-27.832,0.000
1728626680.184,14.160,-28.809,-21.484,-19.043,0.000
1728626680.188,13.672,-27.344,-24.414,-20.996,0.000
1728626680.192,-19.531,-36.621,-40.527,-17.578,0.000
1728626680.196,-44.434,-39.062,-45.410,-19.531,0.000
1728626680.200,-36.621,-30.762,-37.598,-25.391,0.000
1728626680.204,5.859,-23.438,-33.203,-15.137,0.000
1728626680.208,10.254,-20.996,-32.715,-9.277,0.000
1728626680.212,-20.020,-33.203,-49.805,-14.160,0.000
1728626680.216,-49.805,-41.992,-54.688,-26.855,0.000
1728626680.219,-46.387,-33.691,-34.180,-34.180,0.000
1728626680.223,0.488,-26.855,-21.973,-21.484,0.000
1728626680.227,22.461,-26.367,-26.855,-10.254,0.000
1728626680.231,-12.207,-34.668,-41.016,-20.996,0.000
1728626680.235,-53.711,-45.898,-49.805,-38.574,0.000
1728626680.239,-46.875,-36.133,-35.645,-36.133,0.000
1728626680.243,-14.160,-23.438,-22.461,-26.367,0.000
1728626680.247,-1.465,-25.879,-21.484,-24.414,0.000
1728626680.251,-22.949,-33.691,-28.809,-20.996,0.000
1728626680.255,-59.082,-46.387,-40.527,-32.715,0.000
1728626680.259,-60.547,-51.270,-42.480,-32.227,0.000
1728626680.262,-22.461,-39.062,-31.738,-22.949,0.000
1728626680.266,4.883,-25.391,-20.020,-18.066,0.000
1728626680.270,-11.719,-32.715,-30.273,-11.230,0.000
1728626680.274,-53.711,-45.410,-51.270,-20.508,0.000
1728626680.278,-68.359,-36.621,-53.223,-31.250,0.000
1728626680.282,-39.551,-26.855,-44.434,-27.832,0.000
1728626680.286,-8.789,-22.461,-36.621,-15.137,0.000
1728626680.290,-21.973,-32.227,-38.086,-18.555,0.000
1728626680.294,-64.941,-44.434,-49.316,-37.109,0.000
1728626680.298,-71.777,-46.387,-46.387,-43.945,0.000
1728626680.302,-31.250,-42.480,-39.551,-32.715,0.000
1728626680.305,-0.977,-36.133,-36.133,-22.461,0.000
1728626680.309,-18.555,-36.621,-30.762,-21.484,0.000
1728626680.313,-62.500,-47.852,-48.340,-31.738,0.000
1728626680.317,-71.777,-58.105,-53.711,-37.109,0.000
1728626680.321,-40.527,-42.480,-37.598,-34.668,0.000
1728626680.325,-12.207,-29.297,-37.109,-35.156,0.000
1728626680.329,-16.113,-37.598,-43.945,-29.785,0.000
1728626680.333,-45.898,-39.551,-52.734,-32.227,0.000
1728626680.337,-67.383,-38.086,-55.176,-41.016,0.000
1728626680.341,-44.922,-37.109,-47.363,-45.410,0.000
1728626680.345,-13.184,-31.738,-54.199,-42.969,0.000
1728626680.348,-10.742,-35.645,-57.129,-30.762,0.000
1728626680.352,-40.039,-45.410,-62.012,-31.738,0.000
1728626680.356,-69.824,-42.480,-65.430,-45.898,0.000
