timestamps,TP9,AF7,AF8,TP10,Right AUX
1728626759.569,-3.418,-41.016,-28.809,-17.578,0.000
1728626759.573,-33.203,-56.641,-37.598,-24.902,0.000
1728626759.577,-55.664,-59.570,-44.434,-33.691,0.000
1728626759.581,-34.668,-37.598,-21.484,-21.973,0.000
1728626759.584,-3.906,-18.555,-7.812,-15.625,0.000
1728626759.588,-10.254,-27.832,-21.484,-8.301,0.000
1728626759.592,-41.016,-44.922,-40.527,-18.066,0.000
1728626759.596,-63.477,-52.734,-53.223,-34.180,0.000
1728626759.600,-54.688,-34.668,-35.156,-29.785,0.000
1728626759.604,-22.461,-26.855,-17.578,-22.949,0.000
1728626759.608,-10.254,-40.527,-23.926,-19.043,0.000
1728626759.612,-35.156,-52.734,-39.062,-22.461,0.000
1728626759.616,-60.547,-49.316,-42.480,-36.621,0.000
1728626759.620,-52.734,-26.855,-34.180,-43.945,0.000
1728626759.624,-17.578,-13.184,-32.227,-33.203,0.000
1728626759.627,-11.230,-25.391,-35.156,-34.668,0.000
1728626759.631,-42.480,-43.457,-52.246,-41.992,0.000
1728626759.635,-70.801,-48.828,-63.477,-47.363,0.000
1728626759.639,-56.641,-48.340,-52.246,-39.062,0.000
1728626759.643,-29.297,-41.016,-38.574,-31.250,0.000
1728626759.647,-13.184,-23.926,-33.203,-34.180,0.000
1728626759.651,-16.602,-27.344,-46.875,-30.273,0.000
1728626759.655,-59.082,-33.691,-65.430,-37.598,0.000
1728626759.659,-58.105,-20.996,-56.152,-41.016,0.000
1728626759.663,-15.137,-17.578,-41.504,-32.715,0.000
1728626759.666,0.000,-22.461,-41.016,-20.508,0.000
1728626759.670,-20.020,-31.738,-53.711,-22.461,0.000
1728626759.674,-57.617,-42.969,-64.941,-39.551,0.000
1728626759.678,-59.082,-35.645,-52.246,-38.086,0.000
1728626759.682,-17.090,-23.926,-44.434,-24.414,0.000
1728626759.686,10.742,-28.320,-46.875,-21.484,0.000
1728626759.690,-10.254,-27.344,-45.898,-28.809,0.000
1728626759.694,-49.316,-27.832,-53.223,-47.363,0.000
1728626759.698,-62.012,-42.969,-63.965,-57.129,0.000
1728626759.702,-30.762,-37.598,-52.734,-46.875,0.000
1728626759.706,-0.977,-22.461,-38.574,-38.086,0.000
1728626759.709,0.000,-32.715,-44.922,-38.086,0.000
1728626759.713,0.000,-45.410,-54.199,-43.457,0.000
1728626759.717,0.000,-39.062,-46.875,-38.086,0.000
1728626759.721,0.000,-26.855,-27.344,-21.484,0.000
1728626759.725,0.000,-26.367,-16.602,-5.371,0.000
1728626759.729,0.000,-33.203,-24.902,3.418,0.000
1728626759.733,0.000,-37.109,-46.387,-7.324,0.000
1728626759.737,0.000,-33.691,-48.828,-20.020,0.000
1728626759.741,0.000,-26.855,-33.203,-11.719,0.000
1728626759.745,0.000,-28.809,-31.250,-6.348,0.000
1728626759.748,0.000,-30.762,-31.250,-7.324,0.000
1728626759.752,0.000,-41.504,-35.645,-15.625,0.000
1728626759.756,-65.918,-52.246,-41.504,-36.621,0.000
1728626759.760,-37.109,-38.574,-30.273,-34.668,0.000
1728626759.764,-3.418,-24.902,-17.578,-21.973,0.000
1728626759.768,-10.254,-26.855,-20.508,-26.855,0.000
1728626759.772,-41.992,-43.457,-37.598,-36.133,0.000
1728626759.776,-70.312,-54.199,-52.246,-52.246,0.000
1728626759.780,-52.246,-38.574,-42.480,-54.688,0.000
1728626759.784,-9.766,-18.555,-21.973,-42.480,0.000
1728626759.788,-5.859,-22.949,-35.156,-39.551,0.000
1728626759.791,-35.156,-36.621,-53.711,-33.691,0.000
1728626759.795,-60.547,-35.645,-46.875,-45.410,0.000
1728626759.799,-45.410,-36.621,-49.316,-48.828,0.000
1728626759.803,0.000,-32.227,-44.922,-27.832,0.000
1728626759.807,0.000,-25.879,-25.879,-18.066,0.000
1728626759.811,0.000,-29.297,-28.809,-21.484,0.000
1728626759.815,0.000,-42.480,-41.992,-27.344,0.000
1728626759.819,0.000,-38.086,-39.062,-27.832,0.000
1728626759.823,0.000,-27.832,-24.414,-20.508,0.000
1728626759.827,0.000,-33.691,-15.625,-10.254,0.000
1728626759.831,0.000,-39.062,-23.438,-19.043,0.000
1728626759.834,0.000,-51.758,-42.969,-25.879,0.000
1728626759.838,0.000,-44.922,-35.156,-21.973,0.000
1728626759.842,0.000,-27.832,-14.160,-22.949,0.000
1728626759.846,0.000,-33.691,-19.531,-13.672,0.000
1728626759.850,-20.996,-39.551,-28.320,-17.090,0.000
1728626759.854,-72.754,-49.805,-34.668,-38.574,0.000
1728626759.858,-75.684,-53.223,-36.133,-44.434,0.000
1728626759.862,-30.762,-34.668,-29.297,-32.715,0.000
1728626759.866,-6.836,-29.297,-27.344,-29.785,0.000
1728626759.870,-21.973,-34.668,-34.180,-29.785,0.000
1728626759.874,-51.758,-33.691,-39.062,-33.691,0.000
1728626759.877,-50.781,-40.039,-40.039,-39.551,0.000
1728626759.881,-15.625,-40.039,-35.645,-31.250,0.000
1728626759.885,-9.277,-30.762,-24.902,-28.809,0.000
1728626759.889,-20.996,-31.250,-31.250,-28.809,0.000
1728626759.893,-50.293,-37.109,-46.387,-35.645,0.000
1728626759.897,-76.172,-40.039,-46.387,-48.340,0.000
1728626759.901,-42.480,-27.344,-32.715,-41.016,0.000
1728626759.905,1.953,-18.555,-30.762,-26.367,0.000
1728626759.909,-4.395,-17.578,-38.574,-19.531,0.000
1728626759.913,-38.574,-27.344,-45.898,-23.438,0.000
1728626759.917,-44.434,-39.062,-44.434,-27.832,0.000
1728626759.920,-28.320,-36.621,-32.715,-29.785,0.000
1728626759.924,-7.324,-43.457,-31.250,-25.391,0.000
1728626759.928,-6.348,-38.086,-32.715,-20.508,0.000
1728626759.932,-41.504,-30.273,-40.527,-40.527,0.000
1728626759.936,-63.965,-45.898,-57.129,-60.059,0.000
1728626759.940,-46.875,-42.480,-38.086,-48.340,0.000
1728626759.944,-12.695,-31.738,-18.066,-40.039,0.000
1728626759.948,-6.836,-40.527,-25.879,-38.086,0.000
1728626759.952,-37.598,-59.570,-33.691,-36.133,0.000
1728626759.956,-58.594,-73.242,-32.715,-43.945,0.000
1728626759.959,-48.340,-60.059,-17.578,-38.574,0.000
1728626759.963,-16.113,-45.898,-8.301,-28.809,0.000
1728626759.967,-8.301,-46.387,-22.461,-27.344,0.000
1728626759.971,-42.969,-55.664,-43.457,-33.691,0.000
1728626759.975,-72.754,-54.688,-44.434,-48.340,0.000
1728626759.979,-54.688,-50.293,-31.738,-46.387,0.000
1728626759.983,-8.789,-48.828,-21.973,-32.227,0.000
1728626759.987,0.488,-46.387,-20.996,-20.996,0.000
1728626759.991,-34.668,-53.711,-31.250,-27.344,0.000
1728626759.995,-68.848,-65.918,-41.504,-33.691,0.000
1728626759.999,-59.082,-66.406,-33.691,-31.738,0.000
1728626760.002,-22.461,-43.457,-15.625,-26.367,0.000
1728626760.006,-9.277,-36.621,-12.207,-18.555,0.000
1728626760.010,-35.156,-51.758,-33.203,-21.484,0.000
1728626760.014,-62.988,-73.242,-53.711,-29.785,0.000
1728626760.018,-56.641,-70.801,-39.062,-23.926,0.000
1728626760.022,-28.320,-51.758,-17.578,-19.043,0.000
1728626760.026,-16.602,-49.316,-24.414,-19.043,0.000
1728626760.030,-35.156,-51.758,-37.598,-20.508,0.000
1728626760.034,-72.754,-60.547,-50.781,-38.086,0.000
1728626760.038,-77.148,-60.547,-47.852,-51.758,0.000
1728626760.041,-42.480,-48.828,-35.156,-42.969,0.000
1728626760.045,-13.672,-39.551,-36.133,-29.297,0.000
1728626760.049,-15.625,-39.551,-45.410,-24.414,0.000
1728626760.053,-57.617,-47.363,-54.688,-40.527,0.000
1728626760.057,-64.453,-49.316,-50.293,-50.293,0.000
1728626760.061,-27.832,-47.363,-32.227,-27.832,0.000
1728626760.065,-4.883,-39.551,-19.043,-27.832,0.000
1728626760.069,-6.836,-27.832,-22.949,-29.297,0.000
1728626760.073,-40.039,-30.273,-37.598,-27.832,0.000
1728626760.077,-56.152,-39.551,-46.387,-45.898,0.000
1728626760.081,-25.391,-33.691,-35.645,-39.551,0.000
1728626760.084,7.324,-28.809,-28.320,-26.367,0.000
1728626760.088,-4.395,-41.992,-31.250,-24.902,0.000
1728626760.092,-48.828,-43.457,-40.527,-31.738,0.000
1728626760.096,-71.289,-35.156,-43.457,-41.016,0.000
1728626760.100,-40.039,-31.738,-27.344,-24.902,0.000
1728626760.104,-2.441,-38.086,-19.531,-5.859,0.000
1728626760.108,-7.324,-44.434,-19.531,-11.719,0.000
1728626760.112,-40.527,-51.270,-26.367,-25.391,0.000
1728626760.116,-68.359,-61.035,-34.180,-36.133,0.000
1728626760.120,-54.199,-52.734,-27.832,-35.156,0.000
1728626760.124,-16.602,-30.273,-15.625,-27.832,0.000
1728626760.127,-9.766,-27.344,-14.160,-27.344,0.000
1728626760.131,-48.340,-42.480,-28.320,-29.785,0.000
1728626760.135,-73.242,-46.875,-34.668,-37.598,0.000
1728626760.139,-42.480,-38.086,-17.090,-33.203,0.000
1728626760.143,2.441,-33.691,-7.324,-17.090,0.000
1728626760.147,6.836,-40.039,-17.090,-14.160,0.000
1728626760.151,-32.227,-50.781,-32.227,-21.484,0.000
1728626760.155,-59.082,-53.711,-36.621,-36.621,0.000
1728626760.159,-49.316,-38.086,-30.273,-41.016,0.000
1728626760.163,-17.090,-35.645,-30.762,-23.438,0.000
1728626760.167,-10.742,-43.945,-36.621,-26.855,0.000
1728626760.170,-44.434,-39.551,-38.086,-41.992,0.000
1728626760.174,-73.730,-46.875,-51.270,-42.969,0.000
1728626760.178,-68.359,-44.922,-48.828,-44.922,0.000
1728626760.182,-38.574,-29.297,-34.180,-43.945,0.000
1728626760.186,-20.020,-35.645,-46.387,-50.293,0.000
1728626760.190,-35.645,-50.293,-61.035,-44.922,0.000
1728626760.194,-70.312,-57.129,-69.336,-40.527,0.000
1728626760.198,-64.453,-53.711,-66.895,-44.434,0.000
1728626760.202,-29.297,-39.551,-52.246,-42.969,0.000
1728626760.206,-11.230,-29.297,-44.434,-39.551,0.000
1728626760.210,-19.043,-37.109,-50.293,-27.832,0.000
1728626760.213,-46.875,-31.738,-51.758,-30.762,0.000
1728626760.217,-56.152,-21.973,-44.922,-43.945,0.000
1728626760.221,-14.160,-19.531,-37.109,-30.273,0.000
1728626760.225,15.625,-6.348,-38.086,-11.719,0.000
1728626760.229,-2.930,-5.371,-41.016,-17.578,0.000
1728626760.233,-38.574,-26.855,-53.223,-37.598,0.000
1728626760.237,-46.875,-36.133,-54.688,-36.621,0.000
1728626760.241,-23.926,-23.926,-34.668,-22.461,0.000
1728626760.245,2.930,-16.113,-30.762,-12.207,0.000
1728626760.249,-2.930,-24.414,-27.344,-16.113,0.000
1728626760.253,-41.992,-48.828,-37.598,-27.832,0.000
1728626760.256,-61.035,-63.965,-45.410,-26.855,0.000
1728626760.260,-34.668,-40.527,-22.461,-20.020,0.000
1728626760.264,-8.301,-24.902,-18.066,-17.578,0.000
1728626760.268,-21.484,-46.387,-36.621,-23.438,0.000
1728626760.272,-53.711,-54.688,-48.828,-31.250,0.000
1728626760.276,-74.707,-44.922,-41.992,-41.992,0.000
1728626760.280,-52.246,-37.598,-27.832,-36.133,0.000
1728626760.284,-22.949,-32.715,-16.602,-24.902,0.000
1728626760.288,-31.250,-39.062,-17.090,-20.996,0.000
1728626760.292,-62.012,-60.059,-29.297,-28.320,0.000
1728626760.295,-75.195,-64.453,-36.133,-43.457,0.000
1728626760.299,-46.875,-54.688,-32.227,-34.180,0.000
1728626760.303,-22.461,-41.992,-31.250,-23.926,0.000
1728626760.307,-21.484,-31.250,-38.086,-23.438,0.000
1728626760.311,-39.062,-34.668,-44.922,-31.250,0.000
1728626760.315,-59.082,-41.504,-43.945,-49.805,0.000
1728626760.319,-38.086,-37.598,-32.227,-41.992,0.000
1728626760.323,6.836,-30.273,-18.555,-24.902,0.000
1728626760.327,9.766,-27.344,-22.461,-22.461,0.000
1728626760.331,-34.668,-34.668,-39.062,-32.227,0.000
1728626760.335,-61.035,-42.969,-46.875,-43.945,0.000
1728626760.338,-40.527,-42.480,-43.457,-47.852,0.000
1728626760.342,-3.906,-37.598,-34.180,-38.086,0.000
1728626760.346,6.348,-33.691,-29.297,-22.949,0.000
1728626760.350,-33.691,-30.762,-33.691,-36.133,0.000
1728626760.354,-65.430,-38.086,-48.340,-48.828,0.000
1728626760.358,-59.570,-39.551,-38.574,-39.062,0.000
1728626760.362,-28.809,-39.551,-19.043,-26.367,0.000
1728626760.366,0.000,-31.250,-21.484,-23.926,0.000
1728626760.370,0.000,-33.203,-37.598,-29.297,0.000
1728626760.374,0.000,-49.805,-55.664,-34.180,0.000
1728626760.378,0.000,-38.086,-47.363,-37.109,0.000
1728626760.381,0.000,-22.949,-28.320,-36.621,0.000
1728626760.385,0.000,-28.320,-29.785,-33.203,0.000
1728626760.389,0.000,-39.062,-45.898,-31.250,0.000
1728626760.393,0.000,-38.574,-47.363,-37.109,0.000
1728626760.397,0.000,-31.738,-38.574,-41.992,0.000
1728626760.401,0.000,-25.879,-33.203,-28.320,0.000
1728626760.405,0.000,-22.461,-22.461,-8.789,0.000
1728626760.409,0.000,-24.414,-28.809,-13.672,0.000
1728626760.413,-50.781,-36.133,-47.363,-35.156,0.000
1728626760.417,-58.594,-49.805,-48.340,-37.598,0.000
1728626760.420,-19.531,-43.457,-33.203,-23.926,0.000
1728626760.424,8.789,-36.133,-17.578,-15.625,0.000
1728626760.428,-11.719,-38.574,-20.020,-11.719,0.000
1728626760.432,-44.434,-43.945,-34.180,-18.066,0.000
1728626760.436,-55.176,-58.105,-35.156,-24.902,0.000
1728626760.440,-29.297,-47.852,-17.090,-17.578,0.000
1728626760.444,-2.930,-28.809,-18.066,-14.648,0.000
1728626760.448,-14.648,-39.551,-43.457,-15.625,0.000
1728626760.452,-49.805,-50.293,-48.340,-16.602,0.000
1728626760.456,-65.430,-44.922,-40.039,-34.180,0.000
1728626760.460,-37.598,-38.574,-28.809,-29.297,0.000
1728626760.463,-9.277,-26.855,-22.949,-10.742,0.000
1728626760.467,-7.324,-19.043,-29.297,-25.391,0.000
1728626760.471,-41.016,-35.156,-41.016,-36.133,0.000
1728626760.475,-64.453,-48.340,-44.434,-39.551,0.000
1728626760.479,-31.250,-41.504,-35.156,-26.367,0.000
1728626760.483,-1.465,-36.133,-32.715,-20.508,0.000
1728626760.487,-6.836,-31.250,-40.039,-33.691,0.000
1728626760.491,-33.203,-37.598,-61.523,-30.762,0.000
1728626760.495,-59.570,-44.922,-71.289,-39.062,0.000
1728626760.499,-45.410,-30.273,-52.734,-45.898,0.000
1728626760.503,-14.648,-15.137,-38.086,-38.086,0.000
1728626760.506,-8.301,-22.949,-40.039,-30.762,0.000
1728626760.510,-36.133,-31.738,-45.410,-31.250,0.000
1728626760.514,-69.336,-33.691,-46.387,-40.527,0.000
1728626760.518,-56.641,-31.738,-39.062,-41.992,0.000
1728626760.522,-20.996,-27.344,-39.062,-41.016,0.000
1728626760.526,-9.766,-31.738,-49.805,-42.969,0.000
1728626760.530,-41.016,-36.621,-51.270,-48.828,0.000
1728626760.534,-73.730,-45.898,-53.223,-54.199,0.000
1728626760.538,-46.387,-45.898,-44.922,-39.551,0.000
1728626760.542,-7.324,-34.180,-34.180,-24.902,0.000
1728626760.546,-1.953,-29.297,-29.785,-31.738,0.000
1728626760.549,-30.273,-50.781,-33.691,-25.391,0.000
1728626760.553,-70.312,-63.965,-46.875,-29.297,0.000
1728626760.557,-69.824,-52.734,-51.270,-42.969,0.000
1728626760.561,-37.598,-37.109,-40.527,-38.086,0.000
1728626760.565,-21.484,-29.785,-46.387,-31.738,0.000
1728626760.569,-38.574,-35.156,-57.617,-40.039,0.000
1728626760.573,-63.477,-44.434,-60.059,-53.223,0.000
1728626760.577,-60.059,-40.039,-49.805,-49.805,0.000
1728626760.581,-17.090,-29.297,-32.227,-36.621,0.000
1728626760.585,3.906,-39.551,-32.715,-18.066,0.000
1728626760.589,-22.949,-44.434,-34.668,-15.137,0.000
1728626760.592,-50.293,-35.156,-34.180,-27.832,0.000
1728626760.596,-41.992,-25.879,-29.785,-20.020,0.000
1728626760.600,-5.859,-22.461,-13.672,-5.859,0.000
1728626760.604,21.484,-22.461,-8.301,-4.395,0.000
1728626760.608,3.906,-24.902,-18.555,-11.230,0.000
1728626760.612,-41.016,-41.992,-35.645,-21.484,0.000
1728626760.616,-47.363,-55.664,-41.504,-19.531,0.000
1728626760.620,-16.113,-40.527,-27.832,-9.766,0.000
1728626760.624,0.488,-25.879,-25.391,-19.043,0.000
1728626760.628,-9.277,-33.203,-39.062,-26.855,0.000
1728626760.632,-44.922,-51.270,-49.316,-26.855,0.000
1728626760.635,-73.242,-50.293,-51.758,-46.875,0.000
1728626760.639,-50.293,-33.203,-44.434,-56.641,0.000
1728626760.643,-15.625,-16.602,-32.715,-39.551,0.000
1728626760.647,-17.578,-20.508,-36.133,-37.109,0.000
1728626760.651,-47.363,-34.668,-44.922,-49.805,0.000
1728626760.655,-61.523,-41.016,-52.246,-54.199,0.000
1728626760.659,-43.945,-34.180,-46.875,-45.410,0.000
1728626760.663,-15.137,-25.391,-40.039,-33.691,0.000
1728626760.667,-13.184,-33.691,-43.457,-32.715,0.000
1728626760.671,-43.457,-46.875,-55.664,-44.434,0.000
1728626760.674,-67.383,-57.617,-65.430,-47.363,0.000
1728626760.678,-52.734,-46.387,-50.781,-45.410,0.000
1728626760.682,-20.508,-33.691,-33.203,-37.598,0.000
1728626760.686,-15.625,-47.852,-34.668,-33.203,0.000
1728626760.690,-54.199,-63.477,-46.387,-41.016,0.000
1728626760.694,-83.984,-69.824,-54.199,-46.387,0.000
1728626760.698,-75.684,-55.664,-42.969,-48.828,0.000
1728626760.702,-40.527,-44.434,-25.391,-33.203,0.000
1728626760.706,-18.555,-54.199,-21.973,-31.738,0.000
1728626760.710,-43.457,-65.918,-30.762,-36.621,0.000
1728626760.714,-76.172,-76.660,-38.574,-38.086,0.000
1728626760.717,-62.988,-65.918,-29.297,-34.180,0.000
1728626760.721,-15.137,-42.480,-17.578,-15.625,0.000
1728626760.725,4.395,-30.273,-11.230,-10.254,0.000
1728626760.729,-14.160,-34.180,-16.602,-13.184,0.000
1728626760.733,-33.691,-43.945,-31.738,-16.113,0.000
1728626760.737,-30.273,-38.086,-25.391,-23.438,0.000
1728626760.741,-0.977,-29.297,-6.836,-9.766,0.000
1728626760.745,29.297,-23.438,-9.766,-5.371,0.000
1728626760.749,13.672,-31.738,-26.367,-12.207,0.000
1728626760.753,-41.016,-50.293,-39.062,-18.066,0.000
1728626760.757,-47.852,-49.805,-33.691,-23.926,0.000
1728626760.760,-4.395,-37.109,-20.996,-15.625,0.000
1728626760.764,16.602,-26.367,-23.438,-5.859,0.000
1728626760.768,-3.906,-25.879,-30.762,-7.812,0.000
1728626760.772,-47.852,-36.133,-43.457,-31.738,0.000
1728626760.776,-64.453,-41.504,-53.223,-40.527,0.000
1728626760.780,-27.832,-35.156,-43.945,-34.180,0.000
1728626760.784,6.836,-31.738,-39.062,-31.738,0.000
1728626760.788,-3.418,-28.809,-46.387,-30.762,0.000
1728626760.792,-31.738,-25.879,-56.641,-38.574,0.000
1728626760.796,-54.199,-25.879,-56.641,-41.992,0.000
1728626760.799,-43.945,-20.020,-38.086,-33.203,0.000
1728626760.803,-10.742,-15.625,-29.785,-35.645,0.000
1728626760.807,-9.766,-27.344,-45.410,-38.086,0.000
1728626760.811,-53.711,-48.340,-63.965,-39.551,0.000
1728626760.815,-77.637,-50.293,-63.965,-52.246,0.000
1728626760.819,-47.363,-46.387,-48.828,-50.781,0.000
1728626760.823,-19.043,-52.734,-35.645,-34.668,0.000
1728626760.827,-25.391,-50.293,-38.574,-34.668,0.000
1728626760.831,-56.152,-50.781,-45.410,-38.574,0.000
1728626760.835,-72.754,-53.223,-44.434,-38.574,0.000
1728626760.839,-45.898,-50.293,-32.227,-34.180,0.000
1728626760.842,2.441,-34.668,-12.695,-17.578,0.000
1728626760.846,10.254,-20.996,-13.672,-5.859,0.000
1728626760.850,-29.785,-34.668,-32.715,-14.160,0.000
1728626760.854,-61.035,-51.270,-38.086,-17.578,0.000
1728626760.858,-49.805,-41.504,-22.949,-12.207,0.000
1728626760.862,-16.113,-22.461,-12.695,-25.391,0.000
1728626760.866,0.977,-17.578,-24.414,-36.133,0.000
1728626760.870,-24.414,-26.367,-38.086,-33.203,0.000
1728626760.874,-62.012,-38.086,-43.457,-39.551,0.000
1728626760.878,-55.176,-33.691,-33.691,-48.340,0.000
1728626760.882,-16.602,-19.531,-17.578,-40.039,0.000
1728626760.885,2.441,-13.672,-7.812,-21.484,0.000
1728626760.889,-29.297,-17.578,-28.320,-28.320,0.000
1728626760.893,-85.449,-23.438,-55.176,-64.941,0.000
1728626760.897,-89.844,-24.902,-41.992,-71.289,0.000
1728626760.901,-54.199,-18.555,-24.902,-59.082,0.000
1728626760.905,-49.805,-15.625,-27.832,-69.824,0.000
1728626760.909,-72.754,-20.996,-34.180,-86.914,0.000
1728626760.913,-96.680,-27.344,-44.434,-96.191,0.000
1728626760.917,-115.723,-34.668,-54.688,-104.980,0.000
1728626760.921,-104.980,-34.668,-40.039,-129.883,0.000
1728626760.925,-78.613,-32.715,-43.457,-137.207,0.000
1728626760.928,-103.516,-30.273,-58.594,-137.695,0.000
1728626760.932,-157.715,-39.062,-62.988,-166.504,0.000
1728626760.936,-177.246,-44.922,-68.848,-187.500,0.000
1728626760.940,-159.180,-40.527,-54.199,-179.199,0.000
1728626760.944,-147.461,-41.504,-46.387,-178.223,0.000
1728626760.948,-169.434,-53.223,-57.129,-191.406,0.000
1728626760.952,-217.773,-69.336,-58.594,-200.684,0.000
1728626760.956,-231.445,-74.219,-49.805,-200.684,0.000
1728626760.960,-199.707,-85.449,-49.316,-192.871,0.000
1728626760.964,-178.223,-92.285,-55.176,-189.941,0.000
1728626760.968,-178.711,-97.656,-57.617,-190.430,0.000
1728626760.971,-191.406,-117.676,-70.312,-188.477,0.000
1728626760.975,-199.219,-128.418,-68.359,-198.730,0.000
1728626760.979,-178.711,-120.117,-47.852,-186.035,0.000
1728626760.983,-128.906,-116.699,-44.922,-162.598,0.000
1728626760.987,-117.188,-112.305,-49.805,-150.879,0.000
1728626760.991,-149.902,-118.164,-53.711,-139.648,0.000
1728626760.995,-158.691,-129.883,-57.617,-139.160,0.000
1728626760.999,-126.953,-122.559,-49.805,-135.742,0.000
1728626761.003,-75.684,-108.887,-47.363,-108.887,0.000
1728626761.007,-49.316,-104.980,-68.359,-93.750,0.000
1728626761.010,-86.426,-102.539,-77.637,-107.910,0.000
1728626761.014,-117.676,-106.934,-71.777,-95.703,0.000
1728626761.018,-78.125,-101.562,-59.570,-63.477,0.000
1728626761.022,-36.133,-73.730,-43.457,-45.410,0.000
1728626761.026,-23.926,-58.105,-46.387,-43.945,0.000
1728626761.030,-38.574,-76.172,-62.500,-38.574,0.000
1728626761.034,-64.941,-91.309,-71.777,-31.738,0.000
1728626761.038,-49.805,-83.984,-56.152,-27.344,0.000
1728626761.042,2.441,-64.453,-38.086,-4.883,0.000
1728626761.046,15.137,-42.969,-40.527,12.695,0.000
1728626761.050,-13.184,-33.691,-47.363,12.695,0.000
1728626761.053,-35.645,-24.902,-43.457,17.090,0.000
1728626761.057,-23.926,-14.648,-26.855,22.949,0.000
1728626761.061,17.578,-5.371,-21.484,21.484,0.000
1728626761.065,37.109,-4.883,-28.809,29.785,0.000
1728626761.069,13.672,-1.465,-34.180,26.367,0.000
1728626761.073,-18.555,-10.742,-45.898,15.625,0.000
1728626761.077,-5.371,-17.578,-45.898,18.555,0.000
1728626761.081,37.109,0.488,-27.832,34.668,0.000
1728626761.085,53.223,-3.418,-24.902,42.969,0.000
1728626761.089,29.297,-18.066,-36.133,31.250,0.000
1728626761.093,14.648,-16.113,-42.480,27.344,0.000
1728626761.096,24.414,-15.625,-39.551,34.668,0.000
1728626761.100,31.738,-5.859,-23.438,37.598,0.000
1728626761.104,59.082,1.953,-20.020,34.668,0.000
1728626761.108,54.688,-14.648,-36.133,34.668,0.000
1728626761.112,17.578,-25.391,-49.805,34.180,0.000
1728626761.116,16.602,-18.066,-43.945,33.203,0.000
1728626761.120,48.828,-10.742,-31.738,39.551,0.000
1728626761.124,68.359,-9.277,-30.762,42.480,0.000
1728626761.128,57.617,-12.695,-35.645,46.875,0.000
1728626761.132,24.902,-20.996,-47.363,46.387,0.000
1728626761.136,12.695,-21.484,-45.898,36.133,0.000
1728626761.139,44.434,-12.695,-29.785,37.598,0.000
1728626761.143,66.895,-4.883,-25.391,36.133,0.000
1728626761.147,55.664,-3.906,-26.367,41.992,0.000
1728626761.151,20.020,-22.949,-34.668,44.922,0.000
1728626761.155,3.906,-29.297,-38.574,46.875,0.000
1728626761.159,25.879,-2.930,-20.508,53.711,0.000
1728626761.163,58.594,4.883,-9.766,47.852,0.000
1728626761.167,64.453,-12.695,-17.090,56.152,0.000
1728626761.171,24.902,-15.137,-26.855,51.270,0.000
1728626761.175,-6.348,-15.137,-31.250,20.508,0.000
1728626761.179,8.301,-18.555,-17.578,23.926,0.000
1728626761.182,51.270,-6.836,-0.977,41.016,0.000
1728626761.186,53.223,-9.766,-9.766,31.738,0.000
1728626761.190,8.789,-21.973,-18.555,14.648,0.000
1728626761.194,-15.625,-28.809,-20.508,2.441,0.000
1728626761.198,-0.977,-23.438,-19.531,-0.488,0.000
1728626761.202,24.902,-12.695,-16.602,2.441,0.000
1728626761.206,24.414,-13.672,-18.555,-0.488,0.000
1728626761.210,-13.672,-27.344,-32.227,-11.719,0.000
1728626761.214,-36.133,-41.016,-45.898,-12.207,0.000
1728626761.218,-18.555,-32.715,-30.762,-1.953,0.000
1728626761.221,5.371,-15.625,-17.578,-4.883,0.000
1728626761.225,15.137,-14.648,-23.926,-2.930,0.000
1728626761.229,-4.395,-23.926,-31.738,7.324,0.000
1728626761.233,-35.156,-32.715,-38.574,1.465,0.000
1728626761.237,-37.598,-33.203,-34.180,-5.371,0.000
1728626761.241,1.953,-35.645,-27.344,0.488,0.000
1728626761.245,28.320,-38.574,-31.738,4.395,0.000
1728626761.249,0.977,-37.109,-40.527,1.465,0.000
1728626761.253,-38.086,-38.574,-51.758,-15.625,0.000
1728626761.257,-38.086,-37.598,-52.246,-17.578,0.000
1728626761.261,2.930,-31.250,-38.574,-8.789,0.000
1728626761.264,16.113,-15.625,-32.715,-11.719,0.000
1728626761.268,-9.277,-10.742,-33.203,-16.113,0.000
1728626761.272,-39.062,-21.484,-37.109,-18.066,0.000
1728626761.276,-42.480,-28.809,-35.156,-15.625,0.000
1728626761.280,-8.789,-20.508,-20.996,-22.461,0.000
1728626761.284,5.371,-14.160,-18.066,-26.855,0.000
1728626761.288,-18.555,-30.762,-28.809,-19.043,0.000
1728626761.292,-52.734,-39.551,-39.062,-19.531,0.000
1728626761.296,-62.988,-25.391,-28.809,-33.691,0.000
1728626761.300,-33.691,-14.648,-24.414,-16.602,0.000
1728626761.304,6.836,-8.301,-24.414,-2.930,0.000
1728626761.307,-1.953,-10.742,-23.926,-10.742,0.000
1728626761.311,-42.969,-20.996,-31.738,-15.137,0.000
1728626761.315,-49.805,-29.785,-32.715,-18.555,0.000
1728626761.319,-13.672,-29.297,-20.996,-15.625,0.000
1728626761.323,18.066,-25.879,-14.648,-12.695,0.000
1728626761.327,3.418,-25.879,-28.809,-15.625,0.000
1728626761.331,-42.480,-28.809,-47.852,-32.715,0.000
1728626761.335,-58.594,-40.527,-53.711,-47.363,0.000
1728626761.339,-27.832,-38.086,-39.551,-41.016,0.000
1728626761.343,-5.859,-21.973,-21.484,-28.320,0.000
1728626761.346,-13.184,-26.367,-26.855,-24.414,0.000
1728626761.350,-47.363,-44.434,-43.945,-33.691,0.000
1728626761.354,-74.707,-47.852,-47.852,-45.410,0.000
1728626761.358,-50.293,-37.598,-33.691,-42.480,0.000
1728626761.362,-5.371,-29.297,-31.250,-32.715,0.000
1728626761.366,-6.348,-32.715,-46.387,-29.785,0.000
1728626761.370,-56.641,-45.410,-56.152,-32.715,0.000
1728626761.374,-84.473,-49.316,-52.246,-47.852,0.000
1728626761.378,-64.453,-46.387,-40.527,-45.410,0.000
1728626761.382,-20.020,-46.875,-36.133,-20.020,0.000
1728626761.386,-9.277,-40.039,-27.832,-22.461,0.000
1728626761.389,-40.039,-41.016,-27.832,-33.691,0.000
1728626761.393,-60.547,-42.969,-37.598,-32.715,0.000
1728626761.397,-49.316,-36.133,-29.785,-41.016,0.000
1728626761.401,-17.090,-31.738,-20.996,-46.387,0.000
1728626761.405,-1.465,-33.203,-31.250,-36.621,0.000
1728626761.409,-28.809,-40.039,-39.551,-26.855,0.000
1728626761.413,-62.012,-53.711,-44.434,-39.551,0.000
1728626761.417,-48.828,-49.316,-43.457,-42.480,0.000
1728626761.421,-15.625,-31.738,-28.320,-19.531,0.000
1728626761.425,-2.441,-35.156,-31.250,0.488,0.000
1728626761.429,-32.715,-49.805,-40.527,-13.672,0.000
1728626761.432,-67.383,-54.688,-39.551,-37.109,0.000
1728626761.436,-52.734,-36.621,-36.621,-30.762,0.000
1728626761.440,-24.902,-20.996,-30.273,-19.043,0.000
1728626761.444,-14.160,-31.250,-33.203,-25.391,0.000
1728626761.448,-28.809,-36.133,-40.039,-32.227,0.000
1728626761.452,-60.547,-44.922,-53.223,-34.668,0.000
1728626761.456,-61.035,-44.434,-47.852,-41.992,0.000
1728626761.460,-25.879,-31.738,-27.344,-40.527,0.000
1728626761.464,-0.488,-32.227,-25.879,-29.785,0.000
1728626761.468,-21.973,-43.945,-37.598,-23.438,0.000
1728626761.472,-57.617,-49.316,-49.805,-29.297,0.000
1728626761.475,-59.570,-37.109,-45.410,-47.363,0.000
1728626761.479,-29.785,-31.738,-29.785,-43.457,0.000
1728626761.483,-4.883,-32.227,-31.738,-26.367,0.000
1728626761.487,-24.902,-36.133,-47.852,-28.320,0.000
1728626761.491,-69.336,-50.293,-50.781,-42.969,0.000
1728626761.495,-72.754,-53.711,-49.316,-49.316,0.000
1728626761.499,-32.715,-45.898,-35.156,-41.992,0.000
1728626761.503,0.488,-30.273,-18.066,-34.668,0.000
1728626761.507,-5.859,-28.320,-24.902,-32.227,0.000
1728626761.511,-41.016,-49.805,-47.852,-34.668,0.000
1728626761.514,-52.246,-55.176,-58.105,-32.715,0.000
1728626761.518,-27.832,-39.551,-35.645,-23.926,0.000
1728626761.522,-8.789,-36.133,-15.625,-18.066,0.000
1728626761.526,-16.113,-71.289,-30.762,-11.230,0.000
1728626761.530,-46.387,-108.887,-42.969,-23.438,0.000
1728626761.534,-56.152,-113.281,-42.969,-40.039,0.000
1728626761.538,-25.391,-109.375,-37.598,-34.668,0.000
1728626761.542,3.906,-108.887,-30.762,-20.020,0.000
1728626761.546,-2.441,-103.027,-31.250,-19.531,0.000
1728626761.550,-35.156,-105.957,-42.969,-31.738,0.000
1728626761.554,-52.246,-116.699,-41.992,-39.062,0.000
1728626761.557,-30.273,-111.816,-27.344,-27.832,0.000
1728626761.561,11.719,-99.609,-22.949,1.465,0.000
1728626761.565,15.137,-92.285,-21.973,0.488,0.000
1728626761.569,-28.809,-91.309,-36.621,-21.973,0.000
1728626761.573,-55.664,-100.586,-50.293,-35.645,0.000
1728626761.577,-44.922,-102.051,-37.109,-41.016,0.000
1728626761.581,-12.695,-91.309,-24.414,-31.250,0.000
1728626761.585,-0.488,-83.496,-20.508,-24.414,0.000
1728626761.589,-20.508,-83.984,-32.227,-24.414,0.000
1728626761.593,-43.457,-87.891,-47.852,-30.273,0.000
1728626761.597,-29.785,-78.613,-38.086,-31.250,0.000
1728626761.600,1.953,-70.801,-29.297,-20.508,0.000
1728626761.604,14.160,-82.031,-37.598,-9.766,0.000
1728626761.608,-3.906,-87.402,-40.039,-16.113,0.000
1728626761.612,-47.852,-59.082,-47.852,-38.574,0.000
1728626761.616,-46.387,-20.508,-52.734,-37.109,0.000
1728626761.620,0.488,9.766,-35.645,-25.391,0.000
1728626761.624,11.719,20.996,-36.133,-20.508,0.000
1728626761.628,-16.602,12.695,-48.828,-18.555,0.000
1728626761.632,-47.852,-0.977,-52.246,-30.273,0.000
1728626761.636,-51.270,0.977,-41.992,-33.203,0.000
1728626761.640,-20.508,13.184,-27.832,-17.578,0.000
1728626761.643,-7.324,15.625,-23.438,-12.207,0.000
1728626761.647,-25.391,6.836,-35.645,-11.719,0.000
1728626761.651,-48.828,-11.230,-43.457,-12.207,0.000
1728626761.655,-59.570,-20.996,-32.227,-16.602,0.000
1728626761.659,-28.809,-7.812,-22.949,-5.371,0.000
1728626761.663,4.883,5.859,-25.879,-2.441,0.000
1728626761.667,-10.742,2.441,-35.645,-6.836,0.000
1728626761.671,-49.805,4.395,-41.016,-23.438,0.000
1728626761.675,-53.711,6.836,-42.480,-37.109,0.000
1728626761.679,0.000,10.254,-31.738,-32.227,0.000
1728626761.683,0.000,14.648,-18.555,-20.996,0.000
1728626761.686,0.000,9.277,-20.996,-12.695,0.000
1728626761.690,0.000,-6.836,-34.668,-23.926,0.000
1728626761.694,0.000,-24.414,-34.668,-31.250,0.000
1728626761.698,0.000,-17.090,-28.809,-19.531,0.000
1728626761.702,0.000,4.883,-18.555,-8.301,0.000
1728626761.706,0.000,3.906,-24.902,-9.766,0.000
1728626761.710,0.000,-22.949,-54.199,-18.555,0.000
1728626761.714,0.000,-25.879,-47.852,-33.691,0.000
1728626761.718,0.000,-10.742,-20.996,-31.738,0.000
1728626761.722,0.000,-3.906,-18.555,-18.555,0.000
1728626761.725,-0.488,-8.301,-30.762,-26.855,0.000
1728626761.729,-39.551,-21.484,-42.969,-31.738,0.000
1728626761.733,-61.523,-24.414,-43.945,-32.227,0.000
1728626761.737,-42.480,-22.461,-42.969,-31.738,0.000
1728626761.741,-12.695,-19.043,-40.527,-23.438,0.000
1728626761.745,1.465,-17.578,-37.109,-18.555,0.000
1728626761.749,-34.180,-30.762,-49.316,-29.785,0.000
1728626761.753,-68.359,-41.504,-55.664,-35.156,0.000
1728626761.757,-51.758,-37.598,-45.410,-34.668,0.000
1728626761.761,-16.602,-26.855,-24.902,-35.156,0.000
1728626761.765,-5.371,-31.250,-25.391,-31.738,0.000
1728626761.768,-37.598,-44.922,-44.434,-29.785,0.000
1728626761.772,0.000,-45.410,-46.387,-35.156,0.000
1728626761.776,0.000,-33.691,-31.738,-35.645,0.000
1728626761.780,0.000,-24.902,-17.090,-16.113,0.000
1728626761.784,0.000,-19.531,-22.949,-14.648,0.000
1728626761.788,0.000,-29.297,-40.527,-24.902,0.000
1728626761.792,0.000,-37.598,-48.340,-21.484,0.000
1728626761.796,0.000,-23.926,-38.574,-24.414,0.000
1728626761.800,0.000,-17.090,-25.879,-27.344,0.000
1728626761.804,0.000,-17.090,-28.320,-31.250,0.000
1728626761.808,0.000,-12.207,-31.738,-36.133,0.000
1728626761.811,0.000,-26.367,-37.109,-43.457,0.000
1728626761.815,0.000,-29.785,-32.715,-46.875,0.000
1728626761.819,-26.855,-13.672,-13.672,-29.785,0.000
1728626761.823,0.977,-14.160,-9.766,-28.320,0.000
1728626761.827,-18.066,-24.414,-25.879,-35.156,0.000
1728626761.831,-50.781,-34.180,-37.598,-28.320,0.000
1728626761.835,-60.059,-31.738,-35.156,-29.785,0.000
1728626761.839,-27.344,-27.832,-20.996,-25.879,0.000
1728626761.843,7.324,-26.855,-22.949,-18.555,0.000
1728626761.847,-11.230,-31.250,-35.645,-13.184,0.000
1728626761.850,-54.199,-35.645,-40.039,-23.926,0.000
1728626761.854,-70.801,-35.645,-39.062,-47.363,0.000
1728626761.858,-34.180,-32.715,-30.273,-31.250,0.000
1728626761.862,0.977,-22.461,-24.414,-13.184,0.000
1728626761.866,0.000,-24.414,-23.926,-24.414,0.000
1728626761.870,0.000,-40.039,-33.203,-26.855,0.000
1728626761.874,0.000,-52.246,-45.410,-37.598,0.000
1728626761.878,0.000,-45.898,-35.156,-36.621,0.000
1728626761.882,0.000,-36.621,-22.949,-22.949,0.000
1728626761.886,0.000,-39.551,-27.344,-24.902,0.000
1728626761.890,0.000,-55.664,-48.828,-31.250,0.000
1728626761.893,0.000,-61.523,-49.805,-52.734,0.000
1728626761.897,0.000,-35.156,-19.043,-52.246,0.000
1728626761.901,0.000,-23.926,-13.672,-31.250,0.000
1728626761.905,0.000,-28.320,-21.973,-27.344,0.000
1728626761.909,0.000,-39.062,-32.227,-33.691,0.000
1728626761.913,-76.660,-43.945,-39.551,-43.945,0.000
1728626761.917,-63.477,-40.039,-36.621,-38.574,0.000
1728626761.921,-15.137,-33.691,-29.785,-28.809,0.000
1728626761.925,5.859,-30.762,-29.785,-25.879,0.000
1728626761.929,-31.250,-36.133,-35.645,-17.578,0.000
1728626761.933,-64.941,-43.945,-47.363,-28.809,0.000
1728626761.936,-50.781,-42.480,-43.457,-38.574,0.000
1728626761.940,-18.555,-30.273,-23.926,-36.621,0.000
1728626761.944,-6.836,-26.367,-25.391,-29.785,0.000
1728626761.948,-24.414,-34.180,-34.668,-25.879,0.000
1728626761.952,-57.617,-41.016,-44.922,-35.156,0.000
1728626761.956,-57.129,-37.598,-38.086,-39.062,0.000
1728626761.960,-20.020,-25.879,-25.879,-27.832,0.000
1728626761.964,-4.395,-22.949,-28.320,-18.555,0.000
1728626761.968,-22.949,-25.391,-35.156,-23.926,0.000
1728626761.972,-54.199,-37.109,-47.363,-35.645,0.000
1728626761.975,-54.199,-47.852,-43.945,-44.434,0.000
1728626761.979,-11.230,-42.969,-33.203,-35.156,0.000
1728626761.983,11.230,-28.809,-26.367,-24.414,0.000
1728626761.987,-13.184,-22.949,-24.414,-30.273,0.000
1728626761.991,-48.340,-36.621,-32.715,-41.016,0.000
1728626761.995,-56.152,-38.086,-39.551,-41.016,0.000
1728626761.999,-17.578,-20.996,-25.879,-31.738,0.000
1728626762.003,4.883,-13.672,-20.996,-32.715,0.000
1728626762.007,-13.184,-25.391,-37.598,-25.391,0.000
1728626762.011,-45.410,-37.109,-48.340,-24.902,0.000
1728626762.015,-62.988,-33.691,-39.062,-36.621,0.000
1728626762.018,-25.879,-22.461,-19.043,-30.273,0.000
1728626762.022,7.324,-16.602,-16.602,-17.578,0.000
1728626762.026,-12.207,-26.855,-29.785,-21.484,0.000
1728626762.030,-52.734,-32.715,-42.480,-38.574,0.000
1728626762.034,-69.336,-23.438,-38.574,-45.898,0.000
1728626762.038,-32.715,-17.090,-25.879,-30.273,0.000
1728626762.042,0.000,-16.602,-20.508,-16.113,0.000
1728626762.046,-17.578,-19.043,-24.902,-26.367,0.000
1728626762.050,-40.039,-41.504,-41.504,-32.715,0.000
1728626762.054,-44.434,-53.711,-44.434,-22.949,0.000
1728626762.058,-38.574,-37.598,-28.320,-21.973,0.000
1728626762.061,-18.066,-19.531,-14.648,-24.414,0.000
1728626762.065,-9.277,-23.926,-21.484,-22.461,0.000
1728626762.069,-41.992,-43.945,-40.039,-29.785,0.000
1728626762.073,-80.566,-56.152,-46.387,-41.992,0.000
1728626762.077,-53.223,-45.898,-29.785,-39.062,0.000
1728626762.081,-4.883,-28.320,-15.625,-18.555,0.000
1728626762.085,-1.953,-34.180,-25.879,-9.277,0.000
1728626762.089,-46.387,-45.410,-38.574,-27.344,0.000
1728626762.093,-84.961,-46.875,-47.363,-47.363,0.000
1728626762.097,-51.270,-43.457,-38.574,-44.434,0.000
1728626762.101,-9.277,-35.645,-21.973,-34.180,0.000
1728626762.104,-12.695,-37.598,-22.949,-34.180,0.000
1728626762.108,-43.457,-48.340,-41.504,-42.480,0.000
1728626762.112,-70.801,-61.523,-54.199,-40.039,0.000
1728626762.116,-62.500,-55.176,-39.551,-41.504,0.000
1728626762.120,-20.996,-40.527,-24.902,-43.945,0.000
1728626762.124,-7.324,-36.133,-31.250,-33.691,0.000
1728626762.128,-37.109,-48.340,-52.734,-36.133,0.000
1728626762.132,-62.988,-66.406,-61.523,-47.852,0.000
1728626762.136,-55.664,-56.152,-45.898,-44.922,0.000
1728626762.140,-13.672,-36.621,-35.156,-37.109,0.000
1728626762.143,6.348,-31.250,-38.086,-35.156,0.000
1728626762.147,-11.719,-28.320,-42.969,-29.297,0.000
1728626762.151,-47.363,-27.832,-54.688,-41.016,0.000
1728626762.155,-53.223,-34.180,-54.688,-46.387,0.000
1728626762.159,-15.625,-33.203,-42.969,-34.180,0.000
1728626762.163,4.883,-28.320,-42.969,-30.762,0.000
1728626762.167,-21.484,-37.109,-48.340,-25.879,0.000
1728626762.171,-51.758,-47.852,-57.129,-29.785,0.000
1728626762.175,-48.340,-53.223,-58.594,-30.762,0.000
1728626762.179,-23.438,-39.551,-38.574,-31.250,0.000
1728626762.183,-2.441,-27.832,-20.508,-21.973,0.000
1728626762.186,-9.277,-43.945,-33.691,-13.184,0.000
1728626762.190,-42.969,-69.824,-49.316,-32.227,0.000
1728626762.194,-60.547,-87.891,-41.992,-38.574,0.000
1728626762.198,-27.832,-89.355,-35.645,-22.949,0.000
1728626762.202,3.906,-92.773,-34.668,-16.602,0.000
1728626762.206,-11.230,-100.586,-40.039,-22.949,0.000
1728626762.210,-53.711,-105.957,-48.828,-38.086,0.000
1728626762.214,-68.359,-112.305,-44.922,-46.387,0.000
1728626762.218,-40.039,-109.375,-33.203,-39.551,0.000
1728626762.222,-19.531,-106.445,-33.203,-40.039,0.000
1728626762.226,-30.762,-101.562,-36.133,-42.969,0.000
1728626762.229,-64.941,-106.445,-46.387,-49.316,0.000
1728626762.233,-91.797,-110.352,-57.617,-58.594,0.000
1728626762.237,-65.918,-97.168,-49.805,-57.129,0.000
1728626762.241,-17.578,-86.914,-39.062,-43.457,0.000
1728626762.245,-17.578,-90.820,-37.598,-36.621,0.000
1728626762.249,-50.293,-99.121,-47.852,-47.852,0.000
1728626762.253,-63.965,-97.168,-47.852,-53.711,0.000
1728626762.257,-45.410,-77.637,-34.180,-37.598,0.000
1728626762.261,-9.766,-62.500,-34.668,-24.414,0.000
1728626762.265,-4.883,-70.801,-50.781,-28.809,0.000
1728626762.268,-38.574,-80.566,-65.918,-40.527,0.000
1728626762.272,-67.871,-86.914,-62.500,-42.969,0.000
1728626762.276,-48.828,-91.797,-52.734,-29.785,0.000
1728626762.280,-10.742,-76.660,-40.527,-17.578,0.000
1728626762.284,-1.465,-64.453,-38.086,-21.484,0.000
1728626762.288,-26.367,-62.012,-44.922,-25.391,0.000
1728626762.292,-52.734,-68.359,-51.758,-26.855,0.000
1728626762.296,-43.945,-66.406,-43.945,-32.715,0.000
1728626762.300,-8.301,-55.664,-36.133,-29.785,0.000
1728626762.304,-1.953,-54.688,-45.410,-31.738,0.000
1728626762.308,-36.133,-60.059,-55.176,-35.645,0.000
1728626762.311,-64.941,-69.336,-63.965,-32.715,0.000
1728626762.315,-61.523,-61.035,-51.270,-36.133,0.000
1728626762.319,-17.578,-42.969,-30.762,-26.367,0.000
1728626762.323,9.277,-40.039,-29.297,-9.766,0.000
1728626762.327,-16.113,-47.852,-38.086,-11.230,0.000
1728626762.331,-51.270,-55.176,-47.852,-24.414,0.000
1728626762.335,0.000,-51.270,-37.109,-29.785,0.000
1728626762.339,0.000,-46.387,-22.949,-17.090,0.000
1728626762.343,0.000,-38.574,-21.973,-10.254,0.000
1728626762.347,0.000,-37.598,-23.438,-17.090,0.000
1728626762.351,0.000,-39.062,-36.621,-25.391,0.000
1728626762.354,0.000,-13.184,-36.621,-20.996,0.000
1728626762.358,0.000,12.207,-20.508,-23.438,0.000
1728626762.362,0.000,7.324,-20.996,-34.180,0.000
1728626762.366,0.000,-3.906,-41.992,-38.574,0.000
1728626762.370,0.000,5.371,-67.383,-45.410,0.000
1728626762.374,0.000,20.508,-66.406,-48.340,0.000
1728626762.378,0.000,45.410,-43.945,-42.969,0.000
1728626762.382,1.465,53.711,-32.715,-31.738,0.000
1728626762.386,-10.742,34.668,-35.156,-23.926,0.000
1728626762.390,-36.621,25.391,-43.945,-34.668,0.000
1728626762.394,-62.988,22.949,-49.805,-42.480,0.000
1728626762.397,-44.922,28.809,-35.156,-37.109,0.000
1728626762.401,-9.766,31.738,-26.855,-22.461,0.000
1728626762.405,-15.625,23.438,-32.227,-17.090,0.000
1728626762.409,-44.434,13.672,-39.062,-29.297,0.000
1728626762.413,-65.430,-3.906,-50.781,-39.062,0.000
1728626762.417,-40.039,-7.324,-51.758,-28.809,0.000
1728626762.421,-4.395,16.113,-38.086,-20.508,0.000
1728626762.425,-4.883,16.113,-36.621,-20.996,0.000
1728626762.429,-36.621,-2.441,-49.805,-23.438,0.000
1728626762.433,-66.406,-9.766,-47.363,-29.297,0.000
1728626762.437,-48.828,-2.441,-32.715,-22.949,0.000
1728626762.440,-5.371,5.371,-28.320,-17.090,0.000
1728626762.444,7.812,6.348,-33.691,-25.391,0.000
1728626762.448,-17.578,-0.488,-46.387,-32.227,0.000
1728626762.452,-48.340,-10.742,-47.363,-40.039,0.000
1728626762.456,-46.387,-9.766,-33.691,-42.480,0.000
1728626762.460,-6.836,-15.625,-33.203,-26.855,0.000
1728626762.464,1.465,-15.625,-33.691,-20.508,0.000
1728626762.468,-24.902,-4.395,-34.668,-31.738,0.000
1728626762.472,-55.176,-15.137,-55.664,-45.410,0.000
1728626762.476,0.000,-20.508,-53.711,-52.734,0.000
1728626762.480,0.000,-6.348,-37.598,-44.922,0.000
1728626762.483,0.000,0.000,-44.434,-39.551,0.000
1728626762.487,0.000,-11.230,-50.781,-40.039,0.000
1728626762.491,0.000,-25.391,-54.199,-42.480,0.000
1728626762.495,0.000,-15.137,-45.898,-34.180,0.000
1728626762.499,0.000,0.000,-32.715,-26.855,0.000
1728626762.503,0.000,-10.254,-32.227,-23.926,0.000
1728626762.507,0.000,-25.391,-44.434,-33.203,0.000
1728626762.511,0.000,-18.555,-45.898,-58.105,0.000
1728626762.515,0.000,-7.812,-36.133,-56.641,0.000
1728626762.519,0.000,-5.859,-27.832,-27.832,0.000
1728626762.523,1.465,-7.324,-24.902,-16.602,0.000
1728626762.526,-27.832,-7.812,-36.133,-38.574,0.000
1728626762.530,-53.223,-20.020,-52.734,-41.504,0.000
1728626762.534,-52.246,-29.297,-48.340,-37.598,0.000
1728626762.538,-40.039,-14.160,-34.668,-31.738,0.000
1728626762.542,-16.113,-8.301,-26.367,-10.254,0.000
1728626762.546,-18.555,-10.742,-32.715,-19.043,0.000
1728626762.550,-40.527,-17.090,-53.223,-30.273,0.000
1728626762.554,-50.293,-33.203,-53.711,-27.344,0.000
1728626762.558,-34.668,-25.391,-28.809,-31.250,0.000
1728626762.562,-3.418,-11.230,-18.555,-24.902,0.000
1728626762.565,-11.719,-14.648,-24.902,-20.020,0.000
1728626762.569,-52.246,-30.762,-41.992,-30.762,0.000
1728626762.573,-72.266,-33.691,-49.316,-45.898,0.000
1728626762.577,-43.457,-21.484,-36.133,-34.180,0.000
1728626762.581,-9.277,-14.160,-23.926,-11.719,0.000
1728626762.585,-19.531,-18.066,-25.391,-15.625,0.000
1728626762.589,-45.410,-42.480,-40.039,-21.484,0.000
1728626762.593,-51.270,-51.270,-39.551,-18.555,0.000
1728626762.597,-34.668,-36.133,-24.902,-14.160,0.000
1728626762.601,-15.137,-23.438,-17.090,-21.484,0.000
1728626762.605,-20.020,-25.391,-21.973,-33.203,0.000
1728626762.608,-51.758,-39.551,-40.039,-35.156,0.000
1728626762.612,-77.148,-43.457,-46.387,-40.039,0.000
1728626762.616,-57.129,-32.715,-29.785,-39.062,0.000
1728626762.620,-14.648,-27.344,-24.414,-28.320,0.000
1728626762.624,0.488,-29.785,-39.551,-22.461,0.000
1728626762.628,-29.785,-32.715,-44.922,-28.809,0.000
1728626762.632,-52.246,-43.457,-48.340,-35.645,0.000
1728626762.636,-33.691,-44.922,-47.852,-35.645,0.000
1728626762.640,-1.953,-30.273,-39.551,-16.113,0.000
1728626762.644,15.625,-20.996,-38.574,-9.766,0.000
1728626762.647,-13.672,-26.855,-45.898,-31.738,0.000
1728626762.651,-56.152,-37.598,-57.129,-39.551,0.000
1728626762.655,-44.434,-32.715,-45.898,-36.621,0.000
1728626762.659,-1.953,-20.996,-27.832,-33.203,0.000
1728626762.663,10.254,-21.484,-24.902,-20.020,0.000
1728626762.667,-8.789,-32.227,-35.156,-12.207,0.000
1728626762.671,-33.691,-38.574,-47.852,-20.508,0.000
1728626762.675,-38.574,-33.691,-38.574,-32.227,0.000
1728626762.679,-7.324,-30.273,-24.414,-28.809,0.000
1728626762.683,8.789,-28.320,-26.855,-16.602,0.000
1728626762.687,-19.043,-34.180,-40.039,-19.531,0.000
1728626762.690,-56.641,-39.062,-48.828,-36.621,0.000
1728626762.694,-57.617,-37.598,-46.875,-44.922,0.000
1728626762.698,-26.855,-31.250,-35.156,-32.227,0.000
1728626762.702,-13.672,-33.203,-29.785,-28.320,0.000
1728626762.706,-21.484,-41.992,-33.203,-26.855,0.000
1728626762.710,-45.898,-48.828,-44.922,-32.227,0.000
1728626762.714,-48.828,-46.387,-42.480,-36.133,0.000
1728626762.718,-21.973,-37.109,-31.250,-31.250,0.000
1728626762.722,-6.348,-30.762,-28.320,-20.508,0.000
1728626762.726,-19.531,-38.086,-33.691,-23.926,0.000
1728626762.729,-48.828,-48.340,-48.340,-34.668,0.000
1728626762.733,-62.500,-38.574,-46.875,-29.785,0.000
1728626762.737,-39.551,-22.949,-32.227,-27.832,0.000
1728626762.741,-7.812,-22.949,-26.855,-30.762,0.000
1728626762.745,1.465,-28.809,-39.062,-20.996,0.000
1728626762.749,-25.879,-28.809,-53.223,-26.855,0.000
1728626762.753,-60.547,-37.598,-51.270,-48.340,0.000
1728626762.757,-42.969,-35.645,-41.504,-45.410,0.000
1728626762.761,-9.277,-18.066,-34.668,-38.574,0.000
1728626762.765,-16.113,-19.531,-38.086,-34.668,0.000
1728626762.769,-40.039,-36.621,-52.734,-34.180,0.000
1728626762.772,-48.828,-42.969,-60.059,-39.062,0.000
1728626762.776,-33.203,-36.133,-49.316,-41.016,0.000
1728626762.780,-7.324,-28.320,-39.551,-33.691,0.000
1728626762.784,-1.953,-29.297,-36.621,-25.879,0.000
1728626762.788,-30.762,-46.387,-54.688,-32.227,0.000
1728626762.792,-54.199,-52.246,-65.918,-40.527,0.000
1728626762.796,-45.898,-35.156,-44.922,-45.410,0.000
1728626762.800,-11.230,-20.508,-31.738,-33.691,0.000
1728626762.804,-0.977,-23.438,-32.715,-23.926,0.000
1728626762.808,-39.062,-31.250,-45.898,-37.598,0.000
1728626762.812,-69.336,-40.039,-55.664,-51.758,0.000
1728626762.815,-56.641,-45.410,-47.363,-35.156,0.000
1728626762.819,-19.531,-37.109,-42.480,-19.043,0.000
1728626762.823,-9.277,-30.273,-43.945,-33.203,0.000
1728626762.827,-39.551,-37.109,-50.293,-41.504,0.000
1728626762.831,-67.871,-46.387,-60.547,-45.410,0.000
1728626762.835,-46.387,-45.898,-51.270,-37.598,0.000
1728626762.839,-14.160,-36.621,-30.762,-29.297,0.000
1728626762.843,-6.348,-27.832,-29.297,-32.227,0.000
1728626762.847,-19.531,-39.551,-43.945,-31.738,0.000
1728626762.851,-52.246,-49.805,-56.152,-45.898,0.000
1728626762.855,-53.223,-40.527,-47.852,-50.781,0.000
1728626762.858,-20.996,-22.949,-35.156,-41.016,0.000
1728626762.862,-8.301,-30.273,-43.457,-32.715,0.000
1728626762.866,-26.855,-44.434,-44.922,-33.691,0.000
1728626762.870,-53.711,-43.945,-40.039,-38.086,0.000
1728626762.874,-58.105,-39.062,-36.133,-30.273,0.000
1728626762.878,-21.484,-33.691,-31.250,-23.438,0.000
1728626762.882,9.277,-32.227,-26.367,-21.484,0.000
1728626762.886,-11.719,-20.508,-23.926,-28.320,0.000
1728626762.890,-49.316,-25.391,-39.062,-41.016,0.000
1728626762.894,-57.617,-41.016,-48.828,-40.527,0.000
1728626762.898,-28.320,-26.855,-37.598,-27.832,0.000
1728626762.901,-3.906,-11.719,-25.879,-21.484,0.000
1728626762.905,-6.836,-24.902,-31.250,-24.902,0.000
1728626762.909,-30.762,-51.270,-50.293,-36.621,0.000
1728626762.913,-48.340,-49.805,-46.387,-41.016,0.000
1728626762.917,-32.227,-23.926,-27.344,-36.621,0.000
1728626762.921,-1.465,-14.160,-18.066,-29.297,0.000
1728626762.925,0.977,-29.297,-26.367,-24.414,0.000
1728626762.929,-46.387,-42.969,-42.480,-38.086,0.000
1728626762.933,-77.148,-40.527,-45.410,-45.410,0.000
1728626762.937,-50.293,-44.434,-31.250,-33.203,0.000
1728626762.940,-19.043,-46.387,-20.508,-29.297,0.000
1728626762.944,-16.113,-47.852,-29.297,-30.762,0.000
1728626762.948,-47.852,-55.664,-36.621,-40.039,0.000
1728626762.952,-75.195,-70.801,-43.457,-47.363,0.000
1728626762.956,-52.734,-70.801,-27.832,-31.250,0.000
1728626762.960,-8.789,-73.242,-8.301,-15.625,0.000
1728626762.964,-2.930,-83.008,-18.555,-12.207,0.000
1728626762.968,-33.691,-93.750,-33.203,-13.184,0.000
1728626762.972,-60.059,-115.234,-39.551,-25.391,0.000
1728626762.976,-52.246,-109.863,-29.297,-36.133,0.000
1728626762.980,-21.973,-94.727,-23.438,-29.785,0.000
1728626762.983,-7.324,-103.516,-28.809,-17.090,0.000
1728626762.987,-34.668,-109.863,-42.480,-30.273,0.000
1728626762.991,-64.453,-101.074,-53.223,-46.875,0.000
1728626762.995,-53.711,-96.680,-40.039,-38.574,0.000
1728626762.999,-13.672,-87.891,-19.531,-20.996,0.000
1728626763.003,9.277,-78.613,-18.555,-26.367,0.000
1728626763.007,-23.926,-83.496,-32.227,-40.039,0.000
1728626763.011,-61.523,-95.215,-44.922,-45.898,0.000
1728626763.015,-56.641,-98.145,-49.316,-42.480,0.000
1728626763.019,-24.902,-83.984,-34.668,-41.016,0.000
1728626763.023,-10.254,-62.988,-29.297,-43.945,0.000
1728626763.026,-38.574,-74.219,-52.734,-44.922,0.000
1728626763.030,-68.359,-85.938,-58.594,-51.270,0.000
1728626763.034,-63.965,-79.102,-48.828,-50.293,0.000
1728626763.038,-30.273,-65.430,-35.645,-38.086,0.000
1728626763.042,-7.324,-65.430,-34.180,-34.668,0.000
1728626763.046,-31.738,-82.031,-51.758,-32.227,0.000
1728626763.050,-66.895,-90.820,-62.988,-41.016,0.000
1728626763.054,-65.918,-83.984,-57.617,-58.105,0.000
1728626763.058,-33.203,-69.824,-41.504,-50.293,0.000
1728626763.062,-7.324,-65.430,-41.504,-36.621,0.000
1728626763.065,-22.461,-66.406,-36.133,-36.133,0.000
1728626763.069,-60.547,-62.500,-29.297,-45.410,0.000
1728626763.073,-65.918,-58.105,-38.086,-44.434,0.000
1728626763.077,-26.855,-52.246,-28.809,-25.879,0.000
1728626763.081,2.441,-54.199,-21.484,-14.160,0.000
1728626763.085,-12.207,-64.453,-28.320,-19.531,0.000
1728626763.089,-43.945,-53.223,-44.922,-28.809,0.000
1728626763.093,-53.223,-14.648,-48.828,-36.621,0.000
1728626763.097,-22.949,24.414,-31.738,-29.297,0.000
1728626763.101,-2.441,39.551,-31.738,-25.879,0.000
1728626763.105,2.441,32.227,-40.527,-26.855,0.000
1728626763.108,-21.973,27.832,-42.969,-28.320,0.000
1728626763.112,-67.871,24.902,-45.410,-47.363,0.000
1728626763.116,-51.758,25.391,-41.504,-45.410,0.000
1728626763.120,-16.602,27.344,-39.551,-33.691,0.000
1728626763.124,-15.137,26.367,-39.551,-28.320,0.000
1728626763.128,-45.410,18.555,-47.852,-23.438,0.000
1728626763.132,-65.918,-1.953,-49.805,-32.715,0.000
1728626763.136,-42.480,4.395,-36.621,-32.715,0.000
1728626763.140,-11.230,24.902,-20.996,-18.555,0.000
1728626763.144,-7.324,18.555,-18.066,-16.113,0.000
1728626763.148,-40.039,-2.930,-42.480,-27.344,0.000
1728626763.151,-69.824,-22.949,-55.664,-34.668,0.000
1728626763.155,-52.734,-11.230,-41.016,-37.109,0.000
1728626763.159,-14.160,18.555,-22.949,-25.879,0.000
1728626763.163,-1.465,16.113,-26.367,-14.160,0.000
1728626763.167,-21.484,3.906,-40.039,-18.066,0.000
1728626763.171,-47.363,11.719,-36.621,-33.691,0.000
1728626763.175,-42.480,14.648,-30.762,-28.320,0.000
1728626763.179,-7.812,5.859,-29.297,-8.789,0.000
1728626763.183,4.395,-0.488,-22.949,-12.207,0.000
1728626763.187,-27.344,-16.113,-27.832,-34.180,0.000
1728626763.190,-65.918,-32.227,-48.828,-41.016,0.000
1728626763.194,-55.664,-26.855,-44.434,-23.926,0.000
1728626763.198,-17.090,-15.137,-28.809,-8.789,0.000
1728626763.202,10.742,-9.277,-26.367,-16.113,0.000
1728626763.206,-19.531,-14.160,-31.738,-25.879,0.000
1728626763.210,-64.941,-25.879,-50.781,-28.320,0.000
1728626763.214,-64.453,-22.949,-42.969,-28.320,0.000
1728626763.218,-34.180,-7.812,-21.484,-28.320,0.000
1728626763.222,-0.488,-8.301,-32.227,-19.531,0.000
1728626763.226,-18.066,-23.926,-46.387,-18.066,0.000
1728626763.230,-63.965,-34.180,-47.852,-28.320,0.000
1728626763.233,-63.965,-27.832,-40.039,-27.344,0.000
1728626763.237,-20.996,-20.508,-33.203,-18.555,0.000
1728626763.241,14.160,-9.766,-34.180,-10.742,0.000
1728626763.245,-0.488,-10.742,-39.551,-2.930,0.000
1728626763.249,-51.270,-26.855,-44.434,-19.531,0.000
1728626763.253,-59.082,-34.668,-42.969,-39.062,0.000
1728626763.257,-27.344,-19.531,-32.227,-24.902,0.000
1728626763.261,-8.789,0.000,-22.461,-25.391,0.000
1728626763.265,-18.066,-10.742,-37.598,-31.250,0.000
1728626763.269,-45.410,-28.809,-52.734,-25.391,0.000
1728626763.273,0.000,-29.785,-48.340,-33.691,0.000
1728626763.276,0.000,-12.207,-29.297,-30.762,0.000
1728626763.280,0.000,-6.348,-18.555,-12.207,0.000
1728626763.284,0.000,-25.391,-30.273,-14.648,0.000
1728626763.288,0.000,-35.645,-38.574,-23.926,0.000
1728626763.292,0.000,-29.297,-37.598,-22.949,0.000
1728626763.296,0.000,-20.508,-32.227,-28.320,0.000
1728626763.300,0.000,-21.973,-32.715,-23.438,0.000
1728626763.304,0.000,-16.113,-33.203,-13.184,0.000
1728626763.308,0.000,-19.531,-41.504,-29.297,0.000
1728626763.312,0.000,-37.598,-52.734,-40.039,0.000
1728626763.316,0.000,-28.809,-39.062,-32.715,0.000
1728626763.319,-2.930,-19.531,-25.391,-22.949,0.000
1728626763.323,-8.789,-26.367,-32.227,-23.926,0.000
1728626763.327,-32.227,-35.645,-44.434,-35.156,0.000
1728626763.331,-55.664,-31.738,-43.457,-43.945,0.000
1728626763.335,-50.293,-20.996,-35.645,-43.945,0.000
1728626763.339,-19.043,-19.531,-33.203,-35.645,0.000
1728626763.343,-11.719,-20.996,-37.109,-29.297,0.000
1728626763.347,-37.109,-27.344,-48.828,-22.949,0.000
1728626763.351,-66.406,-34.180,-53.223,-26.367,0.000
1728626763.355,-50.781,-32.227,-39.062,-25.391,0.000
1728626763.359,-16.113,-31.738,-24.414,-20.020,0.000
1728626763.362,-9.766,-35.156,-34.668,-22.949,0.000
1728626763.366,-38.086,-39.551,-48.340,-30.273,0.000
1728626763.370,-71.777,-35.156,-54.199,-43.945,0.000
1728626763.374,-57.129,-26.367,-44.922,-42.480,0.000
1728626763.378,-23.438,-19.043,-34.180,-36.621,0.000
1728626763.382,-6.348,-20.020,-40.039,-35.156,0.000
1728626763.386,-15.137,-33.203,-47.852,-32.227,0.000
1728626763.390,-55.664,-51.758,-54.688,-44.922,0.000
1728626763.394,-68.359,-44.922,-48.828,-51.758,0.000
1728626763.398,-31.250,-26.367,-41.504,-50.293,0.000
1728626763.402,-5.859,-23.438,-38.574,-42.969,0.000
1728626763.405,-26.855,-36.133,-48.828,-33.203,0.000
1728626763.409,-63.965,-45.898,-61.035,-46.387,0.000
1728626763.413,-69.824,-35.156,-51.270,-48.340,0.000
1728626763.417,-38.086,-23.438,-33.691,-29.785,0.000
1728626763.421,-13.184,-24.902,-30.273,-29.297,0.000
1728626763.425,-25.879,-33.691,-35.156,-35.156,0.000
1728626763.429,-58.594,-40.039,-46.875,-45.410,0.000
1728626763.433,-60.059,-41.504,-50.293,-41.016,0.000
1728626763.437,-24.902,-32.715,-34.180,-21.484,0.000
1728626763.441,0.000,-14.160,-19.531,-20.020,0.000
1728626763.444,-13.184,-22.461,-27.344,-19.043,0.000
1728626763.448,-47.363,-38.574,-48.340,-26.367,0.000
1728626763.452,-63.965,-33.691,-54.199,-43.945,0.000
1728626763.456,-31.250,-36.621,-40.039,-33.203,0.000
1728626763.460,10.742,-24.414,-30.273,-24.902,0.000
1728626763.464,-3.906,-13.184,-38.086,-26.367,0.000
1728626763.468,-36.133,-29.785,-54.688,-30.762,0.000
1728626763.472,-42.969,-35.156,-45.898,-49.805,0.000
1728626763.476,-33.203,-20.996,-20.996,-44.922,0.000
1728626763.480,0.000,-20.508,-24.902,-17.578,0.000
1728626763.483,0.488,-27.344,-30.273,-13.184,0.000
1728626763.487,-45.898,-32.715,-36.621,-35.156,0.000
1728626763.491,-68.359,-40.527,-46.875,-40.039,0.000
1728626763.495,-37.109,-32.227,-27.344,-32.227,0.000
1728626763.499,-0.488,-26.855,-12.695,-20.996,0.000
1728626763.503,5.371,-26.855,-20.508,-17.090,0.000
1728626763.507,-19.531,-37.109,-29.785,-18.066,0.000
1728626763.511,-56.641,-44.922,-31.250,-15.625,0.000
1728626763.515,-47.363,-33.203,-20.020,-22.461,0.000
1728626763.519,-6.836,-27.344,-8.301,-18.555,0.000
1728626763.523,4.395,-34.668,-20.996,-14.648,0.000
1728626763.526,-22.461,-45.410,-43.457,-20.508,0.000
1728626763.530,-51.758,-46.387,-50.293,-31.250,0.000
1728626763.534,-41.992,-31.250,-35.645,-36.621,0.000
1728626763.538,-5.371,-31.250,-20.508,-24.414,0.000
1728626763.542,4.883,-40.527,-23.438,-13.672,0.000
1728626763.546,-34.668,-37.598,-31.738,-18.555,0.000
1728626763.550,-62.500,-50.293,-50.293,-40.039,0.000
1728626763.554,0.000,-44.922,-41.016,-41.016,0.000
1728626763.558,0.000,-27.344,-20.020,-29.785,0.000
1728626763.562,0.000,-24.902,-23.438,-29.297,0.000
1728626763.566,0.000,-29.785,-39.062,-22.949,0.000
1728626763.569,0.000,-43.457,-53.711,-35.156,0.000
1728626763.573,0.000,-49.805,-49.316,-43.457,0.000
1728626763.577,0.000,-39.062,-33.203,-29.297,0.000
1728626763.581,0.000,-26.855,-27.344,-22.461,0.000
1728626763.585,0.000,-35.645,-38.086,-19.043,0.000
1728626763.589,0.000,-49.316,-45.410,-33.691,0.000
1728626763.593,0.000,-45.410,-41.992,-53.223,0.000
1728626763.597,0.000,-32.715,-31.738,-39.062,0.000
1728626763.601,-2.930,-30.762,-23.438,-34.180,0.000
1728626763.605,-19.531,-37.598,-35.156,-39.062,0.000
1728626763.609,-55.176,-46.875,-49.316,-34.668,0.000
1728626763.612,-72.266,-49.805,-51.270,-36.621,0.000
1728626763.616,-41.016,-38.086,-38.574,-28.320,0.000
1728626763.620,0.488,-33.203,-32.227,-14.648,0.000
1728626763.624,-2.441,-33.691,-33.203,-24.414,0.000
1728626763.628,-38.574,-48.340,-41.992,-32.227,0.000
1728626763.632,-63.477,-53.711,-49.805,-31.250,0.000
1728626763.636,-40.527,-35.645,-27.832,-33.691,0.000
1728626763.640,-1.953,-36.621,-19.531,-29.785,0.000
1728626763.644,-5.371,-61.035,-36.621,-20.508,0.000
1728626763.648,-33.691,-87.402,-44.434,-20.508,0.000
1728626763.652,-58.594,-93.750,-43.457,-36.621,0.000
1728626763.655,-40.039,-84.473,-33.691,-36.133,0.000
1728626763.659,-1.465,-82.520,-25.879,-31.250,0.000
1728626763.663,-9.277,-86.426,-31.250,-35.156,0.000
1728626763.667,-37.598,-102.051,-37.109,-34.180,0.000
1728626763.671,-60.059,-104.980,-45.410,-48.828,0.000
1728626763.675,-47.852,-101.562,-43.457,-52.246,0.000
1728626763.679,-12.695,-95.703,-26.855,-34.180,0.000
1728626763.683,-7.324,-80.566,-20.020,-36.621,0.000
1728626763.687,-29.297,-99.121,-31.250,-45.410,0.000
1728626763.691,-55.176,-109.863,-44.922,-56.641,0.000
1728626763.695,-50.293,-99.121,-38.574,-57.617,0.000
1728626763.698,-21.484,-89.844,-27.832,-49.316,0.000
1728626763.702,-13.184,-84.961,-32.715,-35.156,0.000
1728626763.706,-33.691,-86.426,-49.805,-33.203,0.000
1728626763.710,-61.523,-91.309,-57.129,-42.480,0.000
1728626763.714,-58.105,-85.938,-41.504,-37.109,0.000
1728626763.718,-23.438,-79.590,-24.414,-27.344,0.000
1728626763.722,-8.789,-82.520,-24.414,-26.855,0.000
1728626763.726,-42.969,-85.449,-32.227,-33.203,0.000
1728626763.730,-74.219,-83.984,-37.598,-40.527,0.000
1728626763.734,-65.430,-72.266,-40.527,-48.828,0.000
1728626763.737,-29.785,-60.547,-34.180,-45.898,0.000
1728626763.741,0.000,-59.082,-22.949,-36.133,0.000
1728626763.745,0.000,-66.406,-31.250,-36.621,0.000
1728626763.749,0.000,-69.336,-44.434,-40.039,0.000
1728626763.753,0.000,-62.012,-38.086,-40.039,0.000
1728626763.757,0.000,-49.805,-24.414,-30.762,0.000
1728626763.761,0.000,-50.781,-22.949,-28.320,0.000
1728626763.765,0.000,-67.383,-39.551,-29.785,0.000
1728626763.769,0.000,-74.707,-47.363,-36.621,0.000
1728626763.773,0.000,-61.523,-33.691,-47.363,0.000
1728626763.777,0.000,-54.688,-29.785,-36.133,0.000
1728626763.780,0.000,-53.223,-30.762,-28.809,0.000
1728626763.784,0.000,-58.105,-32.227,-27.832,0.000
1728626763.788,-57.129,-66.895,-39.551,-28.809,0.000
1728626763.792,-55.664,-54.199,-38.574,-28.809,0.000
1728626763.796,-18.066,-34.668,-23.926,-12.695,0.000
1728626763.800,10.254,-38.086,-17.578,-10.254,0.000
1728626763.804,-12.695,-45.898,-27.344,-23.926,0.000
1728626763.808,-41.992,-54.199,-39.551,-29.785,0.000
1728626763.812,-47.852,-60.059,-46.875,-31.738,0.000
1728626763.816,-38.574,-52.246,-29.785,-29.785,0.000
1728626763.819,-9.277,-49.805,-16.602,-19.531,0.000
1728626763.823,-0.977,-51.758,-23.926,-14.160,0.000
1728626763.827,-25.879,-47.363,-31.738,-19.531,0.000
1728626763.831,-51.758,-47.363,-40.039,-22.461,0.000
1728626763.835,-30.762,-35.645,-33.203,-14.160,0.000
1728626763.839,1.953,-29.297,-21.973,9.766,0.000
1728626763.843,-4.395,-36.133,-21.484,6.348,0.000
1728626763.847,-36.621,-54.688,-34.180,-15.137,0.000
1728626763.851,-47.363,-64.941,-44.434,-24.902,0.000
1728626763.855,-28.809,-59.570,-41.504,-20.020,0.000
1728626763.859,3.906,-43.945,-28.809,-3.906,0.000
1728626763.862,1.465,-33.203,-20.020,-5.859,0.000
1728626763.866,-32.227,-41.992,-29.297,-16.602,0.000
1728626763.870,-54.199,-46.875,-39.062,-23.438,0.000
1728626763.874,-43.457,-33.203,-24.414,-22.949,0.000
1728626763.878,-3.418,-16.602,-13.184,-13.672,0.000
1728626763.882,9.277,-21.973,-29.297,-8.789,0.000
1728626763.886,-22.949,-35.156,-41.016,-18.066,0.000
1728626763.890,-54.199,-39.551,-47.852,-30.273,0.000
1728626763.894,-49.805,-35.156,-42.969,-26.855,0.000
1728626763.898,-10.742,-24.414,-26.367,-1.465,0.000
1728626763.902,14.160,-21.484,-29.785,5.371,0.000
1728626763.905,-11.230,-23.926,-38.086,-11.719,0.000
1728626763.909,-44.434,-31.250,-38.574,-24.414,0.000
1728626763.913,-42.480,-35.156,-36.621,-17.090,0.000
1728626763.917,-12.207,-25.391,-30.273,-14.160,0.000
1728626763.921,3.906,-20.508,-29.785,-29.297,0.000
1728626763.925,-16.602,-36.621,-45.410,-34.180,0.000
1728626763.929,-49.316,-51.758,-59.082,-37.598,0.000
1728626763.933,-58.105,-28.809,-47.852,-39.062,0.000
1728626763.937,-29.297,-2.930,-38.086,-29.785,0.000
1728626763.941,2.930,5.859,-35.645,-20.020,0.000
1728626763.945,-13.672,8.301,-34.668,-26.855,0.000
1728626763.948,-53.223,-3.418,-45.898,-35.156,0.000
1728626763.952,-69.336,-15.625,-38.574,-41.504,0.000
1728626763.956,-43.457,-4.395,-25.879,-39.551,0.000
1728626763.960,-2.930,14.648,-32.227,-17.578,0.000
1728626763.964,-14.160,25.879,-45.898,-26.367,0.000
1728626763.968,-63.965,21.484,-54.688,-42.969,0.000
1728626763.972,-64.453,6.348,-55.176,-39.062,0.000
1728626763.976,-28.809,17.578,-40.527,-33.203,0.000
1728626763.980,-10.254,36.133,-34.180,-29.785,0.000
1728626763.984,-17.090,34.668,-42.969,-29.297,0.000
1728626763.988,-45.410,16.113,-55.664,-30.273,0.000
1728626763.991,-64.941,3.906,-60.547,-41.504,0.000
1728626763.995,-46.387,11.719,-47.852,-37.598,0.000
1728626763.999,-12.695,22.461,-34.180,-24.414,0.000
1728626764.003,-5.371,23.438,-43.457,-26.367,0.000
1728626764.007,-37.598,8.301,-61.035,-29.297,0.000
1728626764.011,-65.430,4.395,-56.152,-34.668,0.000
1728626764.015,-43.945,18.555,-39.551,-33.691,0.000
1728626764.019,-6.348,23.926,-32.227,-24.902,0.000
1728626764.023,0.000,22.461,-37.598,-22.461,0.000
1728626764.027,0.000,18.066,-45.410,-33.203,0.000
1728626764.030,0.000,2.441,-54.199,-43.945,0.000
1728626764.034,0.000,-5.859,-45.410,-36.133,0.000
1728626764.038,0.000,0.000,-29.297,-34.668,0.000
1728626764.042,0.000,1.465,-29.297,-37.109,0.000
1728626764.046,0.000,-1.953,-37.109,-29.785,0.000
1728626764.050,0.000,-25.879,-49.805,-32.715,0.000
1728626764.054,0.000,-30.762,-41.992,-32.715,0.000
1728626764.058,0.000,-4.883,-18.555,-28.320,0.000
1728626764.062,0.000,-2.930,-22.461,-20.508,0.000
1728626764.066,0.000,-19.531,-33.203,-18.555,0.000
1728626764.070,-61.035,-33.203,-42.969,-38.086,0.000
1728626764.073,-59.570,-32.715,-39.551,-42.480,0.000
1728626764.077,-20.996,-22.461,-24.414,-19.043,0.000
1728626764.081,-5.371,-17.578,-29.297,-21.484,0.000
1728626764.085,-33.203,-18.555,-37.598,-42.480,0.000
1728626764.089,-63.477,-32.715,-39.551,-42.969,0.000
1728626764.093,-60.059,-35.156,-36.133,-37.598,0.000
1728626764.097,-22.949,-25.391,-28.320,-25.391,0.000
1728626764.101,6.836,-12.695,-16.113,-17.578,0.000
1728626764.105,-15.137,-11.719,-22.461,-18.555,0.000
1728626764.109,-52.734,-24.414,-37.109,-26.367,0.000
1728626764.113,-58.594,-23.926,-43.945,-36.621,0.000
1728626764.116,-28.320,-12.207,-34.180,-30.762,0.000
1728626764.120,4.395,0.977,-24.902,-19.531,0.000
1728626764.124,-15.137,-8.789,-35.645,-16.113,0.000
1728626764.128,-53.223,-19.043,-41.992,-23.438,0.000
1728626764.132,-51.758,-16.602,-37.598,-33.691,0.000
1728626764.136,-18.066,-18.066,-32.227,-27.344,0.000
1728626764.140,8.301,-25.391,-30.762,-19.043,0.000
1728626764.144,-10.254,-26.367,-33.203,-21.973,0.000
1728626764.148,-52.246,-19.531,-41.504,-44.434,0.000
1728626764.152,-69.824,-24.902,-41.504,-44.922,0.000
1728626764.155,-45.410,-19.531,-27.832,-29.297,0.000
1728626764.159,-17.578,-18.555,-26.855,-35.156,0.000
1728626764.163,-20.508,-21.973,-30.762,-36.133,0.000
1728626764.167,-48.340,-33.203,-40.039,-33.203,0.000
1728626764.171,-67.871,-54.199,-43.945,-40.039,0.000
1728626764.175,-43.457,-45.898,-24.414,-35.156,0.000
1728626764.179,-2.930,-28.809,-15.625,-28.809,0.000
1728626764.183,-7.812,-28.809,-30.762,-29.785,0.000
1728626764.187,-52.246,-36.621,-48.828,-26.855,0.000
1728626764.191,-79.590,-36.621,-46.387,-40.527,0.000
1728626764.195,-61.035,-27.832,-33.691,-48.828,0.000
1728626764.198,-20.020,-24.902,-33.203,-36.621,0.000
1728626764.202,-15.137,-30.273,-35.645,-34.668,0.000
1728626764.206,-43.945,-47.852,-39.062,-38.086,0.000
1728626764.210,-66.406,-61.523,-44.434,-43.457,0.000
1728626764.214,-58.105,-49.316,-36.133,-41.992,0.000
1728626764.218,-23.438,-35.645,-22.949,-23.926,0.000
1728626764.222,-12.207,-33.691,-26.855,-25.391,0.000
1728626764.226,-36.133,-38.086,-37.598,-33.203,0.000
1728626764.230,-62.500,-41.992,-49.316,-37.109,0.000
1728626764.234,-59.082,-32.715,-41.504,-41.992,0.000
1728626764.237,-21.484,-21.484,-22.461,-32.227,0.000
1728626764.241,-5.371,-26.855,-22.949,-24.902,0.000
1728626764.245,-31.738,-39.062,-40.039,-29.297,0.000
1728626764.249,-64.941,-53.223,-47.852,-42.480,0.000
1728626764.253,-64.453,-58.105,-41.992,-48.828,0.000
1728626764.257,-31.738,-56.641,-29.785,-38.574,0.000
1728626764.261,-10.254,-68.359,-23.926,-40.039,0.000
1728626764.265,-37.598,-82.031,-36.621,-36.621,0.000
1728626764.269,-77.637,-94.727,-50.781,-42.480,0.000
1728626764.273,-75.684,-103.027,-47.363,-46.875,0.000
1728626764.277,-38.086,-102.539,-37.598,-27.832,0.000
1728626764.280,-11.230,-100.098,-31.250,-21.484,0.000
1728626764.284,-23.926,-97.656,-33.691,-22.949,0.000
1728626764.288,-54.199,-108.887,-45.410,-20.020,0.000
1728626764.292,-64.453,-116.211,-44.434,-26.855,0.000
1728626764.296,-33.691,-100.586,-25.391,-25.879,0.000
1728626764.300,-1.953,-89.844,-26.367,-12.695,0.000
1728626764.304,-17.578,-99.609,-41.504,-16.602,0.000
1728626764.308,-55.176,-117.188,-45.898,-27.344,0.000
1728626764.312,-68.848,-113.281,-40.527,-33.691,0.000
1728626764.316,-38.086,-91.797,-29.785,-32.715,0.000
1728626764.320,0.488,-86.426,-31.250,-23.926,0.000
1728626764.323,-10.254,-88.867,-39.551,-25.879,0.000
1728626764.327,-50.781,-92.773,-45.898,-43.945,0.000
1728626764.331,-76.660,-94.727,-52.734,-56.152,0.000
1728626764.335,-45.898,-88.867,-50.293,-41.016,0.000
1728626764.339,-4.395,-78.125,-33.691,-21.484,0.000
1728626764.343,-12.207,-70.312,-33.691,-31.738,0.000
1728626764.347,-37.598,-77.148,-48.828,-34.180,0.000
1728626764.351,-65.430,-79.590,-42.969,-33.203,0.000
1728626764.355,-51.270,-66.406,-35.645,-35.645,0.000
1728626764.359,-14.160,-52.246,-34.668,-29.785,0.000
1728626764.363,-20.508,-54.688,-35.156,-27.832,0.000
1728626764.366,-48.340,-62.012,-50.293,-33.691,0.000
1728626764.370,-70.312,-66.895,-57.129,-35.645,0.000
1728626764.374,-48.340,-62.500,-36.133,-22.949,0.000
1728626764.378,-6.348,-57.129,-26.367,-13.184,0.000
1728626764.382,1.465,-58.105,-39.062,-16.113,0.000
1728626764.386,-35.156,-58.105,-41.992,-30.273,0.000
1728626764.390,-66.406,-59.570,-43.945,-39.551,0.000
1728626764.394,-34.668,-59.082,-44.922,-41.016,0.000
1728626764.398,0.000,-49.805,-38.086,-39.062,0.000
1728626764.402,0.000,-38.086,-34.180,-35.645,0.000
1728626764.406,0.000,-48.340,-40.527,-29.785,0.000
1728626764.409,0.000,-63.965,-46.387,-37.109,0.000
1728626764.413,0.000,-55.664,-28.809,-32.227,0.000
1728626764.417,0.000,-44.434,-18.555,-20.996,0.000
1728626764.421,0.000,-38.086,-24.414,-26.367,0.000
1728626764.425,0.000,-42.480,-39.062,-21.973,0.000
1728626764.429,0.000,-51.758,-50.293,-27.344,0.000
1728626764.433,0.000,-41.016,-43.457,-37.109,0.000
1728626764.437,0.000,-37.598,-30.762,-32.227,0.000
1728626764.441,0.000,-41.992,-27.832,-26.855,0.000
1728626764.445,-15.625,-37.598,-35.645,-21.973,0.000
1728626764.448,-55.176,-40.039,-43.457,-32.227,0.000
1728626764.452,-62.012,-42.969,-50.781,-44.922,0.000
1728626764.456,-23.438,-36.621,-42.480,-45.410,0.000
1728626764.460,-2.930,-29.297,-30.762,-36.621,0.000
1728626764.464,-20.508,-29.297,-39.062,-28.809,0.000
1728626764.468,-51.758,-35.645,-56.641,-33.691,0.000
1728626764.472,-62.500,-38.086,-58.105,-38.574,0.000
1728626764.476,-40.039,-26.367,-37.109,-32.227,0.000
1728626764.480,-3.418,-20.020,-22.949,-20.020,0.000
1728626764.484,-10.742,-30.273,-34.668,-19.043,0.000
1728626764.488,-53.711,-46.387,-57.617,-37.109,0.000
1728626764.491,0.000,-49.316,-53.223,-47.363,0.000
1728626764.495,0.000,-35.645,-30.273,-37.109,0.000
1728626764.499,0.000,-25.391,-30.273,-25.391,0.000
1728626764.503,0.000,-20.996,-39.551,-21.484,0.000
1728626764.507,0.000,-39.062,-44.922,-23.926,0.000
1728626764.511,0.000,-51.270,-51.270,-37.598,0.000
1728626764.515,0.000,-46.875,-46.875,-36.133,0.000
1728626764.519,0.000,-35.645,-35.156,-23.926,0.000
1728626764.523,0.000,-26.367,-27.832,-26.855,0.000
1728626764.527,0.000,-45.898,-39.062,-37.598,0.000
1728626764.531,0.000,-62.500,-44.434,-46.387,0.000
1728626764.534,0.000,-51.758,-29.297,-36.621,0.000
1728626764.538,-24.414,-36.133,-24.414,-33.691,0.000
1728626764.542,-21.973,-37.598,-31.250,-38.574,0.000
1728626764.546,-51.758,-48.340,-40.039,-49.805,0.000
1728626764.550,-80.078,-50.781,-47.363,-59.082,0.000
1728626764.554,-57.617,-45.410,-38.086,-37.598,0.000
1728626764.558,-7.324,-38.086,-22.461,-17.090,0.000
1728626764.562,3.418,-37.598,-21.973,-14.160,0.000
1728626764.566,-28.809,-41.992,-33.203,-20.508,0.000
1728626764.570,-63.477,-43.457,-37.109,-30.273,0.000
1728626764.573,-54.688,-37.598,-37.109,-32.715,0.000
1728626764.577,-4.395,-20.020,-31.250,-20.020,0.000
1728626764.581,3.418,-18.066,-28.320,-16.113,0.000
1728626764.585,-23.926,-38.086,-41.016,-28.809,0.000
1728626764.589,-49.316,-52.734,-48.828,-36.621,0.000
1728626764.593,-48.828,-45.410,-39.062,-32.227,0.000
1728626764.597,-4.395,-31.738,-28.320,-22.949,0.000
1728626764.601,7.324,-29.785,-39.551,-21.484,0.000
1728626764.605,-17.090,-35.156,-49.805,-12.695,0.000
1728626764.609,-40.039,-41.504,-46.387,-22.949,0.000
1728626764.613,-37.109,-37.109,-34.668,-42.480,0.000
1728626764.616,-9.277,-25.391,-23.926,-25.879,0.000
1728626764.620,4.395,-25.391,-24.414,-12.207,0.000
1728626764.624,-13.672,-38.086,-27.832,-18.555,0.000
1728626764.628,-45.898,-46.875,-35.156,-33.691,0.000
1728626764.632,-49.805,-45.898,-37.598,-40.039,0.000
1728626764.636,-16.113,-37.109,-32.715,-24.414,0.000
1728626764.640,5.371,-26.367,-27.832,-21.973,0.000
1728626764.644,-16.113,-28.320,-32.227,-37.598,0.000
1728626764.648,-51.270,-38.574,-49.316,-49.316,0.000
1728626764.652,-50.781,-41.504,-49.316,-49.316,0.000
1728626764.655,-15.625,-26.855,-29.297,-34.180,0.000
1728626764.659,5.371,-12.207,-16.602,-27.344,0.000
1728626764.663,-3.418,-23.438,-25.391,-21.973,0.000
1728626764.667,-33.691,-44.922,-43.457,-23.926,0.000
1728626764.671,-51.758,-40.039,-37.109,-35.156,0.000
1728626764.675,-26.367,-32.715,-29.785,-25.879,0.000
1728626764.679,9.766,-31.738,-32.227,-13.672,0.000
1728626764.683,7.812,-27.344,-29.297,-13.672,0.000
1728626764.687,-24.414,-30.273,-38.086,-20.020,0.000
1728626764.691,-47.852,-26.855,-47.363,-26.855,0.000
1728626764.695,-33.691,-23.438,-35.645,-17.578,0.000
1728626764.698,1.953,-21.484,-26.855,-14.648,0.000
1728626764.702,0.000,-21.484,-29.297,-28.809,0.000
1728626764.706,-37.598,-30.273,-41.504,-36.133,0.000
1728626764.710,-54.688,-44.434,-54.688,-38.086,0.000
1728626764.714,-32.715,-40.039,-40.039,-35.156,0.000
1728626764.718,-8.789,-20.508,-22.949,-31.738,0.000
1728626764.722,-6.348,-24.902,-27.832,-29.297,0.000
1728626764.726,-27.344,-32.715,-38.086,-29.297,0.000
1728626764.730,-48.828,-30.273,-41.504,-37.598,0.000
1728626764.734,-42.969,-26.367,-34.180,-43.945,0.000
1728626764.738,-14.160,-31.738,-34.180,-46.387,0.000
1728626764.741,-7.812,-42.969,-38.574,-32.715,0.000
1728626764.745,-42.480,-43.457,-44.434,-26.367,0.000
1728626764.749,-77.637,-48.828,-55.176,-55.176,0.000
1728626764.753,-60.059,-51.758,-45.410,-61.523,0.000
1728626764.757,-21.973,-41.016,-31.738,-35.645,0.000
1728626764.761,-8.789,-23.438,-28.320,-28.320,0.000
1728626764.765,-28.320,-23.438,-38.574,-29.297,0.000
1728626764.769,-67.383,-39.551,-53.223,-38.086,0.000
1728626764.773,0.000,-38.574,0.000,-46.875,0.000
1728626764.777,0.000,-26.855,0.000,-38.574,0.000
1728626764.781,0.000,-23.438,0.000,-32.715,0.000
1728626764.784,0.000,-29.297,0.000,-31.738,0.000
1728626764.788,0.000,-34.668,0.000,-37.598,0.000
1728626764.792,0.000,-34.180,0.000,-37.109,0.000
1728626764.796,0.000,-32.227,0.000,-29.297,0.000
1728626764.800,0.000,-30.273,0.000,-25.391,0.000
1728626764.804,0.000,-29.297,0.000,-32.227,0.000
1728626764.808,0.000,-25.391,0.000,-42.480,0.000
1728626764.812,0.000,-11.230,0.000,-33.203,0.000
1728626764.816,0.000,12.695,0.000,-13.672,0.000
1728626764.820,12.207,29.785,-26.855,-7.812,0.000
1728626764.824,-2.441,33.691,-29.785,-13.184,0.000
1728626764.827,-44.922,21.973,-45.898,-23.438,0.000
1728626764.831,-53.223,7.812,-39.551,-24.414,0.000
1728626764.835,-10.254,-5.859,-20.020,-10.254,0.000
1728626764.839,18.066,-18.555,-21.484,-4.883,0.000
1728626764.843,-0.977,-27.344,-30.762,-10.742,0.000
1728626764.847,-49.805,-48.340,-42.969,-20.508,0.000
1728626764.851,-75.195,-52.734,-46.387,-28.809,0.000
1728626764.855,-38.574,-37.109,-33.203,-24.414,0.000
1728626764.859,-2.441,-32.715,-31.250,-20.996,0.000
1728626764.863,-7.812,-40.527,-42.480,-26.855,0.000
1728626764.866,-38.574,-52.734,-45.898,-30.762,0.000
1728626764.870,-52.246,-52.246,-41.992,-26.367,0.000
1728626764.874,-27.832,-39.062,-28.809,-16.113,0.000
1728626764.878,-0.488,-35.645,-19.531,-15.137,0.000
1728626764.882,-8.301,-38.574,-26.855,-21.484,0.000
1728626764.886,-41.992,-50.293,-38.086,-32.227,0.000
1728626764.890,-56.152,-54.199,-46.875,-42.480,0.000
1728626764.894,-36.133,-38.086,-38.574,-40.527,0.000
1728626764.898,-6.348,-24.902,-25.391,-34.668,0.000
1728626764.902,-10.742,-31.738,-35.645,-25.391,0.000
1728626764.906,-51.758,-43.945,-49.316,-35.645,0.000
1728626764.909,-72.266,-43.457,-51.270,-50.781,0.000
1728626764.913,-39.551,-38.086,-29.785,-37.598,0.000
1728626764.917,-8.301,-44.434,-21.973,-23.438,0.000
1728626764.921,-4.395,-42.480,-37.109,-18.066,0.000
1728626764.925,-29.785,-42.480,-41.992,-15.137,0.000
1728626764.929,-62.988,-53.223,-46.387,-27.832,0.000
1728626764.933,-45.898,-53.223,-40.039,-25.879,0.000
1728626764.937,-7.812,-43.945,-30.762,-6.836,0.000
1728626764.941,-1.465,-35.645,-25.391,-2.441,0.000
1728626764.945,-15.625,-39.551,-28.320,-8.789,0.000
1728626764.948,-32.715,-52.246,-41.016,-14.160,0.000
1728626764.952,-27.344,-44.434,-35.645,-9.277,0.000
1728626764.956,-1.465,-29.297,-16.602,-6.836,0.000
1728626764.960,4.883,-41.504,-17.090,-11.230,0.000
1728626764.964,-16.602,-47.852,-32.227,-25.391,0.000
1728626764.968,-56.641,-40.039,-37.598,-38.086,0.000
1728626764.972,-69.336,-32.227,-30.273,-43.457,0.000
1728626764.976,-29.785,-25.391,-29.785,-35.156,0.000
1728626764.980,-2.441,-29.785,-38.574,-20.996,0.000
1728626764.984,-20.996,-29.297,-43.945,-29.297,0.000
1728626764.988,-54.688,-28.320,-48.340,-47.363,0.000
1728626764.991,-52.246,-32.715,-48.340,-48.828,0.000
1728626764.995,-20.996,-28.320,-39.551,-42.480,0.000
1728626764.999,-3.906,-26.367,-46.387,-42.480,0.000
1728626765.003,-24.902,-24.902,-58.594,-48.828,0.000
1728626765.007,-49.805,-28.320,-63.965,-52.246,0.000
1728626765.011,-51.758,-28.320,-54.199,-50.781,0.000
1728626765.015,-21.973,-16.113,-41.016,-41.016,0.000
1728626765.019,3.906,-12.207,-38.086,-20.996,0.000
1728626765.023,-24.414,-26.855,-41.504,-13.672,0.000
1728626765.027,-61.523,-50.781,-50.781,-29.297,0.000
1728626765.031,-67.383,-52.734,-46.875,-41.016,0.000
1728626765.034,-39.551,-34.668,-26.855,-31.738,0.000
1728626765.038,-2.930,-37.109,-24.902,-11.719,0.000
1728626765.042,-13.672,-47.363,-43.457,-9.277,0.000
1728626765.046,-52.246,-44.434,-52.734,-23.926,0.000
1728626765.050,-58.594,-41.504,-45.410,-27.832,0.000
1728626765.054,-37.598,-36.133,-27.832,-20.996,0.000
1728626765.058,-1.465,-23.438,-16.602,-10.254,0.000
1728626765.062,5.859,-23.926,-20.508,-7.812,0.000
1728626765.066,-29.297,-35.645,-31.250,-7.324,0.000
1728626765.070,-41.016,-40.527,-34.180,-15.137,0.000
1728626765.074,-22.949,-37.109,-25.391,-17.090,0.000
1728626765.077,4.395,-26.367,-20.020,-15.137,0.000
1728626765.081,1.953,-25.391,-28.320,-18.066,0.000
1728626765.085,-20.996,-44.434,-40.527,-9.277,0.000
1728626765.089,-39.551,-45.898,-37.109,-16.602,0.000
1728626765.093,-29.297,-20.020,-20.508,-31.738,0.000
1728626765.097,-3.418,-5.859,-23.438,-30.762,0.000
1728626765.101,-17.578,-9.766,-37.109,-41.504,0.000
1728626765.105,-52.734,-22.949,-50.781,-52.734,0.000
1728626765.109,-80.566,-24.414,-58.105,-62.988,0.000
1728626765.113,-78.125,-22.949,-49.805,-61.035,0.000
1728626765.117,-61.035,-23.926,-42.480,-71.777,0.000
1728626765.120,-53.223,-18.066,-41.504,-81.055,0.000
1728626765.124,-90.820,-18.066,-51.270,-84.961,0.000
1728626765.128,-134.766,-33.203,-62.500,-118.164,0.000
1728626765.132,-131.348,-31.250,-52.246,-123.047,0.000
1728626765.136,-103.516,-13.672,-31.738,-114.746,0.000
1728626765.140,-85.449,-13.672,-25.391,-109.375,0.000
1728626765.144,-113.770,-25.879,-44.922,-118.652,0.000
1728626765.148,-150.879,-36.133,-56.641,-133.301,0.000
1728626765.152,-152.344,-31.250,-49.316,-147.461,0.000
1728626765.156,-122.559,-17.090,-38.574,-154.297,0.000
1728626765.159,-105.469,-11.719,-39.062,-151.855,0.000
1728626765.163,-130.859,-18.066,-47.363,-164.551,0.000
1728626765.167,-176.270,-30.762,-58.594,-185.059,0.000
1728626765.171,-186.523,-29.785,-51.758,-195.312,0.000
1728626765.175,-145.996,-23.438,-43.945,-175.293,0.000
1728626765.179,-115.234,-20.020,-37.598,-152.832,0.000
1728626765.183,-124.512,-17.090,-28.809,-155.762,0.000
1728626765.187,-166.016,-36.621,-48.340,-173.828,0.000
1728626765.191,-187.988,-46.875,-52.246,-179.688,0.000
1728626765.195,-144.043,-28.320,-30.762,-163.574,0.000
1728626765.199,-125.977,-18.555,-33.203,-146.973,0.000
1728626765.202,-142.578,-29.297,-47.363,-140.137,0.000
1728626765.206,-162.109,-39.551,-55.176,-144.043,0.000
1728626765.210,-166.992,-34.180,-58.594,-153.320,0.000
1728626765.214,-133.301,-26.855,-47.363,-137.207,0.000
1728626765.218,-99.121,-31.250,-34.180,-112.793,0.000
1728626765.222,-94.727,-38.086,-40.527,-107.422,0.000
1728626765.226,-125.977,-42.969,-45.898,-107.422,0.000
1728626765.230,-127.930,-49.805,-44.922,-102.539,0.000
1728626765.234,-87.402,-40.527,-45.898,-94.238,0.000
1728626765.238,-58.105,-26.855,-47.363,-85.938,0.000
1728626765.242,-58.594,-25.391,-48.828,-78.125,0.000
1728626765.245,-80.566,-40.039,-61.523,-75.684,0.000
1728626765.249,-88.867,-51.270,-73.730,-69.336,0.000
1728626765.253,-60.059,-42.480,-62.500,-56.641,0.000
1728626765.257,-15.137,-37.598,-51.758,-44.922,0.000
1728626765.261,0.000,-41.504,-51.758,-26.367,0.000
1728626765.265,-22.461,-59.082,-67.871,-10.254,0.000
1728626765.269,-37.109,-68.359,-63.477,0.000,0.000
1728626765.273,-19.043,-48.340,-30.273,0.977,0.000
1728626765.277,29.297,-38.574,-26.855,11.230,0.000
1728626765.281,39.551,-47.852,-38.086,18.555,0.000
1728626765.284,1.953,-55.664,-46.387,15.137,0.000
1728626765.288,-20.508,-61.035,-48.340,21.484,0.000
1728626765.292,-0.977,-59.082,-39.551,30.273,0.000
1728626765.296,43.945,-44.922,-20.020,36.133,0.000
1728626765.300,63.965,-46.875,-20.508,42.969,0.000
1728626765.304,42.969,-59.082,-33.203,44.434,0.000
1728626765.308,25.391,-65.430,-34.180,43.945,0.000
1728626765.312,41.992,-59.570,-25.391,51.270,0.000
1728626765.316,78.125,-41.504,-10.254,59.570,0.000
1728626765.320,90.820,-35.156,-7.812,67.383,0.000
1728626765.324,57.129,-45.410,-28.809,63.965,0.000
1728626765.327,23.438,-51.270,-46.875,48.340,0.000
1728626765.331,28.320,-43.457,-32.715,49.805,0.000
1728626765.335,58.594,-34.180,-20.020,59.570,0.000
1728626765.339,69.336,-31.738,-20.020,51.758,0.000
1728626765.343,49.316,-33.691,-23.926,42.969,0.000
1728626765.347,22.461,-41.992,-30.273,43.945,0.000
1728626765.351,13.672,-48.340,-33.691,35.156,0.000
1728626765.355,43.457,-45.898,-28.320,50.781,0.000
1728626765.359,69.336,-36.621,-20.508,64.941,0.000
1728626765.363,47.363,-32.715,-24.414,43.945,0.000
1728626765.367,7.324,-52.246,-42.969,32.715,0.000
1728626765.370,-2.441,-54.688,-47.363,34.180,0.000
1728626765.374,19.531,-31.738,-36.133,27.344,0.000
1728626765.378,49.316,-25.391,-35.156,23.438,0.000
1728626765.382,43.457,-38.086,-42.969,25.391,0.000
1728626765.386,5.371,-45.898,-52.734,10.742,0.000
1728626765.390,-5.371,-39.551,-49.316,-1.953,0.000
1728626765.394,18.555,-30.273,-34.180,11.719,0.000
1728626765.398,50.781,-20.508,-31.738,29.297,0.000
1728626765.402,48.828,-20.508,-37.598,32.715,0.000
1728626765.406,3.418,-37.109,-46.387,17.090,0.000
1728626765.410,-29.297,-44.922,-49.316,3.418,0.000
1728626765.413,2.930,-39.551,-41.992,14.648,0.000
1728626765.417,44.434,-41.016,-36.133,23.926,0.000
1728626765.421,30.273,-35.645,-31.738,18.066,0.000
1728626765.425,-11.230,-48.828,-47.852,14.160,0.000
1728626765.429,0.000,-60.547,-55.176,10.254,0.000
1728626765.433,0.000,-41.992,-36.133,17.090,0.000
1728626765.437,0.000,-23.926,-29.297,13.672,0.000
1728626765.441,0.000,-24.902,-37.109,5.859,0.000
1728626765.445,0.000,-40.527,-41.992,5.371,0.000
1728626765.449,0.000,-53.711,-46.387,-7.812,0.000
1728626765.453,0.000,-48.340,-38.086,-17.090,0.000
1728626765.456,0.000,-36.133,-23.438,-12.695,0.000
1728626765.460,0.000,-40.039,-30.273,-1.465,0.000
1728626765.464,0.000,-43.457,-41.016,-4.883,0.000
1728626765.468,0.000,-39.551,-44.434,-26.367,0.000
1728626765.472,0.000,-37.598,-39.062,-23.926,0.000
1728626765.476,5.859,-31.738,-24.902,-3.906,0.000
1728626765.480,21.973,-32.227,-19.531,1.953,0.000
1728626765.484,2.930,-41.992,-23.438,-4.883,0.000
1728626765.488,-24.414,-53.223,-32.227,-13.672,0.000
1728626765.492,-33.203,-48.828,-32.715,-21.973,0.000
1728626765.495,-6.836,-30.273,-24.902,-11.719,0.000
1728626765.499,8.789,-19.531,-21.973,-6.348,0.000
1728626765.503,-17.578,-30.762,-32.227,-13.672,0.000
1728626765.507,-50.293,-53.711,-43.457,-23.438,0.000
1728626765.511,-54.688,-48.340,-35.156,-33.203,0.000
1728626765.515,-22.461,-36.621,-22.949,-23.926,0.000
1728626765.519,3.906,-41.016,-23.926,-8.301,0.000
1728626765.523,0.000,-44.434,-32.227,-11.230,0.000
1728626765.527,0.000,-46.387,-45.410,-31.250,0.000
1728626765.531,0.000,-53.223,-46.387,-44.922,0.000
1728626765.535,0.000,-51.270,-38.086,-32.227,0.000
1728626765.538,0.000,-40.527,-41.016,-28.809,0.000
1728626765.542,0.000,-36.621,-47.852,-30.762,0.000
1728626765.546,0.000,-40.527,-52.246,-31.250,0.000
1728626765.550,0.000,-41.504,-51.270,-21.973,0.000
1728626765.554,0.000,-35.645,-34.180,-14.160,0.000
1728626765.558,0.000,-25.391,-22.461,-14.648,0.000
1728626765.562,0.000,-29.785,-34.668,-10.254,0.000
1728626765.566,0.000,-43.945,-43.457,-24.414,0.000
1728626765.570,-49.316,-39.551,-38.086,-35.645,0.000
1728626765.574,-16.113,-18.555,-24.414,-22.461,0.000
1728626765.578,15.137,-17.578,-25.879,-15.137,0.000
1728626765.581,-0.977,-40.039,-41.016,-17.578,0.000
1728626765.585,-33.691,-49.316,-48.828,-19.531,0.000
1728626765.589,-53.223,-45.898,-51.270,-35.645,0.000
1728626765.593,-26.855,-33.691,-34.180,-32.227,0.000
1728626765.597,6.348,-28.809,-20.508,-8.789,0.000
1728626765.601,7.324,-34.668,-22.949,-8.789,0.000
1728626765.605,-23.438,-39.551,-33.203,-25.391,0.000
1728626765.609,-55.176,-43.457,-41.504,-32.715,0.000
1728626765.613,-31.738,-39.062,-29.785,-13.184,0.000
1728626765.617,-1.465,-29.785,-17.090,-3.906,0.000
1728626765.621,-4.883,-25.391,-23.926,-8.789,0.000
1728626765.624,-36.621,-31.738,-40.527,-10.254,0.000
1728626765.628,-65.430,-43.945,-42.480,-27.344,0.000
1728626765.632,-45.410,-48.340,-27.832,-31.738,0.000
1728626765.636,-4.395,-44.922,-20.996,-15.137,0.000
1728626765.640,1.953,-42.969,-31.250,-7.812,0.000
1728626765.644,-37.598,-48.340,-41.016,-28.809,0.000
1728626765.648,-72.266,-47.852,-41.992,-58.105,0.000
1728626765.652,-58.594,-43.945,-40.527,-52.734,0.000
1728626765.656,-21.973,-29.785,-33.203,-33.203,0.000
1728626765.660,-5.371,-22.461,-30.273,-26.855,0.000
1728626765.663,-27.344,-32.715,-41.504,-40.527,0.000
1728626765.667,-59.082,-55.176,-55.176,-48.828,0.000
1728626765.671,-57.617,-52.734,-47.363,-35.645,0.000
1728626765.675,-29.785,-38.574,-31.738,-23.926,0.000
1728626765.679,-15.625,-47.363,-34.180,-23.926,0.000
1728626765.683,-37.598,-52.246,-49.316,-26.367,0.000
1728626765.687,-68.359,-54.199,-61.035,-34.668,0.000
1728626765.691,-68.359,-37.598,-42.480,-39.062,0.000
1728626765.695,-37.109,-20.020,-28.809,-35.156,0.000
1728626765.699,-8.301,-19.531,-32.227,-34.180,0.000
1728626765.703,-19.043,-24.902,-34.668,-36.133,0.000
1728626765.706,-65.430,-43.945,-52.246,-44.922,0.000
1728626765.710,-86.426,-52.246,-52.246,-51.270,0.000
1728626765.714,-50.293,-43.945,-44.434,-45.410,0.000
1728626765.718,-16.113,-34.668,-43.945,-32.715,0.000
1728626765.722,-36.621,-36.133,-43.945,-26.855,0.000
1728626765.726,-71.777,-46.387,-56.152,-38.086,0.000
1728626765.730,-65.918,-45.898,-64.941,-40.039,0.000
1728626765.734,-35.156,-29.297,-50.293,-27.832,0.000
1728626765.738,-11.230,-11.230,-34.180,-19.531,0.000
1728626765.742,-6.836,-12.207,-34.180,-14.160,0.000
1728626765.745,-37.109,-31.738,-46.875,-20.508,0.000
1728626765.749,-55.176,-41.504,-49.805,-30.762,0.000
1728626765.753,-28.320,-30.762,-29.297,-33.203,0.000
1728626765.757,-1.465,-27.344,-26.855,-23.438,0.000
1728626765.761,-14.160,-33.691,-30.273,-15.137,0.000
1728626765.765,-38.086,-33.691,-29.297,-19.043,0.000
1728626765.769,-48.340,-31.250,-37.109,-28.809,0.000
1728626765.773,-25.391,-24.902,-32.227,-31.738,0.000
1728626765.777,6.348,-23.438,-29.785,-26.367,0.000
1728626765.781,-3.906,-27.832,-34.180,-23.926,0.000
1728626765.785,-37.109,-37.598,-37.109,-36.133,0.000
1728626765.788,-51.270,-42.969,-46.387,-41.016,0.000
1728626765.792,-29.297,-34.668,-36.133,-31.738,0.000
1728626765.796,0.488,-24.902,-20.508,-38.086,0.000
1728626765.800,-2.441,-33.691,-31.738,-37.109,0.000
1728626765.804,-41.992,-43.457,-50.293,-32.715,0.000
1728626765.808,-75.195,-49.316,-57.617,-50.293,0.000
1728626765.812,-59.082,-39.551,-39.062,-54.688,0.000
1728626765.816,-15.137,-31.738,-27.832,-41.992,0.000
1728626765.820,-1.953,-35.156,-33.691,-33.691,0.000
1728626765.824,-29.297,-42.969,-44.922,-34.180,0.000
1728626765.828,-53.711,-49.316,-50.781,-41.992,0.000
1728626765.831,-52.246,-41.504,-40.039,-42.480,0.000
1728626765.835,-20.508,-37.109,-37.598,-25.879,0.000
1728626765.839,-10.742,-31.738,-38.086,-23.926,0.000
1728626765.843,-48.828,-28.809,-46.387,-36.133,0.000
1728626765.847,-78.125,-44.434,-59.570,-47.852,0.000
1728626765.851,-70.312,-45.410,-48.828,-55.664,0.000
1728626765.855,-32.715,-33.691,-36.133,-47.363,0.000
1728626765.859,-11.719,-22.949,-32.715,-40.039,0.000
1728626765.863,-30.762,-29.297,-40.527,-32.227,0.000
1728626765.867,-60.547,-49.316,-58.105,-39.062,0.000
1728626765.871,-66.406,-49.805,-54.688,-43.945,0.000
1728626765.874,-28.809,-41.016,-30.273,-29.297,0.000
1728626765.878,2.930,-34.180,-24.414,-24.414,0.000
1728626765.882,-25.391,-39.062,-46.387,-23.438,0.000
1728626765.886,-66.406,-41.016,-55.176,-33.203,0.000
1728626765.890,-62.012,-33.203,-45.898,-42.480,0.000
1728626765.894,-21.484,-24.902,-36.133,-27.832,0.000
1728626765.898,2.441,-19.531,-26.855,-18.555,0.000
1728626765.902,-10.254,-23.438,-28.320,-23.926,0.000
1728626765.906,-39.062,-32.715,-31.738,-21.484,0.000
1728626765.910,-38.574,-36.133,-29.297,-15.625,0.000
1728626765.913,-5.371,-26.855,-30.273,-15.137,0.000
1728626765.917,22.461,-20.508,-29.297,-10.742,0.000
1728626765.921,16.113,-27.344,-27.832,-4.395,0.000
1728626765.925,-25.391,-44.922,-41.504,-10.742,0.000
1728626765.929,-44.922,-48.340,-40.527,-20.020,0.000
1728626765.933,-21.973,-31.250,-20.996,-15.625,0.000
1728626765.937,12.695,-24.902,-20.996,-10.742,0.000
1728626765.941,7.812,-25.879,-31.250,-21.973,0.000
1728626765.945,-39.551,-38.086,-38.574,-37.109,0.000
1728626765.949,-66.895,-49.316,-42.969,-49.805,0.000
1728626765.953,-33.203,-36.133,-36.133,-40.527,0.000
1728626765.956,7.324,-33.691,-29.785,-31.250,0.000
1728626765.960,-1.953,-50.293,-35.645,-29.785,0.000
1728626765.964,-45.410,-62.988,-45.898,-38.574,0.000
1728626765.968,-74.219,-64.941,-48.340,-51.758,0.000
1728626765.972,-56.641,-53.223,-40.527,-41.992,0.000
1728626765.976,-28.809,-37.109,-27.832,-41.992,0.000
1728626765.980,-23.926,-36.133,-31.250,-44.434,0.000
1728626765.984,-52.246,-46.875,-47.363,-45.410,0.000
1728626765.988,-83.008,-53.223,-56.641,-49.805,0.000
1728626765.992,-73.242,-38.086,-46.387,-50.781,0.000
1728626765.996,-35.156,-24.414,-27.344,-44.922,0.000
1728626765.999,-14.160,-32.715,-28.320,-34.668,0.000
1728626766.003,-39.551,-43.945,-41.016,-41.016,0.000
1728626766.007,-74.219,-50.293,-46.875,-44.922,0.000
1728626766.011,-65.430,-42.969,-31.738,-35.156,0.000
1728626766.015,-36.133,-39.062,-25.391,-21.484,0.000
1728626766.019,-24.414,-35.645,-32.715,-15.137,0.000
1728626766.023,-44.434,-36.133,-38.086,-35.156,0.000
1728626766.027,-68.359,-52.246,-51.270,-47.852,0.000
1728626766.031,-59.082,-47.852,-41.016,-45.410,0.000
1728626766.035,-24.414,-29.785,-22.461,-32.715,0.000
1728626766.038,-2.930,-25.391,-21.484,-19.531,0.000
1728626766.042,-23.438,-32.227,-30.273,-17.090,0.000
1728626766.046,-60.059,-43.457,-41.016,-25.391,0.000
1728626766.050,-62.500,-38.574,-38.086,-23.926,0.000
1728626766.054,-20.508,-27.344,-21.484,-16.113,0.000
1728626766.058,13.672,-29.297,-21.973,-10.254,0.000
1728626766.062,-7.812,-32.715,-33.691,0.488,0.000
1728626766.066,-53.711,-34.668,-39.062,-13.184,0.000
1728626766.070,-55.176,-35.645,-28.809,-21.484,0.000
1728626766.074,-7.812,-27.832,-14.160,5.859,0.000
1728626766.078,14.648,-23.926,-15.137,2.930,0.000
1728626766.081,-5.859,-31.250,-27.832,-11.230,0.000
1728626766.085,-41.992,-38.086,-44.922,-16.602,0.000
1728626766.089,-51.270,-33.203,-43.945,-24.902,0.000
1728626766.093,-22.461,-19.043,-26.367,-16.113,0.000
1728626766.097,1.465,-15.137,-21.484,-14.160,0.000
1728626766.101,-1.465,-22.949,-31.250,-13.672,0.000
1728626766.105,-32.715,-41.016,-46.875,-18.555,0.000
1728626766.109,-59.570,-43.457,-51.270,-26.855,0.000
1728626766.113,-35.645,-25.879,-28.809,-17.578,0.000
1728626766.117,-0.488,-29.297,-20.508,-19.043,0.000
1728626766.120,-13.184,-46.387,-38.574,-24.414,0.000
1728626766.124,-47.852,-58.594,-48.340,-35.645,0.000
1728626766.128,-62.988,-60.547,-43.457,-41.016,0.000
1728626766.132,-40.527,-52.734,-32.715,-30.762,0.000
1728626766.136,-11.719,-45.410,-28.320,-26.855,0.000
1728626766.140,-14.160,-40.527,-33.203,-19.043,0.000
1728626766.144,-48.340,-45.410,-45.898,-20.020,0.000
1728626766.148,-68.359,-53.711,-54.688,-40.527,0.000
1728626766.152,-34.668,-58.594,-46.875,-33.203,0.000
1728626766.156,1.953,-51.270,-33.691,-23.438,0.000
1728626766.160,-10.742,-39.551,-37.598,-31.250,0.000
1728626766.163,-48.340,-48.340,-54.688,-33.203,0.000
1728626766.167,-69.336,-55.664,-61.035,-41.504,0.000
1728626766.171,-53.711,-41.992,-46.875,-49.316,0.000
1728626766.175,-16.602,-37.109,-38.086,-37.598,0.000
1728626766.179,0.000,-40.039,-36.621,-23.926,0.000
1728626766.183,0.000,-47.852,-41.504,-31.738,0.000
1728626766.187,0.000,-49.316,-50.781,-42.480,0.000
1728626766.191,0.000,-41.504,-39.062,-27.832,0.000
1728626766.195,0.000,-38.086,-23.438,-18.066,0.000
1728626766.199,0.000,-36.133,-23.926,-19.043,0.000
1728626766.203,0.000,-36.133,-41.992,-26.367,0.000
1728626766.206,0.000,-40.039,-53.223,-35.156,0.000
1728626766.210,0.000,-40.039,-41.504,-24.902,0.000
1728626766.214,0.000,-34.668,-32.715,-15.137,0.000
1728626766.218,0.000,-24.902,-33.203,-20.996,0.000
1728626766.222,0.000,-24.902,-45.410,-26.367,0.000
1728626766.226,-41.504,-28.809,-54.688,-31.250,0.000
1728626766.230,-36.133,-20.020,-48.340,-26.855,0.000
1728626766.234,-4.395,-6.348,-36.133,-20.020,0.000
1728626766.238,14.648,-5.859,-30.762,-15.137,0.000
1728626766.242,-3.906,-15.625,-39.062,-10.742,0.000
1728626766.246,-43.457,-27.832,-51.270,-18.555,0.000
1728626766.249,-60.059,-33.203,-47.852,-35.156,0.000
1728626766.253,-29.297,-26.855,-33.203,-28.320,0.000
1728626766.257,0.000,-36.133,-33.203,-18.066,0.000
1728626766.261,-17.090,-48.340,-28.809,-32.715,0.000
1728626766.265,-42.969,-51.270,-28.809,-36.621,0.000
1728626766.269,-48.828,-46.387,-34.668,-34.668,0.000
1728626766.273,0.000,-32.227,-22.461,-24.902,0.000
1728626766.277,0.000,-23.438,-18.555,-16.602,0.000
1728626766.281,0.000,-26.367,-26.855,-24.414,0.000
1728626766.285,0.000,-46.387,-36.621,-30.762,0.000
1728626766.289,0.000,-48.828,-39.551,-33.691,0.000
1728626766.292,0.000,-43.457,-26.855,-28.809,0.000
1728626766.296,0.000,-42.480,-20.996,-29.785,0.000
1728626766.300,0.000,-53.711,-30.273,-23.438,0.000
1728626766.304,0.000,-70.312,-41.016,-25.879,0.000
1728626766.308,0.000,-62.012,-35.156,-54.199,0.000
1728626766.312,0.000,-57.617,-31.250,-56.152,0.000
1728626766.316,0.000,-46.387,-27.344,-44.434,0.000
1728626766.320,-20.996,-28.809,-20.996,-36.133,0.000
1728626766.324,-46.875,-30.273,-31.250,-38.574,0.000
1728626766.328,-66.406,-43.945,-34.180,-49.316,0.000
1728626766.331,-52.246,-48.340,-28.809,-43.945,0.000
1728626766.335,-17.578,-37.109,-23.926,-35.645,0.000
1728626766.339,-11.230,-32.227,-24.902,-36.133,0.000
1728626766.343,-34.668,-40.527,-30.273,-35.645,0.000
1728626766.347,-54.688,-53.223,-38.574,-33.203,0.000
1728626766.351,-48.828,-42.480,-26.367,-31.738,0.000
1728626766.355,-12.695,-20.508,-21.484,-32.715,0.000
1728626766.359,8.789,-14.648,-32.227,-27.344,0.000
1728626766.363,-11.719,-26.855,-35.156,-24.414,0.000
1728626766.367,-40.527,-36.621,-36.621,-32.715,0.000
1728626766.371,-31.250,-30.273,-30.762,-32.715,0.000
1728626766.374,0.977,-24.902,-27.344,-20.508,0.000
1728626766.378,6.348,-20.508,-35.156,-16.113,0.000
1728626766.382,-24.414,-19.531,-46.387,-26.855,0.000
1728626766.386,-52.734,-29.785,-50.781,-39.551,0.000
1728626766.390,-34.668,-39.551,-44.434,-30.273,0.000
1728626766.394,-2.930,-21.973,-30.762,-22.949,0.000
1728626766.398,5.859,-1.465,-17.090,-23.438,0.000
1728626766.402,-17.578,-21.484,-35.645,-20.996,0.000
1728626766.406,-60.547,-42.480,-51.270,-34.668,0.000
1728626766.410,-69.336,-38.086,-39.551,-44.922,0.000
1728626766.413,-33.203,-24.414,-26.367,-39.551,0.000
1728626766.417,-9.766,-19.043,-30.273,-32.227,0.000
1728626766.421,-32.227,-34.180,-42.480,-41.016,0.000
1728626766.425,-69.336,-47.852,-43.945,-55.664,0.000
1728626766.429,-79.590,-46.387,-41.016,-57.617,0.000
1728626766.433,-38.086,-41.992,-32.715,-40.527,0.000
1728626766.437,0.488,-38.574,-27.832,-23.438,0.000
1728626766.441,-24.414,-33.203,-32.227,-33.691,0.000
1728626766.445,-71.777,-46.875,-48.828,-54.688,0.000
1728626766.449,-78.613,-56.641,-52.734,-55.664,0.000
1728626766.453,-43.457,-45.410,-39.062,-41.504,0.000
1728626766.456,-14.648,-31.250,-27.344,-30.273,0.000
1728626766.460,-26.367,-31.738,-29.297,-33.691,0.000
1728626766.464,-61.523,-51.270,-47.852,-46.875,0.000
1728626766.468,-71.777,-56.152,-48.340,-52.246,0.000
1728626766.472,-44.434,-35.645,-31.250,-51.758,0.000
1728626766.476,-15.137,-22.461,-26.367,-46.875,0.000
1728626766.480,-17.090,-33.203,-40.039,-38.086,0.000
1728626766.484,-43.945,-39.551,-51.758,-40.039,0.000
1728626766.488,-68.848,-30.273,-42.969,-50.781,0.000
1728626766.492,-49.316,-30.273,-28.809,-48.340,0.000
1728626766.495,-12.695,-25.879,-24.902,-31.250,0.000
1728626766.499,-10.742,-20.020,-25.391,-23.438,0.000
1728626766.503,-41.992,-28.809,-33.203,-28.320,0.000
1728626766.507,-64.453,-41.504,-46.387,-46.875,0.000
1728626766.511,-43.457,-42.969,-41.016,-51.270,0.000
1728626766.515,-13.184,-39.062,-30.762,-32.227,0.000
1728626766.519,-9.766,-36.133,-35.645,-27.832,0.000
1728626766.523,-33.203,-31.738,-41.992,-27.832,0.000
1728626766.527,-52.734,-28.320,-47.363,-28.809,0.000
1728626766.531,-42.969,-23.438,-39.062,-33.203,0.000
1728626766.535,-15.137,-17.090,-19.531,-19.531,0.000
1728626766.538,-7.324,-24.902,-26.855,-10.254,0.000
1728626766.542,-32.715,-37.109,-39.062,-12.207,0.000
1728626766.546,-61.523,-33.691,-38.086,-25.391,0.000
1728626766.550,-56.152,-32.715,-36.133,-33.691,0.000
1728626766.554,-19.043,-32.227,-31.250,-22.949,0.000
1728626766.558,-5.859,-34.668,-28.809,-18.555,0.000
1728626766.562,-32.715,-38.574,-32.227,-25.391,0.000
1728626766.566,-62.500,-45.410,-40.039,-36.621,0.000
1728626766.570,-54.688,-39.551,-41.016,-35.156,0.000
1728626766.574,-20.508,-23.438,-35.156,-29.785,0.000
1728626766.578,-6.348,-24.414,-34.180,-30.762,0.000
1728626766.581,-24.902,-31.738,-39.551,-34.180,0.000
1728626766.585,-54.688,-49.805,-49.316,-36.621,0.000
1728626766.589,-55.664,-56.641,-43.945,-31.738,0.000
1728626766.593,-25.879,-46.875,-28.809,-33.203,0.000
1728626766.597,-13.672,-43.945,-32.715,-40.527,0.000
1728626766.601,-34.180,-48.340,-45.898,-44.922,0.000
1728626766.605,-67.383,-50.781,-50.293,-51.270,0.000
1728626766.609,-72.266,-48.340,-42.969,-48.340,0.000
1728626766.613,-34.180,-44.434,-37.109,-39.062,0.000
1728626766.617,-3.418,-37.109,-33.691,-37.109,0.000
1728626766.621,-9.277,-34.180,-34.180,-29.297,0.000
1728626766.624,-47.363,-44.922,-46.875,-32.715,0.000
1728626766.628,-60.547,-60.059,-45.410,-41.504,0.000
1728626766.632,-26.855,-49.805,-29.785,-26.367,0.000
1728626766.636,5.371,-26.855,-19.531,-12.695,0.000
1728626766.640,-13.184,-32.227,-25.879,-16.602,0.000
1728626766.644,-56.152,-49.805,-40.527,-28.809,0.000
1728626766.648,-65.918,-47.852,-43.945,-36.133,0.000
1728626766.652,-36.621,-29.785,-32.227,-25.391,0.000
1728626766.656,0.977,-17.578,-23.438,-11.230,0.000
1728626766.660,5.859,-21.484,-34.180,-1.953,0.000
1728626766.664,-25.391,-32.715,-48.340,-10.254,0.000
1728626766.667,-48.828,-34.668,-44.434,-23.438,0.000
1728626766.671,-30.273,-30.273,-28.320,-17.578,0.000
1728626766.675,6.348,-28.320,-30.273,-9.766,0.000
1728626766.679,4.395,-27.832,-35.156,-9.766,0.000
1728626766.683,-33.691,-28.809,-39.062,-21.484,0.000
1728626766.687,-55.176,-47.363,-47.852,-27.832,0.000
1728626766.691,-39.062,-45.898,-26.855,-24.414,0.000
1728626766.695,-7.324,-25.879,-14.648,-24.414,0.000
1728626766.699,3.418,-20.508,-21.484,-25.879,0.000
1728626766.703,-16.113,-29.785,-38.086,-18.066,0.000
1728626766.706,-52.734,-38.086,-51.270,-26.855,0.000
1728626766.710,-49.316,-38.086,-36.621,-37.598,0.000
1728626766.714,-16.113,-32.715,-26.855,-24.414,0.000
1728626766.718,-2.441,-29.785,-31.250,-18.066,0.000
1728626766.722,-25.879,-35.645,-36.621,-24.414,0.000
1728626766.726,-61.035,-39.551,-40.039,-37.109,0.000
1728626766.730,-59.082,-39.551,-35.645,-43.457,0.000
1728626766.734,-25.879,-46.875,-34.668,-29.297,0.000
1728626766.738,-12.207,-49.805,-39.551,-27.832,0.000
1728626766.742,-37.109,-39.551,-37.598,-37.109,0.000
1728626766.746,-56.641,-43.457,-43.457,-46.387,0.000
1728626766.749,-52.246,-49.805,-46.875,-45.898,0.000
1728626766.753,-26.855,-47.852,-32.715,-35.156,0.000
1728626766.757,-2.441,-42.969,-33.691,-39.551,0.000
1728626766.761,-22.461,-43.945,-46.875,-39.551,0.000
1728626766.765,-52.246,-55.176,-59.570,-35.156,0.000
1728626766.769,-53.223,-45.898,-53.711,-41.016,0.000
1728626766.773,-30.762,-22.461,-26.855,-39.062,0.000
1728626766.777,-3.906,-22.949,-20.996,-26.855,0.000
1728626766.781,-11.719,-25.391,-34.668,-23.438,0.000
1728626766.785,-54.199,-24.414,-44.434,-34.180,0.000
1728626766.789,-66.406,-23.926,-35.645,-35.156,0.000
1728626766.792,-28.809,-23.438,-22.949,-15.137,0.000
1728626766.796,3.418,-19.043,-18.066,-4.883,0.000
1728626766.800,-1.953,-16.113,-22.949,-7.324,0.000
1728626766.804,-41.992,-22.461,-37.598,-16.602,0.000
1728626766.808,-54.688,-28.320,-37.598,-21.484,0.000
1728626766.812,-22.949,-29.785,-29.297,-6.836,0.000
1728626766.816,4.883,-15.625,-18.066,-1.953,0.000
1728626766.820,4.395,-1.953,-13.672,-14.160,0.000
1728626766.824,-29.785,-24.414,-37.109,-27.832,0.000
1728626766.828,-54.199,-34.180,-40.527,-33.203,0.000
1728626766.831,-38.574,-21.484,-20.508,-22.949,0.000
1728626766.835,-9.277,-18.066,-11.719,-10.254,0.000
1728626766.839,-3.418,-22.461,-18.555,-12.207,0.000
1728626766.843,-34.668,-35.645,-30.273,-30.273,0.000
1728626766.847,-56.152,-35.645,-31.250,-37.598,0.000
1728626766.851,-32.715,-31.738,-23.926,-28.809,0.000
1728626766.855,4.395,-33.691,-20.020,-14.160,0.000
1728626766.859,-0.488,-34.668,-23.438,-14.648,0.000
1728626766.863,-43.457,-38.086,-32.227,-29.297,0.000
1728626766.867,-76.660,-48.340,-48.828,-44.922,0.000
1728626766.870,-62.012,-50.293,-43.457,-52.246,0.000
1728626766.874,-25.879,-42.969,-23.438,-40.527,0.000
1728626766.878,-21.973,-39.551,-23.926,-33.691,0.000
1728626766.882,-35.645,-41.992,-37.598,-39.551,0.000
1728626766.886,-58.594,-54.688,-42.480,-44.922,0.000
1728626766.890,-70.312,-51.270,-32.715,-33.691,0.000
1728626766.894,-40.527,-39.062,-22.461,-31.738,0.000
1728626766.898,-18.066,-42.969,-27.344,-33.691,0.000
1728626766.902,-38.086,-53.711,-43.945,-32.715,0.000
1728626766.906,-65.430,-55.176,-48.828,-48.340,0.000
1728626766.910,-53.711,-42.480,-34.180,-44.434,0.000
1728626766.913,-12.695,-32.227,-28.320,-23.926,0.000
1728626766.917,2.930,-27.832,-33.691,-18.555,0.000
1728626766.921,-29.785,-38.086,-34.180,-20.996,0.000
1728626766.925,-66.406,-54.688,-44.922,-32.715,0.000
1728626766.929,-59.570,-40.039,-43.945,-36.621,0.000
1728626766.933,-9.277,-20.996,-26.367,-26.855,0.000
1728626766.937,15.625,-21.484,-21.973,-21.973,0.000
1728626766.941,-7.812,-28.320,-35.156,-19.043,0.000
1728626766.945,-38.086,-42.480,-52.246,-16.113,0.000
1728626766.949,-45.898,-46.387,-53.223,-22.461,0.000
1728626766.953,-12.207,-25.879,-34.180,-22.461,0.000
1728626766.956,21.484,-14.160,-21.973,-11.230,0.000
1728626766.960,12.695,-24.414,-33.691,-0.977,0.000
1728626766.964,-28.809,-32.227,-49.316,-20.508,0.000
1728626766.968,-50.293,-37.109,-41.504,-45.898,0.000
1728626766.972,-22.461,-37.598,-26.367,-32.227,0.000
1728626766.976,2.441,-30.762,-29.785,-20.996,0.000
1728626766.980,-17.578,-37.598,-42.480,-24.902,0.000
1728626766.984,-54.688,-45.898,-51.270,-38.574,0.000
1728626766.988,-72.266,-47.852,-52.246,-53.711,0.000
1728626766.992,-49.316,-48.340,-41.504,-48.340,0.000
1728626766.996,-14.160,-40.527,-35.156,-38.574,0.000
1728626766.999,-20.996,-33.691,-38.086,-33.203,0.000
1728626767.003,-56.152,-46.875,-43.945,-29.785,0.000
1728626767.007,-71.777,-62.012,-52.734,-31.250,0.000
1728626767.011,-52.246,-45.410,-37.598,-37.598,0.000
1728626767.015,-18.066,-41.992,-26.855,-42.480,0.000
1728626767.019,-17.090,-53.223,-37.598,-35.156,0.000
1728626767.023,-55.664,-53.223,-50.781,-39.062,0.000
1728626767.027,-81.055,-49.316,-56.641,-49.316,0.000
1728626767.031,-59.570,-45.410,-42.969,-39.062,0.000
1728626767.035,-20.508,-51.270,-31.250,-31.250,0.000
1728626767.039,-17.578,-49.805,-33.203,-37.598,0.000
1728626767.042,-40.039,-37.598,-41.016,-33.691,0.000
1728626767.046,-59.570,-41.992,-42.480,-36.621,0.000
1728626767.050,-50.293,-46.875,-38.086,-32.227,0.000
1728626767.054,-25.391,-41.992,-36.133,-25.879,0.000
1728626767.058,-14.160,-33.203,-32.715,-25.879,0.000
1728626767.062,-28.320,-30.273,-38.086,-19.531,0.000
1728626767.066,-62.012,-34.180,-49.316,-35.156,0.000
1728626767.070,-52.246,-30.762,-42.480,-39.551,0.000
1728626767.074,-4.395,-16.113,-27.344,-23.926,0.000
1728626767.078,16.113,-20.020,-34.668,-6.348,0.000
1728626767.082,-11.719,-35.645,-43.457,0.488,0.000
1728626767.085,-48.340,-40.527,-46.387,-13.184,0.000
1728626767.089,-41.016,-29.785,-37.109,-21.484,0.000
1728626767.093,1.953,-17.578,-21.973,-9.277,0.000
1728626767.097,23.438,-20.020,-20.508,0.000,0.000
1728626767.101,0.000,-15.137,-21.973,-3.906,0.000
1728626767.105,-30.273,-21.973,-34.668,-13.672,0.000
1728626767.109,-27.344,-28.809,-36.133,-16.113,0.000
1728626767.113,8.789,-15.137,-22.949,-4.395,0.000
1728626767.117,32.715,-4.883,-26.855,-1.465,0.000
1728626767.121,10.254,-19.531,-36.133,-17.090,0.000
1728626767.124,-28.320,-34.180,-45.898,-24.902,0.000
1728626767.128,-37.598,-27.344,-38.574,-27.832,0.000
1728626767.132,-11.719,-15.137,-21.973,-30.273,0.000
1728626767.136,12.207,-13.184,-26.855,-28.320,0.000
1728626767.140,-8.789,-31.738,-37.598,-25.879,0.000
1728626767.144,-52.734,-45.898,-45.410,-29.297,0.000
1728626767.148,-65.918,-39.551,-44.434,-43.945,0.000
1728626767.152,-26.367,-33.691,-37.109,-34.180,0.000
1728626767.156,0.977,-28.809,-30.273,-21.484,0.000
1728626767.160,-24.414,-35.645,-37.598,-32.227,0.000
1728626767.164,-64.453,-52.246,-48.340,-42.480,0.000
1728626767.167,-82.520,-57.129,-52.246,-49.805,0.000
1728626767.171,-57.617,-46.875,-44.434,-45.410,0.000
1728626767.175,-29.297,-34.180,-38.086,-34.668,0.000
1728626767.179,-33.691,-41.992,-45.898,-36.133,0.000
1728626767.183,-62.012,-63.965,-62.012,-53.223,0.000
1728626767.187,-81.055,-73.730,-71.777,-59.082,0.000
1728626767.191,-62.500,-52.734,-48.340,-52.246,0.000
1728626767.195,-30.762,-36.621,-32.715,-56.152,0.000
1728626767.199,-18.555,-52.246,-45.410,-48.828,0.000
1728626767.203,-43.457,-53.223,-49.316,-38.086,0.000
1728626767.206,-62.988,-41.504,-50.781,-47.852,0.000
1728626767.210,-45.410,-35.645,-47.363,-43.457,0.000
1728626767.214,-8.301,-26.855,-35.156,-23.926,0.000
1728626767.218,4.395,-24.902,-37.598,-15.625,0.000
1728626767.222,-19.043,-31.250,-46.875,-19.531,0.000
1728626767.226,-43.457,-34.180,-52.246,-22.461,0.000
1728626767.230,-24.902,-33.691,-47.363,-13.184,0.000
1728626767.234,20.508,-27.344,-29.785,6.836,0.000
1728626767.238,39.551,-23.438,-20.508,3.906,0.000
1728626767.242,7.324,-32.227,-31.738,-8.301,0.000
1728626767.246,-41.016,-39.551,-43.945,-5.371,0.000
1728626767.249,-36.621,-31.250,-35.645,-11.230,0.000
1728626767.253,7.324,-18.066,-22.461,-4.883,0.000
1728626767.257,19.531,-13.184,-26.367,7.324,0.000
1728626767.261,-17.578,-28.809,-32.715,-0.488,0.000
1728626767.265,-44.922,-44.434,-39.551,-17.090,0.000
1728626767.269,-34.180,-35.645,-33.691,-15.137,0.000
1728626767.273,2.441,-26.367,-16.113,-3.418,0.000
1728626767.277,16.113,-28.809,-20.020,-6.348,0.000
1728626767.281,-13.184,-34.180,-31.250,-14.648,0.000
1728626767.285,-53.223,-43.457,-43.457,-24.414,0.000
1728626767.289,-57.129,-47.852,-45.410,-30.762,0.000
1728626767.292,-23.926,-37.598,-33.691,-29.785,0.000
1728626767.296,-6.836,-21.973,-25.391,-29.297,0.000
1728626767.300,-19.043,-25.879,-30.273,-34.180,0.000
1728626767.304,0.000,-47.363,-43.945,-43.457,0.000
1728626767.308,0.000,-51.758,-44.922,-46.875,0.000
1728626767.312,0.000,-38.086,-27.832,-41.504,0.000
1728626767.316,0.000,-34.180,-24.902,-43.457,0.000
1728626767.320,0.000,-46.387,-43.457,-41.016,0.000
1728626767.324,0.000,-56.152,-62.988,-50.781,0.000
1728626767.328,0.000,-55.664,-60.547,-65.430,0.000
1728626767.332,0.000,-50.781,-45.410,-59.082,0.000
1728626767.335,0.000,-49.316,-46.387,-48.340,0.000
1728626767.339,0.000,-49.316,-52.246,-47.852,0.000
1728626767.343,0.000,-50.293,-54.688,-59.570,0.000
1728626767.347,0.000,-57.129,-58.594,-57.617,0.000
1728626767.351,-39.551,-45.898,-47.852,-42.480,0.000
1728626767.355,-9.277,-29.297,-35.156,-29.785,0.000
1728626767.359,-21.484,-35.156,-37.109,-31.738,0.000
1728626767.363,-58.105,-56.152,-55.176,-37.598,0.000
1728626767.367,-75.195,-64.453,-65.918,-36.133,0.000
1728626767.371,-41.992,-42.969,-52.734,-29.785,0.000
1728626767.375,-9.277,-25.391,-36.133,-26.367,0.000
1728626767.378,-14.160,-28.809,-37.598,-22.949,0.000
1728626767.382,-37.598,-45.898,-52.246,-16.602,0.000
1728626767.386,-54.199,-46.387,-44.922,-17.578,0.000
1728626767.390,-34.180,-30.273,-26.855,-21.484,0.000
1728626767.394,14.648,-26.367,-21.484,0.000,0.000
1728626767.398,0.000,-21.973,-27.344,2.930,0.000
1728626767.402,0.000,-28.320,-38.574,-15.625,0.000
1728626767.406,0.000,-39.551,-41.992,-22.949,0.000
1728626767.410,0.000,-39.551,-35.156,-20.508,0.000
1728626767.414,0.000,-32.227,-27.832,-11.719,0.000
1728626767.417,0.000,-27.344,-24.902,-11.719,0.000
1728626767.421,0.000,-33.203,-35.156,-32.715,0.000
1728626767.425,0.000,-46.387,-50.293,-44.922,0.000
1728626767.429,0.000,-48.340,-39.062,-42.480,0.000
1728626767.433,0.000,-34.668,-20.020,-41.992,0.000
1728626767.437,0.000,-37.109,-29.785,-47.852,0.000
1728626767.441,0.000,-47.852,-48.340,-57.129,0.000
1728626767.445,-70.801,-49.805,-56.152,-56.641,0.000
1728626767.449,-86.426,-44.922,-48.828,-54.199,0.000
1728626767.453,-46.875,-40.039,-33.691,-44.434,0.000
1728626767.457,-20.996,-41.504,-31.738,-33.203,0.000
1728626767.460,-47.852,-54.688,-39.062,-27.344,0.000
1728626767.464,-84.473,-63.965,-48.828,-36.133,0.000
1728626767.468,-75.195,-55.664,-49.316,-53.711,0.000
1728626767.472,-40.039,-48.340,-41.016,-44.922,0.000
1728626767.476,-28.809,-38.086,-39.062,-36.133,0.000
1728626767.480,-51.758,-39.062,-51.758,-47.363,0.000
1728626767.484,-84.961,-61.523,-62.988,-58.594,0.000
1728626767.488,-90.820,-66.406,-63.477,-63.477,0.000
1728626767.492,-57.617,-41.992,-42.969,-56.152,0.000
1728626767.496,-30.762,-38.086,-41.016,-55.176,0.000
1728626767.500,-33.203,-54.199,-57.129,-48.340,0.000
1728626767.503,-58.105,-46.875,-63.477,-42.480,0.000
1728626767.507,-69.824,-36.621,-63.965,-58.105,0.000
1728626767.511,-35.645,-27.832,-47.852,-56.641,0.000
1728626767.515,3.906,-20.996,-40.527,-35.645,0.000
1728626767.519,0.977,-22.949,-44.434,-19.531,0.000
1728626767.523,-33.203,-24.414,-48.828,-25.391,0.000
1728626767.527,-46.875,-36.133,-51.270,-34.180,0.000
1728626767.531,-15.625,-35.156,-40.527,-30.273,0.000
1728626767.535,17.090,-19.043,-29.297,-18.555,0.000
1728626767.539,7.812,-14.648,-33.203,-13.672,0.000
1728626767.542,-23.438,-19.531,-45.898,-26.367,0.000
1728626767.546,-42.480,-31.250,-46.875,-38.574,0.000
1728626767.550,-24.414,-28.320,-31.738,-31.250,0.000
1728626767.554,3.418,-21.484,-27.832,-11.719,0.000
1728626767.558,5.371,-21.484,-29.785,-8.301,0.000
1728626767.562,-18.555,-35.645,-38.086,-13.184,0.000
1728626767.566,-39.062,-39.551,-39.062,-21.484,0.000
1728626767.570,-35.156,-25.879,-28.809,-35.645,0.000
1728626767.574,-7.324,-27.832,-23.438,-30.762,0.000
1728626767.578,-5.371,-29.297,-19.531,-29.297,0.000
1728626767.582,-31.250,-39.062,-25.879,-36.621,0.000
1728626767.585,-59.082,-50.781,-39.062,-46.875,0.000
1728626767.589,-58.105,-46.387,-31.250,-39.551,0.000
1728626767.593,-16.602,-33.203,-15.625,-23.438,0.000
1728626767.597,-16.113,-37.109,-23.926,-29.785,0.000
1728626767.601,-48.828,-57.129,-38.574,-35.645,0.000
1728626767.605,-66.895,-65.430,-47.363,-28.320,0.000
1728626767.609,-56.152,-51.758,-37.598,-30.762,0.000
1728626767.613,-20.996,-34.668,-19.531,-39.062,0.000
1728626767.617,4.883,-30.762,-23.926,-29.785,0.000
1728626767.621,-22.461,-38.574,-37.598,-25.879,0.000
1728626767.624,-70.312,-48.828,-43.457,-35.645,0.000
1728626767.628,-66.895,-41.504,-33.691,-41.992,0.000
1728626767.632,-23.438,-34.180,-26.367,-40.039,0.000
1728626767.636,-6.348,-37.109,-27.344,-40.527,0.000
1728626767.640,-29.297,-39.062,-36.133,-33.691,0.000
1728626767.644,-55.176,-41.992,-49.316,-35.156,0.000
1728626767.648,-54.199,-42.480,-44.922,-32.715,0.000
1728626767.652,-19.531,-36.621,-36.133,-21.484,0.000
1728626767.656,15.625,-21.973,-26.855,-9.766,0.000
1728626767.660,9.277,-13.184,-16.602,2.930,0.000
1728626767.664,-24.414,-22.461,-29.297,-8.789,0.000
1728626767.667,-36.621,-28.320,-34.180,-19.531,0.000
1728626767.671,-14.648,-21.973,-17.578,-9.766,0.000
1728626767.675,18.066,-19.531,-10.742,2.930,0.000
1728626767.679,10.254,-28.809,-26.367,2.930,0.000
1728626767.683,-27.344,-36.133,-38.086,-6.836,0.000
1728626767.687,-50.293,-24.902,-30.762,-15.625,0.000
1728626767.691,-27.832,-13.672,-19.531,-15.137,0.000
1728626767.695,12.695,-14.160,-19.043,-13.184,0.000
1728626767.699,8.789,-16.602,-32.715,-18.555,0.000
1728626767.703,-32.715,-14.648,-37.598,-29.297,0.000
1728626767.707,-57.617,-21.973,-35.645,-39.551,0.000
1728626767.710,-24.902,-35.645,-34.180,-29.785,0.000
1728626767.714,4.395,-35.156,-31.250,-20.996,0.000
1728626767.718,-15.625,-30.273,-34.668,-34.668,0.000
1728626767.722,-36.621,-28.809,-40.039,-33.691,0.000
1728626767.726,-53.223,-34.668,-34.668,-36.133,0.000
1728626767.730,-42.969,-39.062,-23.926,-40.527,0.000
1728626767.734,-4.395,-26.367,-22.461,-34.180,0.000
1728626767.738,-2.441,-21.484,-32.227,-27.344,0.000
1728626767.742,-37.109,-26.367,-41.992,-28.809,0.000
1728626767.746,-62.500,-39.062,-46.387,-37.109,0.000
1728626767.750,-52.246,-41.992,-38.086,-42.969,0.000
1728626767.753,-26.855,-35.645,-28.320,-41.992,0.000
1728626767.757,-14.648,-46.387,-32.715,-31.738,0.000
1728626767.761,-49.316,-50.293,-43.945,-39.551,0.000
1728626767.765,-89.844,-52.734,-49.316,-56.152,0.000
1728626767.769,-72.266,-56.641,-41.016,-55.176,0.000
1728626767.773,-36.621,-39.551,-30.273,-43.945,0.000
1728626767.777,-22.461,-22.949,-30.273,-35.645,0.000
1728626767.781,-35.645,-39.062,-36.133,-34.668,0.000
1728626767.785,-54.199,-55.176,-43.457,-42.969,0.000
1728626767.789,-51.270,-43.945,-36.621,-41.016,0.000
1728626767.793,-21.484,-43.945,-26.367,-26.367,0.000
1728626767.796,0.977,-42.969,-32.227,-23.926,0.000
1728626767.800,-17.090,-42.969,-52.246,-20.020,0.000
1728626767.804,-44.922,-40.039,-53.711,-12.207,0.000
1728626767.808,-42.480,-25.391,-33.691,-28.320,0.000
1728626767.812,-7.324,-21.484,-25.391,-30.273,0.000
1728626767.816,16.602,-20.996,-29.785,-14.160,0.000
1728626767.820,-5.371,-20.508,-32.715,-10.254,0.000
1728626767.824,-39.062,-24.414,-35.156,-12.695,0.000
1728626767.828,-41.016,-34.180,-41.504,-16.113,0.000
1728626767.832,-11.230,-30.273,-34.180,-15.137,0.000
1728626767.835,12.207,-20.996,-30.762,-10.254,0.000
1728626767.839,-12.207,-29.785,-42.480,-13.672,0.000
1728626767.843,-49.805,-40.527,-50.293,-26.367,0.000
1728626767.847,-53.223,-40.527,-48.340,-33.691,0.000
1728626767.851,-19.531,-25.879,-26.367,-32.227,0.000
1728626767.855,5.859,-16.602,-16.113,-35.645,0.000
1728626767.859,-8.789,-26.367,-31.250,-35.156,0.000
1728626767.863,-41.016,-40.527,-49.805,-23.926,0.000
1728626767.867,0.000,-39.551,-50.293,-26.855,0.000
1728626767.871,0.000,-28.320,-37.109,-33.203,0.000
1728626767.875,0.000,-24.414,-34.668,-32.227,0.000
1728626767.878,0.000,-23.438,-37.109,-35.156,0.000
1728626767.882,0.000,-41.016,-44.434,-46.875,0.000
1728626767.886,0.000,-58.105,-51.758,-53.223,0.000
1728626767.890,0.000,-55.176,-43.945,-44.922,0.000
1728626767.894,0.000,-43.457,-38.574,-37.598,0.000
1728626767.898,0.000,-30.762,-38.574,-47.852,0.000
1728626767.902,0.000,-39.062,-46.387,-49.316,0.000
1728626767.906,0.000,-52.246,-58.594,-48.340,0.000
1728626767.910,0.000,-51.270,-54.688,-50.781,0.000
1728626767.914,-25.879,-36.621,-41.504,-48.828,0.000
1728626767.917,-25.391,-28.320,-41.016,-39.062,0.000
1728626767.921,-51.758,-39.062,-58.594,-42.969,0.000
1728626767.925,-72.266,-44.434,-64.453,-50.293,0.000
1728626767.929,-45.898,-37.109,-44.434,-33.691,0.000
1728626767.933,-7.324,-32.715,-33.691,-25.879,0.000
1728626767.937,2.930,-41.016,-44.922,-19.531,0.000
1728626767.941,-28.809,-45.410,-51.758,-25.879,0.000
1728626767.945,-60.059,-40.039,-49.316,-44.922,0.000
1728626767.949,-50.781,-33.203,-36.621,-36.621,0.000
1728626767.953,-11.230,-23.438,-22.461,-28.320,0.000
1728626767.957,3.418,-23.926,-28.320,-30.762,0.000
1728626767.960,-32.715,-31.738,-33.691,-29.785,0.000
1728626767.964,-65.430,-36.621,-40.039,-28.809,0.000
1728626767.968,-47.363,-26.367,-36.133,-22.949,0.000
1728626767.972,-1.953,-9.277,-16.602,-15.625,0.000
1728626767.976,12.207,-6.836,-13.672,-7.324,0.000
1728626767.980,-9.277,-28.320,-32.227,-6.348,0.000
1728626767.984,-31.250,-41.992,-41.016,-18.555,0.000
1728626767.988,-40.039,-23.438,-23.926,-27.832,0.000
1728626767.992,-16.602,-16.602,-15.625,-29.297,0.000
1728626767.996,1.953,-28.809,-21.973,-19.043,0.000
1728626767.999,-22.461,-34.180,-30.762,-20.020,0.000
1728626768.003,-61.035,-36.133,-42.969,-43.457,0.000
1728626768.007,-58.594,-36.133,-44.434,-54.199,0.000
1728626768.011,-22.949,-28.809,-22.461,-36.621,0.000
1728626768.015,-1.465,-29.297,-14.160,-30.273,0.000
1728626768.019,-16.113,-36.621,-22.949,-34.668,0.000
1728626768.023,-46.875,-52.246,-33.691,-28.320,0.000
1728626768.027,-56.152,-55.176,-34.180,-33.203,0.000
1728626768.031,-26.855,-39.551,-20.020,-25.879,0.000
1728626768.035,4.395,-28.809,-18.066,-16.113,0.000
1728626768.039,-10.742,-34.668,-30.762,-29.297,0.000
1728626768.042,-56.152,-53.711,-48.340,-44.922,0.000
1728626768.046,-76.660,-50.781,-45.898,-53.711,0.000
1728626768.050,-46.875,-37.598,-37.109,-47.852,0.000
1728626768.054,-9.277,-36.133,-34.668,-32.227,0.000
1728626768.058,-12.695,-41.504,-32.715,-33.691,0.000
1728626768.062,-57.129,-55.176,-41.504,-44.434,0.000
1728626768.066,-76.660,-60.059,-43.457,-39.551,0.000
1728626768.070,-44.922,-44.434,-29.297,-30.273,0.000
1728626768.074,-3.418,-35.156,-20.996,-16.602,0.000
1728626768.078,-3.906,-43.457,-27.344,-13.672,0.000
1728626768.082,-44.922,-49.805,-38.086,-29.785,0.000
1728626768.085,-59.570,-58.594,-45.898,-31.250,0.000
1728626768.089,-33.203,-47.852,-37.598,-24.414,0.000
1728626768.093,-7.324,-25.391,-22.949,-20.020,0.000
1728626768.097,2.930,-25.879,-23.438,-16.113,0.000
1728626768.101,-24.902,-34.180,-32.227,-17.090,0.000
1728626768.105,-60.547,-39.062,-33.203,-26.367,0.000
1728626768.109,-39.062,-29.297,-22.461,-22.949,0.000
1728626768.113,4.395,-11.230,-20.996,-9.766,0.000
1728626768.117,7.812,-8.789,-31.738,-8.789,0.000
1728626768.121,-20.508,-25.391,-43.945,-10.254,0.000
1728626768.125,-46.387,-42.480,-46.875,-19.531,0.000
1728626768.128,-33.203,-31.250,-27.832,-11.719,0.000
1728626768.132,8.301,-21.484,-18.066,0.977,0.000
1728626768.136,16.602,-22.461,-23.438,-12.207,0.000
1728626768.140,-15.625,-25.879,-31.738,-20.996,0.000
1728626768.144,-42.969,-34.668,-40.527,-22.949,0.000
1728626768.148,-44.922,-29.297,-34.668,-24.414,0.000
1728626768.152,-10.742,-14.160,-19.531,-28.809,0.000
1728626768.156,8.789,-18.066,-20.020,-30.762,0.000
1728626768.160,-17.090,-31.250,-33.203,-27.832,0.000
1728626768.164,-54.688,-43.457,-44.434,-44.434,0.000
1728626768.168,-59.570,-42.480,-39.062,-47.363,0.000
1728626768.171,-22.949,-34.668,-31.250,-37.598,0.000
1728626768.175,2.930,-38.086,-38.574,-28.320,0.000
1728626768.179,-20.020,-39.551,-48.340,-22.949,0.000
1728626768.183,-59.082,-45.898,-54.199,-43.457,0.000
1728626768.187,-66.895,-61.523,-53.711,-57.617,0.000
1728626768.191,-31.250,-47.852,-39.551,-44.922,0.000
1728626768.195,-1.953,-30.762,-31.250,-34.668,0.000
1728626768.199,-22.949,-37.109,-41.016,-41.504,0.000
1728626768.203,-60.059,-56.641,-59.082,-56.641,0.000
1728626768.207,-75.195,-66.406,-58.594,-55.176,0.000
1728626768.211,-46.387,-50.781,-43.945,-38.574,0.000
1728626768.214,-9.277,-33.691,-45.410,-27.344,0.000
1728626768.218,-18.555,-37.598,-53.711,-29.785,0.000
1728626768.222,-53.711,-52.246,-61.523,-36.133,0.000
1728626768.226,-59.570,-52.734,-61.523,-38.574,0.000
1728626768.230,-34.180,-39.551,-39.062,-32.715,0.000
1728626768.234,-8.301,-31.250,-24.414,-20.020,0.000
1728626768.238,-6.836,-33.691,-31.250,-9.277,0.000
1728626768.242,-40.039,-32.715,-33.203,-4.395,0.000
1728626768.246,-69.336,-38.574,-38.086,-20.020,0.000
1728626768.250,-46.875,-39.551,-37.109,-24.414,0.000
1728626768.253,-8.301,-26.855,-28.320,-13.672,0.000
1728626768.257,-8.301,-26.855,-23.926,-5.859,0.000
1728626768.261,-36.133,-28.320,-37.598,-12.207,0.000
1728626768.265,-52.246,-37.109,-55.664,-24.414,0.000
1728626768.269,-35.645,-34.668,-44.434,-25.879,0.000
1728626768.273,-4.883,-16.602,-33.203,-38.086,0.000
1728626768.277,4.395,-22.461,-35.156,-28.809,0.000
1728626768.281,-24.902,-34.180,-40.039,-21.484,0.000
1728626768.285,-60.059,-32.715,-48.828,-38.574,0.000
1728626768.289,-44.434,-21.973,-39.062,-41.992,0.000
1728626768.293,-11.230,-15.625,-33.203,-32.227,0.000
1728626768.296,-3.418,-20.996,-39.551,-30.273,0.000
1728626768.300,-30.762,-38.086,-46.875,-34.668,0.000
1728626768.304,-52.246,-50.293,-50.293,-38.086,0.000
1728626768.308,-41.504,-42.969,-45.410,-39.551,0.000
1728626768.312,-20.508,-36.133,-41.992,-34.668,0.000
1728626768.316,-2.441,-22.949,-34.668,-35.645,0.000
1728626768.320,-19.531,-23.438,-36.621,-44.434,0.000
1728626768.324,-51.758,-41.504,-53.711,-50.293,0.000
1728626768.328,-53.223,-38.574,-52.246,-52.734,0.000
1728626768.332,-29.785,-36.133,-41.504,-48.828,0.000
1728626768.335,-11.719,-39.551,-36.133,-42.969,0.000
1728626768.339,-31.738,-50.293,-48.828,-49.805,0.000
1728626768.343,-69.336,-55.664,-60.547,-55.664,0.000
1728626768.347,-71.777,-43.457,-51.758,-53.223,0.000
1728626768.351,-37.109,-33.691,-38.086,-37.598,0.000
