,TP9,AF7,AF8,TP10
0,-0.17131093019639237,-0.13215452509275932,-0.06848607483621683,-0.0021655448447144565
1,-0.5777033455681508,-0.50524265361047,-0.32941705155842205,-0.08852180066533372
2,-1.3182333401443196,-1.2611962584810663,-0.9282865933909368,-0.38862679083884677
3,-2.4114517436530774,-2.4489526084428297,-1.9527266542448813,-1.0461696281289845
4,-3.914960498187079,-3.9614505715901167,-3.3556877635099194,-2.1151290132473166
5,-5.745046222896464,-5.906409389623207,-5.058040388588514,-3.4660804736328066
6,-7.48171683258373,-8.050183212118334,-6.909368731417806,-5.063549219629373
7,-8.716954649776355,-9.917440147448644,-8.531551245501475,-6.565854171088999
8,-9.282145028225548,-11.140774961494817,-9.631839877669197,-7.665991470888662
9,-9.260595291975333,-11.636635929091891,-10.14099244607368,-8.249887624475997
10,-9.255384453199005,-11.50724040406881,-10.14956734092452,-8.378239381658629
11,-9.368645472273073,-11.550784339466947,-10.14911225038444,-8.30217742214939
12,-9.17289126153814,-11.78271599132263,-10.224038276944777,-8.300355713617023
13,-8.24408136005864,-11.454127519811788,-10.069054386532963,-8.336988934523252
14,-6.557516774517129,-10.006255660960827,-9.303999382094942,-8.009025888481629
15,-4.354864823432368,-7.2721352330443825,-7.860401370585434,-7.185196114457686
16,-2.026757994933724,-3.5390525403229205,-5.872763156997467,-5.843267908931172
17,0.1345630040838094,0.5161866069022005,-3.6595682166101806,-4.146985634115555
18,2.29166795603604,4.17306556535093,-1.5148515766904576,-2.350553816572526
19,4.292211023865971,7.7567380536733195,0.6701285644656318,-0.5531319948279381
20,6.005195747331214,10.75099165587006,2.8062553311663967,1.292702374082476
21,7.375987120906496,12.798672508702403,4.879722734995688,3.194577733598907
22,8.612884657391229,13.828207392433765,6.881427560201601,5.144708486170053
23,9.711366065397096,14.009178747189125,8.792794389637692,7.032672821125146
24,10.558330169124938,13.942917236041204,10.558092881920938,8.83402865034926
25,11.04184215848114,13.91563539476777,12.345164195437583,10.46631414500035
26,11.159016786968401,13.825841674248236,13.971107081836145,11.744977704020737
27,11.072266021431865,13.133310103134482,15.188301323507607,12.5547528784485
28,11.092583436630887,11.894300390451072,15.85895491232395,12.903518026671126
29,11.15918881549787,10.032319897404786,15.985008385499066,12.881838155203091
30,10.894940840680821,8.09034617155237,15.967086588762134,12.871750413047494
31,10.204309978596166,6.6635001400290115,15.991250029572967,12.946505743588794
32,9.18079156859677,5.8317193027767775,15.898838958677333,12.824215982563333
33,8.105030220416,5.603135899547922,15.20045117354599,12.254700717943312
34,7.26178550091295,5.756099842296503,13.842726074808231,11.215576691599072
35,6.757117773773486,5.76137188237814,11.986549191083006,9.871899061570433
36,6.43648191350988,5.718439145640846,9.989706739796203,8.51313992514613
37,6.269988893192277,5.948625675261531,8.17732163475783,7.3301304581542
38,6.233101897825966,6.315980262334885,6.473244452434657,6.111006240563935
39,6.228263383116352,6.677642789665714,4.879839300662232,4.760028346023236
40,6.081969123047145,6.8457694484378875,3.3970538294225046,3.2198709829498005
41,5.661042657671057,6.9381933009586065,2.020873639033815,1.572673133408487
42,4.9777524258035895,6.919455421651629,0.7436189353440211,-0.02335826333686042
43,4.112092214404075,6.805598915971927,-0.4496824571900327,-1.557314178301565
44,3.127137907387701,6.163413900934997,-1.5711088526062351,-2.8541935417285647
45,2.012526692670587,4.960388114182736,-2.6143137750575614,-3.7688702350202528
46,0.7232350181773768,3.3582122188839785,-3.5612354399160058,-4.249295034765747
47,-0.6976473044041365,1.682245026694582,-4.409389318996399,-4.342771036657824
48,-2.1473117669129547,0.21299622022189976,-5.178581639907099,-4.324300514109653
49,-3.56334875956487,-1.134034069834894,-5.879783514242737,-4.25788512925582
50,-4.975516989341567,-2.3008289621547133,-6.540304669411088,-4.186951068996915
51,-6.400432823506746,-3.2818949485873956,-7.151258399906326,-4.0124131239799805
52,-7.948725195297238,-4.077078063886198,-7.6385292625976176,-3.837875178963045
53,-9.39076985491341,-4.710217713821028,-7.948444718601748,-3.749147239335446
54,-10.453255383800634,-5.221275070473042,-8.082944648842005,-3.713252493847409
55,-11.013787033925622,-5.7850691275341015,-8.072059729723668,-3.7288773732403726
56,-11.14929911371978,-6.373328717032536,-8.07930558152496,-3.768503473388738
57,-11.01823648232288,-6.870940881069544,-8.118193554880033,-4.020083813336472
58,-11.037525170949028,-7.177499558136052,-8.059480950833956,-4.483173134417704
59,-11.173481185458195,-7.2579074736983635,-7.763666916494318,-5.093496611983759
60,-11.008297158928228,-7.230539481192502,-7.1733120924756015,-5.735989366058981
61,-10.348924199554842,-7.246287659541779,-6.301179720674269,-6.324140241121957
62,-9.098670187122636,-7.244696371692234,-5.237153247395666,-6.828392736328257
63,-7.3574012619460465,-6.9707203417730215,-4.096126173362167,-7.177441431694634
64,-5.420469018855004,-6.39075099669601,-2.8823363521288403,-7.34250818467704
65,-3.626239287111136,-5.602020342331366,-1.6937552106600768,-7.327335204768856
66,-1.9821497634190957,-4.819143392472766,-0.6037395489949368,-7.363498672353931
67,-0.6002733084892629,-4.24659855992498,0.4053543112057981,-7.436888496326413
68,0.5834638720799534,-3.889131673457691,1.2382882377973514,-7.334521015887854
69,1.7591112844359054,-3.631631544260856,1.8057577554460469,-6.7838806088474986
70,2.8982327904215923,-3.405446791345679,2.0863133706629915,-5.655812299832762
71,3.8135283345274744,-3.075035588445003,2.1264569052944724,-3.9544758905824615
72,4.351902559058253,-2.6784475295289676,2.1032096948001486,-1.843270530683555
73,4.5225843079030685,-2.3241336250788356,2.118155463876879,0.4121854982076555
74,4.453355637802652,-2.1031779423756207,2.1044607876802366,2.6810977382657812
75,4.481426974559256,-2.048808840550767,1.8515912622884694,4.767304915637103
76,4.515587017984699,-2.0451732721535847,1.3026687942158346,6.377095065118649
77,4.343795713329377,-2.0813300426489607,0.5105081219178519,7.367203819881885
78,4.002332384671833,-2.129484148501464,-0.46129314662236476,7.802842293586508
79,3.609235243090751,-2.2350804791592083,-1.3480295899010213,7.846787772173846
80,3.3939620681960165,-2.3406768098169524,-1.995508963929661,7.823193247748776
81,3.3284758154767182,-2.3859923294386527,-2.3374160624428213,7.832766704988226
82,3.3391104840608503,-2.426569008504324,-2.3958307317803422,7.780233156024558
83,3.1667148475184357,-2.4276480398503053,-2.386970071875531,7.398462972346521
84,2.9552476362767415,-2.374630950561211,-2.384217951625415,6.640743092478513
85,2.765400761296367,-2.118735632265204,-2.327832875071508,5.55497080412967
86,2.76791550827531,-1.648365604081389,-2.028261778357896,4.31411660547503
87,2.8587231417795342,-1.111322170246262,-1.508110757769155,3.102776348416218
88,2.736066299688475,-0.7091901760033795,-0.8632228571552937,1.8849296137286284
89,2.3176031109710005,-0.5486738770004218,-0.2451356811983145,0.6972735668224177
90,1.512328567844479,-0.5181325578786983,0.2245379750530727,-0.6398701051131894
91,0.4169571858373645,-0.5166045772771736,0.676697825426926,-1.9638724501217268
92,-0.7371895159271211,-0.46077387062065556,1.070186085684008,-3.009810727655277
93,-1.669445887099575,-0.36542012571710036,1.3627177180021723,-3.599168946297942
94,-2.35074999796693,-0.2914067487760078,1.5286344561882368,-3.7490369144552957
95,-2.7448659260520247,-0.2890686755677205,1.576128181007689,-3.6227186975397117
96,-2.9849867278931312,-0.31159348207538995,1.5427220421098662,-3.6239225678517335
97,-3.251178277103325,-0.27618921094706894,1.54276554262107,-3.736692474468467
98,-3.5970904080470874,-0.13102296624854665,1.5802886032545698,-3.5695391359735584
99,-3.9758141499605544,0.09792300786170244,1.522517600763595,-3.0319828569355396
100,-4.313065998697635,0.37218109784106423,1.3117665948868829,-2.18020072768114
101,-4.555413821033524,0.6556941687281546,0.9277066989691285,-1.2476924579619861
102,-4.700183501036801,0.9321625393736663,0.41443372325309175,-0.4450708194724314
103,-4.768221368780941,1.2368925871623397,-0.1410775397574194,0.05398828933695607
104,-4.77402806030516,1.5113876382637794,-0.6709069591181579,0.3953384943082642
105,-4.761349579057513,1.6897579274927244,-1.1948486900264466,0.5722099646608008
106,-4.7746472336226535,1.761977066711943,-1.6944266212583208,0.6060388908265094
107,-4.785878152674345,1.802592345825997,-2.104719303022147,0.5999904135085842
108,-4.702389113151175,1.906214142206708,-2.3732873471437035,0.6148599306639388
109,-4.427600278252383,2.1763231981831686,-2.494449383727021,0.626448190178859
110,-3.916883516617498,2.545003388479859,-2.5024089940122654,0.35545938933535354
111,-3.233805867250262,2.8768878688994195,-2.4897903794908935,-0.14481129620244915
112,-2.5099737045731163,3.072559789032971,-2.5028277616326458,-0.6919696448552848
113,-1.8094389099242922,3.1236966844575726,-2.498225999756129,-1.079507779727586
114,-1.0992125041681007,3.0855678263180364,-2.375496022381364,-1.182105112005179
115,-0.30733186558934356,3.0836924520707396,-2.0815172884997235,-1.1389500564675403
116,0.5636088634562424,3.1107095268396563,-1.5920150411186522,-1.1411193972232174
117,1.4386416464141694,3.0596190865040644,-0.9343661822912347,-1.1632596051539008
118,2.2389853299588394,2.9316138975247736,-0.1910943056203587,-0.944159997907731
119,3.086394261158909,2.763711411798026,0.6654559156338055,-0.268714262520292
120,3.9206503791534315,2.6118378078044096,1.481234534833296,0.6941831230088308
121,4.606547622013898,2.5168237768425534,2.088570616085322,1.592850536748036
122,5.018955277937196,2.4779606077860534,2.4110135987555656,2.1217289118071885
123,5.137269537173606,2.4195238853771226,2.4872157851550467,2.250291435311107
124,5.078227088529978,2.3080830989265206,2.437801528277271,2.1762148610292043
125,5.018467604736358,2.1660967578227006,2.3952375200642297,2.103104269969258
126,5.049339949073905,2.0356073024343595,2.4192753445415933,2.140864156854143
127,5.049339949073905,1.9487799267482147,2.4192753445415933,2.140864156854143
128,-0.09833767084264142,-0.0703284297948713,-0.09044364763839596,-0.08293993923559895
129,-0.2986308102500881,-0.3704129552686726,-0.41344694459696396,-0.35210187001792637
130,-0.6679138056290594,-1.0382395478782118,-1.1291660294956374,-0.9499544534792735
131,-1.2839422140736274,-2.1355922712116153,-2.326996761598079,-1.9630954537343053
132,-2.208030023427059,-3.558155448334249,-3.930974455653862,-3.3158214175354916
133,-3.5594647136992705,-5.300171421319301,-6.04134562113436,-5.029900876805902
134,-5.112088333320316,-6.986364800248765,-8.314996544220502,-6.804689049788093
135,-6.448950337613624,-8.248457984535726,-10.223659936683688,-8.237325071998058
136,-7.2653656069799295,-8.919645290344882,-11.407790653419426,-9.09113858109189
137,-7.537863819696375,-9.064946262861199,-11.832990878835432,-9.385722931301933
138,-7.441271951034444,-8.962227056888256,-11.680749723385887,-9.269938167489116
139,-7.442584644447275,-8.944944786521557,-11.688813082543291,-9.28386741556229
140,-7.544062979366252,-8.997240212937943,-11.893211708403312,-9.435843826516136
141,-7.379905045139212,-8.735589744252884,-11.624139048191852,-9.234092756981727
142,-6.777781997662696,-8.063276559649124,-10.476001842770687,-8.37208269096304
143,-5.737001386549815,-6.939556458737069,-8.327438718871358,-6.713277853736238
144,-4.376458075590897,-5.450731752836344,-5.403271807552678,-4.359308935169605
145,-2.8882093968701223,-3.7603611391158593,-2.2013037810074705,-1.662467753524648
146,-1.4239148848772547,-1.9519912958302252,0.8183771498721946,0.9687069715492951
147,0.14906786999663335,-0.022662250186090804,3.787730904381918,3.5288074198238233
148,1.7369535041453066,1.931072558036895,6.526121418809043,5.80611650673955
149,3.3007738703217093,3.8478552245592326,8.938629078974866,7.752769929103366
150,5.0356049952144,5.666137472972944,11.13986832285431,9.537176596842755
151,6.730953524638752,7.306826491681575,12.956074446875,11.050224164501145
152,8.058707741846831,8.68251177064953,14.202454892287818,12.117077988275607
153,8.80019904734333,9.7413131615998,14.832174430767363,12.662309822222479
154,8.955347836873639,10.499562738400583,14.94524327761956,12.740455888406148
155,8.887919414431435,11.03967982149719,14.89388157380439,12.726822460898664
156,8.86181973329929,11.41087083606083,14.880040946030103,12.75298692536517
157,8.829342610173791,11.642190056302574,14.841366102962393,12.655946370514034
158,8.409176280273083,11.75217803781847,14.447852884737328,12.076476140520318
159,7.62863765898377,11.766848400774258,13.69321919889606,11.029462670199697
160,6.632095771969272,11.75137851515507,12.641006956416009,9.685320689556542
161,5.658558066046031,11.751578575398522,11.442125699191731,8.310630457400913
162,4.681459374391415,11.751535101535268,10.249140712488622,7.107023868275795
163,3.7115741495432166,11.696456243710214,9.03770444499451,5.9704813331832565
164,2.903353047200919,11.555638379264218,7.864210019725125,4.93245531091999
165,2.399372908196015,11.269076121448245,6.766682337275135,4.011710593682276
166,2.2801812726145467,10.745966184546608,5.719659935452757,3.1601412494281607
167,2.3090801388250304,9.881746220411975,4.663354922240168,2.2957762104158737
168,2.258747153770332,8.606516798225721,3.5600450498514022,1.3248362812915837
169,2.2780657841194394,6.979504979023571,2.435178682127274,0.3318458919306859
170,2.883647588451841,5.166414057041273,1.3497691218508046,-0.47694460824949936
171,4.27205806779303,3.3278961330409427,0.34018645688328064,-0.9620420325324622
172,6.347226142061926,1.5514668299736596,-0.4726701530909081,-1.1341198802681074
173,9.071961087577868,-0.1500319557528642,-0.9868257689045576,-1.0961945742524675
174,11.711029506452117,-1.8148022698156223,-1.2367156305101483,-1.0911570256018654
175,13.711945630363678,-3.506549939247866,-1.285350343938283,-1.13884904800162
176,14.82593418733214,-5.316336690587898,-1.2557685560531937,-1.071209198928113
177,15.04852899685349,-7.2874502647535735,-1.295486453207482,-0.7638423469293635
178,14.95344928572785,-9.09610249305492,-1.4361599246043664,-0.16230732666405223
179,14.993639936744593,-10.387241369036644,-1.5682275767119138,0.7212269350682756
180,14.978186875673448,-11.007077301913316,-1.5964273194997136,1.7591527375200093
181,14.032051091848347,-11.092187182261906,-1.6064799025137315,2.7166136693407337
182,11.9382691868611,-10.959470871477759,-1.8011158581576505,3.4449092457097334
183,8.280844445383433,-10.9346865928666,-2.53890648407124,3.828367892957785
184,4.106109447800142,-11.051556062135939,-4.073756814125219,4.054881774990615
185,0.7962687621441116,-10.92198613238033,-6.342274382319204,4.4179209813581455
186,-1.0570583639686602,-10.495983732780054,-8.855009594605262,4.993742585749561
187,-1.4472005768620668,-9.963590472926583,-10.923924582493465,5.653738101303293
188,-1.464129909988137,-9.356814525812235,-12.180498858115048,6.198373305991
189,-1.174764785621123,-8.899394500866471,-12.617752645928524,8.126808426810259
190,-0.7681150587963428,-9.02177913084335,-12.525547630832767,11.368405828762059
191,0.12420697990985091,-9.140316214038485,-12.503839524400274,14.950053899154053
192,1.0165290186160445,-7.779938920590736,-12.657687454153765,17.632309229481837
193,1.2189005167474352,-3.4975630683181884,-12.548891697694435,18.139378701319146
194,1.623524896340184,4.386345075746088,-11.662367560887292,18.695086179780787
195,2.4833876306065688,14.895083615198425,-9.736873908870045,19.480494571352807
196,1.944498930638828,25.357332551092718,-6.751629975953462,18.165952182838424
197,-3.3421582394851344,33.33269986789008,-2.973701133712031,10.68602455704201
198,-15.246869288531839,38.05720060843006,1.1315569432105772,-3.6522792789099654
199,-33.078033563449296,40.156794849008165,5.3350873193705945,-24.3025617121045
200,-51.09732051953156,41.29898157314955,9.357006820467422,-44.84947023498341
201,-63.44026383965595,43.28442231282949,13.174708512261464,-58.93225927598723
202,-69.03685555352035,47.31631848689642,17.137903566371598,-66.16835203019912
203,-69.291955428463,53.665141084919995,21.847551628161145,-67.18530902102299
204,-69.12610913433662,62.297817855539016,27.870550906901073,-66.92400080324136
205,-69.75592775937125,72.93178198975005,35.544148400754686,-67.0768480143655
206,-68.30449368138657,83.17868743715883,44.95439188603573,-65.90085809401455
207,-60.97093796686099,90.72236101673734,55.97121721282737,-58.998688309149024
208,-47.40493553047437,94.53188289276991,67.88639023892337,-46.114403366491224
209,-29.232070480682488,94.70765122236782,81.84930835182725,-28.60505864421877
210,-9.7104357256259,94.8285356295523,95.61765940467491,-9.409495084333624
211,8.06281392510769,95.46423005477183,106.37039534083577,8.427689577109986
212,25.92438089900623,94.20918651471985,112.45632273225756,26.881847025111032
213,41.85090539574535,87.71035738585252,113.79774752425585,43.06300133228656
214,53.681915082312344,75.13004274605167,113.14548526287683,54.51995273467283
215,60.36915917308389,57.341032776215755,113.46181306357009,60.390963605300584
216,62.540300914842845,36.728888343040296,113.63582065277683,61.422555026940515
217,61.80322888891578,15.504905762704364,108.46233452646604,60.98164409249563
218,61.673645870748494,-7.356041677133746,95.93757468342247,60.92775289896877
219,62.477286520945526,-31.109932955225574,75.70234144806689,60.51765079941028
220,61.43154108506994,-55.39908095791019,49.628752146982,56.39752805235148
221,57.096006643612164,-79.89114943461354,20.529842830066222,48.33013076044438
222,49.21825900872285,-104.26771836349567,-10.822563493883129,37.0477790186884
223,38.739722739356374,-128.1929634749235,-44.472891825692074,24.367333496791588
224,27.45115450289721,-151.26422872070182,-79.33781658575697,12.059205724954861
225,16.853080009337095,-172.63498777983298,-114.45004780636366,-0.18324458376510044
226,6.210549125995485,-193.27099597554863,-148.78047137675344,-11.985947509587408
227,-3.8152924217775253,-210.98994823890172,-180.82448559628568,-22.79561537430362
228,-12.890658325248335,-223.49036478770492,-211.694834498461,-33.09157590694257
229,-20.880717344422337,-229.95636906319214,-238.04041256277185,-41.908788738819275
230,-27.96805071074924,-230.98264031132652,-256.46734617269306,-48.16348395073113
231,-33.59539528726555,-230.83540268449866,-265.8771449669961,-51.44646530093363
232,-37.27196408122068,-230.99269721642648,-267.3613364520304,-52.26321383436436
233,-38.98415829134337,-230.0072293434887,-267.05105649387394,-51.6157513595362
234,-39.136573932909165,-223.49967304390083,-267.1252814407257,-51.54300166361626
235,-39.05268051732713,-210.81020423800834,-265.78419597993906,-52.144274625225265
236,-39.139485995455374,-192.79026032505536,-257.24455424826624,-51.51174932257044
237,-38.84796099099582,-171.8907786467562,-240.9861289133774,-48.96264077592694
238,-37.16323530618241,-150.49013247796714,-218.3390317474554,-44.22850331945624
239,-34.01382531795065,-127.76630890882957,-192.52081565824759,-37.79524677868591
240,-29.68853958975084,-104.51939760014334,-166.39654040358977,-30.63690198606121
241,-24.75963810300052,-81.10535048895838,-138.496638596864,-23.524869476019663
242,-19.66481636375311,-57.782017839710164,-109.77286671187755,-15.9265160335266
243,-14.043353321593722,-34.8152211512793,-80.66006096603357,-8.179760537877044
244,-8.17108723317014,-12.503132076552278,-51.575421067360125,-0.5916552297127615
245,-2.36887090833458,8.884478284285382,-22.92695507513244,6.4554783562074896
246,2.98392763386207,28.554073827554703,4.110013656243247,12.812064840750208
247,8.031638406644143,49.06203501548172,32.47988165659267,18.312961653113014
248,12.287086224448789,68.33664984361756,58.98136316448523,22.472111481381983
249,15.26169204654675,83.21682161012805,79.19935858155269,25.004454792111066
250,16.78944338601354,91.7259291759197,90.57425534923665,26.04214647365343
251,17.136634470902717,94.16023486593159,93.72201663305896,26.105960658927255
252,16.899542643908863,93.00564967089898,92.14179011619578,25.872383649264815
253,16.704501784121124,91.71125615494452,90.45435861786838,25.823314923485267
254,16.819252983020537,92.37426518981653,91.33455130343218,25.88885954582508
255,16.819252983020537,92.37426518981653,91.33455130343218,25.88885954582508
256,-0.19579199659132296,-0.6303584590175455,-0.8704701584102876,-0.24915287792820862
257,-0.7689371281016398,-2.550197065386818,-3.6196545944380043,-1.0957013563669398
258,-1.946046914912884,-6.479183600920516,-9.224971641048361,-2.9265698273988425
259,-3.79477008167329,-12.661542769076489,-17.861341288293893,-5.841074282524582
260,-6.345351410025894,-20.518238294341355,-28.877161791300345,-9.959299662352064
261,-9.445769799896246,-30.522448923765737,-42.16580689243166,-14.728149862287548
262,-12.370976089701186,-40.62944955673279,-54.92809823654814,-18.96310699423219
263,-14.453611425145208,-48.51818561396341,-64.41309146454255,-21.756141661069172
264,-15.440452491025443,-52.90991792077604,-69.3694722754046,-22.90874905861789
265,-15.44908357625551,-53.79626400056351,-69.93599067648825,-22.74295554110773
266,-15.45687776405335,-53.44186118109005,-69.97386196306493,-22.753505086310508
267,-15.616645758119098,-53.60059760085498,-70.39678388267744,-23.084179941283814
268,-15.278300057235457,-53.45407468892861,-69.21183502357235,-22.576205465102483
269,-13.721839115000453,-49.63161732509825,-62.60823298364445,-20.2638680811007
270,-10.916680635117219,-41.192524739344286,-49.868180343645236,-15.894345585016248
271,-7.254033654621978,-28.41116959945056,-31.976376462008005,-9.835865639769969
272,-3.403788840728205,-13.083875240345119,-11.597458855983033,-3.018682486501867
273,0.0991438782164249,2.4960893231973227,8.590595143733612,3.592897698515253
274,3.5418977689557147,17.73206063142851,29.06042366133041,10.01011977427743
275,6.779860256908661,32.06901228904739,48.205179525379876,16.092293708378865
276,9.816883408776338,45.50567364767747,66.29819523241292,21.13914195431742
277,12.755562296020868,57.293305209218246,81.39733024772038,24.583014899893566
278,15.759291457797222,66.11373420061355,91.7369117324342,26.32275128405487
279,18.875391358153145,71.2649502888239,96.90191773437276,26.70880246486769
280,22.313435418183516,73.11682782150214,97.79132280252152,26.41286454357104
281,25.758388104969814,72.76417048333818,97.36501373746536,26.334693234354795
282,28.580547586180103,72.6013560876465,97.23616013239607,26.524985229798496
283,30.33913356872116,73.03117479864517,96.9181461575814,26.085576094663004
284,31.008203672259633,72.39495686938612,93.75347881341084,24.893340094120003
285,30.81824501917044,69.75249255696737,87.74499227678083,22.99814445640876
286,30.850545985206182,65.1203446035029,79.60155636901398,20.76754559578125
287,31.172209502156957,59.2389200742041,70.80642842233652,18.70344392363599
288,30.80424462750334,53.319373306849904,62.6812767937787,17.063744195956108
289,28.906481057048836,48.25587914642088,54.82420331051037,15.648476491493874
290,25.034010761386252,43.394514488491915,47.39597330372833,14.463028775631416
291,19.30001308208377,38.83927048595524,40.48779781146753,13.452070991155619
292,12.441812737808755,34.43791446329852,34.10081479452436,12.610960638128327
293,5.422366486406697,30.01020539819075,28.193585393627632,11.971957961499086
294,-1.586204170275729,25.420898224399394,22.699273772071777,11.538576015115886
295,-7.975835160144264,20.627043673472194,17.542490029400774,11.243698552772898
296,-13.802317933925618,15.672458959769928,12.655577916677313,10.973263385830728
297,-18.837635228985125,10.639638296228606,7.981772543005041,10.61646185938742
298,-22.605901510663315,5.598968947594937,3.464097521810832,10.088675139635018
299,-24.8237936629518,0.5798339783811362,-0.9524712130572084,9.330858797540772
300,-25.623762677765818,-4.433852403563618,-5.301239577872427,8.314863506895822
301,-25.438274500966845,-9.474397649291822,-9.578371079527175,7.058426812049586
302,-25.4104359317108,-14.536426304917104,-13.745512670058666,5.622654018982016
303,-25.660503733847555,-19.538634982594232,-17.755062027767437,4.0670679800317115
304,-25.304591959261643,-24.325277865109165,-21.58272637755429,2.3978904101226006
305,-23.789070046049613,-28.68413304708656,-25.239859103125625,0.576898949102401
306,-21.058261472270456,-32.52977284064123,-28.75833153012186,-1.4104461560663117
307,-17.47616210980979,-35.750775308460994,-32.16518077436049,-3.5023361247855602
308,-13.672863709161732,-38.10134753760881,-35.40203645400323,-5.581534598517387
309,-10.151899261176972,-39.48271588068741,-38.691483321134484,-7.548005736152594
310,-6.65148307084822,-40.02625111689682,-41.64220886602197,-9.371205870308048
311,-3.4147693617104795,-39.99203253278447,-43.792497989916306,-11.076407015404119
312,-0.6305681531552765,-39.95591804999327,-44.93124728582035,-12.687941533530687
313,1.9702608524440186,-40.05309743424686,-45.17978650243898,-14.193297647247382
314,4.235949666797789,-39.93509273865844,-45.010940653980626,-15.537672117940595
315,5.925932893225143,-39.1974799391238,-44.98887366812603,-16.776187631575617
316,6.885889856300087,-37.69158056771231,-45.06898211288602,-17.803283988695863
317,7.146188663602781,-35.4837904942417,-44.588424476248925,-18.51507747064941
318,6.986031111037337,-32.89694791099328,-43.42924822395557,-18.882689887875706
319,6.976090876437313,-30.346569217954084,-41.64432076885191,-18.96883755924435
320,7.105053271273279,-27.947190156410876,-39.52945464270167,-18.88191351132642
321,6.710254728909949,-25.93721390157021,-37.4512322076747,-18.89265468345907
322,5.635082505059658,-24.351125809217642,-35.523245933538036,-18.98870812767073
323,3.941643982681694,-23.057122912260986,-33.63221701278989,-18.87041528917643
324,1.9691240037394144,-21.85165326480288,-31.821910502608844,-18.388745276080712
325,0.16835573186801056,-20.573892367889496,-30.101796499510712,-17.503599205505356
326,-1.4109416007342879,-19.15970876618077,-28.477448454404414,-16.34322059096504
327,-2.81525709183637,-17.62298559548618,-26.931993910481626,-15.129739323384081
328,-3.837474728692462,-16.01346266239494,-25.41978340594325,-14.018198013376706
329,-4.392157855858782,-14.387384010030646,-23.888614062193025,-12.89797763885484
330,-4.527099206071575,-12.791862074091618,-22.307819763778145,-11.756953040232705
331,-4.434481143360541,-11.249714623998903,-20.66586352822085,-10.586194954661932
332,-4.406719994103073,-9.734408844534338,-18.944993709785702,-9.382113948471051
333,-4.483045220240828,-8.159955867144081,-17.108954489597302,-8.128677583979531
334,-4.333331119332671,-6.414514040750204,-15.107376283275562,-6.826772859888555
335,-3.842651427565543,-4.410155093200739,-12.883829914596696,-5.528209894756574
336,-2.991709064051955,-2.1073687327841233,-10.387309272420158,-4.312166179427472
337,-1.9338161817936526,0.48510415953918407,-7.5827919402581525,-3.209828511936496
338,-0.8959601508843802,3.320912296456024,-4.464464274915712,-2.1574813325138047
339,-0.0028602251749936802,6.327710917147789,-1.0827892766987428,-1.0407379376141355
340,0.7966376840239155,9.40362065909567,2.4413033492154197,0.22161558063715647
341,1.5088864922898517,12.41300867407718,5.926730313194851,1.6500882151460294
342,2.105575080689272,15.217099173580348,9.25692100303372,3.2463740576303044
343,2.657649594315373,17.684097668062872,12.336202382089242,4.980491990970508
344,3.134976231349121,19.934880878689903,14.799406606536133,7.104350257470182
345,3.500305795952899,21.802422165863444,16.383538614490313,9.278782015609588
346,3.7266262299520507,23.100703103546575,17.087829667165337,11.016409397175437
347,3.7712384383821673,23.769273533354898,17.13156926234702,12.00448325635999
348,3.8016039861637405,23.869679442611996,17.07041661049159,12.220338442958102
349,3.833172112170237,23.869724306296714,17.09105484434972,12.131036624362713
350,3.753295804090107,23.89612716164573,17.00250886239656,12.137620028551376
351,3.299728448595964,23.755167015599657,16.41407003598343,12.10356398371723
352,2.40744062165102,23.00289405389399,15.518509007406768,11.395041889274067
353,1.197930897231493,21.664259350154254,14.649788198462728,9.980232027169304
354,-0.06640201757175632,19.965237823454203,14.128066489422132,7.9433319640474735
355,-1.0308498295627315,18.258274816512266,14.063886063180899,5.661260904145734
356,-1.6435326415498863,16.797955391295677,14.14695436990978,3.792473075855097
357,-1.8907166284464478,15.418501859496025,14.142871438931772,2.574380624581796
358,-1.8938341893220632,14.153449594497808,14.081805425900853,2.002456301586831
359,-1.880704417611663,12.990803085840732,14.258355996690721,1.9757143624418858
360,-1.8970881014247427,11.874581422469845,14.733997156843213,2.033681278022347
361,-1.8523665749088718,10.72514293501695,15.56314150881135,1.9953698124703627
362,-1.605715749043553,9.495306266230541,16.611274047230232,2.0308238175319415
363,-1.142472769312223,8.190458651466592,17.54538179653855,2.6276399627788054
364,-0.46511994600040296,6.823379167249627,18.13034435838557,3.6420788977453693
365,0.3925317735857703,5.354323586545053,18.405893082201594,4.702723612983372
366,1.3639866132270995,3.677092525237174,18.384044198779513,5.41382345224121
367,2.4045264181754744,1.6747836059838956,18.392420882962426,5.594094047397104
368,3.4566642896829567,-0.6937582550262655,18.47262396431619,5.446413695153036
369,4.338762834509576,-3.3599179548156752,18.35998572418984,5.470112408614447
370,4.92867950887484,-6.190020974332934,17.7713304492148,5.657059934848735
371,5.222657319110965,-9.057632900298307,16.580725312676293,5.419694198332841
372,5.277228161592397,-11.828463335838126,14.816593233711888,4.487642231513065
373,5.260449957790091,-14.755793726999425,12.681204032959869,2.825947215387966
374,5.25939195095095,-17.490407724361646,10.436922419577895,0.7676969468164665
375,5.241329370602815,-19.56000715782346,8.119077784464679,-1.3269589523051266
376,5.006839731165976,-20.696074550968657,5.962938753608901,-2.9300093353574175
377,4.505704775281035,-20.93942459257492,3.9116996649621023,-4.055169295924759
378,3.643296907307227,-20.838551778500157,2.131799071675188,-4.619948547057017
379,2.4618950087407985,-20.88624260890836,0.8288482188109657,-4.749501469057773
380,1.2970862902351725,-20.694484317424095,0.09960052271982471,-4.663640097300318
381,0.4097450742059886,-19.875597461929964,-0.12299071020934448,-4.5885829042358175
382,-0.03754166125069555,-18.801682728385476,-0.05261144051006912,-4.6321925178056915
383,-0.09926072312108265,-17.89037362428015,0.0427349641699654,-4.6321925178056915
384,-0.04836700371492553,-0.08382874252108902,-0.08640710390742179,-0.04952734020392052
385,-0.1295033913725083,-0.42537067981007093,-0.42265594796438866,-0.2909697497418958
386,-0.33529318905412636,-1.2413605968862622,-1.1782138024678959,-0.8902380567672402
387,-0.7821309412117234,-2.681679367800416,-2.430860627802754,-1.9416620805465088
388,-1.5800693937407266,-4.749401543236395,-4.0904670393492175,-3.3756393622468295
389,-2.7655010244027376,-7.238837546720579,-6.054117480175373,-5.1249815796696225
390,-4.19740587369237,-10.281760990244086,-8.13808947226152,-6.777969215623118
391,-5.940468579668941,-13.299608916789097,-9.935546938020211,-7.967981299860728
392,-7.659319317192351,-15.643041927591067,-11.142217836342352,-8.566943152260325
393,-8.992684748957966,-16.957213862787913,-11.6926269212767,-8.64331402515113
394,-9.748126653574694,-17.296740789167306,-11.694914647213492,-8.642267716234455
395,-9.954926998417555,-17.027992462531948,-11.68779137940226,-8.650521035980413
396,-9.822216958123743,-17.038700490496332,-11.770034944573725,-8.500616770813696
397,-9.785540126211878,-17.30069062025443,-11.606956648109081,-7.891339970649067
398,-9.901606518105394,-16.831384882747006,-10.801271136187406,-6.914833295254562
399,-9.71257050227435,-15.202812558563014,-9.268698922550575,-5.769527476514353
400,-9.056864852529003,-12.21157258520079,-7.127864953033795,-4.697761464054016
401,-7.825603082002483,-8.10129456077436,-4.702134055566063,-3.829039647059033
402,-6.092043535097347,-3.4499236611318578,-2.317946432399989,-2.938732460168522
403,-4.066260266050472,1.248221516873856,0.10217399570571317,-2.025905691132623
404,-1.8988229496241078,6.084935196317005,2.4279163443604634,-0.9896156811068575
405,0.5246752382315043,10.762586099373104,4.636308179119958,0.33520468069137266
406,3.151746393977051,15.01851526943704,6.733342366731762,2.072899947715011
407,6.063763794271535,18.93040058222506,8.682774887588284,4.192658949030815
408,8.929284039054146,22.123213449726478,10.55650361328138,6.499796001439849
409,11.199318968274449,24.274946756912477,12.14661995713565,8.769346526941849
410,12.53738863747485,25.344425541268137,13.250590652673514,10.939077814524424
411,12.995922263227202,25.518513848480197,13.80923090618615,12.745993435180765
412,12.904562283225959,25.473991496693365,13.904518597206872,13.98013910225692
413,12.84398603132607,25.456076890235757,13.869770065302252,14.589781093179607
414,12.904189704060945,25.31135571624454,13.849955677518523,14.669879973853778
415,12.756540204984429,24.478681912494665,13.793085385033372,14.627424137387928
416,12.353788516632257,23.011754012133625,13.434319660744606,14.640509626894119
417,11.836452838475356,21.13907900525507,12.79617942571379,14.571914171390626
418,11.359100434302531,19.239994151915184,11.966652875376523,14.065299841668313
419,11.021082061160065,17.602743382375213,11.103920928518058,13.073235572330661
420,10.817856100997943,16.03097570321265,10.33169736474689,11.662290808251337
421,10.554989200949992,14.540463257415546,9.568316187027104,10.01214876452858
422,10.324515812042439,13.046694473454494,8.847864519309837,8.283972275588463
423,10.13854692107342,11.459313456404447,8.18392436391218,6.410070049548934
424,9.909744352664061,9.740559216625936,7.598343428192217,4.507939211686269
425,9.530409653691354,7.921466508855058,7.10160822568578,2.754190944698279
426,8.972400554056179,6.059304043459516,6.664936661901334,1.1568108782708963
427,8.276801445062555,4.177780872023883,6.215337702596718,-0.12457053037053206
428,7.458777323657786,2.2636214604718963,5.668798092440963,-0.9812395354254675
429,6.477135354882252,0.3170867423485828,4.981724919937548,-1.4165276530411088
430,5.322745561097662,-1.6227133013303192,4.174180298948941,-1.5210804020981405
431,4.088816446080736,-3.4701453977571095,3.3050168728435474,-1.4743837290499282
432,2.903793469187759,-5.2969385921020855,2.430380458445454,-1.4104708236329804
433,1.7916512513169618,-6.892650780340032,1.5796478897129371,-1.4173020175737865
434,0.6297186558805699,-8.035104663015245,0.75349500695524,-1.3715851310244151
435,-0.7174106036443648,-8.631663553876052,-0.06355793438374996,-1.3258682444750438
436,-2.2350389528946524,-8.764211463526465,-0.8905393115783847,-1.3253254661996297
437,-3.765294700637241,-8.673031967588512,-1.7460072418362529,-1.270351064050927
438,-5.160559823328415,-8.636874593751731,-2.642383945477625,-1.2344874151170009
439,-6.389973125850883,-8.648933970276303,-3.5543591213832233,-1.3342055457528632
440,-7.491564667812874,-8.525904792925001,-4.543600418013154,-1.6956596039693521
441,-8.441896918376813,-8.353986975161462,-5.495700507113905,-2.3014047605762498
442,-9.251857592999556,-8.200037446115957,-6.240045830111171,-3.0473794640564016
443,-9.84905421803666,-8.1218275545543,-6.675023851368521,-3.7812505760099997
444,-10.212743933865847,-8.157015207139894,-6.816610492443333,-4.489584636664554
445,-10.388066276757487,-8.155106952163745,-6.75748590583201,-5.191896675612246
446,-10.416031432732114,-8.087722814968036,-6.751492540354535,-5.740590967180823
447,-10.433468989497797,-8.15287265473692,-6.807169551292542,-6.046791972590069
448,-10.444003411705383,-8.485237560195264,-6.71593920472261,-6.117225582707992
449,-10.390188684558495,-9.16926612940983,-6.416912947640668,-6.044989545702834
450,-10.120289829026117,-10.139006678730883,-5.912482904363348,-6.088367082306899
451,-9.585297251486967,-11.383532900328412,-5.272389697689766,-6.159448736168902
452,-8.765772247555299,-12.584484873643012,-4.611717895018917,-5.94067948294244
453,-7.736864377168932,-13.529865936356071,-4.009731514097037,-5.305590701575294
454,-6.644925666744558,-14.056800359716053,-3.3973789842657736,-4.299042890189107
455,-5.528955182548914,-14.156325946469476,-2.70023465354566,-2.9383042332235516
456,-4.455625475504495,-14.134347518699498,-2.000634891299339,-1.6156614753001686
457,-3.3879526923741854,-14.166030077441073,-1.42877815082824,-0.6791265364121021
458,-2.288316351394967,-14.11034168459129,-1.0841931635935391,-0.13139126989998834
459,-1.2475506647278762,-13.537262654667506,-1.006595558920108,0.007953528447732689
460,-0.45479166202324195,-12.353693308934549,-1.015297069775146,-0.07267526102202716
461,-0.022673901596834356,-10.64302139254691,-0.9907390271098513,-0.07726563058025399
462,0.1210796396265185,-8.68179233380364,-1.0304271610024953,-0.023626655606514946
463,0.15786301959367866,-6.789605924609788,-1.4101743839067107,-0.2856029041027686
464,0.22668465525032586,-5.011192427699109,-2.3074307864500314,-0.9697607979906098
465,0.36148443030002064,-3.395390318919044,-3.472552252347649,-1.9958132877503787
466,0.5526563165562693,-1.9577028582214013,-4.481618271243299,-3.0172425112622934
467,0.8363512093514761,-0.6406928288219851,-5.016000124598833,-3.687290125157046
468,1.3082703648806961,0.6298800929396228,-5.109408178252286,-3.9249476361664004
469,2.060880721345701,1.878112266301762,-5.084161038143154,-3.9102908904388687
470,3.1248600632533723,3.0602981398198237,-5.0900597165857615,-3.8976437236358836
471,4.417306127047191,4.223117621082093,-5.026817849742401,-3.926268113145583
472,6.010330514130099,5.230837375134946,-4.559460293366996,-3.8488846377474415
473,7.59512354444899,5.947667037815888,-3.6981753185840605,-3.554399097254553
474,8.822063439070261,6.324966587520997,-2.600141012691632,-3.0867499176196787
475,9.502490917628888,6.381976728426698,-1.550137175810236,-2.5500026344464493
476,9.636789328755297,6.382597849237506,-0.6516075836107894,-1.9915284981726418
477,9.566162270569238,6.408627539418445,0.11368023367390268,-1.467946755812359
478,9.62175027740782,6.339027220121854,0.6764425573869977,-0.9656170432043192
479,9.648854740550913,5.8613419391476445,0.991358874688468,-0.6009576436976269
480,8.98044754473234,4.898554868910211,1.0755076299421389,-0.432313335311812
481,7.294537495959812,3.541857788834982,1.0145893584169074,-0.44228885892796305
482,4.540929575424178,1.9006449378020402,1.032659420965292,-0.43426740010884324
483,1.018709912464446,0.2557549484047427,1.0919097492488203,-0.44157033517034117
484,-2.8046433074039996,-1.1588547208922524,0.9382837986261492,-0.5296987783140159
485,-6.7466546641031115,-2.077690132922679,0.37659489330348317,-0.6873895487255289
486,-10.784555870452309,-2.4611633208051154,-0.45383262795795853,-0.8450803191370418
487,-14.28301392500061,-2.4089074057272613,-1.2462890023231281,-0.9320416994738099
488,-16.6784769725672,-2.4163596506449543,-1.7186571854214436,-0.951230845433761
489,-17.805397479475236,-2.5247098213369763,-1.7821053240987095,-0.9175458727072647
490,-17.8945022444998,-2.3449573086576607,-1.762632596166193,-0.9135494886947573
491,-17.824516814498164,-1.5665906894487938,-1.7481613289443994,-0.7927262084327877
492,-17.884345340973614,-0.13240077806833483,-1.6985842442365435,-0.5208246359780213
493,-17.7002338490008,1.7967202979519301,-1.3943510159459456,-0.06679938347511222
494,-16.631591565798733,3.865261193976787,-0.8435354540046572,0.5811866537539752
495,-14.652053458044866,5.983986330385031,-0.1016544305048899,1.4329963584618874
496,-11.99407729338368,8.130521724428236,0.7166859204045402,2.540364600920546
497,-9.083922122157203,9.865710677762081,1.498235204230785,3.8578387848473303
498,-6.237904193675183,10.925798370622406,2.2583001962396536,5.5023385409300305
499,-3.221028112746976,11.30435541135612,2.893816327383243,7.1617976800908245
500,-0.21667475405497794,11.204314703240321,3.3250665299193334,8.457812671521715
501,2.782599047687258,11.155712370669649,3.539083950611509,9.176854176817262
502,5.348777734802064,11.263054941292024,3.6086295532038597,9.28726904959963
503,7.108238929845788,11.12893185227017,3.6166014531930606,9.303913998705996
504,7.977225614215641,10.570655302002672,3.620003138365711,9.359489673208014
505,8.159579313899698,9.55960982463452,3.6355419340589754,9.186311196103537
506,8.012090928555043,8.238811785863396,3.646770027058286,8.28871276881871
507,7.966079185538932,6.92645567583443,3.6567301618819696,6.297609226082299
508,8.00785607778968,5.602658843213843,3.6506203051456234,3.7079901623307263
509,7.860019501523599,4.279671454492238,3.633780550165527,1.4385183625595124
510,7.6363686655244525,3.2322386293080196,3.603302498073564,0.18421147931021653
511,7.423878894903019,2.6091385490377386,3.5728244459816008,-0.23087629034262674
512,-0.08516700695544624,-0.12140461309343514,-0.064278135061685,-0.010391431880262925
513,-0.3062770175064224,-0.5676652688619501,-0.3438975725401975,-0.10351151008158366
514,-0.7683114983217806,-1.5302264993384989,-0.9778825380856657,-0.40802334976611787
515,-1.573453224752904,-3.0901601644377825,-2.039514907217406,-1.0591649619178547
516,-2.7426118609374885,-5.153980076671794,-3.4734857853863597,-2.117259849182554
517,-4.443751930089741,-7.638697500308603,-5.219934668043446,-3.4815630840157996
518,-6.295077414828853,-10.49438404013874,-7.175019903986492,-5.241499688396729
519,-7.794740266139206,-13.168510663545824,-8.947201025052637,-7.029714426375804
520,-8.634766300643834,-15.119752239506457,-10.193439855071338,-8.436106232245288
521,-8.83014158076741,-16.110064665951235,-10.793507822226838,-9.23617756698715
522,-8.67567880478643,-16.173929651989386,-10.817217027914785,-9.395945269801556
523,-8.687847246705102,-16.19255522650969,-10.814670091900576,-9.389850451493167
524,-8.793977227553912,-16.3302695366098,-10.889659542578476,-9.39908279731194
525,-8.430841629744966,-16.039621374991132,-10.714868991847371,-9.27130040658862
526,-7.4612832187375435,-14.49471232766983,-9.866137152941873,-8.447646979245723
527,-5.890077084040223,-11.464329499249327,-8.265930871591808,-6.84482644631451
528,-3.8907600368529756,-7.094948769553186,-6.02542370623719,-4.574298096221597
529,-1.7214637599702494,-1.9340110956985106,-3.429541767929364,-1.9865131847803639
530,0.45137063002109856,3.3896514486040763,-0.7413442239724315,0.5330433472272931
531,2.66630603535491,8.892314895500999,2.132231333427394,2.9842232858783735
532,4.695219093357522,14.367973179937447,5.152313861376786,5.3982160426735
533,6.417281052763322,19.025809848069716,8.05492706442311,7.742296049416725
534,7.970033498563672,22.20655946504583,10.369887693408767,9.71951178526163
535,9.28761782547408,23.754858834376872,11.791264159899097,11.050502865792081
536,10.241893643644826,23.95089070354857,12.335111834203609,11.645723678298419
537,10.753306342887146,23.862220275506562,12.260993433792105,11.610514873209409
538,10.861974287247925,23.88241527644346,12.213536192047705,11.5973226818049
539,10.801180147193826,23.67551872687071,12.31820996003239,11.727862126147421
540,10.793278768681303,22.38708800478018,12.146580659073836,11.511895487632719
541,10.773667974831426,20.001288751153776,11.439286185567047,10.524984917825549
542,10.512025648939817,16.831995546062196,10.254234466849152,8.802430709231306
543,10.142663062554671,13.512529298173407,8.817925757298335,6.535530317619812
544,9.770335079104024,10.613081716517723,7.599366028597466,4.423716517161474
545,9.51936061682223,8.000583977078634,6.914815523724694,3.0769731536201395
546,9.477736874063144,5.8574578544956015,6.5734981533169154,2.367626816460901
547,9.482361648565579,4.21237541000222,6.479718626827995,2.1992157338804432
548,9.36904744607847,3.0896517153952416,6.471928086992623,2.2918817259736057
549,9.146286028056451,2.4528499146535663,6.428860384643608,2.378609809374937
550,8.772492347746846,2.1777235914474735,6.37131016097235,2.334579641141505
551,8.120195474548526,2.1267397328836557,6.3379375457193055,2.3319835344191944
552,7.14026739304494,2.1514825957258754,6.228576915411919,2.3319835344191944
553,5.8101283166185285,2.1306574477607767,5.975882185447813,2.3166529230285287
554,4.171928870332913,1.9826564826532045,5.547603085711752,2.3459419987447014
555,2.3785615031245713,1.6647981454834964,5.0148361328977655,2.376015962010753
556,0.5243235074411277,1.135453578709222,4.487753831039551,2.31829270152802
557,-1.3757512295438385,0.4236703964196288,4.0572043142022425,2.1130031566009984
558,-3.291626226582926,-0.39056171730992156,3.6907368537428793,1.7660124709465885
559,-5.082475129038364,-1.2691108783961238,3.347254160443176,1.3393363827742275
560,-6.732025253215941,-2.2068232475571494,2.9573681646366743,0.9110734450172121
561,-8.075262108384223,-3.234138132656977,2.4740787612669206,0.5312392803940067
562,-8.989334295694192,-4.369817050956097,1.8981818818228193,0.163519140209363
563,-9.468382801386788,-5.553444807413071,1.2734300285807383,-0.13183916558907088
564,-9.60556073173691,-6.878824147888615,0.6567012780963977,-0.3155604606704381
565,-9.522557213300088,-8.143939706663408,0.084547173339742,-0.42903019976567913
566,-9.500838274298353,-9.112292968762631,-0.4395745681994432,-0.5794930071113646
567,-9.602337250664188,-9.6553126197736,-0.9333268726434738,-0.8764736442397387
568,-9.546960526433846,-9.80118391083678,-1.4175028605864333,-1.3096994129967106
569,-9.126206176565045,-9.690706847301213,-1.909365670941534,-1.7386677029926956
570,-8.150457853467927,-9.68814723715196,-2.429117945153088,-2.035225966716363
571,-6.61234896482874,-9.794988802351849,-3.004753001576285,-2.141624963098702
572,-4.7296886644258365,-9.629281287131061,-3.6565950140497114,-2.1322310118660823
573,-2.810492170647551,-9.06054388602445,-4.3709117785516485,-2.1251378721656735
574,-0.9319997925730961,-8.062252763249116,-5.097796255675591,-2.1968100384697538
575,0.9395829153663722,-6.785760221060655,-5.784665215081049,-2.3122409331877893
576,2.602184528462072,-5.494375805628605,-6.413378952784591,-2.4367236043249036
577,3.8139982450267587,-4.4100346346887775,-7.007660031509983,-2.459661483935256
578,4.447241003841966,-3.383312009906891,-7.6131380522515055,-2.4054178748217123
579,4.534874147214047,-2.5402864922421835,-8.242717096431315,-2.446977345193903
580,4.504406273063806,-1.9623259429386621,-9.079439371728416,-2.7339772643580984
581,4.532952142435044,-1.6671543627600685,-10.001087487434143,-3.514960609794389
582,4.435149688298647,-1.604282491270436,-10.787560168960509,-4.612890762873624
583,3.8067558961949457,-1.6458047905217545,-11.270570221075983,-5.642307158678478
584,2.6407062102033803,-1.658609825706232,-11.379833536753265,-6.267467360633714
585,1.123927126062165,-1.6352748974595972,-11.365204820387333,-6.479984651089938
586,-0.4377538011973955,-1.7436485197451828,-11.405822920386223,-6.382704390903217
587,-1.8430944190730796,-2.0306808492018327,-11.361299719007434,-6.364363677843413
588,-3.2412721512676343,-2.505466142937917,-10.766155038245811,-6.4688617183515875
589,-4.708087577765216,-3.102011985574087,-9.475935145117788,-6.34294072708607
590,-6.045185828505724,-3.704714835345107,-7.548758698617661,-5.8453679338505005
591,-7.003164078916817,-4.264520880637644,-5.278839268218694,-4.979919927173166
592,-7.4775160428348935,-4.717837668155158,-3.0233978916439783,-3.7971140668090864
593,-7.525335618416428,-5.012879804170271,-0.7878176232891464,-2.592599109123586
594,-7.520737806041309,-5.151078089142481,1.1310134694889138,-1.7018703299268063
595,-7.551868143396978,-5.166672403485523,2.4406482602435857,-1.1742272700442913
596,-7.442757031445094,-5.1509787946384336,3.0721348976703786,-0.9638912078106295
597,-6.889585829586981,-5.1623112524016594,3.1507320188603933,-0.9061246503305087
598,-5.880342119370664,-5.16806960566843,3.1064223151444335,-0.856209829766288
599,-4.476704287481861,-5.037977273247577,3.1020512157203863,-0.6671939779309138
600,-2.7963449477941413,-4.683118720550298,3.0193998562051383,-0.45212222124857093
601,-0.9720051381390195,-4.048625232906629,2.5957256860177913,-0.31345953679169586
602,1.1075440270938768,-3.147163977152459,1.7878128786821081,-0.30471326900180407
603,3.203928940365527,-2.038766187211193,0.8390574061275543,-0.2525716522201618
604,4.895055684990331,-0.7579860231075741,0.09120719766848032,-0.0030306293037324905
605,5.927637930749385,0.6521278451342217,-0.24879122110887686,0.6095163849878383
606,6.333739367876658,2.1499192137573924,-0.3216664201583055,1.5878081032411342
607,6.309656783644174,3.708004109482224,-0.2977027409503502,2.8299902601076052
608,6.290093933358483,5.268663260818099,-0.29854781537806807,4.042921409853512
609,6.335948480881644,6.9995699499201525,-0.2689021091555252,4.966857709261385
610,6.2182063941556835,8.66709034796727,0.024269226408479616,5.521373341555927
611,5.74506375628161,9.953978652515074,0.5955100563057028,5.712478629435515
612,4.923275187457165,10.671887088621387,1.3871076246893694,5.6553318047191485
613,3.855344309163181,10.852414807280626,2.2790894672349413,5.631210132414392
614,2.7509564756199065,10.706241911501142,3.1701451606378055,5.687689334649727
615,1.85565847039335,10.725325761521198,4.104989900199402,5.603385506837234
616,1.166928412470148,10.864130129880845,5.070629348720006,5.313031716876106
617,0.8142456865586216,10.56420719558156,5.995816236222784,4.835977329441162
618,0.7180999467112043,9.61635661203485,6.938460457227301,4.267403180503099
619,0.6954719554368065,7.993270914481744,7.78930847332335,3.7468901221464117
620,0.6274668089784585,5.932861800125964,8.422080653560636,3.377513878345333
621,0.5256451846191538,3.831041189233642,8.772436099064656,3.0887597092520256
622,0.4428434787205328,1.9838762717275884,8.862392191633173,2.900581529093674
623,0.33630381761774397,0.3134063145113016,8.78355450805415,2.7616491339721803
624,0.09214326329420619,-1.0689841722690583,8.80773990536731,2.589459106276818
625,-0.3540937982511215,-2.133360545240191,8.899346118410598,2.298962157282853
626,-1.1679805927477842,-2.955908294724014,8.717076902456473,1.8143585749775946
627,-2.1370439971083717,-3.5867594985756117,8.066487489396222,1.0750697958738897
628,-2.965389828608386,-4.030506986688649,6.854366724210627,0.09953353794970332
629,-3.4655996542743384,-4.286996447359889,5.170818664723865,-1.2415424647921336
630,-3.5853876510438556,-4.381808960905626,3.3086697369925155,-2.6689888858072512
631,-3.5594210545560117,-4.343347356767246,1.231438025515042,-3.8190282115916228
632,-3.6354389424657327,-4.360444093015374,-0.8279831489397642,-4.4711301439938085
633,-3.564865313175911,-4.440522362109202,-2.4289976495870125,-4.600183771105572
634,-2.86617703511166,-4.414516818762372,-3.3332861365761555,-4.588498295799909
635,-1.7512957482616225,-3.918957252539028,-3.5804381810694745,-4.632026760007674
636,-0.6386671230921603,-2.8392707660754133,-3.4526859529747513,-4.423585677528262
637,0.054421681651802584,-1.5139007133005309,-3.3200272031947784,-3.7513185241961793
638,0.15893256210020892,-0.43250263240919656,-3.3893478263468886,-2.9037512306613773
639,0.0011670124112934388,0.07022514157170043,-3.3893478263468886,-2.2104932999651665
640,-0.06151936795770423,-0.1108682344113876,-0.11267856746210103,-0.059238277121984095
641,-0.13515311309324574,-0.4426766990661346,-0.4827153000757388,-0.2776075537975999
642,-0.29615909626468434,-1.0916921404468256,-1.2624544685154198,-0.7798861052429478
643,-0.6641365338488486,-2.0528134776624793,-2.487639014735357,-1.635375676151455
644,-1.375094417312862,-3.3436968625349497,-4.260523842253574,-2.763737338365097
645,-2.4942524969572064,-4.874088850554626,-6.4211196094139344,-4.240026567906063
646,-3.8857020023583653,-6.299238956456267,-8.439542354329078,-5.746136902143515
647,-5.583308179376836,-7.308693046031843,-9.849239298663173,-6.9248638121637445
648,-7.240826504520035,-7.781234797864773,-10.482916319157509,-7.586317683082447
649,-8.512557863791061,-7.754015753840955,-10.428157133833752,-7.742794388550587
650,-9.228711411827812,-7.7796335875991804,-10.444299676613523,-7.650209615116222
651,-9.418710465213557,-7.908555226059693,-10.609767477242425,-7.679209516499151
652,-9.301412335445571,-7.700285110374172,-10.32862318233359,-7.726857379350416
653,-9.283479316140916,-6.6916035640499345,-9.074108710069881,-7.2687841741060515
654,-9.384761842686686,-4.76376208910495,-6.770673091662052,-6.170153629250273
655,-9.115085275816718,-2.111647771711085,-3.7241901585437884,-4.4857594787013655
656,-8.276759176441237,0.7400828901286927,-0.5351958900588347,-2.5055819830672394
657,-6.775752695443578,3.5267504440546245,2.2496708172019955,-0.6199926774952291
658,-4.767799960574477,6.045348496868167,4.834763387559301,0.9970296765839348
659,-2.5933826851153934,7.837542461568461,7.0511486508170265,2.4340998058579046
660,-0.513165358408662,8.760359994753301,8.700644143584212,3.6840481755849
661,1.4974541649949926,8.96163601973462,9.687593909668104,4.815444539447107
662,3.4214886360083785,8.796466246211303,10.085191842440992,5.858422290819778
663,5.27942939128975,8.782049164613849,10.083083312727348,6.7697645650410685
664,7.005148365934605,8.894159874572841,10.036347642114421,7.478225540480531
665,8.506836630742232,8.589783014927217,10.064589399276453,7.970722151963805
666,9.784654918197964,7.776399893453077,10.00977439454082,8.317966700204849
667,10.91993858659097,6.4517089110350545,9.695294740866284,8.598001185262412
668,12.075265159507717,4.854822558260531,9.116998118121876,8.823641913270116
669,13.143474110033356,3.4900683341582845,8.34922390308788,8.97546877958693
670,13.929228155849415,2.6735358808314533,7.540571703515345,9.043494523884881
671,14.326009352460256,2.289517034552624,6.819394093476087,9.04582000801857
672,14.388787252025272,2.2744953609297376,6.145450127304545,9.023978204509667
673,14.328417022327127,2.295021160035165,5.466139058341723,9.045482199628148
674,14.341196000829305,2.2708111870934475,4.84231417023945,9.06369672013873
675,14.359134072241298,2.400214683012644,4.367025630330406,8.994824808174203
676,14.130917645481004,2.7481385694513234,4.098689760020253,8.774445261898876
677,13.583787854537688,3.1632267488849743,4.035448928768743,8.340674326693213
678,12.675431432457584,3.4840560404227316,4.058465022119264,7.647037603905782
679,11.404168462813121,3.560626319270318,4.055281826094469,6.692230200467115
680,9.798401438993917,3.5486796071573363,4.095130179278216,5.522180936120638
681,7.8677597406020405,3.5950101331576754,4.268663745286944,4.189414565174866
682,5.6661935018698655,3.5045403450956942,4.494469481142842,2.8011324039491696
683,3.3670794245268136,3.008601586217574,4.684734045124169,1.410134449419149
684,1.0770452252973493,2.0382455818250684,4.7489102133481405,0.03502462327097411
685,-1.1350784090953523,0.672852866900889,4.748212470451302,-1.280574074594867
686,-3.3434911604228796,-0.8775491642354885,4.774870063953372,-2.447590089651804
687,-5.269523889990195,-2.3776148854714685,4.748704481861169,-3.3714623403332267
688,-6.61476032457652,-4.021173352815981,4.437553793835501,-4.171758200974088
689,-7.277958440596852,-5.552177653927649,3.7502504578869384,-4.853738063934493
690,-7.365968253244843,-6.702844542678573,2.6973455916581424,-5.37618243155535
691,-7.325595710441391,-7.330450246325301,1.4074002690770957,-5.691237467847241
692,-7.354503066142086,-7.450458377161966,0.04975184734117277,-5.788197498085646
693,-7.264836999611278,-7.415461227919182,-1.340071577984741,-5.728698582480572
694,-6.6572015278701056,-7.415338826380387,-2.7092589820636803,-5.737947717962558
695,-5.56451134766593,-7.366510144639413,-4.033845176625785,-5.807939921271986
696,-4.162567728169106,-6.851340578150016,-5.242746513124851,-5.646773787938669
697,-2.740424930234229,-5.772475648311064,-6.182558482678546,-5.13462341768075
698,-1.321345626469799,-4.164945117623609,-6.756534544499775,-4.289779811711471
699,0.056103560931294344,-2.23422533493586,-6.984374227668284,-3.2970661019679026
700,1.1647611721523718,-0.2718870699397296,-6.956958720344199,-2.3854067898264155
701,1.801040288908578,1.8601421164060445,-6.962172210062395,-1.6397318687915128
702,1.934523248653146,3.815074420101987,-7.018785933695954,-0.8934457815417346
703,1.8715678946990377,5.251843781045122,-6.917741940836657,-0.09715696071062499
704,1.9227527516602494,6.0153347578127745,-6.485262997340841,0.7118854103716087
705,1.9122423012089467,6.193821772095429,-5.708605359855895,1.4178252946959646
706,1.2999683964893212,6.057045694876246,-4.686497441537634,2.0323166400722643
707,0.010042956279843085,6.014554207512606,-3.584586167524886,2.5248200902869904
708,-1.7480837625709482,6.1108011467718555,-2.533187695845415,2.8770123741662403
709,-3.563141358101784,5.962735798277925,-1.3675194808204258,3.082181059442358
710,-5.059994116038651,5.498574689444835,-0.22428719762278695,3.113238669246041
711,-6.484304539821655,4.693162563479145,0.6893496351374189,3.1446168365143503
712,-7.87182000256926,3.615510775462989,1.2367452443616387,3.188201467467216
713,-8.987786895100529,2.3498625089859484,1.427406913895444,3.1080273125537707
714,-9.643078234891876,0.9003406599128863,1.3902864462040547,2.6275997429330626
715,-9.807218923397999,-0.8019576796141129,1.3502371836604237,1.6742651863941413
716,-9.701590155887555,-2.8951778295940778,1.3819407049440906,0.35918741087189876
717,-9.742444351171592,-4.989996876493707,1.3577326622691095,-1.0589091940572963
718,-9.809059178866477,-6.609855681419867,1.208211683750404,-2.3369967587762095
719,-9.360117896785663,-7.499903880588104,0.8988861591857087,-3.6143676686335655
720,-8.266913999519478,-7.708612396229651,0.4263589932096856,-4.739315369705819
721,-6.604384849590179,-7.564529930217303,-0.1697305440594175,-5.564225834825674
722,-4.63700081297096,-7.567201897830416,-0.8387978786625954,-6.007391308250686
723,-2.6477880259446467,-7.663288394578741,-1.5995351723768096,-6.1003890463902035
724,-0.7152967061586857,-7.2480460936743105,-2.435227155603067,-6.039826883428113
725,1.0402723905346543,-6.155363420343335,-3.3240870419157558,-6.020765175729164
726,2.266315259030297,-4.38420338933805,-4.352194265222328,-6.044821880111361
727,2.8440168781769892,-2.2222316660785184,-5.403107295157852,-5.872518520811993
728,2.8940376674200485,0.054789280794862005,-6.265253862588358,-5.436951466016936
729,2.8402253546021363,1.989965065006602,-6.791055863018789,-4.71821952154371
730,2.8498352508333333,3.3959448130875223,-6.974338168445085,-3.7845747712531788
731,2.769236707831871,4.105150391943242,-6.897357691586883,-2.746328267629493
732,2.3681919618095972,4.226979144168338,-6.911677766931698,-1.6566823022547257
733,1.7577065489532588,4.143239954403472,-7.015788128123145,-0.48407220693282493
734,1.141857101034274,4.130877211586169,-6.872999794234142,0.5882037455784555
735,0.7030915285393283,4.127917824511931,-6.288075479039476,1.3659704856284884
736,0.4616073476604632,3.7567087692726164,-5.222560632624468,1.7633112046999149
737,0.18542396563815375,2.988220731284106,-3.8223517540781753,1.801743914018298
738,-0.13413056820339353,1.9052515160080017,-2.370687460135015,1.8163937841345938
739,-0.5673278495993929,0.7055902779460517,-1.1288210377029573,1.8587404873569748
740,-1.0148500355156003,-0.4046208697582941,-0.04640927815509982,1.7682118818991999
741,-1.374864643209115,-1.5419951649620018,0.7863376581338433,1.1011836951056069
742,-1.6015533131828117,-2.6008529818352195,1.3597245859260003,0.02680272580781015
743,-1.6550853463257567,-3.3992158203328486,1.7117306718095944,-1.0590822446035377
744,-1.6397618356495478,-3.8350539033133693,1.9158812477568574,-1.7536518055558732
745,-1.7547020593077642,-3.9373283275863438,2.063793719863424,-1.8953450356556356
746,-1.7797241974617668,-3.8566307801125124,2.2594859373345644,-1.7548244180009243
747,-1.1655714634774232,-3.855105802862449,2.613047734835936,-1.7770569353746877
748,0.40818112455220734,-3.912548756794152,3.2103357572256837,-1.9287242586029532
749,2.9249100185844807,-3.7572942951260817,4.076051469685083,-1.7280016167054346
750,6.156514243183745,-3.327405889480976,5.147764407376031,-0.9713017040695833
751,9.57602319312214,-2.6260553853814246,6.406704126607968,0.3740395152281206
752,12.464909252827852,-1.7433632011594495,7.593745461726373,2.1102744140987157
753,14.438375110270943,-0.8088720247525534,8.461867876786938,3.883037553579591
754,15.3318703063882,0.10032722616464734,8.910187185500886,5.382118238076131
755,15.332966890455335,1.0454858993385945,8.992422815706147,6.718687847993691
756,15.321074025140575,2.0088175181226284,8.947785735087376,7.7933844191213355
757,15.422862154537697,3.028455463664404,8.918058443732097,8.858632824196814
758,15.118025102013886,4.279867999417255,8.899970460719468,9.891334788118101
759,13.947765574708571,5.826137403575577,8.712866948886361,10.751772573619693
760,12.007730197959143,7.3501723598899975,8.355132713599465,11.293845121417466
761,9.640512541020765,8.479453939051483,7.813566608345177,11.415228670476274
762,7.248530480817524,9.030989866516876,7.091785330783256,11.408583214251854
763,4.930150684572507,9.101279402801106,6.255937683082147,11.629032390102791
764,2.642295054500732,8.981240022124243,4.981215832110789,11.326667690153492
765,0.9105688475642344,8.945791485337129,3.5162013482202403,10.215654478015095
766,-0.005839191480375816,8.978802376773533,2.248292172086625,8.723072924999872
767,-0.1971781459873907,8.978802376773533,1.4634930824802876,7.4293714128359705
768,-0.06679275959117578,-0.09433861927646664,-0.06368924004172363,-0.024424635274978956
769,-0.22168877368366335,-0.43037030275361476,-0.2788117159899313,-0.20419363743121083
770,-0.5401395845765877,-1.180368568162977,-0.7421833661635481,-0.7199097819084476
771,-1.1074136246596757,-2.430360518551402,-1.5113641098630728,-1.7266361174691736
772,-1.9957057770068753,-4.073009799833972,-2.589773339454453,-3.1917898140604812
773,-3.205569640355683,-6.1974431951457785,-3.93366605258575,-5.129189370529374
774,-4.5797676877719455,-8.47363791003792,-5.52296552057331,-7.067416010314741
775,-6.0689706142521525,-10.387327630551246,-7.30030154153517,-8.527332062060147
776,-7.394322124300746,-11.588796644242363,-8.919587927824834,-9.29662533994834
777,-8.332042657654467,-12.037601149250717,-10.06151252310743,-9.437281644833169
778,-8.82235041934317,-11.866337239376916,-10.609869383716836,-9.36468047046793
779,-8.900904619546845,-11.923429812587766,-10.632403111350202,-9.374359142731404
780,-8.905173735569326,-12.18953325426929,-10.62112801518863,-9.355883341430788
781,-8.937436915333945,-11.826049291625475,-10.692231300772864,-8.797214723927844
782,-8.856554286223433,-10.2638194495089,-10.554823168630122,-7.558840344848273
783,-8.223646574184768,-7.324479191688333,-9.798703587212373,-5.635257772079475
784,-6.877214349811291,-3.328999013752642,-8.329407781355,-3.2402400296726124
785,-4.829027073036467,0.9737956099337324,-6.267076214022702,-0.7026953970515588
786,-2.3399774777165394,4.840356606611222,-3.9346146511962483,1.8513896410888575
787,0.23177581758157495,8.314171177877244,-1.6429221183857927,4.257968384003794
788,2.797666418040372,11.341741597574782,0.6855308888549557,6.623110755116406
789,5.3158351399340145,13.716467455611939,2.9375479215812916,8.70803225358125
790,7.811207837753505,15.293252582532958,5.043789513718664,10.235182688740162
791,9.972546566342778,16.084680716159045,6.903173954925222,11.064929478181513
792,11.474780372852159,16.261729899356244,8.514992874217906,11.219290499225538
793,12.191662009722815,16.1017156487683,9.75195899958872,11.187403004606805
794,12.199287065761233,16.100851187900506,10.538803257373793,11.211967867408598
795,12.204201977491545,16.243321006423603,10.907485410518413,11.117475661060038
796,12.33677520368091,15.998272287870874,10.96886949549623,10.302252315544136
797,12.103333087447865,15.176969650150161,10.923306102605007,8.668541616210256
798,10.914270392681464,13.738719166248304,10.911351832915095,6.362813399418839
799,8.689460887062987,11.886777085982118,10.918845256120216,3.839667900109
800,5.796292056665883,9.947227134207395,10.755610682321269,1.208819049491927
801,2.4560808981582194,8.125733501704785,10.390577762034512,-1.2758920735975523
802,-0.5008601688129231,6.285803903757789,9.849513283016591,-3.164566319980664
803,-2.7774306848140657,4.504628853448544,9.149487264805808,-4.215319363879333
804,-4.0394600463945185,2.863760692644156,8.478900808126648,-4.4865586823009895
805,-4.316210362033657,1.4376515713121445,7.970930211472527,-4.276927713336139
806,-4.21915402727751,0.2283881206277843,7.693175709863584,-4.281591334740687
807,-4.217467007478022,-0.8263714489104559,7.6291931792063545,-4.487333360560732
808,-4.175032503663886,-1.8093020206158614,7.65591718038949,-4.109890487693937
809,-3.233204039067102,-2.78309743104984,7.6954829134959075,-2.8194030228016933
810,-1.226812606971707,-3.6250537800617213,7.701544336039887,-0.5086631126750514
811,1.680708167896444,-4.205361352601303,7.745581942117872,2.5321918237438785
812,4.902695264453968,-4.486608442412434,7.789619548195858,5.756678617034615
813,7.766925057915772,-4.499981445146566,7.802651021787903,8.728933771394004
814,10.12351422339262,-4.5124701813257735,7.824543495070309,11.598938523031077
815,12.203317414314348,-4.55669725598012,7.8401481160019815,14.28834810628131
816,13.929131092984294,-4.4659783972771825,7.809712137993685,16.491245736339145
817,15.185800161464261,-3.9949315793579743,7.625324844956726,17.94264636550527
818,15.888208493421601,-3.086668553429188,7.230563208769922,18.601956099059898
819,16.02858891073931,-1.6977584305915616,6.590665572943389,18.5893306587567
820,15.95547558826281,-0.24170923678131326,5.682167691593137,18.615987401397703
821,16.061328929876005,0.8271654143406797,4.470412688202915,18.774020914082925
822,16.099121930277505,1.4298796484996894,2.8672324787244787,18.54447682650372
823,15.23194610789186,1.5076148195264456,0.8990114519698275,17.23753886278735
824,13.026609713174786,1.5213577953946813,-1.3177817817429731,14.61883892572731
825,9.413211295022029,1.5778133673668662,-3.6156417176928954,10.818116779736737
826,4.7708983658204644,1.4232317631729678,-5.99664276389558,6.29229400217105
827,-0.30999985939112884,0.5710702707510033,-8.10839832832658,1.5267601740607337
828,-5.549168414232129,-1.0507768506924584,-9.615055074118764,-3.484629229995747
829,-10.742270691822629,-3.248635464852513,-10.389037451870262,-8.56664255284106
830,-15.91610644420219,-5.55747383979163,-10.499791774113202,-13.280325805402578
831,-20.372463931109262,-7.668810472705759,-10.480455494228808,-16.917236426241796
832,-23.464978684869994,-9.592419953742448,-10.498214765133941,-19.08818449655776
833,-25.015767110570284,-11.0446996176035,-10.354904239865533,-19.914067895203896
834,-25.230380182095995,-11.907843675463416,-9.59337302293853,-19.826708194135087
835,-25.196771955822662,-12.236440242743198,-8.235886562118084,-19.763046873171618
836,-25.255361224904647,-12.157445790208035,-6.541277378942489,-19.895067956224448
837,-25.014495479945545,-12.1755380786187,-4.772982976854628,-19.66410861877838
838,-23.381096710864842,-12.326939491609487,-3.3727241687491993,-18.645495403982544
839,-20.11120480658536,-12.151645330151814,-2.358008776504881,-16.793818110282754
840,-15.33608213036288,-11.23323478068422,-1.8378641517917351,-14.288662894329859
841,-9.708613796581155,-9.401378999597737,-1.7283130381414322,-11.520466557010991
842,-3.9930052664392663,-6.790592293456617,-1.8155841934594048,-8.855481211414816
843,1.854337749305089,-3.818025000437768,-1.8049895854712683,-6.166889943858037
844,6.779773338723333,-0.9324482121022628,-1.7435587172775648,-3.6913618734824425
845,10.047750238523735,1.863318580229467,-2.0049267103373496,-1.5420039040913558
846,11.5555566996715,4.3786233621029504,-2.692596877749729,0.2770480480485045
847,11.678023294788343,6.490415177826048,-3.863227465145971,1.6464360276908707
848,11.614730248219152,8.128104383369362,-5.273140083792014,2.4908806796110725
849,11.671499182850798,9.319171560891451,-6.468486142710427,2.85606753442208
850,11.39660765064641,10.192740297408895,-7.177310410901256,2.8725076074163725
851,9.89499457108127,10.899688532621715,-7.467797723993286,2.8606449548859043
852,7.415262696801228,11.730727556551296,-7.444229348775599,2.898948406355971
853,4.813493424500249,12.661420540489864,-7.40364864454076,2.829355613836938
854,3.039318655544197,13.486632758747552,-7.439422713102642,2.384772731757987
855,2.516414096312537,14.022864139096276,-7.389012127385793,1.5662076689593343
856,2.5720780210875076,14.220747388036276,-7.126129414998504,0.34959081716057067
857,2.5876890630866805,14.12449729034129,-6.629819212873309,-0.9023681079511165
858,2.608349814421526,14.15375526241489,-5.932758656411407,-1.8029637272163153
859,2.8450607689528793,14.28885597124488,-5.109124636569702,-2.304278658498757
860,3.2868299318799115,14.099100707892363,-4.211040838786489,-2.4191069387965984
861,3.728599094806944,13.334875030734496,-3.17205067212595,-2.365984433623557
862,3.991169022575358,11.890445533568807,-2.047878234496514,-2.3389420939869545
863,3.9319218946774885,9.842564476496351,-0.9109205942989809,-2.3455427096397687
864,3.955062121370152,7.418021578160881,0.154675753986667,-2.1161313465761675
865,4.151625534503417,4.8324930646419535,1.0814916558880106,-1.6225794532206788
866,3.778014082405077,1.9493815272214097,1.8387758190104075,-0.9147486908680195
867,2.4506930698045806,-1.0963444543469907,2.441950442562552,-0.15786724187671525
868,0.016519201115386295,-4.207838513697278,2.953876976702473,0.4737444779365299
869,-3.2391998054715017,-7.278842823619719,3.478919189352843,0.990236431919836
870,-6.930781338031295,-10.139570872582077,4.117307642348272,1.5108869723933633
871,-10.290767497777836,-12.79129618879038,5.003654547810639,2.1947272271471885
872,-12.943480631255207,-14.946038577205968,6.091725506654232,3.1043419471056595
873,-14.46391344963891,-16.380633338528522,7.115605584106502,4.279710360114176
874,-14.951525770382569,-17.079009657032778,7.828287690603938,5.444851739625019
875,-14.771466085565011,-17.212838957357253,8.142903406308353,6.3117590488277635
876,-14.761996029784392,-17.092532298345905,8.116659468783588,6.758687153618483
877,-14.95741085453317,-17.085075110926336,8.116237036927554,6.844528853678465
878,-14.685146782141427,-17.16235409266273,8.187047115988625,6.770363685712718
879,-13.596872322711487,-16.905313581977225,8.062835215390294,6.779605914491939
880,-11.659061442840825,-16.196596522190212,7.511804375363034,6.833346015520034
881,-9.147068995199842,-15.019769184916253,6.489864454111189,6.601716862650314
882,-6.5677862167925465,-13.527100348121214,5.0885673702042,5.911259553590188
883,-4.384137434679215,-11.941977161406985,3.513967064879476,4.646163858010179
884,-2.4974076377541623,-10.356281177408414,1.9584093430445242,2.8547386634109064
885,-1.0984467278939527,-8.669904261062179,0.3489910181502427,0.7351118628430117
886,-0.18141007194944267,-6.959074300407536,-1.1796578213876852,-1.469633731199661
887,0.47012504886468137,-4.955207417984998,-2.7256163982931647,-3.9628817094840816
888,0.9780717283223088,-2.8950815162490664,-4.116689660689599,-6.343031490930835
889,1.3647116840483908,-1.199031594642193,-5.147252849797351,-8.16845884396239
890,1.5965393339434153,-0.16416996354958516,-5.710983412112142,-9.194884001444873
891,1.6648963570500401,0.1830447513481694,-5.857522894109582,-9.475238204111044
892,1.632538017119826,0.08749271165983491,-5.775387113601588,-9.329383324797082
893,1.5992963584407385,-0.06378738874523787,-5.696221610978692,-9.17942086586216
894,1.6168400258613935,-0.00626912978597268,-5.739243706520711,-9.25824425520888
895,1.6168400258613935,0.0,-5.739243706520711,-9.25824425520888
896,-0.09939489865963089,-0.08192099613865184,-0.11676612754914922,-0.07181752925077395
897,-0.3101469523005408,-0.44690879121735483,-0.49669180916139966,-0.2945294426911431
898,-0.7425655144866734,-1.311940831017039,-1.297801689918678,-0.8155959461129326
899,-1.5087686952529449,-2.804558058298125,-2.5835858220162864,-1.7593190569687676
900,-2.699633130889082,-4.841863532067052,-4.231281340972833,-3.100925928121671
901,-4.2823253598813915,-7.368223772151535,-6.386247927420291,-5.020863752886054
902,-6.348986165536224,-10.126398486326778,-8.608159042514632,-7.088235782477414
903,-8.442257658664676,-12.538500820438944,-10.374256806113092,-8.758567939212638
904,-10.053432593626267,-14.161706211248342,-11.379833639416754,-9.70861469139004
905,-10.929237608369165,-14.888953736320303,-11.630135245890807,-9.89239938340859
906,-11.071455100714022,-14.849296348682923,-11.461858987897662,-9.869391578690593
907,-11.069149777345393,-14.862550785789209,-11.489211486228797,-9.908442956278124
908,-11.104442859446753,-15.032020380843173,-11.619426441073628,-9.770171216640522
909,-10.943815120621064,-14.754933660116468,-11.06921038242877,-8.756348025866153
910,-9.947237689325746,-13.393899576575484,-9.571133017757978,-6.8028066250113906
911,-7.992951168667078,-10.766777929135637,-7.115702264623118,-4.156753891134528
912,-5.183983759292553,-7.080825570015177,-4.06653336806378,-1.3680936397283823
913,-1.906644400083718,-2.9123920682485873,-0.9862930853378379,1.0218989878393698
914,1.3704991007486211,1.154495558824259,1.7547537690328863,3.0152621606930436
915,4.597980061337825,5.215077711900376,4.342406236102476,4.710655604692461
916,7.460191191441652,9.02706828065926,6.539973023957471,6.065279646899713
917,10.07036637279949,12.466590298040925,8.123646940725125,7.023178187098452
918,12.271677069944861,15.685441739622547,9.009781911154818,7.567266879606656
919,13.86443735612634,18.38366274518786,9.303593840127661,7.751062291021832
920,14.748076472044307,20.245251479246765,9.225010915832682,7.68093689070545
921,15.002684470323878,21.18126741726818,9.227199881681473,7.669782366230317
922,14.836261212225242,21.341859449937623,9.236792977644642,7.770329874843121
923,14.823859682994792,21.268709379165,9.068950456135052,7.649924159433366
924,15.010416646615317,21.243469318258676,8.77295456938931,7.159978186541975
925,14.820449039479058,21.175486032583606,8.476958682643568,6.44034333691845
926,13.979605107733477,20.59430093768846,8.297175730599392,5.762064875356047
927,12.404452485918748,19.499760952286163,8.336538363301667,5.374919067073734
928,10.29795551680401,17.978094006311043,8.338937143235217,5.378336607037563
929,8.014798939985175,16.213233663841518,8.208050943825953,5.395052250098488
930,5.821488184068699,14.355750287909553,8.39500552066626,5.359681388925667
931,3.518876781024362,12.280857771596557,9.096846090897774,5.435369699176315
932,1.152650376215092,10.053093274406445,10.362097043507884,5.830246932042506
933,-0.9033757155642244,7.769659234793147,12.10952128569522,6.532547573614475
934,-2.291620803679707,5.535888880939872,13.797310019867304,7.451776287117631
935,-2.9218006664318574,3.4610753626072963,14.927400808714445,8.295283693751482
936,-2.94494433308281,1.5980026490522747,15.528278888091585,8.803450020228668
937,-2.9302981034363853,0.07048733359021342,15.593598675740623,9.054097300853106
938,-2.983431792760383,-0.9725576527292376,15.599369388294063,9.114224456237398
939,-2.826370876102141,-1.5607376981159753,15.646713274603266,9.102153429958685
940,-2.1110019969294775,-1.8175184406951828,15.488829344077425,9.104381924599908
941,-0.761691528353346,-1.8791620322622355,14.702088925129765,9.155772336183995
942,1.1697570896119798,-1.94821656033248,13.263249032763024,9.156028355271234
943,3.086393712696514,-2.0205100738111286,11.330839357369948,9.107291733335673
944,4.4073760390941565,-2.025519739890348,9.191867684500474,9.083294688019949
945,5.1292241561822784,-2.1060491481483616,7.055627850094026,9.069147478235639
946,5.193918181311683,-2.4933573977283903,4.716640960607304,8.999440498739359
947,5.188615976900338,-3.2806872909971907,2.2223009624133416,8.750162234634328
948,5.280797483422895,-4.470132509899155,-0.39513491503827813,8.13967346693395
949,5.10616570742533,-5.947961296504724,-3.087885553189115,6.970180048127661
950,4.065616332838987,-7.46642671799524,-5.786835886613593,5.160690584793397
951,1.9994160397275893,-8.915371191597407,-8.39192652029853,2.75041540054594
952,-0.9074631280348595,-10.161801802131405,-10.800074033132674,-0.15051941300746297
953,-4.072029983719185,-11.220716262820519,-12.953487710011347,-3.3562245264501795
954,-7.153220918750588,-12.03390258899234,-14.825100192895256,-6.751301021905176
955,-10.144048265938217,-12.572222960999813,-16.62021265759065,-10.224746565319952
956,-12.555575074407551,-12.856547422632229,-18.207321194976608,-14.01724881902691
957,-14.101532495261672,-12.888810139490777,-19.37390910412305,-17.718881414788576
958,-14.761856780555158,-12.938598606569919,-20.004471714683255,-20.646294017548485
959,-14.641055365835951,-12.995660135822394,-20.111922039661316,-22.36694872024332
960,-14.728839371801538,-12.865937039128896,-20.104162137625252,-22.931907428428524
961,-15.01527574388167,-12.201172647706796,-20.132426556005633,-22.683053743637547
962,-14.578180095794202,-10.916760530947899,-20.030063460999365,-22.70541147512789
963,-12.619498814427235,-9.131418578808677,-19.322803628126653,-23.004673495444052
964,-8.939683737088666,-7.159563129225806,-17.92029880475183,-22.598280023322946
965,-4.009595444839934,-5.324020883659646,-15.906560683568468,-20.95294769418628
966,1.4444268095868191,-3.599465559693673,-13.54387593817235,-17.938203493483222
967,6.537926446629465,-2.0772780318682513,-11.08938057181189,-13.883084901242952
968,10.860270854089965,-0.7556387742953614,-8.45969258123176,-9.437609676153144
969,13.666644901926881,0.4755900150641732,-5.746815203918039,-5.165560058447472
970,14.878268317486093,1.5237019026604648,-3.0534226515714176,-0.902129781832194
971,14.816365229037178,2.2611675232383317,-0.480405038694392,3.3886108264767896
972,14.80563636592152,2.636612957307563,1.875191940424647,7.154162320364465
973,15.048074161237295,2.6971895944473565,4.087671623964799,9.838752403328082
974,14.648142368399963,2.6726571210859924,6.0671491999462654,11.2390366871797
975,12.656350853348586,2.6681996827197776,7.588020007825328,11.572310156621976
976,8.832498852175998,2.631366551862854,8.501269137948498,11.29999230399112
977,3.5192063849295363,2.3640205049062124,8.84002887072137,11.252730842462148
978,-2.252171265672217,1.8866928686764524,8.771591786941894,11.474229196832814
979,-7.907978625267985,1.1802135082221585,8.754248226555166,11.173961980225997
980,-12.998751461687085,0.4526689779538587,8.851058972264207,10.183471882127572
981,-16.572784130739574,-0.07392872399208691,8.718961900588912,8.509896496433239
982,-18.37806581067766,-0.3769734013895964,8.122430945660211,6.469655965107487
983,-18.72968561948891,-0.4507172795938509,7.0022087714271235,4.537859818515836
984,-18.497322761969542,-0.40377422778014443,5.451113520813034,3.0166911279980955
985,-18.44294079351663,-0.40910115408279246,3.68534356371068,1.6407522872669238
986,-18.491884437395726,-0.4456750176204375,1.9052116368536138,0.41256699890986454
987,-17.696664757183598,-0.2757263969532917,0.07182919185134651,-0.6981165508832209
988,-15.96009429358368,0.1901454394450286,-1.8561439700952134,-1.6567322988219786
989,-13.397697031243624,0.934279710558938,-3.6058352162102008,-2.400838670377975
990,-10.495823423821001,1.8485351272995154,-4.88545106635489,-3.0111855889904584
991,-7.883525370638336,2.733529398629583,-5.567260006235429,-3.5301938764652387
992,-5.771505193287937,3.4008221089990114,-5.695835926337823,-3.948560029301275
993,-4.095865759108449,3.8168287303856823,-5.650405772196105,-4.228870686228385
994,-2.760557026597747,3.986331791032741,-5.6641212561437255,-4.346941999999927
995,-1.5443121582721302,3.9815090272137534,-5.617251877163844,-4.304194575485329
996,-0.326001812207645,3.971248261670706,-5.0389331553076095,-4.319569608658837
997,0.8723979701199344,3.9854505559724664,-3.8479917368730483,-4.399765009016269
998,2.0173830959282055,3.9389662105931373,-2.1303414346288787,-4.302301990200428
999,3.1816835435249455,3.764230835783354,-0.15805135722270103,-3.8486694239726407
1000,4.50293333910601,3.4579878660690557,1.7678234518629727,-2.9763978140959564
1001,6.062821355206724,3.038264005333837,3.5878153599391354,-1.7586973701316735
1002,7.841291175708889,2.571752225429026,5.372471674712954,-0.3399625155795616
1003,9.752946091375225,2.153065074222858,6.905697528568326,1.192189964141489
1004,11.857557397308822,1.8061897725549372,7.984566042134164,2.9294861195648565
1005,14.076199890836623,1.6082095249909136,8.54206228529788,4.9575863458717215
1006,16.02521137777813,1.537065510670497,8.65015808776928,6.9120296046191045
1007,17.349478349611957,1.5008998545725902,8.604061574245017,8.371182773416091
1008,17.93557955864968,1.4473681054853986,8.592136114283974,9.133048713743861
1009,17.913205242006235,1.3807783546341774,8.564443613125208,9.266665248719017
1010,17.88314992787476,1.332132705679967,8.2128926140959,9.194112245856605
1011,17.985068132162823,1.3206107849983617,7.529656906975435,9.189946459063783
1012,17.81148522329398,1.3293878519028355,6.594757066818534,9.1525015282929
1013,16.990117066942602,1.312533494532867,5.5936811970863,8.663328136642201
1014,15.544359911358264,1.2983239422178843,4.712623406986685,7.700041871777307
1015,13.758131825912207,1.3957266724355086,3.9416177393768894,6.383903338834601
1016,12.023229975454308,1.5905435955178007,3.2800935287861623,4.69457720423423
1017,10.539717478528132,1.8117564928171919,2.7124782934201597,2.9240635052165627
1018,8.993050753894586,1.9747720732316054,2.219161728889799,1.3615382621707544
1019,7.311594295269046,2.02795160695305,1.618776026839732,0.301786869468951
1020,5.163732057118076,1.9991405592162135,0.9645455883020164,-0.1300256432811931
1021,2.9208946317594515,1.9784874260042735,0.39946319208038783,-0.10193569814375264
1022,1.111900251785648,1.9892963533358947,0.04264126293818683,0.03685671865440339
1023,0.06588372531634423,1.9892963533358947,-0.07580121090688631,0.016794894482344242
1024,-0.11678712255174001,-0.11305537164277346,-0.18349892690097003,-0.11392415994450744
1025,-0.38399552018141914,-0.48809348810623654,-0.7853879107803992,-0.565400083439794
1026,-0.9562888602538471,-1.2800287924674558,-2.038283756872063,-1.6022372921897754
1027,-1.9940319304460608,-2.5503042526266704,-3.937235603880019,-3.3284877192170033
1028,-3.593138947352743,-4.2296446385409965,-6.654974563700088,-5.785893251882082
1029,-5.719452707083697,-6.227215139543574,-9.560214219023775,-8.746367971901165
1030,-8.285575328355561,-8.491811966159554,-11.88867154781325,-11.48204645150808
1031,-10.6981627401122,-10.589389200685455,-13.201556732677311,-13.378364762131348
1032,-12.416965941077121,-12.106175585713773,-13.445331650542869,-14.244806751763626
1033,-13.260104020685587,-12.871262320681474,-13.4265457009732,-14.227484194476968
1034,-13.319256714960288,-12.943167663112897,-13.436625494682264,-14.228345265367503
1035,-13.346858901582312,-12.932623274398647,-13.215673492669021,-14.385185653979505
1036,-13.44326907673558,-12.99282229595587,-11.92482635921057,-14.095656277044423
1037,-13.191587889859129,-12.814794690370372,-9.507272590174539,-12.689557890339529
1038,-11.922617790357712,-11.876023960036507,-6.19146871329907,-10.009711799430455
1039,-9.513081488117738,-10.105751739733243,-2.49852968710526,-6.251519963600334
1040,-6.154110317316767,-7.657394877893688,1.0663433796788109,-1.9596771327558682
1041,-2.36966818175292,-4.8804543352201915,4.570063374538688,2.2804508164553807
1042,1.2753763282839425,-2.0831629303367802,7.872668569946593,6.452298143761238
1043,4.808119207756772,0.8972738435365475,10.671193677772237,10.439399845604354
1044,7.929810723046071,3.9450465660815395,12.656156150970642,13.755793832208186
1045,10.563046273116537,7.002724857253023,13.73850848649321,16.014526865725774
1046,12.778428837922748,9.938640628494545,14.080344819583743,17.147380774627557
1047,14.47238392288867,12.863162659975787,13.971923521992608,17.34248414660098
1048,15.547159613472571,15.41887256979914,13.932682494320282,17.280744738020534
1049,16.028455192719917,17.231217046431595,14.040257728128815,17.248139683320666
1050,16.087719218629427,18.16391358291889,13.90831978825034,17.127892030999497
1051,15.99043063871925,18.32786630538521,13.360268359732713,16.33999061855151
1052,15.962329895322842,18.259722112159306,12.391854041535975,14.930823346739224
1053,16.03109227191151,18.270434156951765,11.176386145500729,13.109041001698753
1054,16.083173311176026,18.21470509444622,10.006096182230177,11.33937401915221
1055,16.10957811584712,17.48157906061489,9.105458482468439,10.1049160324796
1056,16.10157217836758,15.967216787093578,8.353381336800652,9.33245617546278
1057,16.135103441041466,13.797549594917328,7.75013235426194,9.027167915256243
1058,16.236990641400205,11.376368534898164,7.232369313860978,8.982301440341777
1059,16.37862955344368,9.168928063596425,6.7491150070325325,8.944504051743777
1060,16.494085487605894,7.278290590831392,6.27663027940495,8.906357922665777
1061,16.493023466129348,5.8062119579850675,5.793788064740513,8.878726244326279
1062,16.55812129661513,4.7568875722741595,5.256923412765689,8.751920708119783
1063,16.64376785079146,4.0372350100430126,4.611104491076022,8.30882384305172
1064,16.50659526906475,3.5407013634811384,3.820779698677992,7.4059202183882675
1065,15.835559326898162,3.196597099981775,2.889300091028996,6.01577560901735
1066,14.469959039179514,2.977318186073033,1.8595483407052555,4.268949437042805
1067,12.353689920266248,2.86783543599526,0.7966075235421581,2.34289679415829
1068,9.511353660950316,2.8295379234681928,-0.23094167301377821,0.26405672093191546
1069,5.984962671428177,2.8058539757299137,-1.1535512743810659,-1.9186673518009574
1070,1.6510635065775034,2.7510691292495038,-1.907123796389477,-3.844868401386119
1071,-3.2308726116207027,2.628723809669858,-2.460320928450701,-5.182173753082025
1072,-8.2170273650107,2.3943074780443423,-2.8447787225299357,-5.825352334495435
1073,-13.301570970990856,2.0058953102926727,-3.1604484036778744,-5.876517211381682
1074,-17.86974049920034,1.4521738163159477,-3.4339948180981947,-5.872754929132256
1075,-21.245452077972665,0.7540106818606953,-3.648299116986297,-5.9197780596019305
1076,-23.115194814480866,-0.071250925413046,-3.775145639122602,-5.803258908146682
1077,-23.662940052331436,-1.0432829638343364,-3.7965186481014825,-4.919045314495153
1078,-23.387115707306247,-2.202533069010975,-3.808365094757751,-3.5103592189380937
1079,-23.32095346229127,-3.554291524740189,-3.813180761745395,-2.0993172310536625
1080,-23.586672894714617,-5.043041518416967,-3.7461342851972623,-1.2092475621883823
1081,-23.293618315372548,-6.554212960539835,-3.579305537845636,-1.0635480863898217
1082,-22.10802423486035,-8.169759115638897,-3.383027270277767,-1.2008136308700654
1083,-19.99832279233776,-9.67080019391728,-3.2336299198811607,-1.1561931255141653
1084,-17.32501401393083,-10.80231414814424,-3.2010274161213874,-1.0448044000316745
1085,-14.663802670788103,-11.424667951801261,-3.2032937088080073,-1.535688912561358
1086,-12.42473314805446,-11.582550696763118,-3.167385925932461,-2.898003419570755
1087,-10.34106547380145,-11.452201359509807,-3.2615933850272247,-5.109209373226356
1088,-8.52714600023304,-11.443799543621568,-3.518120092277746,-8.159152925108238
1089,-7.104822297106302,-11.561629860129285,-3.836554548027043,-11.180214120772579
1090,-6.186758857324001,-11.406689654448805,-4.093061130594834,-13.39568250332173
1091,-5.749910785588436,-10.858302077701088,-4.18214817114954,-14.647043052681063
1092,-5.6198625942245055,-9.901392269412082,-4.152973755702228,-14.912901411101988
1093,-5.586898928122279,-8.687396797565759,-4.179293537038429,-14.77250763528546
1094,-5.514291347464691,-7.437294043680151,-4.116131664334869,-14.777461959556968
1095,-5.311310976118457,-6.297824799805092,-3.874063960856764,-14.79410681456686
1096,-4.837567917191706,-4.879680741428645,-3.5552980880391916,-13.994068438857344
1097,-3.905892310439657,-3.395649671198364,-3.283798551977874,-12.196905017942843
1098,-2.415979763323958,-2.1680150578783817,-3.1638481616861354,-9.564148934688447
1099,-0.4770623161550719,-1.4392092568812378,-3.2246195378638562,-6.269587464162952
1100,1.6256008195107348,-1.2779039147210354,-3.1993112270931734,-3.2183655165514318
1101,3.6666100515940214,-1.3012919712947115,-3.1250559574498578,-0.9958101493360125
1102,5.322602571246316,-1.3071799102150845,-3.2847592109738386,0.21284524619857487
1103,6.391402182524114,-1.404614190511373,-3.9422957340004823,0.45017411203747665
1104,6.918243060002093,-2.013034902282918,-4.940785478381291,0.393387531912765
1105,7.0437073882829075,-3.193027330115871,-5.911339175667016,0.3540244005935637
1106,7.001411585938605,-4.665058303555091,-6.503717673959193,0.11395300165199534
1107,7.020018527261833,-5.9180259216852455,-6.588260106814164,-0.6632584736971274
1108,7.15165505068382,-6.585403775688127,-6.548775081842457,-1.6052391546700917
1109,7.222406734389454,-6.821385171399973,-6.558853804333854,-2.345663220888523
1110,7.24779595086532,-6.724024056622679,-6.5299574595341445,-2.56119293788251
1111,7.284960439397584,-6.760375440679693,-6.0932519782896835,-2.5132010459623393
1112,7.391902037687855,-6.909949364180463,-5.19685298674607,-2.5440052208927235
1113,7.660814070649021,-6.727232516235111,-3.93272776371188,-2.390588772890214
1114,8.039420201124269,-5.838304906374731,-2.539882821426681,-1.6056563139655242
1115,8.499054417787656,-4.039329857765738,-1.2602413261454788,-0.13398407993596262
1116,8.991595834981224,-1.35979680077996,-0.09614229350242515,1.914990277362065
1117,9.436777325497976,1.927200352240275,0.9645474482394081,4.19608143873183
1118,9.761907454720246,5.407320935606734,1.9061374456899438,6.580839050747834
1119,9.932935542564005,9.292819326337522,2.7436170877298913,8.861018487649433
1120,9.909327720207694,13.075155364055856,3.504322118777531,10.540014277415542
1121,9.947292623063063,16.07033036773633,4.213581547480885,11.416860486245591
1122,10.039745381876873,17.868367917117247,4.881432949355421,11.611694745012384
1123,9.907018577462651,18.5167382382186,5.500228741132151,11.447906367829152
1124,9.268847852998773,18.355579800030398,6.0565017424011955,11.41551672183578
1125,8.00755596666819,18.32342692435325,6.620985883915498,11.531457664794843
1126,6.2512997404536925,18.53573174593203,7.145512902177577,11.338690224285644
1127,4.380806964021914,18.255885218819348,7.549321138106837,10.74717242468541
1128,2.7918092432893484,17.009671996785162,7.77832143327595,9.74367369191469
1129,1.4674813837506755,14.679972094700501,7.813809738337216,8.497528214858576
1130,0.41624120422838007,11.515579183020169,7.826122868233754,7.30754794464699
1131,-0.46872232787426266,8.04778318085965,7.847195828104587,6.409445614771485
1132,-1.2351880517964249,4.752161851228059,7.781825794768363,5.7401201812633795
1133,-1.8397739207523367,1.4771976414503283,7.4323088601049,5.296505693029158
1134,-2.275503735030682,-1.5112192038349677,6.764606624488084,4.955423376893688
1135,-2.552255638245924,-4.1940358111674065,5.834654807042736,4.607722642802253
1136,-2.716919575240522,-6.313917222363878,4.777690702430242,4.214582457339512
1137,-2.80820251082385,-7.685669245727375,3.7128935930723337,3.7675820330049627
1138,-2.8272641280505852,-8.331408776927226,2.570768993836684,3.2089568143965463
1139,-2.8300702407090297,-8.458883352425364,1.3809241130408298,2.4158095558023884
1140,-2.8463206797903213,-8.331988329664316,0.09582000655877976,1.2818277712144552
1141,-2.8335755476539735,-8.31204966196171,-1.1817539444273433,-0.19117733743779475
1142,-2.6786744664233666,-8.404514302796132,-2.2261501208091783,-1.8207085577278017
1143,-2.2907830974068255,-8.299210576331454,-2.8747018967474496,-3.816029904022093
1144,-1.6233435190284635,-7.952056275485223,-3.1209366877873403,-5.8549948586244325
1145,-0.8766340437076532,-7.372796115069791,-3.089874401930124,-7.512585554347345
1146,-0.29948584820823676,-6.662349607947927,-3.05863772242468,-8.507222762745563
1147,0.009000396012258674,-5.9970957079563,-3.119028868273408,-8.81566759341602
1148,0.06875674739530806,-5.372035593006154,-3.0184697731315535,-8.686783482648297
1149,0.009577719077781495,-4.74320607312422,-2.725940769385933,-8.525881530222538
1150,-0.02015287304239382,-4.246165875949102,-2.35839755185306,-8.604459405828322
1151,0.0,-3.9558420847440163,-2.0587735940179384,-8.604459405828322
1152,-0.1415563755708611,-0.11901030936081652,-0.10037682806355708,-0.030012634718146414
1153,-0.5225831716635673,-0.5410232013228963,-0.46000619558832134,-0.20977941553588814
1154,-1.2325367142957604,-1.4717841699950118,-1.2579157889932637,-0.6665560051778665
1155,-2.2860895114100366,-3.0087502383694433,-2.5786193231126098,-1.4681769963764157
1156,-3.6663002933807114,-5.07165302746675,-4.299237777484478,-2.5571388903077206
1157,-5.422210766341957,-7.784759859797189,-6.509642800734808,-3.7570505076390073
1158,-7.592496941475254,-10.558530914647626,-8.739431644689095,-5.081803433218356
1159,-9.729099665418357,-12.72773183533048,-10.471628860901301,-6.315732768489946
1160,-11.327049085073345,-13.927895364117393,-11.434725206206373,-7.249653242771602
1161,-12.134070373861281,-14.111090690954637,-11.649904397936158,-7.779177117933074
1162,-12.188798721229102,-14.135001604405563,-11.530611697225131,-7.877645912357345
1163,-12.18302703052206,-14.200928791049432,-11.553726697579854,-7.893618961299743
1164,-12.271308894186271,-13.905492987036482,-11.600621600105109,-7.924271343169641
1165,-12.070520511960908,-12.384905208105131,-10.944246986533972,-7.815884659749794
1166,-10.984041211477454,-9.57900429671316,-9.354341214391447,-7.108287467240164
1167,-8.84962307654988,-5.807766212537585,-6.839071797612942,-5.687247655703128
1168,-5.7488427029648825,-1.7268742914924142,-3.7460315177358026,-3.6591406360138516
1169,-2.082272516901372,2.059696285555873,-0.5839004291602953,-1.390819256217902
1170,1.6072987195271689,5.707769192406419,2.4049500683929335,0.6859053875709762
1171,5.32720223570521,8.96814809659396,5.179493291389802,2.607171969551132
1172,8.74100510613538,11.86811018241995,7.6175844073511,4.212824620267631
1173,11.389886307852283,14.16968950061831,9.763294989961606,5.375311798687308
1174,13.035155257579136,15.688297096403693,11.455123178216798,6.055238788363731
1175,13.744159689856552,16.419678360408778,12.55671381778565,6.315050643265705
1176,13.76811934316012,16.513363502492613,13.07088329317623,6.284311939106706
1177,13.704515101473463,16.462038172637108,13.119603557798179,6.24905551248291
1178,13.751616785815955,16.468754400616692,13.095659470021273,6.308549384910152
1179,13.638870603897754,16.38277746185823,13.119060518974829,6.2646227637423335
1180,13.00480951455505,15.81847000634037,13.034118065966483,5.925878528560524
1181,11.830690297740098,14.76554560350162,12.535152390215366,5.245806670294879
1182,10.300926022230927,13.347148960344386,11.60188010194562,4.1894280807767155
1183,8.799211480808813,11.81236546282995,10.33705741990707,3.0734302257860473
1184,7.651085893717423,10.36069134725391,8.958466369160327,2.253172978509873
1185,6.725664013425245,8.879777784433172,7.674115301799641,1.8096944530004635
1186,5.948592195310964,7.433491583547852,6.4632133501357565,1.731224624534535
1187,5.164380131784755,6.090162516361255,5.459567913690775,1.7594566923285884
1188,4.3290319839404425,4.933138482649692,4.738657330756191,1.7535716822283465
1189,3.514139903224939,4.004642360628181,4.309947649430249,1.804734722376705
1190,2.7926582992351907,3.2756317139009736,4.110365261727366,2.162809803390707
1191,2.1059091058791113,2.6741755014329724,4.0343809782654665,2.7826485767927474
1192,1.4875648239910346,2.1406655427222843,3.9848814378350244,3.5281043742209888
1193,1.0095827818174878,1.6491071981878314,3.893247566603938,4.2138895800832685
1194,0.7387455432338248,1.1797474849536107,3.702400686181854,4.7059282721083004
1195,0.6744820474387578,0.6925447236292553,3.369063600865157,5.078684677197512
1196,0.7365599047594168,0.1388445110471792,2.888324800085677,5.383771520316164
1197,0.7396595032611382,-0.5086397547016661,2.3018673360662505,5.679618259521834
1198,0.6659288403097607,-1.2419337071153316,1.6905833523309794,6.097961871135913
1199,0.7269482875078546,-2.025568637533795,1.15167047976538,6.728300276732435
1200,1.0903634449458244,-2.8064241541291404,0.7558857363951825,7.770395178464536
1201,1.8255318530449534,-3.562750571446411,0.5203997589602196,8.98193998571003
1202,3.146900127437674,-4.2618230562114485,0.41529574141282605,10.00296003163502
1203,4.698523743810268,-4.816762584015567,0.376685505142558,10.599847250791697
1204,5.980999809777873,-5.167776286069392,0.3240414470588499,10.747937445801984
1205,6.742526470822053,-5.317394187519929,0.19248648708142746,10.63979015447406
1206,6.939626029940419,-5.309002995939622,-0.04552394890906819,10.683087628944815
1207,6.8298050928593,-5.3123771909896496,-0.38514463659664816,10.779707394380997
1208,6.848507955508146,-5.3426226277421796,-0.8075406265105384,10.378317772420116
1209,6.93382651456996,-5.282190936375172,-1.3017751884587896,9.227066153100427
1210,6.4564763424547955,-5.021176932550724,-1.8760400798854926,7.2346200903840785
1211,5.143533322316375,-4.555088082694132,-2.5455089087331952,4.56030560636791
1212,2.912155005457459,-3.9489347093516733,-3.2992399512976713,1.5439279757313007
1213,0.03362844722528702,-3.3125057988444424,-4.140587811340958,-1.5516485552380437
1214,-2.9720360413704983,-2.7475290234615297,-5.036467085921932,-4.69292454142273
1215,-5.739945924209822,-2.1554591153573317,-5.825850554217915,-7.717127941528757
1216,-8.201576585475594,-1.6255513247404947,-6.368645600250353,-10.52092989275447
1217,-10.396081550257595,-1.2412983128015143,-6.622159960859982,-12.77090027478743
1218,-12.186321911778208,-1.0388122014882861,-6.6329558186990045,-14.223520454211513
1219,-13.42087634735963,-0.9917479114102532,-6.619417631809741,-14.86846939513851
1220,-14.04768528014148,-1.036877547053431,-6.641897121748983,-14.892525149095226
1221,-14.169475557403604,-1.0235530874980667,-6.584901701368697,-14.84839767919559
1222,-14.07581340401731,-0.9839222196010095,-6.308548146040552,-14.8973223266405
1223,-14.05887661260558,-1.0793861076852935,-5.802971303163718,-14.765164823896484
1224,-14.088508316322555,-1.3583320647196344,-5.234310095742463,-14.12522389383964
1225,-13.849308861072755,-1.8273707743039596,-4.80793571845491,-13.039902606019119
1226,-13.344205582175295,-2.420261766496016,-4.623063830396218,-11.74608598084324
1227,-12.660696865432552,-3.1805565679433023,-4.572684276805223,-10.545054663785843
1228,-11.933330962477836,-3.950756276660334,-4.573174926268608,-9.567875680926761
1229,-11.21753357640366,-4.618769163044881,-4.5355333380918434,-8.517547858193527
1230,-10.38902446532656,-5.021340935051532,-4.470212481846919,-7.296072903343858
1231,-9.278443198262014,-5.132901463106881,-4.462942705016725,-5.842176386814377
1232,-7.8650979902264675,-5.050831958273754,-4.439661593480063,-4.125094937205382
1233,-6.159585084747166,-5.066285339994166,-4.278070719053423,-2.1003283255064114
1234,-4.136757533279266,-5.150921998813049,-3.8500153302079307,0.19316167839833298
1235,-1.7332256999145017,-4.960661401036929,-3.0712917370191777,2.8988315845980797
1236,1.0747904614034156,-4.339618999395421,-1.991593769093058,5.533854887831457
1237,4.125759478278782,-3.230559056511503,-0.7468427325643892,7.528542030243756
1238,7.5397010786547725,-1.7510294463390437,0.5245854811264052,8.598874646024203
1239,10.768630499739325,-0.1180522321551043,1.725040985559656,8.85959140372333
1240,13.202031284436638,1.407310097936885,2.783037561241061,8.635664388435018
1241,14.536781221235112,2.659985320719871,3.5850900677206807,8.628175916929763
1242,14.891051461974508,3.4338134976449375,4.074454674745103,8.826065639643376
1243,14.618219948465304,3.737950708024154,4.283393532735409,8.581226328087034
1244,14.604501268126414,3.7271780351696786,4.287625470160383,7.697415450724518
1245,14.88174366863719,3.6856080575476335,4.2884211372342484,6.105511119187597
1246,14.596505894704608,3.708562408436328,4.317148889346785,3.950360167200422
1247,13.3537166161142,3.6744211114493934,4.263699200308795,1.5401575510660273
1248,10.933932695290276,3.450061708503558,3.9566265656253745,-0.8369772976755729
1249,7.553339141448981,3.011712795885684,3.354530589372136,-3.2878251684311497
1250,3.8096264844752596,2.36525590534224,2.4948478374099645,-5.594479352883667
1251,0.27371407551446425,1.559375395693904,1.4982606048609939,-7.77523046067641
1252,-3.207089486061815,0.6540347287421036,0.5186585447494254,-9.60522223980208
1253,-6.5540966863483945,-0.3749267304449748,-0.4974524596437425,-10.877306942783045
1254,-9.813075439137496,-1.4708138130833408,-1.3802979103082296,-11.523318428503446
1255,-12.882061806924183,-2.5914866438625657,-1.992453772998143,-11.605630109096797
1256,-15.974418936483806,-3.8135727119999783,-2.295939507231654,-11.590588485435305
1257,-18.72501148827819,-4.9666154190292096,-2.3572854641900007,-11.628338774290986
1258,-20.737285360645906,-5.837455805144207,-2.315182576189247,-11.506119659855027
1259,-21.839125133737173,-6.3074426559231025,-2.2770314665056253,-10.778780573353798
1260,-22.072823065134976,-6.378422772267387,-2.286112056253478,-9.408690251347508
1261,-22.005522764370276,-6.367129245392278,-2.2757655948316757,-7.581204108091694
1262,-22.022260024032114,-6.390536454206451,-2.253019047664316,-5.655395292605839
1263,-21.967535503181843,-6.315846538834406,-2.240835300406274,-3.904762545962579
1264,-21.01622278031629,-5.795334248712244,-2.2126446247705664,-2.148172856850462
1265,-18.921704508932585,-4.745025842717903,-2.1768007540220125,-0.34622476729413026
1266,-15.70398220200229,-3.2188384274123125,-2.108544344174907,1.5385148991055626
1267,-11.779071094211135,-1.4149390320139497,-2.034800503220965,3.4591962402315297
1268,-7.701950704880648,0.46004294978839355,-2.0211211105251454,5.3337375544673575
1269,-3.5652734913349002,2.441178073437613,-2.0139301331513924,7.0853502023821555
1270,0.4630345874543047,4.392316249771615,-1.9493214591689967,8.798121614579664
1271,4.791295483100933,6.353808787339948,-1.494688346733197,10.291370805128906
1272,8.905250818789964,8.062809410825926,-0.7424084136573632,11.35670106368714
1273,12.067499259546176,9.263012223542125,0.05559584233858628,11.905037958131977
1274,13.828009624574486,9.871702700534032,0.5955597895241345,12.006343831973105
1275,14.286066020987038,10.006294031689007,0.7620842884131507,11.975825723469228
1276,14.029437759004052,9.911741881443263,0.697559445426027,11.902530984524414
1277,13.783011469116135,9.83411299710128,0.6097179354203277,11.839368732715315
1278,13.915724570049589,9.879839674516424,0.6501279527564896,11.669923935918789
1279,13.915724570049589,9.879839674516424,0.6501279527564896,11.500479139122259
1280,-0.014813824227359926,-0.06222644069282396,-0.1456682585806739,-0.02697153175284936
1281,-0.005562012438954017,-0.32522715674463787,-0.5812686045216692,-0.15855144037255564
1282,-0.05668966487277338,-0.9715774602191103,-1.4484650831184247,-0.519760474003167
1283,-0.32614710934877145,-2.1356106717847894,-2.7850804279183285,-1.216788422898722
1284,-0.9985694206004341,-3.7629097803768623,-4.458230523622602,-2.269839190094945
1285,-2.173271022963587,-5.955535235630464,-6.665103996124112,-3.61733406265807
1286,-3.783704977955755,-8.213540347203345,-8.976805172853734,-5.119558675103086
1287,-5.6035171118012705,-9.97619207838686,-10.847144080274234,-6.967955792361271
1288,-7.700112491489948,-10.948158005210189,-11.930632634122883,-8.869245763166727
1289,-9.721810832027556,-11.170601601134129,-12.214379656085555,-10.418035551523914
1290,-11.281971632787217,-11.025906681185646,-12.011280617094796,-11.332824328634892
1291,-12.164762716070415,-11.020115656971717,-12.039193766864473,-11.528654822880224
1292,-12.389428871860899,-11.098347533564732,-12.223971984902414,-11.510639362214519
1293,-12.23327689028994,-10.631988995632248,-11.705526850457222,-11.52200590848543
1294,-12.238850226498034,-9.45091149903315,-10.152047062051262,-11.397491910044232
1295,-12.381485561789736,-7.549105962631399,-7.495887665301342,-10.483320286877008
1296,-11.977814280748197,-5.19348377025328,-4.076167630696191,-8.690202416305208
1297,-10.722106810703142,-2.788331687801883,-0.47771281264525434,-6.196040575185789
1298,-8.489785260595962,-0.5357834555002872,2.8893625425226572,-3.436850337110789
1299,-5.4687556616005555,1.6049351127895857,6.121287688657703,-0.8084777636069316
1300,-2.027988480344815,3.554089706103487,8.995378865443667,1.8170091405555502
1301,1.5857935651739474,5.311310929390084,11.530129795513107,4.416760658748963
1302,5.38993154618847,6.8949804712609195,13.517545530716578,6.964818816702646
1303,9.101767772948751,8.340078608872364,14.802513872596716,9.363111720318237
1304,12.521716216104025,9.712161297766663,15.404860122094256,11.498231320692293
1305,15.473562603325476,11.069137874843037,15.50446166499977,13.320157999406597
1306,17.668649489390845,12.595576245670399,15.411331593935257,14.85320353473898
1307,18.994937962363114,14.079092198200486,15.40219302034244,16.08415033575095
1308,19.557375309271887,15.222859574958104,15.43647320472821,16.943796509698107
1309,19.57030353214502,15.853959219888669,15.198555609283213,17.4078441328281
1310,19.526663374192513,15.977410221694129,14.65015773094089,17.553325554746852
1311,19.575816983625444,15.932369902418188,13.815345211387356,17.52940030813188
1312,19.476708653323808,15.922613459084182,12.79834564312299,17.501766837713877
1313,18.906909289532365,15.881340397783546,11.71223835318794,17.513584825191014
1314,17.82743222906603,15.435418263320528,10.558892189414484,17.502318476329734
1315,16.40666993528985,14.497253717998232,9.288059521920975,17.426698797348298
1316,15.013345289655788,13.029998884997932,7.952493201987964,17.281309618359245
1317,13.945960448984364,11.108465837054661,6.605784592763472,17.02984254140548
1318,13.018003704440197,8.898402366643388,5.294130700570244,16.583324601152192
1319,11.995577357229914,6.4983500757150185,4.049900306803876,15.7967365450306
1320,10.564947380638515,4.235662994445082,2.894663836970755,14.480161777109208
1321,8.638236881047085,2.0206740743450102,1.8351912321393464,12.519902421412445
1322,6.394833517270291,0.04986352854784548,0.8541689300739208,9.902863790408409
1323,4.070920816302027,-1.3273515253817725,-0.08385219478195238,6.720546549497217
1324,1.732385735455821,-2.141672250906569,-1.0169813696439194,3.132866557378822
1325,-0.7498456244507476,-2.5103680346234016,-1.9776486074983024,-0.6858655783585712
1326,-3.428826279435004,-2.6549805788744267,-2.9599865116057664,-4.555759438435628
1327,-6.687631929831511,-2.977866488818378,-4.111132069078279,-8.450607738225525
1328,-9.972886969561053,-3.6430131052657466,-5.265479136245663,-12.326171457518154
1329,-12.551899864249883,-4.293854922212319,-6.183930821617874,-15.629873737164411
1330,-14.002280726288571,-4.472888570083056,-6.711731907043047,-17.865336201624523
1331,-14.380725390168632,-4.49691056359649,-6.814417009016129,-18.90395607467792
1332,-14.094378096496117,-4.841996167001293,-6.828108041575115,-18.937263536121847
1333,-14.093096495119944,-6.07458952469408,-6.828682954681973,-18.924190317767962
1334,-14.333164637311617,-8.349774768986713,-6.6861460924970135,-19.038113556634823
1335,-13.846345586528649,-11.1562981996001,-6.108632876091655,-18.725279060929815
1336,-12.380775360755974,-13.535717362994083,-5.24452266300918,-17.360465717942105
1337,-9.857054641293512,-14.826894942194144,-4.382214152021651,-14.958020893765564
1338,-6.406148430947944,-15.37079122808441,-3.7349912903014824,-11.71013932015263
1339,-2.360870768591564,-15.236403445877425,-3.1978202754823823,-7.87222243833765
1340,2.2163192177283024,-15.381078400805556,-2.3130780510075386,-3.7989629710298805
1341,7.365085443160504,-15.707403356393979,-1.117706451287129,1.2418273081309654
1342,11.88562000015193,-15.352128109889588,0.11256335173763776,6.232433855534158
1343,14.872067225179809,-13.129102198556895,1.2659691145625196,10.024448797735435
1344,16.140231430262197,-8.168160224813175,2.180533598343483,12.03961051745597
1345,16.006867556826162,-0.3150415912510631,2.8251440363450437,12.459131522189802
1346,16.108077970839794,9.609883283116362,3.115235889140853,12.169657905574706
1347,16.43206963197424,20.36852619064976,3.3247894792460224,12.20761421808976
1348,15.771569072730832,31.65179016615587,3.485529245888446,12.338227618767078
1349,13.067079542040334,42.88391971489509,3.816953271472796,11.179168396493727
1350,8.186687161512882,54.0465977621413,4.456735299713086,8.367154294532348
1351,1.6719080917566804,65.40708836959814,4.674959367423966,3.8756792580783515
1352,-5.351474748239431,77.3180773608571,4.667605702121919,-1.8892592068100642
1353,-12.46267847834587,90.14902193809066,5.098545398766826,-8.20073755797501
1354,-20.319324752723524,103.68220953639505,6.619102394760273,-15.84035735089451
1355,-27.36007382733434,119.64141300572565,9.05668601388189,-24.112167319814436
1356,-32.27528978104392,135.5340821586075,12.373074330933203,-31.052367088346372
1357,-34.59524098922153,148.00789223061759,15.478605803122669,-35.315641952369965
1358,-34.58487927891489,155.06580153176003,17.477395549145726,-36.75068679006421
1359,-34.5941922360675,156.49609110591808,18.557498996232745,-36.10005424238255
1360,-35.01762543990304,156.01653808324238,18.810181839163377,-36.09368981109119
1361,-34.21179420722133,156.47181070858073,18.57377034169665,-36.853763214241
1362,-30.413831892376574,156.16814609551986,18.626644171594094,-35.85288352864623
1363,-23.419202919529,148.93098124535476,18.87319626220505,-31.899916676649273
1364,-14.199775850110127,132.55943785739268,18.365882540155003,-24.79732049937048
1365,-4.805855451819047,107.0251022765122,16.59851032533013,-15.560902479653898
1366,3.690320512656047,75.04682174866868,13.300996362999152,-5.998933999592944
1367,11.080350115196525,40.31510088213408,8.649114587933752,2.4092347857287253
1368,16.187720255283452,3.512937033784951,3.1582110646177872,10.2278890071924
1369,18.777647893132496,-34.767304945215514,-2.7226187665759656,17.314841045839344
1370,19.22606163483134,-73.25967246008447,-9.070546937974784,23.012230210091154
1371,19.090320197443408,-110.96511436798293,-15.562901514670767,26.781730042180083
1372,19.03655438138168,-146.98735288872754,-21.935456876871868,28.6012755144892
1373,18.76159296900886,-180.59582221792505,-27.95961447031898,28.87054313382146
1374,16.85499169032095,-211.26366810945976,-33.395056498305244,28.763236266674244
1375,13.313499724507617,-238.64149448006788,-38.420545415533546,28.754458560803148
1376,8.583175908109274,-262.21141790025354,-42.57787465161865,28.563924024524447
1377,3.637905769629225,-283.06636357564486,-45.41754360797094,27.183134856623276
1378,-0.6073654242331605,-299.7867355179898,-46.834296734694966,24.581849027581107
1379,-4.399673373911487,-310.9788371618063,-47.128026471738,21.037168747712407
1380,-7.251851562104114,-316.51012738000617,-46.87059599715851,17.163296264414683
1381,-8.99444253529942,-317.6885723613966,-46.81956322299006,13.555354622549471
1382,-9.758984827033341,-316.5388052484773,-46.99379630552026,10.121088239764477
1383,-9.836769431748685,-316.44660007519013,-46.65217392284543,7.121186759780345
1384,-9.77277798619869,-317.4560621217428,-45.63521177646714,4.43217591855919
1385,-9.768821144735059,-316.178642044214,-43.891246328761994,2.222301100166748
1386,-9.692028751420713,-311.2192841073257,-41.59399742913639,0.6777165651770941
1387,-9.186930295861906,-301.5185391805891,-39.02291881074475,-0.14343471727749244
1388,-8.264444803042919,-287.1213730010831,-36.31043426473468,-0.3595897966453743
1389,-7.072552969491345,-268.94235445449897,-33.26561151434019,-0.21629153563355732
1390,-5.9216037499948095,-247.71186964557273,-29.963252030742954,-0.17508144863961422
1391,-5.081513417511259,-222.33608883001668,-26.472362952681607,-0.29192251458443397
1392,-4.452096800212202,-193.15764252136245,-22.876065534968692,-0.15957001816220454
1393,-3.979143362388739,-160.44001871015465,-19.227154669962825,0.2821387200821631
1394,-3.532166129927931,-124.6000029460763,-15.512666993118033,0.9759775649745525
1395,-3.079576389157949,-86.19931934755813,-11.656769831774824,1.816911507313113
1396,-2.707188458484988,-45.91831059872101,-7.563823217050405,2.6342780063134494
1397,-2.4843760004735698,-4.531371342164899,-3.1726210354751254,3.2292216320738216
1398,-2.363470045129158,35.8723674491827,1.31691623053778,3.659831256764012
1399,-2.0992233746147484,79.48284316748627,6.616006456860518,3.873922577101269
1400,-1.54579949620768,120.8059284449001,11.972327345096982,3.8783881168105343
1401,-0.8520711524851269,152.52536498527294,16.281256254134114,3.8782812916689413
1402,-0.2704837938111594,170.39604804554494,18.81301936775629,3.9165087472192677
1403,0.03217136174839892,175.3229303041543,19.560150542567023,3.8702987758226737
1404,0.06965960875505617,172.82882029158904,19.221259325834147,3.455876760643661
1405,-0.0011471106185525423,170.1864231257125,18.82774821277966,2.76912362389577
1406,-0.016247754632453267,171.5652057944664,19.024753774975842,2.0630111892146954
1407,0.0,171.5652057944664,19.024753774975842,1.6004674906017686
1408,-0.14031394947495623,-1.0665301547641852,-0.2858556065186588,-0.13594314921929906
1409,-0.5950347562701276,-4.469655922101327,-1.177853213653451,-0.64459800336568
1410,-1.6578644243881844,-11.511213406269697,-2.982195032993589,-1.7901867404004523
1411,-3.5629830298058267,-22.619491785176294,-5.6333853081848435,-3.668121056737573
1412,-6.245020246608284,-36.71473660707659,-9.394886237678605,-6.186945093592231
1413,-9.937461510845504,-54.51884015213645,-13.419403429958232,-9.277506149083916
1414,-13.801306254094813,-72.38589539778893,-16.66653109311102,-12.238632780865615
1415,-16.849699443434012,-86.2653067780994,-18.52505107142712,-14.41155537836034
1416,-18.54010172533399,-93.96783876146954,-18.954418531606166,-15.525769658878332
1417,-18.916177633323237,-95.3806610935411,-18.72007467953371,-15.619332828866096
1418,-18.659956404103507,-95.14107746835113,-18.79361160788766,-15.662031805602826
1419,-18.728299245589213,-95.41913333877046,-18.892325546661244,-15.798889634678138
1420,-18.880035150509855,-94.44469716818878,-17.531127030960235,-15.45066866779826
1421,-17.796177009143854,-86.46698015964414,-14.239375478227934,-13.70554875241111
1422,-15.027217688567914,-70.28105248917711,-9.054255980419224,-10.410917048379346
1423,-10.528385513019243,-46.84929779395065,-2.6888073403492903,-5.877704214925838
1424,-4.843338859384339,-19.57508503063596,3.8297199556848773,-0.8582433622864609
1425,1.140000590529262,7.761659027660572,9.915276146844608,3.905639831840116
1426,6.8934609279548535,35.08550877668911,15.921067123436899,8.492051299363006
1427,12.401662611112329,60.63568740471139,21.030053777135883,12.915592271205966
1428,17.373268384344854,84.82223025911601,24.576834361379177,16.86624969618449
1429,21.74718658033009,105.08755177798798,26.37893574940157,19.86116068166681
1430,25.76401249959371,119.0387625684396,26.738917681930115,21.622841513132784
1431,29.447179934303648,126.06019198057062,26.514256947781625,22.235646524910273
1432,32.39003738633119,127.3793731796258,26.45240690106951,22.02630159493753
1433,34.25520321669803,126.50755293992417,26.492938154135835,22.01518306911535
1434,35.036986164114666,126.46906347742456,25.6929782033702,22.284591720018728
1435,34.964334827327015,126.62291998393718,23.965819074481722,21.93665662199896
1436,34.96326401128636,122.78745733329642,21.419917995291332,20.4667333421
1437,35.15868758886406,114.33194823571431,18.44186203937783,17.780365243928674
1438,34.87758302956181,101.92645739752248,15.451177539674129,14.254730681110283
1439,33.42809742039675,87.89873127420478,12.468654053186858,10.607111022138035
1440,30.51359400172378,74.97436319624245,9.460398294562358,7.463156124916991
1441,26.144701699458047,63.910025189545536,6.5653671758345045,4.649793328081313
1442,20.65773404940245,54.645059623142984,3.8928144207500077,2.3743170040389376
1443,14.468920586446359,47.54632215950564,1.5185640573440282,0.6953508715504808
1444,7.470326638436185,42.59757847103567,-0.5489491067610069,-0.4439403486926663
1445,0.10574891942751963,39.5530088782395,-2.3293631220046773,-1.1350383310694006
1446,-7.130106808531959,37.93624567275355,-3.9814421115530436,-1.5020571212612144
1447,-14.38541579383936,37.10936678296374,-5.384350442220724,-1.6771448195416692
1448,-20.73190714351347,36.410632735753836,-6.372617815376404,-1.769578125840393
1449,-25.24372495787151,35.28528864839959,-6.881604835414774,-1.7740031673117134
1450,-27.57005555999226,33.33590293858925,-6.966211353971794,-1.7499517704877443
1451,-27.989380957949994,30.295921006566765,-6.938659670486977,-1.8399017620049167
1452,-27.811400115813633,25.990664577425182,-6.94889566747211,-2.173731844913081
1453,-27.74615000746613,20.335841877662236,-6.895919949892749,-2.822866007601278
1454,-27.5735105517006,13.360929135445234,-6.451653893548615,-3.6702817241119594
1455,-26.116356625623034,5.212828572004741,-5.600603408517491,-4.641040501099958
1456,-23.4524929244171,-3.871397160154081,-4.434527851814358,-5.492259330026291
1457,-20.017343145698597,-13.59749583009189,-3.1867669288038347,-6.110623325193726
1458,-16.548548389351495,-23.631179550852217,-2.2063735256315997,-6.452143812058081
1459,-13.581883867748628,-33.60167553920714,-1.56554974236651,-6.5423163450047115
1460,-10.776415970117185,-43.10265295087338,-1.2803498623780305,-6.49034632590949
1461,-8.12566659548789,-51.66835874607075,-1.266278804186264,-6.502527875379862
1462,-5.683597121861746,-59.354804158540176,-1.2888259318627633,-6.555997460826193
1463,-3.525336832289336,-65.47054432048004,-1.2785083120894802,-6.332289650077938
1464,-1.6446261613990836,-69.48309024532658,-1.329242101173942,-5.653641291019601
1465,0.06759451473814515,-71.40242364739412,-1.5626332234029534,-4.44439940460658
1466,1.681360151638566,-71.65734556284528,-1.9566195250631506,-2.765494410969318
1467,3.313691857041288,-71.57856155367696,-2.4286302507205018,-0.8089484986385684
1468,4.7536935453352305,-71.59124363315887,-2.850539137100919,0.9601213444925802
1469,5.768377356389504,-71.29494616979511,-3.145272462478956,2.2271984258635324
1470,6.2850864791134295,-69.65710291491966,-3.418810545903413,2.83731258788408
1471,6.408071424132174,-66.8004677500051,-3.730158392844382,2.86039818505972
1472,6.2859387489923195,-63.28139212309271,-4.157791847484092,2.8758295425472786
1473,6.314989131980317,-59.997575298469584,-4.737157248674848,2.9612522239709005
1474,6.440849366315676,-57.63470279973238,-5.4502225708083145,2.760540324906094
1475,6.265751466439254,-55.84656543571644,-6.234396672430535,1.8069319726217092
1476,5.621656242965434,-54.62800727494654,-7.131046675760944,0.03956871374543969
1477,4.440715835874384,-53.74656348861866,-7.99967784998848,-2.2864231509937607
1478,2.834295259312346,-52.88512365458004,-8.668594074138841,-4.90499056136605
1479,1.0911194567608293,-51.72585824045336,-9.039773903555334,-7.149239867538434
1480,-0.47925932004452676,-50.05955484498215,-9.13687211082037,-8.832093112222969
1481,-1.894665601690862,-47.85434754788553,-9.064392734664661,-9.708787749343063
1482,-3.140118558943885,-45.21676954742294,-9.051818194032801,-9.879461140889832
1483,-4.196812518211296,-42.266480404413436,-9.116307569937778,-9.780103026798113
1484,-5.005883351236647,-39.030151532419026,-9.047558923898467,-9.756071086164583
1485,-5.512928635700455,-35.44119419155445,-8.78086668660028,-9.743627018903801
1486,-5.709572261878519,-31.433686680247817,-8.287112109561136,-9.304798619901874
1487,-5.664136716684786,-27.034195794188932,-7.600182451076685,-8.458590391112468
1488,-5.637639077538795,-22.367428279729843,-6.789812820731002,-7.311412641407527
1489,-5.705872505208923,-17.599309177317203,-5.90825768187438,-6.063521544580441
1490,-5.643247461879342,-12.897765385446375,-4.897918523022247,-4.908177772539399
1491,-5.308052214238085,-8.426351252792438,-3.830182445144831,-3.838943250821224
1492,-4.65678119000309,-4.333299935645988,-2.7844315554759795,-2.8616510848952093
1493,-3.7659220791331456,-0.7146117743123539,-1.823066843656819,-2.0113867491273707
1494,-2.7773709133908255,2.4319459566661292,-0.9566074287678312,-1.204058710081743
1495,-1.7614758452819017,5.206250745082105,-0.14146866333307798,-0.2938929451770927
