,TP9,AF7,AF8,TP10
0,-0.1834104386307615,-0.5112563958619025,-0.5313997664442542,0.10421736574968678
1,-0.154267844707873,-1.0942436862848997,-1.1449568869284528,0.24647087430893738
2,-0.06590093965377176,-1.9121866965901622,-2.0225413625147697,0.44511190348844115
3,0.09521227906688352,-2.9611206445232097,-3.1695748517894655,0.6944822376722705
4,0.3556324402486119,-4.215523887624209,-4.5662404436154524,0.9837805403784352
5,0.726411470867647,-5.630396419971062,-6.169806065537446,1.2950729189068926
6,1.1839993829596003,-7.146375232701453,-7.91941236646208,1.6053376442126148
7,1.6852104099197593,-8.69848980057464,-9.743807360801334,1.8924249132433826
8,2.202308603968484,-10.22962752050832,-11.574530262323025,2.1421735756619955
9,2.7285209079856396,-11.705644006871529,-13.362382503458964,2.351380222494734
10,3.2558030767885806,-13.129437730325916,-15.095921969430599,2.526818003923197
11,3.7663830585000118,-14.482554575661746,-16.74508289000096,2.6709270370589513
12,4.261667511461741,-15.74565673388931,-18.28402384859251,2.789702008806142
13,4.780022677030614,-16.904538281901267,-19.693454015427953,2.8984499894172924
14,5.35913979885928,-17.95540002235629,-20.963472436664233,3.0173843107635863
15,5.993389926412839,-18.90674132767022,-22.09482781025054,3.1597188700619325
16,6.632030799824739,-19.773612926782842,-23.094186720218225,3.328384373812311
17,7.228900230932984,-20.568838182224617,-23.967545663070077,3.521643411865694
18,7.773785666332765,-21.298062228276816,-24.718265390132817,3.734100523776658
19,8.269993994285485,-21.959824580098417,-25.350728233168375,3.954930969965498
20,8.70647979548122,-22.548563523952865,-25.874285284607684,4.167607234989603
21,9.046054950553525,-23.056232616440557,-26.300479574503644,4.349449087874388
22,9.258636757787926,-23.473000825755733,-26.639275383457214,4.477027150256108
23,9.359743368167376,-23.787734441997046,-26.900880733203877,4.535537125639479
24,9.401528830393682,-23.98817155345532,-27.095875391699167,4.524234866109919
25,9.432352295257374,-24.063167071348342,-27.230589381220742,4.4542758251587795
26,9.470041113535583,-24.00700545652431,-27.304104988823603,4.343690753501659
27,9.525919988976536,-23.82504122088033,-27.310413188917337,4.215730796146525
28,9.628758901799825,-23.536387815542344,-27.243427269078385,4.09417340874341
29,9.81065074448327,-23.168234747242245,-27.100296481801575,3.994279817780887
30,10.071912599113698,-22.746903840081533,-26.880620487370543,3.914869462039655
31,10.363005847632733,-22.29173686572119,-26.583085878530543,3.8367924864726155
32,10.62000456106253,-21.81273636027477,-26.20298766944853,3.733986422781112
33,10.811169080581612,-21.312693756438414,-25.733299753639276,3.584571083780164
34,10.945325939784077,-20.791783383119604,-25.169369167050093,3.374656433182241
35,11.03165058890129,-20.251402627239656,-24.51407235038699,3.097777950689589
36,11.046364461222694,-19.69517994366983,-23.77831830565494,2.7506267845029075
37,10.956312513132085,-19.12807159794565,-22.97810755359161,2.335496991229403
38,10.762056574250561,-18.556073039012496,-22.13270749293602,1.8699540885913266
39,10.511223605503902,-17.98671610315371,-21.261252052131194,1.3870221257665982
40,10.249019728026417,-17.429302249943802,-20.378122421199283,0.9223299787256676
41,9.969007947244354,-16.895830726124103,-19.495262424684668,0.5001057940625073
42,9.626886987248836,-16.40119555859041,-18.63013623205252,0.12695663479102498
43,9.18554164677211,-15.960689783119848,-17.809592905794506,-0.20048947928629085
44,8.64598511839664,-15.586235006182871,-17.060995763389506,-0.4850102201911443
45,8.019940916133157,-15.281785445341988,-16.39369137416364,-0.7287160358438939
46,7.2967188667683835,-15.041128790589083,-15.798455138529853,-0.9372359201839113
47,6.460469864898761,-14.851934800311039,-15.270448657551427,-1.1184738805056627
48,5.525547236560012,-14.703448233750512,-14.822584468972854,-1.276650950107411
49,4.551147618804466,-14.592065059761838,-14.477362457923164,-1.4107035620629704
50,3.598664650614851,-14.518770146160945,-14.253538529222535,-1.5187895207817488
51,2.6863872969728497,-14.483641154852439,-14.151890328949815,-1.5986613465338613
52,1.8039117158720182,-14.486127781541052,-14.142357789780183,-1.6432758232664042
53,0.9576870381545157,-14.526207580118653,-14.172388690194325,-1.638218215412491
54,0.1871281315296059,-14.603644193710972,-14.19192820063749,-1.5650553523717714
55,-0.47608935946610526,-14.7168473784149,-14.167718403559538,-1.411385385909491
56,-1.045786263444133,-14.861542148003386,-14.083587172485867,-1.178221977248529
57,-1.567889323076549,-15.03022968813777,-13.936300552048618,-0.8790620159263676
58,-2.0677152734556783,-15.211584742286764,-13.729418896520965,-0.5342589054910228
59,-2.5255685480844656,-15.390153403589633,-13.468962655505095,-0.16562314234888578
60,-2.910087973405635,-15.548519606264307,-13.161884458932576,0.20293033848072842
61,-3.2169139101584725,-15.670482623122961,-12.816025087251864,0.5402314951835521
62,-3.4758804488467825,-15.743533087983394,-12.443842543673938,0.8112415568565061
63,-3.70679984843956,-15.759431519178557,-12.057157279878139,0.9899249800775519
64,-3.8906599690923307,-15.711262285335593,-11.651064820716757,1.0669689138091687
65,-3.9980676197099876,-15.591781568389639,-11.204722487956673,1.0472287340858244
66,-4.022137552795358,-15.397153437036708,-10.69837267833578,0.9425476096632873
67,-3.988489305600153,-15.131671303274711,-10.125005011246717,0.7650158612876881
68,-3.9202138159470947,-14.807052156986874,-9.50095986032392,0.5243383474317064
69,-3.812395571862688,-14.436652687083553,-8.874396782798389,0.2281395292000269
70,-3.653593379743324,-14.03374207821753,-8.308751000790835,-0.11775936721420494
71,-3.4532419218879826,-13.614159050245515,-7.8507876716294245,-0.511742418334898
72,-3.251543063429947,-13.195062474663168,-7.517513997961672,-0.9592584747112971
73,-3.08715603782733,-12.791242631210267,-7.3046256738736,-1.4673704417790132
74,-2.9620313725869023,-12.412072579530696,-7.197028954833124,-2.034259288093965
75,-2.8464570724397977,-12.060078353766794,-7.170172896246761,-2.644973649424145
76,-2.71660450823121,-11.730698492236545,-7.18781582833802,-3.2765127114609025
77,-2.584370168829875,-11.414232043017106,-7.20466263665666,-3.905714162622844
78,-2.4747505545692534,-11.10083451200406,-7.174596213099329,-4.511745885148033
79,-2.389630625255001,-10.783220755722368,-7.060107197384949,-5.073779229900322
80,-2.3065554649345836,-10.456690170842906,-6.834853602850473,-5.570359351440946
81,-2.2185000288249417,-10.11996373124908,-6.479685937681794,-5.988072812723939
82,-2.1612095386224732,-9.773884312753841,-5.989644861904175,-6.331604164284496
83,-2.1823061608650587,-9.416561188075228,-5.389786486141068,-6.617890090748666
84,-2.294726763125229,-9.041609015008719,-4.730593879196841,-6.862404810344127
85,-2.462853876031324,-8.641430904297545,-4.064426043083118,-7.073658687629577
86,-2.646617073559498,-8.210252388891993,-3.4279187534883158,-7.257554835979184
87,-2.8451502866479945,-7.744737642082677,-2.8432551161515454,-7.422909563168892
88,-3.081981962549496,-7.243880069271669,-2.3251880011207997,-7.578853272488229
89,-3.3661401313859596,-6.709925260564431,-1.8730646109881244,-7.727825936062342
90,-3.6721087647232373,-6.151067297765257,-1.462250881402832,-7.863717488215426
91,-3.97611838277623,-5.581870975872073,-1.0525358742646311,-7.9788009097217945
92,-4.294607898589257,-5.019279511320073,-0.607545436960832,-8.070587388350075
93,-4.664897709091025,-4.479518303557911,-0.11166917621096162,-8.139529053597341
94,-5.10045767801168,-3.9771158166985257,0.4249011355142059,-8.180903598191701
95,-5.5679652735786,-3.522256128796452,0.9757475800680362,-8.18061947813786
96,-6.025810754492631,-3.1195348878566134,1.5131854962281108,-8.121880502413585
97,-6.47363902559693,-2.771000482157792,2.0141412599498585,-7.995717125317293
98,-6.944849792661816,-2.4793461633811362,2.4607989137186035,-7.802403271497645
99,-7.46252384966792,-2.2501373094913983,2.8449594558587625,-7.543137649665162
100,-8.017603902315168,-2.0893840435184385,3.176487277153593,-7.218223078537535
101,-8.589063472159353,-1.9942953715899174,3.4797872039443827,-6.831620264574597
102,-9.157780118287766,-1.9486727569808708,3.7772988508164214,-6.385663124138411
103,-9.694777285821631,-1.9297145156853552,4.080981682525857,-5.87320021312499
104,-10.137015601417009,-1.9163185127606748,4.390443594360237,-5.277897404457764
105,-10.387923198043925,-1.889971748691057,4.698040349813657,-4.58411316709206
106,-10.363524522522306,-1.8346591170919277,4.999985478159542,-3.7882729369881827
107,-10.035291438772788,-1.7426191392327608,5.304157197629511,-2.9017411177127803
108,-9.439865623236155,-1.6198446628318695,5.6361887303996285,-1.952031046079748
109,-8.648607413900907,-1.4858257494561202,6.045345974340314,-0.9818029748149025
110,-7.739526744796609,-1.3690756253313188,6.5900441022489105,-0.041870302892058654
111,-6.804326429267019,-1.3029336649974514,7.304635781300611,0.8142228814986097
112,-5.966640527908967,-1.325267376150886,8.189253382295943,1.5246061891808156
113,-5.381136948491776,-1.4767166026032588,9.22082395346388,2.0138734707504398
114,-5.177456936520566,-1.794293489099832,10.36173909117799,2.2076083815605623
115,-5.41550336003108,-2.3064215458615225,11.565393994144372,2.0502534548530322
116,-6.104913273818283,-3.032174285698232,12.788678403293682,1.5112817020899416
117,-7.244922947303466,-3.9833717447846264,14.010812121336746,0.5833102743272122
118,-8.702919619510796,-5.035028629228864,15.11789917000482,-0.6444374409300574
119,-10.757949290230187,-6.411657996083309,16.3504398984671,-2.30824064796562
120,-13.459965761435013,-8.18760489842041,17.833971227319985,-4.409160631119194
121,-16.700940559577838,-10.323368365101182,19.605700961131383,-6.851721747419047
122,-20.289152639677198,-12.705770311361533,21.62919851831121,-9.479391105712406
123,-23.997142410829852,-15.183217294873248,23.803717644899756,-12.108471536802222
124,-27.5773165968485,-17.59071631806841,25.983778477010848,-14.559137097640235
125,-30.78427077728633,-19.771186333509327,28.010633982632434,-16.67971978570691
126,-33.41847081180073,-21.597817964449433,29.741929685100203,-18.36412076559628
127,-35.3729168352492,-22.990846236497674,31.07555911343778,-19.566821201229512
128,-1.10893085471307,-1.5146555121483996,0.6112287024131269,-0.4074661906655373
129,-2.226469495854177,-3.3200437330203982,1.1062005335261442,-0.8980482904643196
130,-3.7783216249600553,-5.888744736149025,1.7259400346357052,-1.5968440731479019
131,-5.725862113491898,-9.217251424397924,2.44869083677934,-2.492949055150524
132,-7.964605017536063,-13.230381589800794,3.249034616278604,-3.5498909346524683
133,-10.372361375815716,-17.78271618472171,4.094581875332032,-4.7116878407828855
134,-12.83237566490567,-22.67558719384695,4.9378278471575205,-5.905825661434331
135,-15.223714713809414,-27.689888658860717,5.7154355701737085,-7.043186490824712
136,-17.40994570193273,-32.62455598057754,6.363873851076581,-8.02854522428378
137,-19.27877389262507,-37.34178842938725,6.844891795707953,-8.78728096814735
138,-20.82246451782832,-41.82543317490713,7.164958521518658,-9.29780222405756
139,-22.03892618009237,-46.01642097024337,7.3103139831971635,-9.554805311839678
140,-22.929437108764212,-49.86692176478262,7.262152645732103,-9.575847257077365
141,-23.471466323404385,-53.332869649717715,7.001969392606105,-9.393721027845505
142,-23.657850286912918,-56.37490509546043,6.519664316679169,-9.05374499409387
143,-23.534341902666608,-58.96941551285926,5.818409048333232,-8.608746610923998
144,-23.173699268920952,-61.11094704744931,4.918232958393446,-8.112179690621891
145,-22.623886817418086,-62.805628395200465,3.8523968484105926,-7.606356174958996
146,-21.887852196591492,-64.06607962596266,2.658269692588947,-7.112946828030501
147,-20.95911192732604,-64.90871340965974,1.3735139300845194,-6.638297193605483
148,-19.857819773803545,-65.35146439318548,0.02740438215862495,-6.180962273544708
149,-18.62778392890799,-65.41308137174686,-1.371491170754829,-5.731922349972105
150,-17.294479342168326,-65.11517217579079,-2.8285264327662416,-5.276644856908225
151,-15.843842976014864,-64.48349156938163,-4.343876696338009,-4.8037795212985115
152,-14.264672488306802,-63.544247088527534,-5.907733597425455,-4.314965476722407
153,-12.590221335595464,-62.321080955323964,-7.507668131171324,-3.825747114507255
154,-10.891600778291451,-60.836175057249925,-9.136468799656399,-3.3537265350645664
155,-9.225177148268973,-59.11019732174744,-10.796395962126555,-2.9070387593128615
156,-7.60471651980948,-57.162406962222285,-12.484560238221595,-2.482702657870344
157,-6.028486587514662,-55.01353685951574,-14.169581333997327,-2.0706047652171446
158,-4.511266764649203,-52.69143521854003,-15.787233047949044,-1.658851457264965
159,-3.092287275818113,-50.23186340996555,-17.259314983455635,-1.2383696559706812
160,-1.794175479559558,-47.6683186518306,-18.520518628606993,-0.8008883323141669
161,-0.5959427122621679,-45.026484727927375,-19.533884021158805,-0.33229002537807895
162,0.5415531091189079,-42.32858427573487,-20.294421575876264,0.18210341609091818
163,1.6439502150887169,-39.594733000491736,-20.82429172501827,0.7429186926030792
164,2.705869995296935,-36.84290115263392,-21.161029934299886,1.3349713609135443
165,3.713824492077548,-34.09133187601167,-21.34228623025016,1.937159720326897
166,4.677942135843239,-31.357531074471858,-21.393953714374568,2.5276746108715864
167,5.632177895181346,-28.65316071351789,-21.335757064087705,3.084554615857396
168,6.598536285296685,-25.98131997672747,-21.190222625739967,3.5902330635385575
169,7.555755753343285,-23.340944681541174,-20.975420293530533,4.0342257939562955
170,8.46571811703156,-20.735764610071584,-20.701135100624978,4.407000482880862
171,9.313547658230927,-18.177449993103824,-20.37999024234553,4.704178932187102
172,10.11923567644734,-15.680392757946887,-20.024851157685774,4.9402855639116385
173,10.905340134927716,-13.257187547230723,-19.634483284331314,5.144530771461027
174,11.660470500870412,-10.918638548529444,-19.2017617565094,5.345187416707496
175,12.358587994674252,-8.674714465819987,-18.723964740267476,5.563614391890934
176,12.997938509381845,-6.53367476823474,-18.19713851882399,5.815503241351315
177,13.609004389818088,-4.503078308026984,-17.6115767410972,6.108514586694649
178,14.212128775606963,-2.592811800529504,-16.949428961832265,6.4346052766045805
179,14.7820545310076,-0.8145239889391804,-16.197464920653996,6.769406012778318
180,15.271824647961944,0.8207646842817603,-15.37259219574737,7.082946595257738
181,15.66243753857383,2.3060759281815293,-14.531912227036194,7.350065438164863
182,15.986278868119015,3.6427303129204236,-13.760149097029942,7.557775090822634
183,16.282324249469312,4.8394281522694955,-13.141350497954134,7.70563692470238
184,16.546537238119424,5.907452094539683,-12.7261943887322,7.796185045533522
185,16.745583805049126,6.859068057531164,-12.51701552363186,7.827832529467161
186,16.86618778038403,7.708670825692362,-12.477836132454073,7.799228754075926
187,16.939148868163162,8.47083308575582,-12.544207008676585,7.719432234430984
188,16.993215449046343,9.155293593188835,-12.623848998327837,7.6039894302362026
189,17.00493326883278,9.762100998443326,-12.62120557620003,7.454973499445645
190,16.922120027156097,10.284586742573737,-12.488546805470769,7.262426409044011
191,16.729617613860352,10.719343945519658,-12.245357699443414,7.030321141611323
192,16.46739789844687,11.068498917820653,-11.950663880410493,6.78727035708802
193,16.183919117486585,11.335771774229492,-11.672404848689844,6.570672224900253
194,15.898432467440431,11.521514453757076,-11.465801638940002,6.407674921605595
195,15.602773468693314,11.618036331947929,-11.355911081687257,6.312039722060777
196,15.297789424583971,11.614029072573045,-11.338523478521562,6.290151971646358
197,15.012104767295897,11.504629030265447,-11.392312146023858,6.3452084486842395
198,14.768983094023978,11.294828911237914,-11.487689454499584,6.475377230370197
199,14.554764949944868,10.993935509945896,-11.596845338322062,6.665737850280338
200,14.323071804239095,10.60982714506372,-11.694895374971635,6.885915681510001
201,14.041607117053333,10.15032391355227,-11.755967924040618,7.0995481471447
202,13.720202632762351,9.62708038030686,-11.761353676161363,7.276811318522962
203,13.387659839902568,9.0569466138479,-11.705689314347982,7.402587763878758
204,13.057198313369428,8.461282594060574,-11.596205429587528,7.471642364307329
205,12.70800224727594,7.8618489853048175,-11.448146897142976,7.478641918511489
206,12.3202126895483,7.274395337218504,-11.26906333232347,7.421293576249995
207,11.904144818972982,6.707000020714848,-11.042390953543409,7.306494138801489
208,11.479450116195096,6.162192812981419,-10.737380594329126,7.1393858951692355
209,11.048343567675007,5.64185755457702,-10.350095804995494,6.908331848364482
210,10.584088719415066,5.151984218164673,-9.931886283247062,6.591129061394787
211,10.058456728149931,4.700347665843989,-9.574701888443544,6.175636428189717
212,9.477156273924535,4.297302123491845,-9.37519002867255,5.666597186149621
213,8.879073595822566,3.9576243727952605,-9.39673197919869,5.078608731082023
214,8.29434762939085,3.6933089871778,-9.636445070169312,4.429471270960576
215,7.705955552938781,3.5096383091702994,-10.027504025879118,3.7348253566553367
216,7.076770647837109,3.4107595248657554,-10.476237091659327,3.0122662927851827
217,6.4018920615793276,3.404089180729771,-10.891403181481579,2.293117684178666
218,5.721763843984991,3.496787088892149,-11.19955880554335,1.6232220489949365
219,5.077830573749338,3.6915416390799485,-11.353497392952283,1.0466932777677853
220,4.469722424919182,3.9891435495368355,-11.334254590625338,0.5872885868415905
221,3.876750102200659,4.391257183055094,-11.153645699920348,0.24750236821363417
222,3.305815673708161,4.8997134602153585,-10.854846401633827,0.02209971118086602
223,2.802568413689135,5.513518660400107,-10.506019875186679,-0.10117133727620306
224,2.4005333697970643,6.222137537993913,-10.179470314170201,-0.15429224259371965
225,2.0805890776598406,7.002030369866402,-9.924335180939273,-0.1856451428742228
226,1.7955967089219507,7.824074966805652,-9.752568987069287,-0.23715440832230728
227,1.5188654728049609,8.66408087604833,-9.64758576248855,-0.33116671058129593
228,1.2660948317711633,9.506462891768543,-9.59021410029823,-0.47540032004656013
229,1.0518083679286714,10.339668331513291,-9.57299637068826,-0.6682407335771167
230,0.8451926597642335,11.150413448452454,-9.589756756192093,-0.8992479819163399
231,0.5935558063838331,11.926929157061457,-9.623918242090753,-1.1481900120780084
232,0.27705411566464766,12.663494156147106,-9.650887609957943,-1.3831452856719766
233,-0.0699288201467842,13.356565893172176,-9.645285991166945,-1.5659360469779233
234,-0.40943568963935295,13.99840768714628,-9.586131867464522,-1.6656059852841012
235,-0.7452080246457367,14.576281650055934,-9.45866967453923,-1.6672052226204312
236,-1.1024879371427916,15.076583572894485,-9.251069750090366,-1.5712364928723064
237,-1.4788288105908107,15.487610911979969,-8.954063223109513,-1.3889138399920147
238,-1.8259795221524224,15.802979795462509,-8.568330507431469,-1.1412598579687065
239,-2.089491910345253,16.027500059321465,-8.1134573075879,-0.8596950184099227
240,-2.2447995393554727,16.181517325500096,-7.628909469757286,-0.5801877488855612
241,-2.29418931353255,16.301565853881172,-7.165237593354813,-0.33244309902483493
242,-2.231975678941082,16.430455735645587,-6.769559152611162,-0.13290553018191179
243,-2.0251839719715745,16.600743156601595,-6.468432232941475,0.01231848209912752
244,-1.6492133102167414,16.827403847758152,-6.2575699344520626,0.10089779902723399
245,-1.1241098809894072,17.11168370419787,-6.1036468387867355,0.13257267371331638
246,-0.5327568577723863,17.45395572843657,-5.978176214739592,0.12093696894138359
247,0.1394377233694121,17.829226633952178,-5.8275530603654655,0.05350275598154639
248,0.9018755609519302,18.203518718727704,-5.627190325319701,-0.06742908626339436
249,1.7283995767712956,18.541023975392324,-5.374299021751203,-0.2310122560789043
250,2.5530908884451624,18.814384718450775,-5.079959332509105,-0.42366895904536783
251,3.300943779620452,19.010941390668236,-4.762765194190072,-0.6314051357377796
252,3.9325805453202576,19.13258461559746,-4.446074655658167,-0.8398812936619438
253,4.449539809067602,19.191557575584305,-4.1563059008747825,-1.0346163226742489
254,4.859279553625255,19.20509473373821,-3.9179996942275017,-1.202032781436083
255,5.1540931039468045,19.192165441245557,-3.7468057816040012,-1.3320462637361006
256,-0.2451585841830303,-0.49791770042925804,-0.31909308496971595,-0.2196426804461253
257,-0.23487583920796146,-1.0874392030105318,-0.8330033491857904,-0.3518082688189942
258,-0.16685751358521944,-1.925007337992438,-1.6068632325921024,-0.49231161148020247
259,-0.018059779084003642,-3.0128465023814885,-2.6378216912880696,-0.6181890819030085
260,0.23297378980681133,-4.3340708158391505,-3.897527387061076,-0.7122348528892473
261,0.5705417764244227,-5.853071498357762,-5.335853262170737,-0.7697423523085146
262,0.9381387581996741,-7.520227994960509,-6.886285697983006,-0.7991852831961095
263,1.273531522418646,-9.28260977913783,-8.472464864498637,-0.8196539456141858
264,1.5466480947974837,-11.09273823170249,-10.02424319123496,-0.8530183377613377
265,1.7515638300611438,-12.916142597184026,-11.503800704584785,-0.9153831505672667
266,1.8669124878232157,-14.74804082955846,-12.921443892798196,-1.0217736774564232
267,1.8695066768838053,-16.56215204894098,-14.280617258266037,-1.1749625590069988
268,1.7620796881556957,-18.3345757083099,-15.587638222907508,-1.3708726484970655
269,1.5890595897419804,-20.04411058791751,-16.854100734598152,-1.5983275500480576
270,1.390373201675776,-21.667161855592063,-18.090775587462364,-1.845386530804137
271,1.1559714414625646,-23.18003525395873,-19.28580771708616,-2.1064789379030753
272,0.8486719668055585,-24.56854883252694,-20.40486939509428,-2.383602526334629
273,0.4530674631502625,-25.829437141503647,-21.415494039964358,-2.6805738093874454
274,-0.003229806836571189,-26.963532238546403,-22.29880639844556,-3.0018236762849386
275,-0.48517545834212034,-27.9719808327152,-23.04334462772253,-3.356982074562303
276,-0.9890654122666425,-28.85695793743331,-23.63190566174459,-3.756143759067914
277,-1.526577731884584,-29.62259239919942,-24.042078138479077,-4.1952795096830755
278,-2.0856168589597885,-30.27220857238413,-24.262862394771535,-4.650071878739979
279,-2.624277532101261,-30.803381523267653,-24.31085221505518,-5.080376420138582
280,-3.1079109476802236,-31.205906256371968,-24.23075569913106,-5.4388611451288345
281,-3.529685383375335,-31.465987902533083,-24.07486257701332,-5.684532692980705
282,-3.8882494957750477,-31.574784358355473,-23.877895247432697,-5.792539727898469
283,-4.156267656714979,-31.531346234183232,-23.65444637376044,-5.750876230174262
284,-4.291848503116426,-31.33957850171911,-23.409822524626097,-5.552309625755538
285,-4.280048570374076,-31.00898722703563,-23.12894812829267,-5.200589847932586
286,-4.14407831053014,-30.558412749221706,-22.761390921325958,-4.724208351876139
287,-3.920369792384608,-30.016217349113134,-22.239283979192965,-4.172313525938244
288,-3.6225675716479584,-29.411998027643566,-21.52455675882142,-3.5944009892127182
289,-3.247049791877807,-28.76472864470124,-20.6397915058991,-3.024576358745158
290,-2.8092211766491038,-28.081499673994664,-19.65433600305903,-2.4819826588808858
291,-2.3544159857847924,-27.363847793108693,-18.655699171877508,-1.9785138393304504
292,-1.9430505762093073,-26.609942105277238,-17.727758514083522,-1.5223919553537624
293,-1.6069881688693572,-25.81528009368041,-16.938372822104323,-1.1191109840037876
294,-1.3265590839922332,-24.976833404823005,-16.332925964591432,-0.7705805180051309
295,-1.0594838711546346,-24.09946782482341,-15.915163143854222,-0.47344920171405125
296,-0.7740237371801837,-23.200140303033496,-15.627679637646061,-0.22331267709508118
297,-0.46843764023225454,-22.3069858675799,-15.3679598896152,-0.022497647912190222
298,-0.1578910757558989,-21.45471613889719,-15.031381105399673,0.12402657954048268
299,0.15345747676151766,-20.67729726425891,-14.543862361639173,0.2198191972497051
300,0.47878528123149455,-19.99919267747059,-13.875323073570403,0.27653205420565957
301,0.8327902380163127,-19.428849896920422,-13.047448716788226,0.30826885585268055
302,1.204414063762929,-18.95658924462884,-12.139096470117584,0.3312229840325905
303,1.5593460588138237,-18.55631038327488,-11.272176256466192,0.36531230035011764
304,1.869608737951582,-18.193041549901032,-10.567269147424138,0.42603185828569184
305,2.1309991561527304,-17.83475438628294,-10.094478420545396,0.5083786831833123
306,2.351278343474853,-17.45898729118684,-9.858286037200486,0.5849205798125964
307,2.5206649797044425,-17.05193609963246,-9.827446314595768,0.6204516052710022
308,2.6124963470068,-16.607459916062695,-9.967603320899494,0.588720824425522
309,2.6211903629072437,-16.126602245910085,-10.244259456338556,0.4793550754448197
310,2.5856834023321413,-15.613606890515985,-10.615384714842676,0.2968350295213389
311,2.553861363983582,-15.073435995152868,-11.026779059382637,0.059673393546271
312,2.541322270581872,-14.513791028545675,-11.41970436435382,-0.2057252365549847
313,2.5404266664596027,-13.947480653290208,-11.753339299207232,-0.47554703225271755
314,2.551408260381477,-13.390861195361271,-12.006555176084463,-0.7252423611017565
315,2.5995679201499113,-12.858378536207267,-12.155788647449244,-0.9224320667569392
316,2.7025087542155357,-12.359869185344673,-12.172877269312172,-1.0405842820706517
317,2.8368696213962465,-11.903108232977273,-12.040197175959737,-1.0727946405018354
318,2.9505472088287585,-11.495071361721802,-11.757644713760724,-1.0259727310077313
319,2.9957587621152153,-11.141618049878252,-11.341614868710126,-0.9126836685305023
320,2.959800728049931,-10.852081662238435,-10.819822768708713,-0.7488766744283799
321,2.837474053527135,-10.642159066896593,-10.222699466932587,-0.5538426986743686
322,2.5903703742265813,-10.527904067098023,-9.578703272355158,-0.35132145838421136
323,2.1619316825845907,-10.515895128993504,-8.916392098299188,-0.171967720749306
324,1.5262833647740812,-10.595657264379781,-8.267247304130889,-0.04709294932620162
325,0.72143577852509,-10.742693548022132,-7.651694573981022,0.0094791928841494
326,-0.1862011778543628,-10.931318846854786,-7.05590589595021,0.009893070466402431
327,-1.1601260873541097,-11.139468692705304,-6.447182179114889,-0.021421987333147662
328,-2.204415364640602,-11.340256468862531,-5.811017110840462,-0.07147052406722836
329,-3.3188887767257134,-11.499934894415498,-5.155779034016091,-0.14148178526693841
330,-4.46565153997628,-11.58827670184128,-4.4943030902648,-0.22486450583358894
331,-5.5909016800486535,-11.586862754943482,-3.842636505842144,-0.2953256756047855
332,-6.655912423042939,-11.492489698136502,-3.2359292604700407,-0.32200834791025823
333,-7.640935528160908,-11.317110386332685,-2.7202540735880625,-0.28400471835848345
334,-8.518239343590933,-11.08466753057256,-2.323540918885928,-0.1673714879867159
335,-9.24330286343468,-10.82842855498001,-2.0479497288551056,0.025085248527722183
336,-9.78538326581987,-10.584624674216368,-1.8824485536485718,0.25270410092310347
337,-10.164458470359616,-10.37623109557316,-1.8112929229147465,0.4466501433344365
338,-10.452434303188316,-10.19844247038935,-1.8160408661241632,0.5380887607047815
339,-10.704765277390473,-10.027329932148989,-1.877090346361506,0.48186234750393375
340,-10.913229804999576,-9.84317860861553,-1.9689967964577628,0.2748562439074427
341,-11.044447694488392,-9.643004156294186,-2.050055571772128,-0.060940901568337036
342,-11.092389170614837,-9.437553413499671,-2.0667287342063942,-0.5157512702836036
343,-11.08714544409693,-9.248891417286584,-1.9699119181156877,-1.0955670851183792
344,-11.040818499982148,-9.11283640896916,-1.7363314168567772,-1.7928602571508456
345,-10.895303972087149,-9.067592712087523,-1.3937501607090612,-2.555070902400373
346,-10.547108756876321,-9.147686835559538,-1.0304141690180846,-3.2895742230307907
347,-9.924651871565654,-9.39413060255852,-0.7645657521504766,-3.911513850683186
348,-9.040684727119006,-9.843234427492797,-0.6755438654702526,-4.391858427074181
349,-7.986829127801761,-10.516009876171376,-0.7603151667023056,-4.7718711726409415
350,-6.888296793156278,-11.43040173706719,-0.9603863378788301,-5.136304488980208
351,-5.852045803689303,-12.616405848082646,-1.2279387163836992,-5.568950053418018
352,-4.963138769505405,-14.157844289764832,-1.5294678087646998,-6.120791252945038
353,-4.298605879989849,-16.24416327619833,-1.7782997594972254,-6.800699231869623
354,-3.9066138489212014,-19.17073285680294,-1.8529834257595876,-7.58770648448745
355,-3.7867233455591247,-23.303875444534818,-1.691113274350879,-8.45084464094302
356,-3.901610244376881,-29.03591385194818,-1.323124175053022,-9.365048582618343
357,-4.22453745540952,-36.73317895692858,-0.8349078978060394,-10.328180781386726
358,-4.765028683716879,-46.70114111283568,-0.2973110990119239,-11.353917411044993
359,-5.5321397287414,-59.153566125245526,0.22757664490936386,-12.43917775796557
360,-6.500788637910796,-74.1951166475515,0.6141381750910053,-13.567080840895482
361,-7.612684090427849,-91.84699719970385,0.7257183420414078,-14.726402874250097
362,-8.801464971278216,-112.08680920431337,0.5494047641677916,-15.897394993438374
363,-10.019933921299096,-134.86283892314705,0.20756659040208575,-17.05645071916525
364,-11.242784822739297,-160.0792826991146,-0.13743768188803468,-18.198062508656513
365,-12.43360257938471,-187.60048261760537,-0.3605893178903222,-19.319125363840996
366,-13.520928317885563,-217.27057090153963,-0.39736186350572433,-20.392197156340295
367,-14.426710240787589,-248.88955684354977,-0.2206366104843934,-21.366441533214836
368,-15.114280341405033,-282.176072807638,0.18412804067713587,-22.194438684774433
369,-15.604124150736851,-316.7463967343315,0.8042962343545212,-22.85022565950212
370,-15.928137014315167,-352.102338926301,1.5757662470444986,-23.323111460822634
371,-16.0916587605208,-387.6680904700649,2.443528895413823,-23.613231536748113
372,-16.090717229567623,-422.85725999335205,3.4167466193255223,-23.723977578286895
373,-15.929639654149343,-457.11028390652274,4.474054192395379,-23.63615937327721
374,-15.679212311595762,-489.51221294809494,5.461543729026416,-23.374579672822986
375,-15.200570161825066,-520.4356013289282,6.173540977377939,-22.757320539342505
376,-14.412965356762413,-549.7014262411788,6.471770761582862,-21.716615750912034
377,-13.318614066220361,-576.8511888320443,6.360982173513081,-20.28288064589583
378,-12.002741992684632,-601.3277958795467,5.955869823677736,-18.56293940467895
379,-10.600628029200704,-622.6017246741973,5.351310299957791,-16.72275711455633
380,-9.247824633421796,-640.2821324277406,4.602836492323558,-14.94646625477624
381,-8.036772582322564,-654.1883410975265,3.7833531857853964,-13.370236419720388
382,-7.019606953851418,-664.3756051537737,2.987636572010222,-12.06719795377483
383,-6.242123741172189,-671.1298072523911,2.3160400956637948,-11.080681489343576
384,-0.8313883818296518,-12.698101601032944,-0.29877762630000326,-0.5670939840195762
385,-1.6488667464315419,-28.01261532899203,-0.6223681070146114,-1.1978572786069217
386,-2.7676805520928873,-50.09466725483481,-1.0707796769178985,-2.0534295447875466
387,-4.091759921158757,-79.09982699049453,-1.6644255759736017,-3.0807869865946764
388,-5.459096824189233,-114.58629999363666,-2.42016970750922,-4.176509163282386
389,-6.7069729135023355,-155.5430837357644,-3.3440989374971517,-5.209697486389989
390,-7.70331065645757,-200.5054667248393,-4.424548591912681,-6.06077455462531
391,-8.346534934721756,-247.76472277258537,-5.626064237705271,-6.6553172093143615
392,-8.580693675546158,-295.676498794533,-6.88969501876979,-6.976850899813329
393,-8.43377846770802,-343.07029588026097,-8.158895410224586,-7.069416852548179
394,-8.050882871525843,-389.76059203357437,-9.42297759909615,-7.042512912085365
395,-7.579355891837218,-435.126550102435,-10.68909424290482,-6.994572536834952
396,-7.161444423212527,-478.62641828251503,-11.97449712185543,-7.006062985971541
397,-6.895805090331867,-519.8124856327615,-13.289191228748185,-7.118880643774531
398,-6.830632776719786,-558.3241568720748,-14.617243905341763,-7.341763069365148
399,-6.992289979743353,-593.8808938338809,-15.920890602735486,-7.665184732668487
400,-7.378904419317219,-626.2751248761843,-17.17142759457811,-8.060401027254672
401,-7.926417551229834,-655.3652107217465,-18.357743583734695,-8.47547384070618
402,-8.518111895088843,-681.0685429997537,-19.467319418678308,-8.845351068790047
403,-9.052842859682212,-703.3548402409903,-20.468514448849184,-9.115871324151561
404,-9.496387964863887,-722.2396952909437,-21.29121988393818,-9.262921446233308
405,-9.856252264766402,-737.7784180822667,-21.83036422414787,-9.296419657924448
406,-10.137989421333971,-750.0602084691307,-21.99907957075682,-9.24801256160353
407,-10.345210769094312,-759.2026853788168,-21.798956041180816,-9.145541742027493
408,-10.494524437574782,-765.3467908776663,-21.3323036029209,-8.992093155311826
409,-10.608050001681667,-768.6520808674112,-20.759075604842447,-8.77579351267169
410,-10.704900073860474,-769.2924080044803,-20.23294370855052,-8.502963914980443
411,-10.783295658489228,-767.4519970431182,-19.837141477294093,-8.195206994326806
412,-10.794137918795519,-763.321908111824,-19.580248134015918,-7.860658083736851
413,-10.671948246649361,-757.0968794061619,-19.424361909815023,-7.493484033364469
414,-10.401937837529557,-748.9725373806353,-19.287846797864017,-7.0906147113708435
415,-10.031019813230888,-739.1429597068458,-19.070543964045086,-6.657806235913229
416,-9.607048724757997,-727.7985739918402,-18.69478191427978,-6.198243613781683
417,-9.14255148918865,-715.1243734756889,-18.118538029077104,-5.709584179953272
418,-8.652477866081325,-701.2984296071327,-17.34208220412717,-5.199921439595253
419,-8.185976224108577,-686.490680486942,-16.408424588234872,-4.689972486591262
420,-7.806764134192863,-670.8619736277484,-15.40179284367661,-4.200573110967027
421,-7.541926432863203,-654.5633412649048,-14.45178176674986,-3.7457157431266634
422,-7.349777611512358,-637.7354865254247,-13.700281388705918,-3.328408109236347
423,-7.148613291282645,-620.5084590829453,-13.22283754312318,-2.9343049552067626
424,-6.860333056482644,-603.0014994598292,-12.975514654340504,-2.5375498986315463
425,-6.428165127593818,-585.3230318489083,-12.822044096969275,-2.1240705958092474
426,-5.817798662609162,-567.5707861853078,-12.618196592804068,-1.6848095274486345
427,-5.011895329308567,-549.832031173988,-12.275659033303972,-1.1804748305438153
428,-4.022111610068979,-532.1839010441795,-11.782051054000988,-0.5515839385649218
429,-2.916999408886048,-514.6937999333892,-11.187234849720337,0.23260920568307075
430,-1.7996545090783975,-497.41986897899767,-10.5734482470802,1.1610452343880102
431,-0.738688663179186,-480.41150239502326,-10.027678164417278,2.2059500387797546
432,0.24819855078493042,-463.7099000179522,-9.593434512304192,3.3343241419383114
433,1.1564345170024508,-447.3486450033975,-9.247895865157394,4.508202875153579
434,1.9707100889854132,-431.35429653164414,-8.941580986343787,5.690292050100875
435,2.6741703316857164,-415.7469885236536,-8.624768151021197,6.845511372591024
436,3.2804128962845294,-400.5410264705527,-8.24516275915539,7.942390354142938
437,3.842055677318491,-385.7454755313744,-7.756652568794751,8.95807844041976
438,4.415612759022478,-371.36473404986447,-7.1249615757563065,9.873432818196427
439,5.011457110216221,-357.39908757689557,-6.341041130690868,10.660423240347518
440,5.574217806350992,-343.8452393572197,-5.4464045606021045,11.281774452102281
441,6.027879121285851,-330.6968140458167,-4.528322784533484,11.70481249266719
442,6.328131519699242,-317.9448321589638,-3.6812370065135815,11.917849089240837
443,6.4844659421146105,-305.57815343822665,-2.9707144404181944,11.930416330901675
444,6.542446589997994,-293.5838879125778,-2.414175849056838,11.750329483924146
445,6.5324351484406655,-281.9477739861691,-1.9855322514925446,11.379200995698683
446,6.462296207677153,-270.65452335891604,-1.6456140007745208,10.837829888789791
447,6.3476611914573295,-259.68813300644877,-1.3698082575015866,10.178467004518465
448,6.227499537915079,-249.0321648080267,-1.1597322955791796,9.473065138683813
449,6.1510176796203435,-238.6699937188652,-1.0499860527229523,8.793595830868087
450,6.145980479485478,-228.58502564038656,-1.0952413143587056,8.197493207998894
451,6.213777622281269,-218.76088635175876,-1.3272853581814361,7.71718701618878
452,6.354052938631653,-209.17933368679104,-1.7417118097062463,7.359532132090344
453,6.585545568132866,-199.80046213487526,-2.3182128635486055,7.1162830098576135
454,6.9305218398575095,-190.50342335158885,-3.0164728301948833,6.964873562473997
455,7.39102263557324,-181.1348157257092,-3.782860374014069,6.86960448439706
456,7.969228916851064,-171.77371721356403,-4.577828272215954,6.802294704139354
457,8.702188652914998,-162.89940979763026,-5.36981701124503,6.761097303953102
458,9.658503509106383,-155.14193155701267,-6.121637143523993,6.766513686615751
459,10.87871377237365,-148.7709411291889,-6.794501736913994,6.844712194783281
460,12.327959267550256,-143.3131354857112,-7.342861851770842,7.013699695443979
461,13.92038823751714,-137.4511068572152,-7.711191817993853,7.279748482876942
462,15.582292460824029,-129.1391748404121,-7.850118236194142,7.6422542715165465
463,17.280711797519075,-115.86643509309411,-7.732310622507125,8.095055872530505
464,18.982013045517053,-95.00145439526847,-7.357054767325797,8.621111186779967
465,20.62205258363807,-64.16053288674134,-6.744900096643138,9.190202309367084
466,22.124278002068134,-21.54944337787578,-5.925573225019784,9.759724736161594
467,23.44049534372896,33.76390308853345,-4.932206579115177,10.284818248548056
468,24.580891111021288,101.6813578250289,-3.811387163986951,10.737376939961964
469,25.577948412854255,181.03993736499817,-2.632334783504934,11.111681928139543
470,26.440497731666802,269.7336231525476,-1.474949992255294,11.417872873221373
471,27.164282597530722,365.00893050051286,-0.4108880862912003,11.67433492660139
472,27.76336822217634,463.9373158571017,0.5194618145683544,11.900736678275733
473,28.26088786167111,563.9818616001107,1.3355679761008894,12.111538965800147
474,28.649914127903653,663.3239206610656,2.107131634676774,12.30778555377828
475,28.88301939021548,760.7091913635459,2.907994002252363,12.477393725275268
476,28.901128429079723,855.1062177983977,3.792360281786248,12.607178017050497
477,28.67347305583389,945.5602465255038,4.784036448317632,12.694226911092484
478,28.19834561798252,1031.2394876475207,5.86455765905221,12.749471687700536
479,27.473392261701928,1111.4747611719345,6.983435651637512,12.792964619801186
480,26.484202007941697,1185.7490003015764,8.078082838091195,12.844603234445838
481,25.223582539013815,1253.6845571542003,9.086894958916226,12.916971872153136
482,23.72412862351294,1315.0297358974462,9.960002140769046,13.016457075054713
483,22.054679313383502,1369.6453926736776,10.670061486299705,13.148189763691823
484,20.291284614441985,1417.4919435076467,11.215374301296675,13.308448236065377
485,18.48157393448225,1458.6168814742575,11.621216208974994,13.463386008585154
486,16.622176630695645,1493.1428851483909,11.937547604016714,13.547497184317075
487,14.695523854542554,1521.2565826382456,12.217997079624173,13.49176658355742
488,12.713364586867726,1543.198019328543,12.498509912442026,13.252790507419977
489,10.728869522257137,1559.2508628210678,12.786834825146592,12.827231830587559
490,8.81546946762093,1569.733365431223,13.056021980988124,12.243173340828266
491,7.022121101573892,1574.9900929397297,13.25433147266427,11.54025996406127
492,5.357613405260372,1575.3844180554217,13.331983076326505,10.759027186790528
493,3.815490453508088,1571.291768155481,13.26159504445179,9.936174122143663
494,2.408693453513136,1563.093609262546,13.039107839485547,9.101268722549095
495,1.1623151532503895,1551.1721418173202,12.683738399655038,8.268624061925554
496,0.07729584375077941,1535.9056785292728,12.243617982481043,7.427823013691419
497,-0.8762237403418877,1517.6646703530992,11.77705335126471,6.552877669426873
498,-1.7445175696150923,1496.8082807849992,11.319495382590931,5.623521884809123
499,-2.578502062100309,1473.6817069871088,10.874132160621354,4.636215257557064
500,-3.4243621347440114,1448.6140691513078,10.419272406108712,3.5996509270669077
501,-4.3163607622494,1421.916382414069,9.920526314041558,2.525990659579056
502,-5.258522752080645,1395.2456232382476,9.359454088985052,1.4524092902477672
503,-6.228695854623403,1366.6011262390487,8.665627501224694,0.36587612220302057
504,-7.1641167072940055,1335.5195917918134,7.811940092276085,-0.7078002250620445
505,-8.020334251144778,1302.6058691491305,6.820653881408172,-1.7355501501685495
506,-8.791621804508742,1269.122970039893,5.758011101964818,-2.6934913051469023
507,-9.47893029485148,1236.642201847825,4.7137588670593376,-3.5635576370898914
508,-10.053147013115353,1206.753911841037,3.776751710054471,-4.325777799633432
509,-10.470134567616292,1180.8389788925117,3.0115122129312866,-4.961488801814146
510,-10.71943188400803,1159.9008753422524,2.4480971062571024,-5.460782894783203
511,-10.838626426011896,1144.4578474403368,2.0875206194371816,-5.824334814243467
512,0.01808768576439968,12.295089252419388,-0.2527725155963407,0.24414117106347155
513,-0.02249516078394892,27.123550943680456,-0.571804626972407,0.4970090196560968
514,-0.08304730842074218,48.50476270550075,-1.0797539794506428,0.824185015044356
515,-0.11196548594916006,76.58929410723046,-1.7944842558898548,1.2175143446252084
516,-0.054496324519467176,110.94698576797853,-2.700776433880241,1.6611187133833931
517,0.1147528217875124,150.59190278373023,-3.750417012621626,2.1316716691087536
518,0.3993815541557374,194.10071773090402,-4.865804637731774,2.6042270179748295
519,0.8150984693950444,239.8280285648044,-5.955703686989234,3.0593716440236993
520,1.3907316435026207,286.2077997857214,-6.943305559062657,3.4899199651751083
521,2.14703906356263,332.1347772137585,-7.799775928390935,3.905513899906768
522,3.0842073034256585,377.4362965467638,-8.563511165990612,4.3348454397184
523,4.176961321013889,421.4838141807256,-9.284977145729917,4.796640432906568
524,5.376258688892089,463.6901507630686,-10.011241448427812,5.299534696489308
525,6.616597642867537,503.52650528379377,-10.778508676649603,5.838799067492294
526,7.8251873839650905,540.5153313727959,-11.613060846351766,6.393757683492117
527,8.93196716093512,574.2269613641337,-12.52370974371424,6.927589337342779
528,9.884277101687156,604.2859280949673,-13.494832826773449,7.395812559565489
529,10.653988194389305,630.3767939658245,-14.487412734993578,7.7634234254224905
530,11.227163247872292,652.2492655496319,-15.449700711709026,8.016399163440678
531,11.579772095280799,669.7301920001893,-16.33652305222146,8.154427513373802
532,11.673559059198313,682.7358249626996,-17.124212957283124,8.18521541427433
533,11.492529456116545,691.277980975464,-17.814054257609406,8.12847369105575
534,11.075629056386083,695.4618879816198,-18.42875841766849,8.011976631141588
535,10.5168044808963,695.4698431914321,-19.00591201787967,7.861471840151712
536,9.911748239764028,691.5347870367927,-19.58375686265015,7.6944440475066065
537,9.304646553110686,683.9237094746389,-20.18413035980594,7.517512963534187
538,8.702844658663702,672.9379449957867,-20.803276898064738,7.32595618898613
539,8.112904915626856,658.911296020195,-21.41087872207845,7.105565044715156
540,7.566612304677372,642.1934729544523,-21.962543438705666,6.837849539452285
541,7.106365734126613,623.1308036004322,-22.42481968959683,6.50693417906298
542,6.7391189228704915,602.0554258084779,-22.779596549410925,6.1044911763869205
543,6.425820168802077,579.2765045745151,-23.005269104053575,5.6339890357377005
544,6.111361819817474,555.0694077861987,-23.076321133854368,5.112597040778133
545,5.761980718418021,529.6688970730265,-22.976722654221554,4.565308036012956
546,5.370685185649207,503.27390352135876,-22.71808694819282,4.014369071057536
547,4.934496450407342,476.06157496740013,-22.355246590119577,3.4710116468599757
548,4.438397827956543,448.19459846677523,-21.971653772240575,2.934551661419544
549,3.8743063764357903,419.8242727654553,-21.64421010613602,2.402958472465267
550,3.268970114110501,391.10383890299124,-21.419148897650878,1.8847258808096017
551,2.6532865491446245,362.20331295239265,-21.306670604404385,1.3915267256413801
552,2.012354359380832,333.3144200901462,-21.282239136922062,0.9196752333834476
553,1.295535742580561,304.6529065514571,-21.295327553305704,0.44849800896265446
554,0.47969172383628134,276.4579676552434,-21.2832178396833,-0.044607221869385594
555,-0.40265403230104657,248.97351489938768,-21.182121054049105,-0.5693101971140166
556,-1.308350002783968,222.41923785288344,-20.94122378994101,-1.122329962413141
557,-2.2226299757483874,196.97292335341749,-20.534355820501613,-1.6987724384472798
558,-3.148886282046717,172.75774005140937,-19.958720901501106,-2.298201726593
559,-4.064107740197474,149.8299548646406,-19.234982983876144,-2.91919324385932
560,-4.901847860661924,128.1813433093163,-18.41897230188399,-3.5489716241273204
561,-5.596012526581747,107.75520242320435,-17.59387007359723,-4.1654426488643
562,-6.126106770558954,88.46465192161664,-16.838214901739214,-4.751330014911087
563,-6.522348993880766,70.20815547520782,-16.19953192585266,-5.3034966555389484
564,-6.8219641443219965,52.881648662922586,-15.680290777406327,-5.828306937490693
565,-7.028789231004628,36.3941117456346,-15.25259907028531,-6.331240643031445
566,-7.129175628656676,20.682385024084304,-14.890963559192215,-6.816986265950912
567,-7.13426471729962,5.710152119119066,-14.582816679353432,-7.297243684453308
568,-7.088306405131885,-8.544887972797651,-14.325720608982074,-7.7841610259042895
569,-7.016985645863102,-22.102845072113965,-14.131154429513053,-8.27088583440136
570,-6.894213523915974,-34.99013112315469,-14.021093435223085,-8.733209238335059
571,-6.675701656075998,-47.24688469119893,-14.009492889264958,-9.149737010479258
572,-6.34830463575915,-58.92617379112161,-14.089137901995997,-9.509129118720969
573,-5.9447779883606815,-70.0838448511335,-14.235540160674677,-9.805919710042128
574,-5.508570716348781,-80.77455882796751,-14.411736608107681,-10.037595913172531
575,-5.057160116332624,-91.04670617485695,-14.565326207648868,-10.202765428247657
576,-4.577986506882818,-100.92256365906594,-14.635940783373266,-10.299398130940865
577,-4.059221087206565,-110.39052638993269,-14.576743958631493,-10.327033784769744
578,-3.5147483875459686,-119.42221153176857,-14.370275204986653,-10.286572419019791
579,-2.961125008152541,-127.99136162083698,-14.023577185578656,-10.173706476892644
580,-2.3892553209817926,-136.08474969847265,-13.549750412013145,-9.977209691699409
581,-1.7647601680692955,-143.70500402076473,-12.963052387790322,-9.68545860963456
582,-1.0699758102380172,-150.87222744635997,-12.287351039287284,-9.296846942962292
583,-0.33743961677264755,-157.6299897355372,-11.557203825691621,-8.826340727670647
584,0.37404952160900523,-164.0431377162296,-10.808039510839063,-8.303576041585984
585,1.0159964771307595,-170.18289724248623,-10.066182652496993,-7.765795006050062
586,1.5716939034489024,-176.1120689144034,-9.34500021151348,-7.248158618661113
587,2.030063011309158,-181.87998087218097,-8.644153779517488,-6.776228356639556
588,2.3540931417242743,-187.52577366106482,-7.953597158608387,-6.3686051850361025
589,2.5042350071140738,-193.08231230825118,-7.265177055072221,-6.04329618420541
590,2.4784683223923336,-198.57508585076866,-6.583962749184654,-5.806968694213743
591,2.3353271607208037,-204.01800201720891,-5.9316491901923145,-5.636128564863013
592,2.1523298610658266,-209.4137302463876,-5.337670507253945,-5.482118496617897
593,1.9628525037125437,-214.76232309701007,-4.813925944478006,-5.294076203628609
594,1.7622758366844147,-220.06578390106904,-4.334939244445332,-5.030780280413964
595,1.561815201818149,-225.31749230908432,-3.856676344046319,-4.659445833738369
596,1.4165301885135961,-230.4911858907049,-3.356089613254235,-4.157510960330118
597,1.381124396790198,-235.54519893530812,-2.8491425301917572,-3.5183881381099082
598,1.4552337091587277,-240.44477811467814,-2.3730295540382076,-2.7565965374075887
599,1.5925260925839204,-245.17979474332992,-1.9496327443827972,-1.9072020775174752
600,1.7582280465373703,-249.75136647834125,-1.5723320163758183,-1.0147640882311233
601,1.9611027386516307,-254.14937284621482,-1.221217199131178,-0.12016467652255822
602,2.2158824621828694,-258.34117094713275,-0.8698066477832083,0.7439656617587276
603,2.4979151827104205,-262.2676594439224,-0.4785236035763668,1.5485013916924293
604,2.7526635205718724,-265.84426649217795,-0.000577507880661382,2.2684503641365588
605,2.950050741129232,-268.9650710466769,0.601299149340059,2.895072937333391
606,3.1029408973060035,-271.51218504461684,1.3459543233165407,3.4432185424986557
607,3.228831615995769,-273.37158540196185,2.2310674499664462,3.935070374360819
608,3.316509790077574,-274.45620665681065,3.224459498661731,4.373723563442994
609,3.3306588773419956,-274.7257220234647,4.263782811703789,4.7423733725519615
610,3.2655007412449253,-274.1936314904762,5.272149246565055,5.0238855104719375
611,3.164795448840024,-272.925308961752,6.176425403174303,5.211172814568668
612,3.0764387823212593,-271.02856476796717,6.9260481028029455,5.304686373448782
613,3.0182324443363906,-268.64329588107336,7.492463295383384,5.3069870864716435
614,2.979953603592339,-265.92678442597116,7.851714956621124,5.222100714632306
615,2.965706855559122,-263.0263243073984,7.980105488686255,5.060782634089275
616,3.0141786585641483,-260.0569947335502,7.8632630842104545,4.841008110095649
617,3.159591887539958,-257.10489133802764,7.510660773827265,4.579041718910149
618,3.3915641805183254,-254.24180215862873,6.965170315456009,4.280205813918574
619,3.6569426998306835,-251.5291701692208,6.2909271618526486,3.937380223771872
620,3.904369489181891,-249.01817256963736,5.551405813398696,3.5391868638474917
621,4.114035946156081,-246.7519342103836,4.803625734202773,3.081071161606302
622,4.29554819225357,-244.76668725365232,4.099539701491411,2.5703280097028065
623,4.461905000197295,-243.09317208909283,3.481752153986496,2.02064353596366
624,4.597745548002462,-241.75553016440116,2.982162511974143,1.4452552710847026
625,4.673849902135325,-240.76560747901885,2.619907577060331,0.8619738085436791
626,4.687221745829615,-240.11841969462986,2.393167233692459,0.29752290931936776
627,4.677679584467587,-239.7941560981035,2.269482019741726,-0.21692565483966533
628,4.68861162264557,-239.76064270308052,2.191285761205364,-0.6526250777935304
629,4.719568555312152,-239.97552490493885,2.098284892889434,-0.988223154784938
630,4.727931880637303,-240.40471744794397,1.9672314519060399,-1.2153125536643432
631,4.742123432862521,-240.96350511043985,1.7361270044857267,-1.3251274206727082
632,4.786129261573057,-241.56439481169738,1.3903761622054032,-1.3272640990389468
633,4.858788137874924,-242.1317266708626,0.9408529098248251,-1.2431184321611453
634,4.940266181193289,-242.61248962091608,0.41391264558556917,-1.0975247848729994
635,5.021669454235082,-242.98008466783492,-0.15198878520140166,-0.9145268612842623
636,5.112078811120125,-243.22887877705804,-0.7111917562909962,-0.7181413670470779
637,5.220345354648128,-243.36715245985508,-1.219862370767502,-0.531920165276931
638,5.335197994300866,-243.41391833585223,-1.6449422349130978,-0.3772476377779781
639,5.425872064177651,-243.3947272549769,-1.96641139520698,-0.2702289477399457
640,-0.17327839755495908,1.769992415767733,-0.25618019562008754,-0.11269765959416533
641,-0.17225258996770876,3.8824683151646955,-0.6388507749347564,-0.13091947301292134
642,-0.15630507834435597,6.945879996591533,-1.2420782653604256,-0.10318016280563928
643,-0.08926415361379464,10.999722819937794,-2.085760679696582,0.002159939742074249
644,0.05643891608547723,16.008242459761185,-3.154473044466998,0.20835627228308717
645,0.2788732835965889,21.875133128977527,-4.389943435713174,0.5234685457505711
646,0.5589623472950256,28.449009096483945,-5.709510445325539,0.9399872351337788
647,0.8919751946532241,35.51916724415284,-7.042126207194506,1.4368284571850591
648,1.2909617357828385,42.821569481329874,-8.349569618791033,1.9835926784063476
649,1.7569390861246983,50.07890948334598,-9.629106774593367,2.547164850222749
650,2.252397853396078,57.08149054997414,-10.9146388381537,3.094794914781744
651,2.747654464784227,63.50897803374056,-12.230833874605482,3.604801670315516
652,3.240514459906083,69.0310434821394,-13.597010363409845,4.0682621460842405
653,3.7348897461137156,73.34681445246326,-15.017994293328604,4.483734819514496
654,4.210930117858821,76.21783273031258,-16.475454104674917,4.846572072829023
655,4.629312617786843,77.48658463728246,-17.923712557548814,5.145530161222846
656,4.9786751068869295,77.08536303631006,-19.296796995774415,5.371363406692715
657,5.293541070322339,75.04099224626975,-20.527804348551612,5.524067809855402
658,5.618957444517048,71.47287003926846,-21.56857176695258,5.60693675668372
659,5.977714445995814,66.57842422119172,-22.399820175383606,5.620105336096697
660,6.3569146929045,60.606815581005215,-23.022401321820656,5.566414439629122
661,6.738350555914199,53.8197169989395,-23.446682597967232,5.460249390218463
662,7.130296103104206,46.45468125763904,-23.698107407771506,5.328520530113231
663,7.559477164204435,38.72000472649416,-23.81668162575746,5.205727915688041
664,8.035668172341222,30.809193345904653,-23.83746806457913,5.125388259289572
665,8.527364250747187,22.906144145399,-23.77752894622887,5.1093472909123685
666,8.993859753861514,15.174498036430075,-23.638130207353225,5.160807187213718
667,9.425136854050997,7.74150171094909,-23.40741243677891,5.267215319469805
668,9.842603325386337,0.6925499777162158,-23.064990959918326,5.409048933085397
669,10.258379443549522,-5.921244247224346,-22.593828027351474,5.561918365908902
670,10.64240373409235,-12.074601288867425,-21.990931376589895,5.694687498899275
671,10.951237012529829,-17.759867572917468,-21.276379323551105,5.779395922126479
672,11.173041456489251,-22.97179148812203,-20.49857865610992,5.805086033598402
673,11.335608479350627,-27.697669725021274,-19.71483575777415,5.7744034945167995
674,11.468003996754424,-31.920967036917414,-18.959852799412353,5.6915255991174325
675,11.566306030481083,-35.62654771110975,-18.239339113321293,5.560054609824226
676,11.609058194291936,-38.80114336344955,-17.548583953186938,5.386838048194076
677,11.597058666164186,-41.431987483181814,-16.887246358966227,5.183074324897067
678,11.569123634500148,-43.508958260208686,-16.255927032143745,4.96367750206091
679,11.55449686008693,-45.032886905940025,-15.6396185532949,4.741170152772897
680,11.525039193237758,-46.02349367882051,-14.996285638305004,4.513863537162845
681,11.420264879660717,-46.51620477745959,-14.27097053119845,4.26377011234966
682,11.20588380315999,-46.55137517188373,-13.425888917992618,3.968961928826145
683,10.896936460262706,-46.16624757372614,-12.459604519597917,3.6166678488107555
684,10.514210058179444,-45.39265867757813,-11.404675524197314,3.2030188770722843
685,10.038058655201624,-44.26147121986066,-10.30913749985481,2.725724461124844
686,9.422191458736743,-42.806028691229876,-9.226872265375324,2.187533563429078
687,8.650695259038107,-41.05941182957844,-8.216206320728823,1.605754486193806
688,7.77228423433447,-39.05120342729811,-7.329276304787296,1.0136698257231254
689,6.854991116408279,-36.80819336242612,-6.599782800307939,0.4509809377928292
690,5.9351320513305,-34.35626377252419,-6.040781932507348,-0.04447837548654171
691,5.025092634523776,-31.72154777335928,-5.6550879714083235,-0.44032176017716756
692,4.150241469417609,-28.932553808471518,-5.432809048743761,-0.7145869181408464
693,3.3652908674511437,-26.019287184317765,-5.340544310883033,-0.8580517451129358
694,2.7200397858620415,-23.01046972875342,-5.329121157549856,-0.8767027860463543
695,2.2211545152481054,-19.931745996563716,-5.349851851724622,-0.7976065898409531
696,1.8354517713869483,-16.80412242628145,-5.367743728076879,-0.6685470871830923
697,1.5354749361840165,-13.64495902722349,-5.365323270457253,-0.5419893586373428
698,1.322808476781335,-10.472781658121592,-5.33477532090893,-0.45976175886513215
699,1.1946812467887116,-7.309387132008752,-5.271668221319972,-0.4542526109184979
700,1.1155052821171845,-4.178464218465982,-5.177425777277135,-0.5530851338961874
701,1.023905663878938,-1.107236617216897,-5.055781237149926,-0.7759369119269223
702,0.8814601172564401,1.876040774291671,-4.903527053848066,-1.124046114502759
703,0.7018488329270484,4.749153447187382,-4.712931917572588,-1.5761980771746482
704,0.5173518097906822,7.498154083399377,-4.479911306361056,-2.100993370959098
705,0.3361462435625512,10.118612635196488,-4.213586561478266,-2.672290398365308
706,0.13177608869503693,12.619205951292859,-3.9417209052170463,-3.274946346900466
707,-0.1106071858636978,15.022221497832927,-3.705571792351347,-3.898483856472847
708,-0.3607660159635001,17.35946085821924,-3.5503652018834635,-4.530022063388328
709,-0.5756089262502173,19.667656478114665,-3.5128334528183474,-5.156188382219713
710,-0.7427557419176676,21.980173091273798,-3.6137005067597046,-5.767069630158979
711,-0.8871026873903297,24.315535494128152,-3.8525576224347544,-6.354279052123072
712,-1.0328742272049343,26.67445810932866,-4.203265074424436,-6.9066087319553535
713,-1.1720086844181128,29.0450350346608,-4.618524427941349,-7.403774188489679
714,-1.2693102380531074,31.40681535496226,-5.038360719212134,-7.81144954679431
715,-1.3002099850235762,33.73019963096562,-5.400877764247257,-8.094039683319105
716,-1.2788007139876465,35.97757719158235,-5.657803167267053,-8.230712710787635
717,-1.2323914661947808,38.109720647408125,-5.787784470946222,-8.213747147546613
718,-1.1628889038628292,40.0927435578116,-5.803632611008145,-8.042681848652146
719,-1.037986170109731,41.900974917404604,-5.751042923944411,-7.725879364212688
720,-0.8334478769274827,43.51272836305832,-5.68904799451028,-7.284847630456173
721,-0.5733881633691011,44.90622793561112,-5.6628478272661695,-6.750826482490012
722,-0.30718109947250105,46.059269690426156,-5.691994135120979,-6.152860672070049
723,-0.061849412918991174,46.9500922764715,-5.772207659476057,-5.511991501587744
724,0.17825646097975117,47.561989829252695,-5.883768894178056,-4.84519633233536
725,0.43049657560772997,47.888800470683165,-6.00067323709617,-4.167970894656572
726,0.6765934065039634,47.935704646242186,-6.094445897434484,-3.4942355667527463
727,0.8835840126490896,47.716425885023774,-6.141118767964176,-2.8390292051439827
728,1.033918465282317,47.25113158298798,-6.1309654101043245,-2.2192631770224716
729,1.1421571078725745,46.56443854208017,-6.067997047963986,-1.6497144940835
730,1.2246185182665492,45.68077090376337,-5.962050518871965,-1.143192716265392
731,1.253094258389599,44.6213507586417,-5.826215667477238,-0.7189396028718448
732,1.173002423659121,43.4058192534923,-5.678122639716189,-0.4037162721522005
733,0.9596836102677966,42.05427311925462,-5.537352144110243,-0.21553702434101613
734,0.6381853902122656,40.586082013629486,-5.41743912388812,-0.1538832269061548
735,0.24084159583942552,39.01803219986928,-5.321420447827339,-0.20910323197884875
736,-0.23002454225855093,37.3635491234594,-5.243769546497732,-0.3712878464625397
737,-0.7817357165221146,35.630297459188874,-5.17389093487329,-0.6297046107697797
738,-1.3923585023945964,33.82185108522259,-5.104034291655865,-0.9711980938830409
739,-2.0198339265191425,31.944424605569488,-5.0362232488848315,-1.3801992097518638
740,-2.6472605247354326,30.00629560891433,-4.975170896833164,-1.83432367282582
741,-3.2934325283921764,28.010612685268217,-4.909823186316242,-2.3004114477289344
742,-3.980390249678842,25.954345654228785,-4.812559344415661,-2.7436012053527565
743,-4.696573884923248,23.834767807522454,-4.659129940324881,-3.1348576280215132
744,-5.405571342183138,21.656199252333614,-4.433101090988726,-3.4471291652823655
745,-6.086423081588951,19.431423708120487,-4.111249500119014,-3.6610020650663055
746,-6.748074880869064,17.178029127677767,-3.6636706607080267,-3.780301923896954
747,-7.4105992238118885,14.915594526281575,-3.0693403165464677,-3.837290285003269
748,-8.058637163329545,12.66452910120298,-2.3250845549512738,-3.881199802586824
749,-8.631303377576,10.442755967250243,-1.4488130546530682,-3.9630209168736985
750,-9.07315403533458,8.263047585730028,-0.47910638608140615,-4.129083804381851
751,-9.376614181564607,6.13146845188257,0.5305577272906108,-4.421078398983046
752,-9.588664062673356,4.04494035888711,1.5183847340723609,-4.871439019835506
753,-9.776894144422615,1.9940788061950792,2.4230945119863736,-5.492061891437027
754,-9.995060177261594,-0.030432905244562214,3.1930866926555073,-6.267809156667539
755,-10.272060900611939,-2.035186804529579,3.792169761524521,-7.162846230361707
756,-10.619685249001845,-4.023162965617448,4.207853121840385,-8.132787972428787
757,-11.061146419129027,-5.988656012408409,4.455361570716696,-9.132924896726625
758,-11.638764977408988,-7.890810701018128,4.5553090422583375,-10.13687645862362
759,-12.342942655200124,-9.735493721778372,4.545494383005036,-11.088240813795055
760,-13.134261987669516,-11.493770958379145,4.472434572698513,-11.93754978290619
761,-13.954421085003545,-13.12156512424525,4.385550768824673,-12.653159726652426
762,-14.737320418035425,-14.573049302119717,4.319480398882455,-13.223557565715131
763,-15.42035573387548,-15.810083277340196,4.2891871085883455,-13.646628662081223
764,-15.955963998050843,-16.808545316233854,4.296879773479824,-13.925405826998436
765,-16.32346241487815,-17.563234967650914,4.337983401520206,-14.072780538396811
766,-16.541214139636082,-18.089009752435604,4.403758480090714,-14.115336385113887
767,-16.655901374879516,-18.417231890885326,4.481498837537395,-14.089185419283252
768,-0.2909386388638687,0.3785354062771344,-0.2338381227162396,-0.22992690974756594
769,-0.4142673887413947,0.9109948485830297,-0.590990447861105,-0.3972223263239677
770,-0.5592231222537322,1.69797634495866,-1.1737434797859079,-0.6116857265117353
771,-0.6787063857148817,2.7548686206688697,-2.014174026283794,-0.856515557207818
772,-0.7403182238943098,4.074045963548403,-3.108489250314633,-1.1099773233993568
773,-0.7464633406734893,5.618538402567921,-4.412536969867085,-1.35069806730475
774,-0.7176162687766133,7.325046226600785,-5.847230164800193,-1.560992247964396
775,-0.6535040869701735,9.115812949494272,-7.312048908384423,-1.7261230004906034
776,-0.539668170805397,10.912154169557569,-8.702759594288953,-1.840758794208705
777,-0.39424578704901236,12.64862076534695,-9.931842634107424,-1.926097431763597
778,-0.2800048158121164,14.292157716253586,-10.954171001604573,-2.0290752055031813
779,-0.22773426585516643,15.805291858612618,-11.749338584965862,-2.169619694153322
780,-0.22652226452201962,17.16378891197225,-12.323954501513802,-2.3427212852769244
781,-0.2624998300894734,18.353444788416578,-12.71396396598238,-2.537186725781528
782,-0.3535038494880272,19.36966314851228,-12.996459461675556,-2.742387423604895
783,-0.532618086454619,20.22102183115102,-13.278713374540377,-2.9415754893392707
784,-0.803170630104747,20.926734562139224,-13.661131278611435,-3.111921237608675
785,-1.118996811317808,21.50795100659759,-14.199325349429609,-3.2324607012229856
786,-1.4301547438093456,21.980060459163756,-14.89925516130698,-3.294327161627839
787,-1.728324271768288,22.3487749911819,-15.73613221503346,-3.306694469620277
788,-2.0349911638376805,22.609647139109093,-16.659542352025458,-3.2941571805338983
789,-2.35259780406144,22.75315167356736,-17.600159004735975,-3.287828309568511
790,-2.6444419398673364,22.773141059999695,-18.486349946302578,-3.3195622893799492
791,-2.8702660081588585,22.668367167867775,-19.253741746706247,-3.418521948886395
792,-3.0274185000813754,22.438009772659562,-19.861236188463266,-3.6065861225123763
793,-3.1496333144459956,22.084021243897297,-20.31400729835747,-3.8906189459602856
794,-3.251896391829929,21.618881410273293,-20.661632906462923,-4.251461874498109
795,-3.302964897551314,21.066042872186834,-20.97455543278644,-4.6526128359200465
796,-3.263982343733441,20.45276440933988,-21.314697700924093,-5.067839282636065
797,-3.1306910019456815,19.802071934258734,-21.71292404487972,-5.4888724052528195
798,-2.943066075008735,19.128194861566506,-22.167431199024154,-5.91411260383231
799,-2.745247848850264,18.436264842421554,-22.651120777610117,-6.344345181350452
800,-2.5460295343996986,17.72581122376218,-23.122219245830983,-6.783282834510177
801,-2.324334897544757,16.99602890587752,-23.539880610707858,-7.233431400377288
802,-2.0643178212668625,16.248556224854063,-23.87773164219547,-7.692862055275188
803,-1.777784906540228,15.487870731579605,-24.12500887279796,-8.159128676115127
804,-1.4781457157468938,14.719779109595299,-24.278033557585594,-8.63190211101376
805,-1.1541585619413188,13.949535775033304,-24.336811324217262,-9.106894464134292
806,-0.771151795672657,13.180609065575528,-24.307324535195406,-9.568486386976277
807,-0.29932347682304794,12.413198364998578,-24.20817785021881,-9.991105726149025
808,0.2547445088079682,11.64404987745414,-24.073157810150455,-10.345907429055778
809,0.8677578990724524,10.86711206446642,-23.931242365787746,-10.606488135366522
810,1.5323119807797818,10.072876537496198,-23.774789125413882,-10.752808574506117
811,2.2534100540441626,9.248254754671308,-23.559929353871922,-10.775370361001581
812,3.0138825737469777,8.378367590128082,-23.241305006892443,-10.67888321087006
813,3.7556125987619087,7.4484420042092685,-22.800353095569566,-10.479946514265828
814,4.41390448404866,6.4491571223723465,-22.25705631727241,-10.199979888210983
815,4.959964178970177,5.383875901134274,-21.658951515202826,-9.8600024481069
816,5.409899554027832,4.2683914789022435,-21.052395534629852,-9.47804752160966
817,5.780439258457146,3.1247508228923246,-20.461439711110245,-9.066919097536823
818,6.043465993308993,1.9729337542591991,-19.886929185834845,-8.633544257808238
819,6.150306321034635,0.8265148149224457,-19.319446832453792,-8.180081276729565
820,6.088839617696291,-0.3015863290883037,-18.75149203961784,-7.696062840440979
821,5.902497379328031,-1.393290243530558,-18.188729183858623,-7.14696684907476
822,5.645761514270473,-2.4261221491412894,-17.651538351611556,-6.487915049769272
823,5.339156580843456,-3.3778747435023346,-17.156821098246752,-5.692162269070155
824,4.978385809719605,-4.228603014069743,-16.698960132411226,-4.761142046281391
825,4.578415961962608,-4.95909712007166,-16.25029198575534,-3.715901930930215
826,4.195697186862852,-5.553506972759686,-15.781754035172616,-2.5872968971411017
827,3.8808525564993728,-6.004945944194769,-15.286494134681783,-1.4119423043692398
828,3.6307492584329957,-6.317454471602037,-14.781208577110203,-0.22915389159291602
829,3.405197450006726,-6.503407518371754,-14.284509967630944,0.9257418873677398
830,3.173550628862745,-6.580868741602563,-13.798236153836546,2.028431935434018
831,2.9373893837731737,-6.575361374080088,-13.30376487445017,3.066208183832711
832,2.704911878132748,-6.523993875021373,-12.771176113651816,4.032652832618856
833,2.460616189545009,-6.471539722849005,-12.174210397855216,4.923623792110501
834,2.1708551093946844,-6.458796192292631,-11.50154616488818,5.738986623725752
835,1.8312056957698846,-6.5149764397517815,-10.760194547988897,6.4867833845444665
836,1.4882303196075048,-6.656301539631982,-9.968805555118209,7.184068784811747
837,1.1981904943371404,-6.887860052015565,-9.150147594506594,7.850370903950869
838,0.9921019830218732,-7.206121648862203,-8.326389975088626,8.49193897625594
839,0.8715844600007897,-7.599508884585994,-7.514020249231833,9.096813264500891
840,0.8360618585269212,-8.050538768254679,-6.724864254930694,9.650822490042787
841,0.8994791781391593,-8.540396739102842,-5.972216566999361,10.145599318132763
842,1.0713759819859832,-9.051058936573243,-5.2692252798766885,10.57388233475646
843,1.3324498056685863,-9.564280511530162,-4.62136197975926,10.924170393185898
844,1.6291648857030407,-10.061681553523185,-4.02100098630713,11.176481938599661
845,1.916441043315269,-10.528104861768425,-3.4460259379765725,11.303754494429162
846,2.191195965576762,-10.9511557387028,-2.87188372923439,11.2815768220093
847,2.4830470658208665,-11.314767485678047,-2.2891352900687494,11.102637378562886
848,2.820106421847082,-11.597284113298368,-1.707891003667335,10.779060390464265
849,3.193748093022844,-11.776895871032135,-1.153482685356015,10.333175317135394
850,3.5808586965013443,-11.837039808073015,-0.6543015532932976,9.792461466448927
851,3.984746273202868,-11.769424412215892,-0.22414933968451517,9.185837430127604
852,4.43288892837587,-11.575672958830328,0.1430868432523367,8.536363112138742
853,4.932876577421142,-11.265994189654942,0.47102282252529026,7.858716705163954
854,5.4398312329021685,-10.857922880613735,0.7979930135033932,7.1631568039932985
855,5.8874717115318544,-10.375790866134505,1.1578878325136839,6.4608805504868885
856,6.239030939335485,-9.84568441959533,1.554579320176063,5.768449213524483
857,6.501384845874287,-9.287942589388782,1.9621485734310953,5.105081855037847
858,6.688648589230004,-8.715410380700142,2.3421231215865848,4.484252653367858
859,6.789327914908735,-8.14092167115595,2.6582150295495857,3.9093146535045906
860,6.776413813169004,-7.581943721692994,2.8840571141550604,3.379250652296459
861,6.642866030439442,-7.052852441334186,3.007929541145801,2.900389725197541
862,6.430354564344845,-6.558083271870308,3.038846603618623,2.488624131118008
863,6.187096998054587,-6.095139398494314,3.006408033178669,2.1581322955777145
864,5.909578774809367,-5.659631115794654,2.9553764654015913,1.909485337579591
865,5.560516250687764,-5.243794232729291,2.932682615320695,1.7313856304335578
866,5.1299289801888746,-4.8318693445910545,2.9756937832019044,1.6175243733707485
867,4.659016213766392,-4.4023560545593945,3.1117020364806662,1.5750686892739538
868,4.1882234161888805,-3.934161364827608,3.3472323854312553,1.616498093832361
869,3.712189122540541,-3.408472844445333,3.6558283231479347,1.750716268338148
870,3.205188457185856,-2.8093557626470886,3.9859732085759934,1.9776410543356955
871,2.67263961482181,-2.129009232760241,4.273591930134071,2.286663123550589
872,2.164865172394117,-1.37388363098404,4.464255276283688,2.659397148657942
873,1.727339607655629,-0.5666493615271413,4.545886047232818,3.0683519011004803
874,1.3552114759546523,0.2562477058585295,4.551086129299026,3.4720007695960087
875,1.0025612542487952,1.0506135971710524,4.5261927441338425,3.8216766862548623
876,0.6327677572928249,1.775897668055048,4.508656218050858,4.077740534354733
877,0.25476724832846676,2.4061734072646996,4.522821075615491,4.2184906198347285
878,-0.10231318081204083,2.9287671258920356,4.578883950899359,4.2380922927255895
879,-0.43673068762884815,3.3375250362257116,4.669260963573906,4.14226410313354
880,-0.7815429989818619,3.631832473712929,4.775461053670261,3.9473715611570572
881,-1.148807509427602,3.8171771595214867,4.8867947528626985,3.6811776235867097
882,-1.501215385439064,3.9028531222442724,5.004224524371887,3.3809574506306683
883,-1.7927889185895225,3.8989426908082487,5.129265675164987,3.0851984046283953
884,-2.0023026400701704,3.814369377897515,5.256250503123146,2.820845794985591
885,-2.1317193970245216,3.6553655790358732,5.3780716127443355,2.596793903229176
886,-2.1878648351122894,3.4542824134494916,5.496004117833641,2.407227522863279
887,-2.1156971525320376,3.157461309258336,5.631472535614543,2.24888558071159
888,-1.907691287297434,2.744359387808481,5.796375734991545,2.1153323538443787
889,-1.6077897909019485,2.223244991749075,5.989388583617341,1.9980611732128024
890,-1.2769414998273418,1.623917137932364,6.196295605218881,1.890983092163728
891,-0.9497213171448832,0.989311112179378,6.394138758266091,1.7973278665771142
892,-0.6279260733965185,0.3683758671930665,6.562480255632935,1.72646742933703
893,-0.31408196556630497,-0.19200707376522008,6.691459341143736,1.6819765746279898
894,-0.038579315522928925,-0.6564415969724241,6.780965118497993,1.6591336899035398
895,0.15632178734072827,-1.0052149035356868,6.835659287274367,1.651049407196398
896,-0.09431461803322194,0.12561666435141244,-0.7317281035815275,-0.20832367875611518
897,-0.06340214394320774,0.2384922333250186,-1.4198789931592728,-0.39801391608916264
898,0.005233994716202367,0.3869092142538285,-2.3314165834873126,-0.6464975192326959
899,0.14941453033575053,0.565685448753191,-3.4442712737823555,-0.940558507929684
900,0.3814524084396689,0.7623553821572853,-4.72477470354696,-1.2632814448139462
901,0.6835988716746125,0.9570940551988705,-6.127553574651693,-1.594577068205821
902,1.0372782668990783,1.1276407611796846,-7.598979371008987,-1.9061526477233321
903,1.439762657700282,1.2564316550550358,-9.08261476010437,-2.160839798811505
904,1.8980327743662238,1.3351068914879862,-10.529259723468964,-2.3207836316724495
905,2.4172807186342564,1.3673679774727414,-11.913298340517759,-2.3590664897037006
906,2.9950650215270276,1.3717503387688437,-13.254678730578364,-2.270207860312567
907,3.6412209685557877,1.3649170238873893,-14.540458156880744,-2.0480880777326864
908,4.360948515452305,1.3586492533820116,-15.755630163111075,-1.694778415740594
909,5.124044061440984,1.3588018192394846,-16.893668232138907,-1.227093040214545
910,5.868647018505841,1.3706486695107192,-17.95446567915394,-0.6778522169956914
911,6.537954490366207,1.4012192823794882,-18.93720259271002,-0.08736041320729974
912,7.104976445003092,1.4546128813829533,-19.837265498356764,0.5071146148651016
913,7.5619993731386685,1.5260027677837216,-20.64512564090935,1.0780177068778187
914,7.891034131334295,1.600717736004115,-21.34823275209449,1.6096834997915097
915,8.0598912730009,1.6593194786634209,-21.930765443663628,2.098861427766335
916,8.035364489419178,1.6844380095189797,-22.36892195898789,2.5528271995043066
917,7.817147612080778,1.6638881727737858,-22.63398254106968,2.9881899115839063
918,7.465607417646267,1.59347420863581,-22.70335859051164,3.427762769692563
919,7.058097299331488,1.47773352502805,-22.562825448404038,3.887818844607977
920,6.636363796879915,1.3216355873501924,-22.214929044998662,4.367882782532218
921,6.204250827280005,1.124370662895677,-21.695390255586727,4.852022011856704
922,5.754440229319878,0.8853065549020342,-21.06836637494897,5.31389219062504
923,5.300019812808752,0.6142513470559822,-20.405032740729396,5.7225342011478935
924,4.873388918681251,0.33963231680714234,-19.76280550905072,6.05034143369275
925,4.496589750664716,0.11239750723074188,-19.175772802890833,6.276732039286606
926,4.162243094311947,0.0023046697425764817,-18.65794712701888,6.386509773114346
927,3.8426629761092794,0.08813556550891177,-18.209695442260625,6.370696991588179
928,3.5115776958588154,0.4498981726954372,-17.81761692035817,6.227690900227834
929,3.152801236594871,1.1641435280196912,-17.45403983994154,5.95825270828581
930,2.7595840669199294,2.293601414553297,-17.089976410406894,5.555495503077508
931,2.3350388316013952,3.8717294736254027,-16.7056664330014,4.997975208684156
932,1.893477405434828,5.891704156810086,-16.290298009067737,4.261439046207075
933,1.4625063754808376,8.304199239724825,-15.844720862128197,3.341592149373617
934,1.0697246235179223,11.024094315875228,-15.388158069937028,2.2550179856100114
935,0.7129542264911354,13.944053489411008,-14.959719275090858,1.022686015724053
936,0.36943200255885605,16.948670942605187,-14.608999834778752,-0.33193866638973873
937,0.040599943188055015,19.929620944501433,-14.379965035644759,-1.7709085461150904
938,-0.25075168370273876,22.798411837818374,-14.296316391080728,-3.2356463152581894
939,-0.4956582678294917,25.487570450724185,-14.356700321768605,-4.657062494455561
940,-0.7091230408861098,27.946246771341983,-14.534564498347226,-5.976711652582178
941,-0.911922294370937,30.139468559644325,-14.788951180285787,-7.160673104167134
942,-1.1086713273983848,32.04857085112026,-15.084713781490931,-8.196843412419792
943,-1.3042001549682445,33.666654354681775,-15.39791041108338,-9.080095156737007
944,-1.5172950460165926,34.99041969774215,-15.715533392886172,-9.79951588225197
945,-1.7619811193593318,36.01607385039808,-16.037174197458814,-10.344772847458483
946,-2.0344410603729193,36.74032096402954,-16.371996166558592,-10.719088750615779
947,-2.3216719191052295,37.16473859613775,-16.722455481806662,-10.932296446002042
948,-2.6278519005860423,37.299840183355975,-17.06574862876879,-10.988098927268663
949,-2.9722753858047106,37.161784968386584,-17.35655718981381,-10.889309913185388
950,-3.3545557574687743,36.76760255126872,-17.537340947760335,-10.650946221309438
951,-3.752993931374111,36.13316671980464,-17.544453905419044,-10.297213047382861
952,-4.15964883676977,35.27132397249576,-17.3235834479463,-9.845647299090128
953,-4.578350267539595,34.194964662412374,-16.85768173041673,-9.305229527631354
954,-4.982860789831488,32.92491926385084,-16.178381389738405,-8.685982248308271
955,-5.322291413356641,31.491626723682593,-15.350588927268765,-8.001810438495133
956,-5.571015116085358,29.930108342325592,-14.449616882830561,-7.265015119069491
957,-5.7406477096237065,28.274779470355767,-13.545739264114914,-6.477549040564125
958,-5.844304474062888,26.55607244347982,-12.692807609987899,-5.632066815470738
959,-5.86043315045078,24.798929582997022,-11.912617676346729,-4.72441047395237
960,-5.7375551539024015,23.022890488824558,-11.193096334844125,-3.7646596611966685
961,-5.443714767299608,21.24405075062074,-10.49487428042163,-2.7804836567137587
962,-5.013113719609587,19.47457949695122,-9.755668902180933,-1.807434952704227
963,-4.519549700774917,17.72242830461587,-8.910032087148418,-0.870538781278211
964,-4.005053673151703,15.99687192837017,-7.923372970861289,0.02181900162457595
965,-3.4585001749722806,14.315615301835598,-6.819942265357375,0.8694926976045231
966,-2.8507142314140044,12.706972924943146,-5.680128223715721,1.6736141670193996
967,-2.1819473075031066,11.204598754897237,-4.608861433997592,2.4324577312813456
968,-1.473963799772051,9.838203297628084,-3.6954484504275533,3.1400502237413956
969,-0.7185134146465687,8.627858643204346,-2.9824164576724734,3.7873326606789655
970,0.11777001452616065,7.581573834542587,-2.454452124661781,4.362568557217634
971,1.0367058054116507,6.692307676064131,-2.0543723929494155,4.850693235500986
972,1.993040638475549,5.936474085696536,-1.7164153663823951,5.234193791820569
973,2.9471233899920746,5.274906596211759,-1.3840552813313756,5.497948097205645
974,3.8919331655431852,4.660449053771442,-1.0171191759838814,5.635096949339928
975,4.817925141209821,4.052344928913134,-0.5987041751272557,5.651922867086413
976,5.691543268549654,3.424895773816718,-0.13372789943880145,5.565667036106869
977,6.4633691586723785,2.7666750761326924,0.35224158324166954,5.395049583120361
978,7.1013921580475845,2.0777897015634186,0.8117887820756557,5.1596836834663256
979,7.619759158306709,1.3681130723526853,1.1825773056521243,4.884913948002725
980,8.054469789146623,0.6515558957022024,1.406397420425943,4.594588094092237
981,8.417734954807242,-0.06449837692477123,1.4485596707619353,4.298596840147311
982,8.683447116795607,-0.7862375800166471,1.3252905819233203,3.987791816596226
983,8.81865267737618,-1.5323037962487511,1.128403723567485,3.641235367021385
984,8.820028479724277,-2.3243690005914868,0.9766243349746517,3.239981405855283
985,8.720360100920187,-3.1769470905803785,0.9315839333264739,2.77308790116156
986,8.552312719094708,-4.095719577066564,0.9845090493225223,2.234545684794248
987,8.30794843856491,-5.079815622130675,1.0878803227804816,1.6200478384317314
988,7.961203354922653,-6.119737283271762,1.173602392260536,0.9295684748196736
989,7.518082364122485,-7.193048983698572,1.1710104927920728,0.1766461501157044
990,7.0295147319017195,-8.263834459353415,1.0310447899972255,-0.6050426087674928
991,6.541407801973833,-9.291770164999058,0.7386065657290842,-1.376539727855086
992,6.045715929671831,-10.248425713268476,0.3143428002069514,-2.12013652214634
993,5.502895321412372,-11.122186335680954,-0.18747005231840702,-2.8417118065086266
994,4.89258513038896,-11.908384675080514,-0.6829813731851441,-3.555151761845036
995,4.238390564980059,-12.601347042083919,-1.0768864409060526,-4.271045421260696
996,3.5734149928230186,-13.194725596457399,-1.295301132044755,-4.990908370406079
997,2.9039604472003,-13.68275852879423,-1.3080963208127274,-5.705155981570124
998,2.230430077415114,-14.059009335977395,-1.1328611747848538,-6.3920879595161155
999,1.571454217157963,-14.316641131836837,-0.8241207415760624,-7.02191317342813
1000,0.95959646159499,-14.451996717364564,-0.45363199255822934,-7.565246810222798
1001,0.4056673950476597,-14.467291882764052,-0.0848188639722122,-8.004997811077173
1002,-0.13209243425000475,-14.367185746112451,0.25226212875100507,-8.35028274630112
1003,-0.7198255741911407,-14.154846235227646,0.5438823453512471,-8.623519753944503
1004,-1.3778715214769774,-13.83411877013608,0.7723599732741228,-8.826991415503924
1005,-2.048866052481059,-13.415898422298325,0.9455558408718381,-8.940551256326223
1006,-2.667316538473563,-12.923078059246745,1.100301441261513,-8.95575630964803
1007,-3.236000045253279,-12.387743723771237,1.2669529904427321,-8.906186414734355
1008,-3.8094867841720874,-11.846029686520303,1.455980953610907,-8.850069805164718
1009,-4.423250531907781,-11.339096093149253,1.6709703625218413,-8.821789104892703
1010,-5.05873053074872,-10.906473078803085,1.9219627131511583,-8.81364515816012
1011,-5.676599732677852,-10.570596598196126,2.2228569123646875,-8.793078223718416
1012,-6.26296350330481,-10.339736201813862,2.5839701603195704,-8.732109729203438
1013,-6.845462544941079,-10.212910331598609,3.0138758437347826,-8.636146563875794
1014,-7.454988488265026,-10.068964062762296,3.506995062299737,-8.54041754733538
1015,-8.106995634378016,-10.033412203363874,4.02562428512938,-8.505893884065046
1016,-8.798251108038617,-10.166956123058794,4.515280245569741,-8.563166073529876
1017,-9.516970102305605,-10.480929298616518,4.905360788118815,-8.714834130597602
1018,-10.231504556908023,-10.95421608595702,5.137576351866159,-8.937812787997794
1019,-10.882149276802219,-11.549577772804827,5.202826779654314,-9.19215298827563
1020,-11.404745361839218,-12.224183143050848,5.141862968946702,-9.441281759290218
1021,-11.781051546364015,-12.929875854474888,5.009014697100154,-9.676339422352052
1022,-12.054000290345162,-13.613222001534641,4.841765488022826,-9.908534949842165
1023,-12.280807464307745,-14.221176896361916,4.664469722983327,-10.133574755387457
1024,-0.09487528946420168,-0.715848025795176,-0.20750499784302243,0.03512564937777582
1025,-0.26835722672505924,-2.3798723467501497,-0.47699008287757594,0.007996192969863841
1026,-0.56291868696694,-5.282939628288521,-0.8580425809032948,-0.09495618646480761
1027,-1.0175914795268313,-9.733370184438249,-1.3381901151204176,-0.33640807192255434
1028,-1.677466741900305,-16.043463898697368,-1.8986174294440161,-0.7807534172148951
1029,-2.561594225136764,-24.536718443044904,-2.566037203418378,-1.464405785829437
1030,-3.6477577282035853,-35.497220586239834,-3.412904566062228,-2.3901321164535974
1031,-4.881789236742767,-49.14662136038065,-4.508002242830966,-3.529384857143842
1032,-6.193259428280771,-65.64111567182256,-5.86490762070574,-4.814775843414956
1033,-7.514701970826402,-85.06807356979179,-7.429955548196885,-6.15168723156942
1034,-8.8039477745408,-107.49089576992128,-9.121317913176128,-7.453608611386923
1035,-10.028208873307513,-132.85333112922785,-10.836106389447876,-8.664273703731306
1036,-11.1712313632361,-161.0311930974872,-12.461805276296102,-9.764929409884747
1037,-12.238104293333752,-191.8167371362936,-13.896971750747488,-10.765713875767231
1038,-13.252411754118715,-224.9158314387298,-15.09297653220593,-11.692590003135063
1039,-14.252672225732692,-259.95949223460224,-16.068079109837793,-12.575037692955497
1040,-15.273399759445399,-296.5036306563245,-16.895744888501422,-13.434918120779468
1041,-16.30683913212503,-334.03684343587446,-17.689198301501452,-14.28093857471675
1042,-17.309838738340527,-372.0231487383623,-18.57611948730699,-15.101689407821565
1043,-18.241405612871677,-409.9511919174803,-19.65934911479216,-15.863287049191888
1044,-19.070906042307527,-447.34171063835583,-20.987049779248693,-16.52859146878251
1045,-19.772134813838758,-483.71556896515966,-22.536145917615407,-17.078176169548644
1046,-20.32070190903049,-518.5915245123173,-24.19195400250714,-17.50814296099637
1047,-20.70329972127978,-551.5444401821475,-25.778001821935522,-17.807219397552092
1048,-20.93078755546921,-582.2376897541635,-27.147547352318398,-17.95125468412955
1049,-21.034822352757118,-610.4082350420321,-28.244974693316507,-17.933774227025587
1050,-21.05324223261878,-635.87374466673,-29.089579649399578,-17.77935969667436
1051,-21.005942176857477,-658.5291403301916,-29.714279723387218,-17.51254783487558
1052,-20.89665023654161,-678.3154145707423,-30.13590940827192,-17.130430106061173
1053,-20.7457382265763,-695.2092414243128,-30.36968288355751,-16.615870888773845
1054,-20.598102141092816,-709.2245275441584,-30.428206430251954,-15.971257621186856
1055,-20.48639658631279,-720.4087816960399,-30.28787715095991,-15.216149336937493
1056,-20.375771858148457,-728.8383039312613,-29.881169175983665,-14.358888219379327
1057,-20.184381577347914,-734.6135321159337,-29.148524745133823,-13.393653153821198
1058,-19.872566287551166,-737.8547077352686,-28.084973531492917,-12.310168074728212
1059,-19.445033660614826,-738.6978708857729,-26.736794027008166,-11.09339651652356
1060,-18.87174114867757,-737.2911891626948,-25.191363183890637,-9.725048213935311
1061,-18.084489060192713,-733.7916205671107,-23.583519492529035,-8.194332640127016
1062,-17.05423305825918,-728.3619065699796,-22.065093717545416,-6.520394010468608
1063,-15.839209332030958,-721.1678880490531,-20.74157941790242,-4.77185602744134
1064,-14.547897546509287,-712.3761339256566,-19.646853745743897,-3.0490026966447092
1065,-13.252884613157788,-702.1518699369794,-18.75017363512838,-1.441855416517491
1066,-11.958950983237072,-690.6571930492092,-17.965614938733584,0.0027954731179393177
1067,-10.640119161158992,-678.0495555104626,-17.184644857672254,1.2862288497395904
1068,-9.275685796124938,-664.4805014226562,-16.32826128479243,2.4392712755611674
1069,-7.847778604243927,-650.0946379411582,-15.367755342323038,3.5089630705310375
1070,-6.31027622808328,-635.0288227538312,-14.309669939548606,4.552149275699262
1071,-4.595492769088527,-619.4115493116072,-13.173587561760755,5.625922812063187
1072,-2.6671049900689967,-603.3625113468786,-11.972043691696587,6.770823625158905
1073,-0.5617506621661605,-586.9923284913052,-10.716396730514886,7.9861888815706505
1074,1.616331664291609,-570.4024152602594,-9.433079092505151,9.23312085421502
1075,3.762154662883359,-553.6849762781935,-8.154788206820674,10.464022416625992
1076,5.8090300407756,-536.9231113507242,-6.906407000298655,11.636278085477304
1077,7.707623279434653,-520.1910148202916,-5.699676250418285,12.718277573088736
1078,9.424704906303958,-503.5542545499913,-4.5225146651137,13.705739375247605
1079,10.958629469576138,-487.0701168438356,-3.3450022042229257,14.631329285107697
1080,12.34458631147644,-470.7880046124947,-2.153802181715063,15.541899684702067
1081,13.64055942951296,-454.7498771148016,-0.9601307847844408,16.45893475051508
1082,14.886217288150362,-438.99072063214066,0.21314337166591316,17.36864361581997
1083,16.077346455251668,-423.5390404523547,1.3203952686092164,18.244013424483732
1084,17.18817159030219,-408.41736554083474,2.2920589091165686,19.058759569528235
1085,18.2011776253146,-393.6427582495037,3.0689458720736673,19.786560858873198
1086,19.109504742636275,-379.22732235155513,3.636749947810078,20.401722668355767
1087,19.912909558607193,-365.178703584594,4.017649648413075,20.88483412100372
1088,20.610537691191084,-351.50057773213746,4.247614841497969,21.231548577759103
1089,21.18764534378106,-338.1931220693855,4.380075913854484,21.45106803402689
1090,21.62411713761244,-325.25346674098944,4.488333377086987,21.556002565862514
1091,21.929683931202202,-312.67612332447976,4.6503174995785574,21.564206971310043
1092,22.163763212845108,-300.45338846217714,4.923692861438965,21.50364009768709
1093,22.393367867370458,-288.5757210167452,5.32748729273654,21.406974723511315
1094,22.646978833628594,-277.0320917216277,5.834993760552766,21.30064721826668
1095,22.920563760868625,-265.8103047586665,6.391971165112898,21.19218056829263
1096,23.206619517834874,-254.89729110289306,6.956383112539568,21.070755002683864
1097,23.509078224649286,-244.27937383095383,7.501825162193549,20.92761507327156
1098,23.817262501615637,-233.94250589728202,7.997658342746368,20.773105226842063
1099,24.08911625964291,-223.87248114370212,8.413231696994965,20.625804915345633
1100,24.281622079748526,-214.05511952651565,8.741389159062113,20.49079572658243
1101,24.37661558744982,-204.47642772332438,9.005236788026806,20.36212861275172
1102,24.382767746205133,-195.12273642300943,9.231215640884951,20.238712929458742
1103,24.32241783779866,-185.98081570954594,9.422514179388447,20.128026573992777
1104,24.20323068362724,-177.03797002684908,9.56197003634772,20.039598518901027
1105,24.0121302842116,-168.2821142607062,9.630158568255325,19.978989150313154
1106,23.752648574696774,-159.70183249807855,9.609082144808747,19.94432554583566
1107,23.459378509872316,-151.28642102658236,9.486747172204034,19.928278231274497
1108,23.16248247118002,-143.02591712057097,9.274526012968606,19.92685061700377
1109,22.861375697158234,-134.91111512760924,9.012598411238319,19.93866820428731
1110,22.531802505580355,-126.93357132275564,8.752964912903074,19.958297972143644
1111,22.171104214470716,-119.08397444136916,8.534227126396418,19.98185244075811
1112,21.830706477303167,-111.33313455050904,8.368151553328149,20.01926722838251
1113,21.58889549113628,-103.59826599396257,8.235377972118293,20.085578643535307
1114,21.503262447165724,-95.81412457421627,8.095739803884372,20.169848519898114
1115,21.584107885595127,-88.0917134779791,7.912123224127773,20.22489605119439
1116,21.81799353422974,-80.68890500055768,7.660960227942293,20.19390587329658
1117,22.193330400835734,-73.81766783902117,7.338016105087018,20.038010481321262
1118,22.68640033493294,-67.57170640136249,6.967818536019549,19.73731934035892
1119,23.246677056050938,-61.86849954484564,6.593147855540663,19.281023387803078
1120,23.798994553207617,-56.21986000072485,6.243446363990542,18.668983684371945
1121,24.2788388716748,-49.53928702133799,5.91180079161549,17.919654684412496
1122,24.67424620664581,-40.15342777021486,5.56189018748093,17.076909397995767
1123,25.022403827165,-25.974172402492087,5.153808307733184,16.20922557225187
1124,25.36591746857929,-4.7718256236131715,4.665012549252127,15.387872503054668
1125,25.712927256408964,25.511821591328186,4.102788868678739,14.657509115106558
1126,26.05089599193632,66.4621845209429,3.500264775789318,14.027305320673792
1127,26.383621931180993,118.94643634491815,2.889727529842451,13.482850238342913
1128,26.724357780871273,182.96091071075614,2.289809489720708,12.993121217802752
1129,27.050935587765196,257.6017340653584,1.7165948677794358,12.510033250360369
1130,27.296039261712448,341.1829585655655,1.184363623459787,11.981043807530819
1131,27.38930399801029,431.5141544630321,0.6957933723687486,11.372267700845594
1132,27.29908551790916,526.2667103841666,0.24514216481237616,10.677641080764166
1133,27.045794383653934,623.2151750330997,-0.17680934284707972,9.90610504083755
1134,26.66165925175061,720.323565457729,-0.592639581708934,9.062317760884522
1135,26.15157444095334,815.8955797475888,-1.0316365321203458,8.144674125637964
1136,25.512523432195582,908.6949978689287,-1.494632602145806,7.160566356931196
1137,24.766212470719363,997.7988863916216,-1.9328099215235173,6.12858610010336
1138,23.961026623433874,1082.400559398008,-2.2712224845093636,5.066721584685597
1139,23.128761543890242,1161.8022737779233,-2.4589447286063906,3.9854427595570954
1140,22.25535593338993,1235.4529656177626,-2.491010367704747,2.8854681160667104
1141,21.309910393934686,1302.9413601969782,-2.389173074588583,1.7653409030133473
1142,20.3322525503203,1363.8595184852702,-2.2020985514644518,0.6511406458710555
1143,19.293852484692447,1418.4600042517905,-1.9285784604684246,-0.45951565112603965
1144,18.19128677803989,1466.5887222505144,-1.5979098087966168,-1.542234490815306
1145,17.034719878541345,1507.9796991863725,-1.2495630218270493,-2.562866605516156
1146,15.868074072720379,1542.4566740922762,-0.9189310768488619,-3.486876374283945
1147,14.765540293299878,1570.0552665546654,-0.629713646331108,-4.284827600087689
1148,13.802514873402217,1591.0791596840218,-0.3843509215884178,-4.9375358414444515
1149,13.022706266257195,1606.1032837052671,-0.1666840016750754,-5.439281201875047
1150,12.425820111716998,1615.93643643412,0.03903125032413375,-5.798323587510281
1151,11.989550827275462,1621.5551480521958,0.23510508337039468,-6.03292451893656
1152,0.16164901613182542,12.295089252419388,-0.139693231019718,0.0773569850788022
1153,0.45352353640952364,27.123550943680456,-0.4099909446987253,0.26033936554764525
1154,0.9029914161204544,48.50476270550075,-0.8344554066756,0.5624324837039398
1155,1.5411962864969775,76.58935668147014,-1.416395469427663,1.0012305345786956
1156,2.365808440209464,110.94956000443857,-2.1451223449348564,1.575136945203524
1157,3.3446216896501526,150.60645734415885,-3.0042584498877876,2.2619417066899357
1158,4.439643984854866,194.14182422192678,-3.9790609212237475,3.030698182729031
1159,5.622810200321257,239.90116600122985,-5.052233646896745,3.853715529846802
1160,6.868673207955681,286.29231807579333,-6.195157377567273,4.704026414068744
1161,8.136030996036647,332.18193082961477,-7.370447658979441,5.546047982268869
1162,9.379875364518643,377.3903703636149,-8.54520971856142,6.342636011742381
1163,10.573169429524778,421.31650365528697,-9.675781548591697,7.057567959845378
1164,11.69910069484904,463.4357730190689,-10.726434992765943,7.6651520980858185
1165,12.734681780319988,503.3146769637552,-11.6793025209467,8.14360988406997
1166,13.641912731031507,540.6040647812782,-12.533344613327873,8.46921733465064
1167,14.385619156517615,575.0323020253953,-13.295842607969153,8.618822923011582
1168,14.960554566847632,606.3984049628848,-13.982928574324415,8.577851437591622
1169,15.393039659448112,634.5652296638888,-14.624547608364507,8.347018918190805
1170,15.706157931966809,659.4527895820665,-15.26118149856708,7.937943985741005
1171,15.884866508432461,681.0317643214728,-15.927307009098044,7.364731473027687
1172,15.901080534827368,699.3172518418636,-16.63527365557833,6.6473885598564415
1173,15.75449468297768,714.3628066492487,-17.370621872901488,5.817581018392083
1174,15.475249518211974,726.2547975728266,-18.084154421669595,4.912870432337641
1175,15.089743179361172,735.1071105503643,-18.7034550806027,3.9634233917175017
1176,14.588970571796159,741.0562144289003,-19.17371272735472,2.983641639816537
1177,13.945644543118608,744.2566011249571,-19.48303452320058,1.975584534592005
1178,13.157607210615776,744.8766055593532,-19.656175266036907,0.9463372122131506
1179,12.27051224567082,743.0942930737749,-19.737488125160468,-0.0789647228401183
1180,11.339289014489298,739.0906628478906,-19.776997446771112,-1.0681536128863953
1181,10.379255091132057,733.0435828621216,-19.818243908162227,-1.9943683981584843
1182,9.382410675651453,725.1385974567775,-19.88898422021963,-2.8332524351188693
1183,8.363817136952287,715.5832860410583,-19.99753735780057,-3.560339091254626
1184,7.3762288026945075,704.5974959431222,-20.127911026034294,-4.154102068260774
1185,6.467326648513589,692.3907131502973,-20.236883449854133,-4.60082458294006
1186,5.637422626265854,679.1383879033432,-20.270146507650033,-4.898663322569016
1187,4.854529772399119,664.9607775761228,-20.184549571251946,-5.054126714814268
1188,4.106112582961423,649.9167321591173,-19.965510339574987,-5.071278638062389
1189,3.426180062671607,634.0145908692555,-19.644522108729007,-4.94944494427204
1190,2.8500487409009247,617.2229773297638,-19.28414357816462,-4.69137364973978
1191,2.3718775374508345,599.4705199770992,-18.936960251255247,-4.306018288665076
1192,1.9580436710833897,580.6491365480599,-18.631497242167384,-3.806833924619996
1193,1.5876821310945222,560.6351858278903,-18.376567460509506,-3.2078447674388615
1194,1.281133529949341,539.3228068861715,-18.16214500693735,-2.5152351920847527
1195,1.0614467998157169,516.6527669017426,-17.962042495833696,-1.7362243993977917
1196,0.9012936134776112,492.6299001665617,-17.734023058134625,-0.9034964976296226
1197,0.7358916940056774,467.3306207776288,-17.429852214515506,-0.06908635383797346
1198,0.5234753613922274,440.8917017542893,-17.018940724593033,0.7262063284090671
1199,0.26932060228487065,413.48004367559037,-16.492933195492075,1.4617092315250797
1200,-0.013907821724988098,385.2738582598719,-15.851571055727813,2.1268927857925304
1201,-0.3361508659682536,356.47455288007245,-15.097777553493065,2.7152153129910426
1202,-0.7194702834020166,327.3203673357737,-14.245055162679744,3.224699491464141
1203,-1.1600959547105798,298.07837617598875,-13.323853085831868,3.6608894470539983
1204,-1.6126227756993452,269.0311907379837,-12.36562453440267,4.037801326877319
1205,-2.0222231155681074,240.4587302816205,-11.377471623593884,4.37093628940831
1206,-2.362478755006193,212.61017184997465,-10.344274886182742,4.667085838425365
1207,-2.6419133818707725,185.68823520116447,-9.259303951419641,4.924368578093962
1208,-2.8648802142754373,159.85580717776756,-8.1562772043792,5.141865303812314
1209,-3.00791824367214,135.2395411658399,-7.102978385638871,5.325275031490774
1210,-3.0372720653319583,111.91405201376429,-6.16396799234126,5.4838881861564674
1211,-2.943716268768287,89.8871110418558,-5.388885470735584,5.620341541239707
1212,-2.7596693531532073,69.10303060586944,-4.822925640910416,5.724645563178977
1213,-2.517385604004179,49.45737123979156,-4.4951869836856275,5.785023331760311
1214,-2.2211212727724607,30.816579016666452,-4.396377686491963,5.796415701393785
1215,-1.8643147920578378,13.047531863297838,-4.475532643061123,5.7573646310515825
1216,-1.4545883841330207,-3.9543953838173267,-4.659090917112378,5.668020256099049
1217,-1.0295109748661189,-20.26051389141991,-4.874421564226256,5.528266891552978
1218,-0.6309558522050659,-35.920860697906804,-5.067437264676509,5.337638909227443
1219,-0.2669133697169649,-50.97150195313322,-5.2186072625285975,5.09910519742252
1220,0.09418319325663911,-65.43918945816166,-5.338592289224309,4.820743350154185
1221,0.4843502234467323,-79.35142062294602,-5.452630881077607,4.510798399169359
1222,0.8982886208500329,-92.74345522000003,-5.5978491021807395,4.171387793099256
1223,1.3051981804909603,-105.65637109169472,-5.80679293377626,3.8016530924111085
1224,1.6845348772619377,-118.13160547308539,-6.077138616500195,3.402396751722887
1225,2.0490708235529875,-130.20723296917433,-6.370021450744578,2.975589181047988
1226,2.4104558527473516,-141.91687813763994,-6.6307558954377,2.521600498554152
1227,2.7321848360236394,-153.2898332155299,-6.807953036957428,2.0375888680765004
1228,2.9475128078699284,-164.35029702238396,-6.869210224727562,1.525406461081497
1229,3.0137601089128014,-175.11502867992024,-6.811647342307869,1.0025094951021332
1230,2.9376870707419624,-185.59217320214725,-6.662280101473333,0.49895140469279703
1231,2.7377019620910414,-195.78519731035237,-6.470470991200317,0.040196914207745134
1232,2.4040598144456493,-205.70238237405707,-6.295518744949816,-0.3649961978861164
1233,1.9136485526253868,-215.36607643097625,-6.19210873323613,-0.7200604652620439
1234,1.271191009593955,-224.8121899243048,-6.199332899806113,-1.0277178743355624
1235,0.5250970173681925,-234.08285675639146,-6.330644512998156,-1.2853224560859942
1236,-0.2742767438131497,-243.2157527179202,-6.556815410766411,-1.4911108190206728
1237,-1.1157555739067073,-252.23089225290866,-6.80709531109004,-1.6479112752919163
1238,-2.010783640759903,-261.1266579132155,-7.001135962454001,-1.7612935569690984
1239,-2.9458763026937627,-269.8840754889545,-7.079219368919942,-1.8346482393077594
1240,-3.8677647503281545,-278.4687673146743,-7.024065001955973,-1.8681298797267003
1241,-4.723069613390577,-286.83174318762974,-6.862056415542445,-1.8645041835424876
1242,-5.496156996316367,-294.9158312655517,-6.639521574362413,-1.83239368577759
1243,-6.2022097997426835,-302.6665154264417,-6.395890355123355,-1.7844637051748815
1244,-6.83886570168573,-310.037733532276,-6.146004637140734,-1.7320170232035912
1245,-7.368723897286715,-316.994786966548,-5.885306032136264,-1.6845219115537866
1246,-7.753528695906393,-323.52129834911733,-5.609486381634162,-1.6576694861962107
1247,-7.9856677401470755,-329.62470418654794,-5.321148494256486,-1.6737081532744984
1248,-8.100119581986768,-335.33353613771135,-5.020397298411728,-1.7526696366425325
1249,-8.137012206245167,-340.69202862975754,-4.695389431864617,-1.9085878441587485
1250,-8.102715508883914,-345.7563704175765,-4.3250205062813745,-2.145414836870291
1251,-7.979614162071473,-350.5856016956828,-3.8908000742318483,-2.450353095235484
1252,-7.7557906640584635,-355.22906190776314,-3.3882622514290746,-2.79860658687861
1253,-7.448696375546266,-359.72177271008763,-2.8389525657746217,-3.1657158945686614
1254,-7.076253282865329,-364.086548886013,-2.3001803094044044,-3.5261340509453545
1255,-6.623387845362045,-368.33170023824283,-1.8477737339744786,-3.8438800833312485
1256,-6.067741677537743,-372.44956776247636,-1.5299742531844855,-4.078557374862545
1257,-5.41796258598081,-376.4274512553342,-1.3341828447043615,-4.203310884886668
1258,-4.721886571341171,-380.2590562415515,-1.200137935548481,-4.216742827131158
1259,-4.031218582882909,-383.942061173362,-1.06674331111487,-4.139413421920885
1260,-3.365881181789804,-387.46891710787713,-0.9026846559981689,-4.00159230701203
1261,-2.7225209626748073,-390.8250488828937,-0.7037871707987723,-3.835009433993423
1262,-2.114134649865214,-393.9946345841582,-0.47777366951849115,-3.671242470711742
1263,-1.5973407189098827,-396.96454860260985,-0.22483207022077226,-3.541276422208832
1264,-1.2368201397029905,-399.7236419680018,0.06892904603884302,-3.4680557790564666
1265,-1.0427904922866078,-402.2621199523827,0.41579312007214153,-3.456214878761822
1266,-0.9645090513271485,-404.5706041831998,0.8133998152217703,-3.4904101082758143
1267,-0.954274881588717,-406.6351310417803,1.2489718772263998,-3.5490035683413703
1268,-1.014052053376089,-408.4383535727793,1.7081431573564048,-3.6270363858009613
1269,-1.1639959347739668,-409.9698895235575,2.1763458878131696,-3.737582568592798
1270,-1.3793752636407308,-411.26606948108554,2.6340683639606874,-3.8833407771326156
1271,-1.6582651153192154,-412.2778954337262,3.075513073844848,-4.094863956661917
1272,-1.9983287834125003,-412.9886672254848,3.498365433717241,-4.386447114647971
1273,-2.401791216141505,-413.41139351954166,3.8841411509268746,-4.760249392188499
1274,-2.848125415862291,-413.5805246907474,4.19509759392407,-5.199227466435808
1275,-3.294911027519966,-413.54336183888364,4.3953912900813705,-5.6686500391672405
1276,-3.703291141916364,-413.3570523664623,4.475373587183812,-6.127165435074802
1277,-4.062446304840501,-413.08508179514524,4.458616627409651,-6.538933452590821
1278,-4.381915209770536,-412.78882196970665,4.3883824679225745,-6.878538104949773
1279,-4.658033834125241,-412.51831339109754,4.306886652949165,-7.129257710237874
1280,0.16376771541114588,1.0061777114247437,-0.5317507335562978,0.022742591253125735
1281,0.23987833021881486,2.6957321490381183,-1.1105605389313686,-0.004916615308876937
1282,0.30115538247567875,5.3519377433063,-1.8965741552566657,-0.06997886806163785
1283,0.34605849404382993,9.090831811164753,-2.8780009091585694,-0.1794911940277093
1284,0.35035803457597703,13.941186716104209,-4.040981920905799,-0.3431185200654744
1285,0.28185230896615615,19.831537819377854,-5.36980438681413,-0.567995241227629
1286,0.1434243375602272,26.593978387384723,-6.83931075522534,-0.8463045107325189
1287,-0.023645578374385946,33.987814836540814,-8.414089173757,-1.1542400944114033
1288,-0.17610524414692635,41.736867252432496,-10.053959325705573,-1.4602083662235605
1289,-0.2958585707079513,49.579368510473905,-11.726983168850015,-1.7345421642047567
1290,-0.37824811748940373,57.33939915498915,-13.427941596699347,-1.9528769614143378
1291,-0.4039070885540672,64.8164696042626,-15.117135549226997,-2.089504823555303
1292,-0.347988043668972,71.85601825695986,-16.73215710420412,-2.123766471264142
1293,-0.21541381811215823,78.34385732231388,-18.199269995467006,-2.0537049272777455
1294,-0.04541115818774066,84.1888251651088,-19.459079570510113,-1.8984718942236216
1295,0.1351643957245641,89.3228477872052,-20.492349800343423,-1.688661729779338
1296,0.3381008242278877,93.704896942072,-21.32594203165755,-1.4553184926126081
1297,0.5849132886139419,97.3143719743788,-22.015467601204747,-1.223159659419837
1298,0.8705397606385946,100.14559058251746,-22.624883537760383,-1.0139597642456006
1299,1.1477623051341523,102.20814014635238,-23.21412163128571,-0.8530085349083161
1300,1.3648806812753043,103.52647076691542,-23.830193416752152,-0.7625607266215182
1301,1.5153530943439126,104.13944107047676,-24.496708928168687,-0.7509467798942447
1302,1.623502016697924,104.0999034076798,-25.210447089099784,-0.8145132117654461
1303,1.692027108213932,103.47023315165202,-25.94928792741226,-0.9476924274291803
1304,1.6907705155993304,102.31367656179167,-26.676681180725083,-1.1440182373576218
1305,1.6032525633577976,100.68788066054327,-27.344887412087694,-1.3883461164221882
1306,1.4589179513692623,98.64643303066566,-27.9060064542434,-1.6545034826492713
1307,1.3207404690870848,96.23966234831563,-28.322488309123994,-1.9146848961364349
1308,1.2382098106473287,93.51137128127063,-28.57084650273105,-2.155371390231868
1309,1.2094800115722972,90.49996031587077,-28.641635811914036,-2.3801549176469368
1310,1.2073124052966455,87.2436535882994,-28.53615599124395,-2.5936801831302003
1311,1.2187035402546664,83.78548560963938,-28.262116173058722,-2.7907864677183425
1312,1.2509499974657488,80.17494924271612,-27.831261905771452,-2.9631934537471136
1313,1.3031985660127259,76.46280512953388,-27.265093265068803,-3.1100443685816415
1314,1.3430234687605076,72.69567992949024,-26.610142516887326,-3.239555807583418
1315,1.3323306270835245,68.91625960441712,-25.937046795823722,-3.3595418005312845
1316,1.2688641223437258,65.1627743831801,-25.318226515055645,-3.4648832489896795
1317,1.1986935045470137,61.46508800845431,-24.80595341709955,-3.537775888510234
1318,1.1655227123229919,57.842580013096125,-24.41524370669676,-3.5632050258244834
1319,1.1643773274752378,54.30261741714265,-24.1195893441787,-3.5408322139216923
1320,1.1683557959712823,50.83863418409893,-23.862979936993717,-3.482083828698861
1321,1.1664360730392949,47.43618092461505,-23.57307431612968,-3.4001404430102165
1322,1.1743724506406494,44.08357403391845,-23.17717257652649,-3.3013128320771896
1323,1.2042517850296688,40.77814129528859,-22.62352915857146,-3.184410210904893
1324,1.2304495110387788,37.52854525527409,-21.892195092615847,-3.0430094790275017
1325,1.210882711732965,34.35394650815768,-20.995170733071497,-2.8648660734553326
1326,1.1361705701290852,31.27746847454859,-19.974760877871038,-2.639193419501402
1327,1.0434736538039684,28.316247809058428,-18.896541529979107,-2.36328467475386
1328,0.9707380879296644,25.477933014365554,-17.82661673916623,-2.038585085883342
1329,0.9219296144853639,22.76391421159253,-16.806960498850447,-1.6688498187065135
1330,0.8898012176028745,20.172445387631253,-15.853757649896917,-1.2611489194640575
1331,0.8976510364126181,17.699303299177252,-14.963158183667328,-0.8301590469516466
1332,1.0005170860134627,15.343611478508615,-14.110469453845546,-0.40116198987520785
1333,1.2343771999309694,13.118748549614741,-13.259630890525138,-0.0045973734739734595
1334,1.5755992082339991,11.052620144002573,-12.383130704977534,0.32751601359711735
1335,1.9522268285274678,9.174872447697378,-11.475951301777359,0.5622012427863378
1336,2.3045206936665923,7.4962024193453285,-10.558120479900953,0.6733636085994072
1337,2.618556470286691,5.989133228191861,-9.665951205702937,0.6484890777468412
1338,2.8883693751993453,4.578355977133621,-8.840064954078988,0.47868553596060914
1339,3.077166437015461,3.141300064919956,-8.116836220891278,0.1459413215825036
1340,3.121170420431206,1.5210035037442435,-7.517871486983417,-0.37277164016381803
1341,2.9771607065762313,-0.45202876978298834,-7.050708156087204,-1.0910898926775563
1342,2.65188672040402,-2.9337909727841005,-6.723904677949541,-2.001132057906596
1343,2.1791942175021344,-6.042027486719793,-6.543206837062138,-3.0683492824323313
1344,1.5927518616499103,-9.839442022192273,-6.4911754795893115,-4.2381612153869135
1345,0.9152570126267101,-14.327798872471035,-6.533331134498362,-5.451309847190712
1346,0.17819910738880318,-19.45045941856134,-6.648750370201009,-6.650084946300179
1347,-0.5626888463183826,-25.099850751199114,-6.829759486830312,-7.776068241304933
1348,-1.2461002555782053,-31.13359335100155,-7.056761750925955,-8.776408976255318
1349,-1.8319077305017066,-37.4010671011658,-7.293299432916674,-9.619396060799502
1350,-2.313176741529073,-43.77153502075629,-7.492446479673987,-10.309357502774603
1351,-2.7003503464660095,-50.144393939392536,-7.605977437829541,-10.881122836214386
1352,-2.998098182140938,-56.43918210935273,-7.599322441139071,-11.375947704143567
1353,-3.1990135886118445,-62.583895295493605,-7.463171250189122,-11.82716409808278
1354,-3.313547656756942,-68.50752255228971,-7.214459818044126,-12.261794885108234
1355,-3.3910249953856146,-74.14013560067684,-6.889375216609102,-12.698540654245628
1356,-3.485804434045565,-79.42099674400444,-6.53170311491742,-13.138806735239129
1357,-3.622563727162999,-84.30544608586159,-6.179425230299921,-13.568911505717992
1358,-3.7921190969887233,-88.76550763932497,-5.855706725017248,-13.970288446331631
1359,-3.9846100304796237,-92.7843899362407,-5.567595699583638,-14.322543839076653
1360,-4.2198109576182405,-96.35065586753348,-5.317367483576119,-14.608676139611713
1361,-4.533556388867882,-99.45718513425048,-5.110117711128901,-14.824816892930617
1362,-4.94590058917977,-102.10056348873397,-4.937523561769782,-14.977348060112494
1363,-5.433770347288724,-104.27650759400962,-4.760200670142816,-15.071524623135897
1364,-5.961695027692761,-105.97329907701754,-4.5221162320703305,-15.109234447452996
1365,-6.532848504594638,-107.16727818637223,-4.188701326872519,-15.094361962912448
1366,-7.170510989779807,-107.82619533997061,-3.7654082881827513,-15.026312876893524
1367,-7.864488453346891,-107.91735173262566,-3.287657887818813,-14.882655646802819
1368,-8.555463813511434,-107.41424694294477,-2.7977683146252392,-14.626337693815085
1369,-9.175159657608111,-106.30437109424376,-2.319152498531201,-14.238070261895176
1370,-9.695434110644449,-104.5958970108354,-1.850000522431878,-13.729380045918498
1371,-10.137488457448276,-102.31841419829902,-1.3749218645106216,-13.127671207405472
1372,-10.522486071793935,-99.51912192263983,-0.8751956321707629,-12.453380665731581
1373,-10.82761570828518,-96.25653779079805,-0.3345124780568909,-11.706219143931673
1374,-11.018232132953214,-92.59614938021367,0.26010926225800646,-10.872008230255005
1375,-11.093128043559412,-88.60981765772824,0.9225755752995413,-9.941543980177817
1376,-11.077488124851552,-84.37344497045821,1.6687501801291298,-8.920633416721987
1377,-10.978624827071842,-79.96044000583856,2.5111392894717555,-7.823711108920434
1378,-10.766913525194175,-75.43465731104074,3.446946594682575,-6.661443403005375
1379,-10.415327554683556,-70.84918297456427,4.4457783302277605,-5.439697194286677
1380,-9.944936505123998,-66.2503818716085,5.449061027908876,-4.170327540610464
1381,-9.417788050453082,-61.67984569787055,6.380893068852878,-2.8727132629989165
1382,-8.876198863058894,-57.172977492423136,7.1731665849883735,-1.5650484949239183
1383,-8.317714966207937,-52.757396039272585,7.7909473468145976,-0.2642948829467282
1384,-7.7371010491593015,-48.45369228368047,8.228714252771669,1.0069968663129214
1385,-7.1575985234860315,-44.27789991667484,8.491725356302332,2.2234663404073136
1386,-6.622043346788742,-40.24077965843778,8.593672594865861,3.367513870311929
1387,-6.150282322945614,-36.34660540989985,8.565498305092596,4.435164494225635
1388,-5.708898506676496,-32.5959053499881,8.456858837784036,5.432958926775038
1389,-5.2339024341933955,-28.98744677681401,8.325930508323658,6.367940799808869
1390,-4.684559567038321,-25.518723675117663,8.226147188858464,7.240844154547965
1391,-4.066880864805727,-22.185378566710156,8.193968636147204,8.051131966009896
1392,-3.3890210595840484,-18.97875698140506,8.239009483986713,8.80440662715198
1393,-2.631171518778531,-15.888686122339138,8.347975065167828,9.514199614061225
1394,-1.7646959288550552,-12.91048623628914,8.497319485350333,10.204251430672315
1395,-0.7795166320777223,-10.046975346842515,8.659044128856609,10.899011902670855
1396,0.2986275149200422,-7.307310161893375,8.806880138511126,11.602097771295252
1397,1.4394376220994372,-4.708297910278498,8.929306868472102,12.298241621831028
1398,2.5866533204358717,-2.2889684800002894,9.047993827336743,12.954067778896357
1399,3.8805238578132957,-0.051340727074053905,9.173880294477698,13.62006116578024
1400,5.349158013253758,1.977616440045705,9.307758064244233,14.311139597489099
1401,6.9455467096215875,3.764830630458545,9.442291722430063,15.018980558748888
1402,8.599090580159718,5.28402245766655,9.574618797906822,15.724568278210318
1403,10.242691697180753,6.521662478360811,9.705424620034623,16.407748896039433
1404,11.806634714570645,7.4787962392109435,9.829861583138904,17.047051004010438
1405,13.206143642734492,8.172583275089606,9.936766434425827,17.613612323829923
1406,14.356179555464134,8.635212315431835,10.015208371043817,18.07722313082493
1407,15.205482738148618,8.909052378043215,10.05924905478401,18.421014863180037
1408,0.2670505699261897,0.4554477269490332,-0.08652817214226888,0.07101843692335633
1409,0.5127802621881636,0.9717416252745968,-0.48344104356989415,0.06435753790731576
1410,0.8467893400580122,1.6915260259090503,-1.1364177020551163,0.03924501210091409
1411,1.2814003733177883,2.6113274625894527,-2.0559673226470667,0.00038688839021279627
1412,1.7925642898283398,3.709661770186572,-3.2223692968844713,-0.0476999768812518
1413,2.3420571851008134,4.948856634974045,-4.589852169919857,-0.09836195028131314
1414,2.9138573512770938,6.280921822296678,-6.095068267301941,-0.13968961025316212
1415,3.5103033799082417,7.654444505034199,-7.666481830138629,-0.1551532867867521
1416,4.116071200960072,9.02196581009989,-9.232884539063003,-0.12905036211030058
1417,4.693740230892133,10.35311466850778,-10.733058187119536,-0.04737601189516111
1418,5.21453571676773,11.653969882485326,-12.135001929820426,0.10730336686372045
1419,5.680694043040798,12.917892384566448,-13.431025691265711,0.3471774670518526
1420,6.094684124744597,14.133117231874042,-14.643735154403458,0.6712374905387609
1421,6.421697503565344,15.279766361077389,-15.806883333734909,1.0636289369298966
1422,6.610702638651539,16.335833073093124,-16.94558427456598,1.499014835804708
1423,6.651278457421937,17.28366471023644,-18.065372945093173,1.9526630685041841
1424,6.591504651017743,18.10919453740597,-19.15266137943043,2.4082928506567978
1425,6.488189024350659,18.799248977422852,-20.18853212011206,2.854196562351319
1426,6.354719600901383,19.340180447188434,-21.158868069912412,3.273090680893655
1427,6.169004382758496,19.71679195761779,-22.051660354234322,3.6390403470507633
1428,5.931648977663197,19.915157002442744,-22.85370086010074,3.929271141024517
1429,5.685431974176019,19.927765075188454,-23.552567057082424,4.135589952691294
1430,5.476472354638524,19.754254748721372,-24.13972269653636,4.260784522026104
1431,5.315991356383418,19.399661038544174,-24.610887282940254,4.310418118770352
1432,5.170524682301653,18.872855138643494,-24.969433889867755,4.288969707424311
1433,5.008520131417585,18.18439260444338,-25.23284856303393,4.201570617429794
1434,4.837663319808982,17.34514981814703,-25.432787860537402,4.0552346530483065
1435,4.683582376333612,16.365217178818472,-25.60214078824862,3.854906048091444
1436,4.559128352294245,15.256284047166796,-25.75530008062415,3.603331473900754
1437,4.450419383710806,14.036609962757852,-25.891099155932082,3.305007115487024
1438,4.346009705189316,12.730146795867899,-26.014011824375583,2.968688160406896
1439,4.262969065538216,11.362374494555416,-26.135796825903896,2.60934651585256
1440,4.229266669045167,9.959212051186764,-26.263225908200276,2.2458019164240732
1441,4.254350927297138,8.547987315154943,-26.39557761693872,1.8930206159668879
1442,4.312124923397831,7.156483890955098,-26.530160470041963,1.5563934424770745
1443,4.364975760953393,5.8093914409984295,-26.662414397806042,1.2323460486386812
1444,4.391304488435614,4.5273425122141955,-26.780399912813166,0.9154164602161239
1445,4.383510328569327,3.3284251499292288,-26.865081963861595,0.6057522935245423
1446,4.327208908945548,2.226204957004617,-26.899434262530228,0.30628119887484057
1447,4.18588577685092,1.2273514397692704,-26.87571626852234,0.018566218689960903
1448,3.92797823475746,0.3322676760045987,-26.78769396495861,-0.25584376118990165
1449,3.566254430852166,-0.46447655261690035,-26.617553587464336,-0.5176159570561769
1450,3.159115053059449,-1.1747614597779923,-26.333919920299447,-0.7726024100268594
1451,2.755918909063041,-1.8177810961326835,-25.901721169774504,-1.0326798771258416
1452,2.354233307735749,-2.418094631192255,-25.29449434511919,-1.3138632008837137
1453,1.9239791444844878,-3.0002493367857697,-24.49760861985347,-1.6298980086342951
1454,1.4540714466555889,-3.5835278979336302,-23.50978831939596,-1.9835202743386822
1455,0.9781897260842505,-4.177560625444201,-22.346315857025694,-2.361130572518161
1456,0.5331538296630096,-4.780790085835894,-21.038616254355684,-2.743018815537314
1457,0.10730132621276349,-5.383157906655355,-19.63103849643749,-3.1161177731483796
1458,-0.3389280550522084,-5.969186226586879,-18.17247975135661,-3.468248428984057
1459,-0.8247937184858649,-6.520223664455008,-16.708847633973452,-3.7774767212465172
1460,-1.3288013746520715,-7.0188799295982305,-15.28444043616718,-4.014466321262445
1461,-1.8217741576996644,-7.454845324186994,-13.940397459078772,-4.155377765740011
1462,-2.302829272320012,-7.828524041437366,-12.699128827634958,-4.194390561044868
1463,-2.784059412735938,-8.150536532750195,-11.553584455216862,-4.144379616970007
1464,-3.2521843771062264,-8.43765259863721,-10.475778900312577,-4.0252042476192305
1465,-3.6584173785524876,-8.708251762728066,-9.436789785583386,-3.853952658984575
1466,-3.9574012578484536,-8.977681762938245,-8.425257004596432,-3.6431979702721207
1467,-4.142181707358708,-9.253366479100658,-7.446139439445389,-3.4021258754973407
1468,-4.234485923801843,-9.532255802893848,-6.504888782381142,-3.137294556996732
1469,-4.243021593126023,-9.803002977430406,-5.609084060871621,-2.8507238774736288
1470,-4.147898098035467,-10.05096651149619,-4.783995852883795,-2.538956828776664
1471,-3.9388654102057243,-10.262338849826765,-4.064258096757716,-2.199888199036125
1472,-3.6471701674256587,-10.427728087642135,-3.462495528578387,-1.8412581680653892
1473,-3.3322104753815394,-10.544341216066499,-2.958441519344677,-1.4798899181360265
1474,-3.0257040820739483,-10.61392835165364,-2.5228402519472524,-1.1277958004659125
1475,-2.710096688299541,-10.638909493750807,-2.1389794468149765,-0.7839209658174882
1476,-2.362065436575862,-10.621212137293538,-1.8014580547506993,-0.4435243224437883
1477,-1.984741128067585,-10.563584982721723,-1.5104814046648933,-0.10401026284957901
1478,-1.6068802306745025,-10.470675905770536,-1.2696572994811581,0.2361961108331581
1479,-1.2488761468320764,-10.34836297483454,-1.0858215073106205,0.575837542667514
1480,-0.9015212511359918,-10.20369351687872,-0.9645198406695854,0.9089528391429214
1481,-0.5489815699595068,-10.045559038101059,-0.8968773722985917,1.2248470642717104
1482,-0.1956086603053808,-9.88384914263575,-0.8551539508620949,1.5062316783998588
1483,0.12324502869159257,-9.72900839636402,-0.7978887221118531,1.7261457386808037
1484,0.3710447516500911,-9.591479118212396,-0.6760489940410145,1.8533492636636821
1485,0.5471694296601759,-9.480637600279595,-0.4441513246303761,1.8668269003839968
1486,0.6828829332083213,-9.403034941239182,-0.07557379110754762,1.7660913184880425
1487,0.8058294659508168,-9.358061866393898,0.42555484372084673,1.5651175256978178
