,TP9,AF7,AF8,TP10
0,-25.99280996885654,-3.130655210563191,-23.937243391108357,1.4455832681301597
1,-26.5899203169322,-3.0584494677296585,-24.867763374186904,1.5677154255697303
2,-27.160819968789653,-2.9835451547059346,-25.782668092568727,1.688489890588027
3,-27.704976092226065,-2.9060157856969373,-26.68057987184185,1.8077706748057119
4,-28.221886191536775,-2.8259369026672463,-27.560166421537353,1.9254250898799057
5,-28.7110781075153,-2.7433860753410646,-28.420140835129292,2.0413237475042005
6,-29.17211001745334,-2.6584429012022475,-29.259261590034818,2.1553405594086454
7,-29.60457043514076,-2.571189005494286,-30.07633254761401,2.267352737359758
8,-30.008078210865637,-2.4817080412203194,-30.870202953170057,2.377240793160523
9,-30.38228253141419,-2.3900856891431146,-31.639767435949125,2.4848885386503845
10,-30.72686292007086,-2.2964096577850936,-32.38396600914041,2.5901830857052515
11,-31.04152923661821,-2.200769683428312,-33.10178406987611,2.6930148462374994
12,-31.326021677337003,-2.1032575301144694,-33.79225239923149,2.793277532195968
13,-31.580110775006148,-2.003966989644904,-34.454447162224774,2.8908681555659586
14,-31.803597398902845,-1.9029938815805894,-35.087489907817265,2.9856870283692354
15,-31.99631275480225,-1.800436053242154,-35.690547568913225,3.077637762664032
16,-32.15811838497791,-1.6963933797098556,-36.26283246235993,3.1666272705450416
17,-32.28890616820143,-1.5909677638235964,-36.80360228894773,3.252565764143422
18,-32.388598319742584,-1.484263136182919,-37.312160133409904,3.3353667556267936
19,-32.457147391369354,-1.3763854551470045,-37.78785446442281,3.414947057199245
20,-32.49453627134789,-1.267442706834677,-38.230079134605795,3.4912267811013202
21,-32.500778184442446,-1.1575449051244013,-38.638273380521206,3.564129339610035
22,-32.47591669191557,-1.0468040916542811,-39.011921822674374,3.633581445038861
23,-32.42002569152787,-0.9353343358220617,-39.35055446551372,3.6995131097377394
24,-32.33320941753808,-0.8232517347851248,-39.65374669743054,3.7618576460930706
25,-32.21560244070329,-0.7106744134605028,-39.92111929075925,3.820551666527724
26,-32.067369668278545,-0.5977225245248563,-40.15233840177726,3.8755350835010187
27,-31.888706344017233,-0.48451824841448865,-40.34711557070489,3.926751109508752
28,-31.6798380481707,-0.37118579332534907,-40.50520772170555,3.974146257083173
29,-31.441020697488717,-0.2578513952130232,-40.62641716288564,4.017670338793007
30,-31.172540545218958,-0.1446433177927369,-40.710591586294505,4.057276467243422
31,-30.874714181107407,-0.03169185253935555,-40.7576240679245,4.092921055076063
32,-30.547888531398197,0.0808706813126184,-40.76745306771111,4.124563814969038
33,-30.19244085883359,0.19290993676903267,-40.740062429532585,4.152167759636912
34,-29.808778762653997,0.3042895390761059,-40.67548138121036,4.175699201830712
35,-29.397340178598025,0.41487108572040954,-40.57378453450879,4.195127754337935
36,-28.958593378902417,0.524514146428884,-40.43509188513516,4.210426329982523
37,-28.493036972302075,0.6330762631688216,-40.25956881273991,4.221571141624907
38,-28.001199904030084,0.7404129501478767,-40.04742608091633,4.2285417021619525
39,-27.483641455817608,0.8463776938140657,-39.798919837200714,4.231320824527007
40,-26.94095124589408,0.9508219528557662,-39.5143516130724,4.2298946216898665
41,-26.37374922898698,1.053595158201715,-39.19406832395373,4.224252506656798
42,-25.782685696322012,1.1545447130210118,-38.838462269209906,4.2143871924705305
43,-25.168441275622996,1.2535159927231074,-38.44797113214926,4.200294692210246
44,-24.531726931111905,1.3503523449578276,-38.02307798002303,4.1819743189915926
45,-23.873283963508918,1.4448950896153483,-37.56431126402543,4.159428685966684
46,-23.193884010032246,1.5369835188262135,-37.07224481929373,4.132663706324085
47,-22.494329044398388,1.6264548969613204,-36.547497864908046,4.10168859328884
48,-21.775451376821906,1.7131444606319328,-35.99073500389164,4.066515860122435
49,-21.038113654015557,1.796885418689669,-35.40266622321064,4.027161320122826
50,-20.283208859190186,1.8775089522265176,-34.78404689377415,3.983644086624435
51,-19.511660312054847,1.9548442145748228,-34.13567777043433,3.935986572998135
52,-18.724421668816696,2.028718331307288,-33.45840499198625,3.8842144926512665
53,-17.92247692218106,2.0989564002369794,-32.75312008116797,3.828356859027626
54,-17.106840401351427,2.165381491417327,-32.020759944660504,3.768445985607485
55,-16.27855677202937,2.2278146471421194,-31.262306873087905,3.704517485907548
56,-15.43870103641467,2.2860748819455052,-30.478788541017117,3.6366102734810077
57,-14.58837853320519,2.3399791826019953,-29.671278006958094,3.564766561917508
58,-13.728724937597004,2.389342508126466,-28.84089371336375,3.489031864843146
59,-12.860906261284285,2.433977789774148,-27.98879948662999,3.409454995920488
60,-11.986118852459327,2.473695931040637,-27.116204537095637,3.3260880688485575
61,-11.10558939581262,2.5083058076618934,-26.22436345904253,3.2389864973628404
62,-10.220574912532745,2.537614267614229,-25.31457623069544,3.1482089952352763
63,-9.332362760306436,2.56142613111433,-24.38818821422211,3.053817576274275
64,-5.258048775264183,-9.666580949739796,-13.718332647056492,-7.671006441286592
65,-5.429248683704822,-9.991463098529964,-14.153872184327536,-7.974695928471633
66,-5.59716346669931,-10.31014665351201,-14.580270372186424,-8.273571435216974
67,-5.7615220848239606,-10.62212666658419,-14.996858483679407,-8.567174994477114
68,-5.92206290953164,-10.92691589228906,-15.402992022718177,-8.855063536535202
69,-6.078533723151754,-11.224044787813407,-15.79805072407986,-9.136808889003046
70,-6.230691718890264,-11.513061512988298,-16.18143855340705,-9.411997776821067
71,-6.378303500829665,-11.79353193028905,-16.552583707207734,-9.680231822258373
72,-6.521145083929017,-12.065039604835237,-16.910938612855386,-9.941127544912662
73,-6.659001894023924,-12.327185804390696,-17.25597992858887,-10.19431636171033
74,-6.791668767826512,-12.579589499363552,-17.587208543512535,-10.439444586906363
75,-6.918949952925491,-12.821887362806134,-17.904149577596115,-10.67617343208443
76,-7.04065910778609,-13.053733770415066,-18.206352381674826,-10.904179006156832
77,-7.156619301750105,-13.27480080053122,-18.493390537449315,-11.12315231536449
78,-7.266663015035853,-13.484778234139732,-18.764861857485606,-11.332799263276996
79,-7.370632138738217,-13.683373554869988,-19.02038838521525,-11.532840650792554
80,-7.46837797482862,-13.87031194899563,-19.25961639493516,-11.72301217613804
81,-7.559761236155025,-14.045336305434555,-19.482216391807697,-11.90306443486895
82,-7.644652046441952,-14.208207215748928,-19.687883111860693,-12.072762919869414
83,-7.722929940290448,-14.358702974145146,-19.876335521987357,-12.231888021352216
84,-7.794483863178122,-14.496619577473892,-20.047316819946357,-12.38023502685878
85,-7.859212171459117,-14.621770725230084,-20.200594434361793,-12.517614121259152
86,-7.917022632364123,-14.733987819552883,-20.335960024723196,-12.643850386752042
87,-7.967832424000379,-14.833119965225734,-20.453229481385552,-12.758783802864768
88,-8.01156813535166,-14.919033969676306,-20.552242925569193,-12.862269246453305
89,-8.048165766278283,-14.991614342976543,-20.63286470935996,-12.95417649170226
90,-8.077570727517118,-15.050763297842627,-20.694983415709107,-13.03439021012488
91,-8.099737840681566,-15.096400749634995,-20.7385118584333,-13.102809970563047
92,-8.11463133826159,-15.128464316358343,-20.763387082214628,-13.15935023918728
93,-8.12222486362367,-15.146909318661608,-20.769570362600604,-13.203940379496725
94,-8.122501471010857,-15.151708779837982,-20.7570472060042,-13.23652465231918
95,-8.11545362554271,-15.1428534258249,-20.725827349703792,-13.257062215811061
96,-8.10108320321536,-15.120351685204083,-20.67594476184317,-13.265527125457433
97,-8.079401490901466,-15.08422968920144,-20.60745764143156,-13.261908334071988
98,-8.050429186350234,-15.034531271687184,-20.520448418343612,-13.246209691797054
99,-8.014196398187407,-14.971317969175741,-20.4150237533194,-13.21844994610359
100,-7.970742645915268,-14.894669020825798,-20.291314537964407,-13.178662741791193
101,-7.9201168599126435,-14.804681368440308,-20.149475894749564,-13.126896620988084
102,-7.862377381434898,-14.701469656466438,-19.98968717701119,-13.063215023151132
103,-7.797591962613948,-14.585166231995615,-19.812151968951056,-12.987696285065832
104,-7.7258377664582305,-14.455921144763519,-19.617098085636325,-12.900433640846295
105,-7.647201366852735,-14.313902147150083,-19.404777572999592,-12.801535221935293
106,-7.561778748558994,-14.159294694179463,-19.175466707838893,-12.691124057104208
107,-7.469675307215062,-13.992301943520076,-18.92946599781765,-12.569338072453052
108,-7.3710058493355595,-13.813144755484588,-18.667100181464704,-12.436330091410486
109,-7.265894592311625,-13.622061693029881,-18.388718228174337,-12.292267834733778
110,-7.154475164410936,-13.419309021757128,-18.094693338206234,-12.137333920508846
111,-7.03689060477772,-13.205160709911695,-17.785422942685493,-11.971725864150226
112,-6.913293363432741,-12.979908428383236,-17.46132870360263,-11.79565607840108
113,-6.783845301273296,-12.743861550705608,-17.122856513813574,-11.609351873333216
114,-6.648717690073214,-12.497347153056946,-16.770476497039684,-11.413055456347054
115,-6.50809121248288,-12.240710014259596,-16.404683007867707,-11.207023932171642
116,-6.362155962029198,-11.974312615780168,-16.025994631749818,-10.991529302864679
117,-6.211111443115619,-11.698535141729508,-15.63495418500361,-10.766858467812456
118,-6.055166571022133,-11.413775478862695,-15.23212871481207,-10.533313223729914
119,-5.894539671905262,-11.120449216579054,-14.818109499223624,-10.291210264660618
120,-5.7294584827980595,-10.818989646922152,-14.393512047152074,-10.040881181976749
121,-5.56016015161013,-10.509847764579778,-13.958976098376667,-9.782672464379132
122,-5.3868912371276,-10.19349226688399,-13.515165623542028,-9.51694549789721
123,-5.209907709013138,-9.870409553811063,-13.062768824158214,-9.244076565889035
124,-5.0294749478059515,-9.541103727981517,-12.602498132600692,-8.96445684904131
125,-4.845867744921779,-9.20609659466011,-12.135090212110319,-8.678492425369342
126,-4.6593703026528885,-8.86592766175583,-11.661305956793367,-8.386604270217077
127,-4.470276234168096,-8.521154139821906,-11.181930491621518,-8.089228256257076
128,4.89363420463733,-10.105649476711907,-17.284379646755138,-4.271132697457053
129,2.3457997998562257,-10.747924024603329,-17.620834295098327,-6.291920828193786
130,-0.2778873233126309,-11.390832654348443,-17.940459749725555,-8.358061558446293
131,-2.970816380735122,-12.03313292068275,-18.242930253982685,-10.46469129859596
132,-5.726498552050817,-12.673614337970495,-18.52794083379173,-12.607042627995451
133,-8.538566980673016,-13.311098380204774,-18.795207297650865,-14.780444294968667
134,-11.40077677378873,-13.94443848100747,-19.044466236634502,-16.98032121681079
135,-14.307005002358672,-14.572520033629285,-19.27547502439322,-19.202194479788265
136,-17.25125070111727,-15.194260390949752,-19.48801181715377,-21.441681339138743
137,-20.227634868572654,-15.808608865477188,-19.681875553719102,-23.694495219071186
138,-23.230400467006664,-16.414546729348707,-19.856885955468385,-25.956445712765717
139,-26.25391242247481,-17.011087214330257,-20.012883526356912,-28.22343858237382
140,-29.292657624806342,-17.59727551181658,-20.149729552916185,-30.49147575901813
141,-32.341244927604144,-18.172188772831234,-20.267306104253908,-32.75665534279255
142,-35.39440514824485,-18.73493610802656,-20.365516032053968,-35.01517160276223
143,-38.44699106787874,-19.284658587683733,-20.444282970576403,-37.26331497696354
144,-41.49397743142981,-19.82052924171269,-20.503551336657477,-39.49747207240412
145,-44.5304609475957,-20.341753059652223,-20.543286329709577,-41.71412566506279
146,-47.55166028884776,-20.847566990669876,-20.56347393172136,-43.909854699889635
147,-50.55291609143099,-21.337239943562032,-20.56412090725759,-46.08133429080594
148,-53.529690955364075,-21.810072786753842,-20.545254803459226,-48.22533572070425
149,-56.477569444439375,-22.265398348299296,-20.506923950043436,-50.3387264414483
150,-59.3922580862229,-22.702581415881138,-20.449197459303555,-52.41847007387309
151,-62.26958537205435,-23.12101873681094,-20.37216522610908,-54.46162640778476
152,-65.10550175704705,-23.520139018029056,-20.275937927905716,-56.46535140196074
153,-67.89607966008803,-23.899402926104653,-20.160647024715303,-58.42689718414964
154,-70.63751346383792,-24.258303087235685,-20.026444759135916,-60.34361205107128
155,-73.32611951473106,-24.59636408724889,-19.873504156341756,-62.212940468416726
156,-75.95833612297538,-24.91314247159983,-19.702019024083253,-64.03242307084817
157,-78.5307235625525,-25.208226745372816,-19.51220395268696,-65.79969666199909
158,-81.03996407121767,-25.481237373281,-19.304294315055657,-67.51249421447415
159,-83.48286185049977,-25.73182677966629,-19.078546266668237,-69.16864486984912
160,-85.85634306570134,-25.95967934849939,-18.835236745579817,-70.76607393867114
161,-88.15745584589854,-26.164511423379818,-18.57466347242169,-72.30280290045842
162,-90.38337028394112,-26.34607130753588,-18.297144950401318,-73.77694940370034
163,-92.53137843645257,-26.50413926382463,-18.003020465302306,-75.18672726585763
164,-94.59889432382994,-26.638527514731937,-17.692650085484452,-76.530446473362
165,-96.58345393024386,-26.74908024237247,-17.366414661883756,-77.80651318161648
166,-98.48271520363863,-26.835673588489687,-17.02471582801234,-79.01342971499528
167,-100.29445805573218,-26.89821565445578,-16.66797599995854,-80.14979456684374
168,-102.016584362016,-26.936646501271795,-16.296638376386824,-81.2143023994784
169,-103.64711796175531,-26.95093814956752,-15.911166938537885,-82.20574404418699
170,-105.18420465798874,-26.941094579601543,-15.512046450228514,-83.12300650122839
171,-106.62611221752874,-26.907151731261212,-15.099782457851738,-83.96507293983265
172,-107.97123037096122,-26.849177504062705,-14.674901290376711,-84.73102269820106
173,-109.21807081264575,-26.767271757150926,-14.23795005934876,-85.42003128350599
174,-110.36526720071546,-26.661566309299605,-13.78949665888943,-86.03137037189103
175,-111.41157515707714,-26.532224938911213,-13.330129765696363,-86.56440780847088
176,-112.35587226741107,-26.37944338401703,-12.860458839043421,-87.01860760733148
177,-113.19715808117127,-26.20344934227711,-12.381114120780587,-87.39352995152983
178,-113.93455411158514,-26.004502470980263,-11.89274663533406,-87.68883119309416
179,-114.56730383565383,-25.7828943870441,-11.39602818970617,-87.90426385302385
180,-115.09477269415207,-25.538948667014996,-10.891651373475419,-88.03967662128942
181,-115.51644809162802,-25.273020847068107,-10.380329558796491,-88.0950143568325
182,-115.83193939640356,-24.985498423007375,-9.86279690040021,-88.07031808756592
183,-116.04097794057411,-24.67680085026547,-9.33980833559357,-87.96572501037367
184,-116.1434170200086,-24.347379543903887,-8.812139584259748,-87.78146849111084
185,-116.13923189434956,-23.99771787861287,-8.280587148858064,-87.51787806460362
186,-116.0285197870131,-23.628331188711442,-7.745968314424002,-87.17537943464943
187,-115.8114998851889,-23.239766768147394,-7.209121148569224,-86.75449447401677
188,-115.48851333984013,-22.83260387049729,-6.670904501481524,-86.2558412244453
189,-115.06002326570359,-22.407453708966443,-6.132198005924888,-85.68013389664583
190,-114.52661474128958,-21.96495945638896,-5.593902077239437,-85.0281828703002
191,-113.88899480888198,-21.50579624522771,-5.05693791334147,-84.30089469406154
192,-45.150782192574496,-25.272378704107677,-1.1005089389539742,-13.44974070032411
193,-45.300314396234306,-25.78611195790352,-1.40925918688629,-13.618363277063201
194,-45.406443709836516,-26.27932694912993,-1.7215301081833148,-13.775818073200458
195,-45.469117543534665,-26.75131153669159,-2.0367342514943383,-13.92185769650196
196,-45.48832702823143,-27.201389045306406,-2.3542957824849213,-14.056251693968786
197,-45.46410701557848,-27.62891826550555,-2.673650483836891,-14.17878655183702
198,-45.396536077976876,-28.03329345363344,-2.9942457552483406,-14.289265695577734
199,-45.28573650857652,-28.413944331847755,-3.3155406134336305,-14.387509489897012
200,-45.131874321276506,-28.77033608811937,-3.637005692123395,-14.473355238735952
201,-44.935159250725306,-29.101969376232432,-3.958123242064521,-14.54665718527061
202,-44.69584475232013,-29.40838031578432,-4.278387131020176,-14.6072865119121
203,-44.4142280022076,-29.68914049218568,-4.597302843769783,-14.655131340306474
204,-44.0906498972833,-29.94385695666038,-4.914387482109034,-14.690096731334823
205,-43.72549505519199,-30.172172226245507,-5.229169764849888,-14.712104685113236
206,-43.319191814327624,-30.373764283791402,-5.541190027820573,-14.721094140992784
207,-42.87221223383303,-30.548346577961706,-5.850000223865571,-14.71702097755953
208,-42.385072093600414,-30.695668023233182,-6.155163922845637,-14.699858012634559
209,-41.85833089427104,-30.815512999895894,-6.4562563116377865,-14.669595003273942
210,-41.29259185723513,-30.907701354053142,-6.752864194135302,-14.626238645768728
211,-40.68850192463224,-30.97208839762145,-7.044585991247729,-14.569812575644995
212,-40.04675175935084,-31.008564908330584,-7.331031740900877,-14.500357367663806
213,-39.368075745028655,-31.01705712972354,-7.611823098036813,-14.417930535821188
214,-38.65325198605243,-30.997526771156533,-7.886593334613874,-14.322606533348203
215,-37.90310230755808,-30.94997100779899,-8.15498733960666,-14.214476752710894
216,-37.118492255430596,-30.87442248063366,-8.416661619006023,-14.093649525610292
217,-36.30033109630407,-30.770949296456386,-8.671284295819088,-13.960250122982423
218,-35.44957181756168,-30.639655027876373,-8.918535110069245,-13.814420754998318
219,-34.567211127335796,-30.48067871331596,-9.158105418796133,-13.656320571064
220,-33.65428945450785,-30.294194857010748,-9.389698196055656,-13.48612565982046
221,-32.711890948708295,-30.08041342900957,-9.613028032919988,-13.304029049143704
222,-31.741143480316794,-29.83957986517446,-9.827821137477553,-13.110240706144722
223,-30.74321864046201,-29.571975067180716,-10.03381533483304,-12.904987537169486
224,-29.719331741021833,-29.277915402516815,-10.2307600671074,-12.688513387799002
225,-28.670741814623145,-28.95775270448448,-10.418416393437841,-12.461079042849207
226,-27.59875161464198,-28.611874272198644,-10.596556989977826,-12.222962226371054
227,-26.50470761520342,-28.240702870587487,-10.764966149897091,-11.974457601650505
228,-25.39000001118172,-27.844696730392368,-10.923439783381617,-11.715876771208487
229,-24.256062718200123,-27.424349548167907,-11.07178541763365,-11.447548276800914
230,-23.104373372631066,-26.980190486281916,-11.209822196871698,-11.1698175994187
231,-21.936453331596006,-26.512784172915435,-11.337380882330526,-10.883047159287747
232,-20.753867672965562,-26.02273070206273,-11.454303852261148,-10.587616315868935
233,-19.558225195359373,-25.51066563353125,-11.560445101930842,-10.283921367858152
234,-18.351178418146194,-24.977259992941686,-11.655670243623145,-9.972375553186238
235,-17.13442358144387,-24.42322027172796,-11.739856506637853,-9.653409049019057
236,-15.909700646119342,-23.84928842713715,-11.812892737291014,-9.327468971757432
237,-14.67879329378862,-23.256241882229613,-11.874679398914939,-8.995019377037186
238,-13.443528926816828,-22.64489352587889,-11.925128571858176,-8.656541259729114
239,-12.205778668318125,-22.016091712771658,-11.964163953485562,-8.312532553939011
240,-10.9674573621558,-21.370720263407975,-11.991720858178162,-7.963508133007663
241,-9.730523572942188,-20.709698464100946,-12.00774621733331,-7.6099998095108035
242,-8.496979586038739,-20.03398106697697,-12.012198579364586,-7.252556335259185
243,-7.268871407555941,-19.344558289975623,-12.005048109701832,-6.89174340129853
244,-6.048288764353409,-18.642455816849704,-11.986276590791151,-6.52814363790955
245,-4.837365104039799,-17.928734797165202,-11.955877422094881,-6.162356614607933
246,-3.638277594972862,-17.20449184630132,-11.913855620091635,-5.794998840144342
247,-2.4532471262594173,-16.470859045450457,-11.860227818276261,-5.426703762504437
248,-1.2845383077553572,-15.729003941618233,-11.795022267159881,-5.058121768908853
249,-0.13445947006565068,-14.980129547623447,-11.718278834269857,-4.689920185813202
250,0.9946373354556577,-14.225474342098126,-11.6300490041498,-4.322783278908077
251,2.1003563367054583,-13.466312269487473,-11.530395878359585,-3.9574122531190623
252,3.180258040831566,-12.703952740049907,-11.419394175475334,-3.5945252526067053
253,4.231859234232729,-11.939740629857045,-11.297130231089426,-3.234857360766544
254,5.252632982558624,-11.175056280793692,-11.16370199781048,-2.8791606002290906
255,6.240008630709865,-10.411315500557855,-11.019219045263382,-2.5282039328598356
256,-7.922792178113934,-13.360723318671376,-12.36898886469364,-7.549548002250905
257,-8.307125426148236,-13.78220146043411,-12.781879347296744,-7.887172791527254
258,-8.688946657015101,-14.195245334086911,-13.186684019032981,-8.221895252055555
259,-9.067573673463105,-14.599182734814166,-13.582768052610756,-8.55312417737691
260,-9.442343813570819,-14.993365480600911,-13.969519067487271,-8.880285932789551
261,-9.812613950746798,-15.377169412232764,-14.346347129868494,-9.202824455348807
262,-10.1777604937296,-15.749994393295932,-14.712684752709182,-9.520201253867151
263,-10.537179386587804,-16.11126431017724,-15.067986895712869,-9.831895408914168
264,-10.890286108719966,-16.460427072064093,-15.411730965331877,-10.137403572816543
265,-11.23651567485464,-16.79695461094451,-15.743416814767286,-10.4362399696581
266,-11.575322635050371,-17.1203428816071,-16.062566743968997,-10.727936395279777
267,-11.90618107469572,-17.430111861641105,-16.368725499635655,-11.01204221727961
268,-12.228584614509233,-17.72580555143629,-16.66146027521468,-11.288124375012782
269,-12.542046410539443,-18.00699197418309,-16.9403607109023,-11.555767379591554
270,-12.846099154164893,-18.273263175872483,-17.2050388936435,-11.81457331388535
271,-13.140295072094103,-18.524235225296078,-17.455129357132037,-12.064161832520657
272,-13.42420592636561,-18.75954821404607,-17.69028908181048,-12.304170161881121
273,-13.69742301434792,-18.97886625651525,-17.910197494870125,-12.534253100107478
274,-13.959557168739552,-19.181877489896976,-18.11455647025106,-12.754083017097573
275,-14.210238757569002,-19.368294074185243,-18.303090328642174,-12.963349854506374
276,-14.449117684194759,-19.53785219217459,-18.475545837481082,-13.16176112574598
277,-14.675863387305327,-19.6903120494602,-18.63169221095424,-13.349041915985568
278,-14.890164840919168,-19.825457874437806,-18.7713211099968,-13.524934882151456
279,-15.09173055438476,-19.943097918303764,-18.894246642292753,-13.689200252927053
280,-15.280288572380567,-20.043064455054978,-19.0003053622748,-13.841615828752882
281,-15.455586474915016,-20.125213781488988,-19.089356271124473,-13.981976981826598
282,-15.617391377326562,-20.189426217203888,-19.161280816772035,-14.110096656102936
283,-15.76548993028362,-20.2356061045984,-19.215982893896538,-14.225805367293768
284,-15.899688319784618,-20.263681808871787,-19.253388843925812,-14.32895120286806
285,-16.01981226715794,-20.273605718023923,-19.27344745503642,-14.419399822051885
286,-16.125707029061996,-20.26535424285527,-19.27612996215374,-14.497034455828437
287,-16.217237397485146,-20.23892781696688,-19.261430046951876,-14.561755906938014
288,-16.29428769974577,-20.194350896760383,-19.229363837853747,-14.613482549878013
289,-16.356761798492208,-20.131671961437995,-19.17996991003098,-14.652150330902952
290,-16.404583091702797,-20.05096351300253,-19.113309285404018,-14.677712768024442
291,-16.437694512685848,-19.95232207625735,-19.029465432642045,-14.69014095101121
292,-16.456058530079698,-19.835868198806445,-18.92854426716304,-14.689423541389093
293,-16.459657147852585,-19.70174645105436,-18.8106741511337,-14.675566772441021
294,-16.448491905302824,-19.55012542620622,-18.676005893469537,-14.64859444920704
295,-16.42258387705865,-19.381197740267755,-18.524712749834777,-14.608547948484308
296,-16.38197367307831,-19.195180032045265,-18.356990422642454,-14.555486218827053
297,-16.326721438650026,-18.99231296314562,-18.17305706105435,-14.489485780546655
298,-16.256906854392003,-18.77286121797628,-17.973153260980983,-14.410640725711566
299,-16.17262913625242,-18.537113503745285,-17.757542065081683,-14.31906271814735
300,-16.074007035509442,-18.285382550461254,-17.526508962764503,-14.214880993436672
301,-15.961178838771227,-18.018005110933377,-17.280361890186267,-14.098242358919304
302,-15.834302367975882,-17.735341960771432,-17.019431230252565,-13.96931119369212
303,-15.693554980391523,-17.437777898385775,-16.744069812617738,-13.828269448609085
304,-15.539133568616244,-17.125721744987317,-16.454652913684903,-13.67531664628127
305,-15.371254560578096,-16.799606344587577,-16.151578256605905,-13.510669881076872
306,-15.190153919535124,-16.459888563998625,-15.835266011281389,-13.334563819121142
307,-14.996087144075345,-16.10704929283312,-15.506158794360726,-13.14725069829648
308,-14.789329268116763,-15.741593443504298,-15.164721669242045,-12.949000328242334
309,-14.570174860907342,-15.36404995122595,-14.811442146072254,-12.740100090355302
310,-14.338938027025042,-14.974971774012452,-14.44683018174699,-12.520854937789048
311,-14.095952406377785,-14.574935892678756,-14.071418179910678,-12.291587395454341
312,-13.841571174203468,-14.164543310840386,-13.685760990956462,-12.052637560019054
313,-13.576167041069974,-13.744419054913426,-13.290435912026268,-11.804363099908159
314,-13.300132252875152,-13.315212174114544,-12.886042687010761,-11.547139255303716
315,-13.013878590846824,-12.877595740460974,-12.473203506549368,-11.281358838144886
316,-12.717837371542794,-12.432266848770517,-12.052563008030257,-11.007432232127922
317,-12.412459446850825,-11.979946616661552,-11.624788275590367,-10.725787392706186
318,-12.098215203988666,-11.521380184553012,-11.190568840115379,-10.436869847090124
319,-11.775594565504035,-11.057336715664416,-10.750616679239721,-10.141142694247282
320,-36.52815238866548,-16.652992816497793,-15.487388230029433,-40.77472666807155
321,-38.076254900482674,-17.383060848573212,-15.903220868053715,-42.12590340768303
322,-39.597758906403435,-18.10467350472915,-16.30615274626541,-43.444319705777026
323,-41.09055595484807,-18.816649790769038,-16.69565144882665,-44.72821805931233
324,-42.55260639286951,-19.51784487599534,-17.07120737512784,-45.975906918545405
325,-43.98193936615295,-20.207150093209535,-17.432333739787737,-47.18576068703025
326,-45.3766528190161,-20.883492938712173,-17.77856657265343,-48.35621972161856
327,-46.73491349440901,-21.545837072302767,-18.109464718800265,-49.48579033245951
328,-48.054956933914184,-22.193182317279895,-18.424609838531946,-50.57304478300001
329,-49.33508747774657,-22.824564660441172,-18.723606407380487,-51.61662128998441
330,-50.57367826475346,-23.439056252083212,-19.006081716106202,-52.6152240234548
331,-51.76917123241461,-24.035765406001637,-19.271685870697727,-53.56762310675081
332,-52.92007711684221,-24.613836599491112,-19.52009179237199,-54.47265461650967
333,-54.024975452780744,-25.172450473345336,-19.750995217574264,-55.329220582666174
334,-55.082514573607256,-25.710823831857013,-19.964114697978097,-56.136288988452726
335,-56.09141161133109,-26.228209642817845,-20.159191600485375,-56.892893770399326
336,-57.050452496594005,-26.723897037518594,-20.335990107226248,-57.59813481833356
337,-57.958491958670194,-27.19721131074901,-20.494297215559268,-58.25117797538055
338,-58.81445352546622,-27.647513920797888,-20.63392273807119,-58.85125503796309
339,-59.61732952352105,-28.074202489452986,-20.754699302577137,-59.39766375580148
340,-60.36618107800609,-28.47671080200113,-20.856482352120533,-59.88976783191366
341,-61.0601381127251,-28.85450880722816,-20.939150144973084,-60.32699692261511
342,-61.69839935011419,-29.207102617418872,-21.002603754634823,-60.70884663751885
343,-62.28023231124198,-29.534034508357138,-21.046767069834107,-61.03487853953558
344,-62.80497331580934,-29.8348829193258,-21.07158679452755,-61.304720144873535
345,-63.272027482149646,-30.109262453106748,-21.077032447900095,-61.51806492303844
346,-63.68086872722868,-30.356823875980844,-21.063096364365002,-61.67467229683368
347,-64.03103976664441,-30.577254117727968,-21.029793693563846,-61.77436764236021
348,-64.32215211462736,-30.77027627162704,-20.977162400366435,-61.817042289016484
349,-64.55388608404047,-30.935649594455956,-20.905263264870964,-61.80265351949864
350,-64.72599078637893,-31.07316950649162,-20.814179882403877,-61.73122456980024
351,-64.8382841317704,-31.18266759150994,-20.70401866351993,-61.60284462921253
352,-64.89065282897486,-31.264011596785842,-20.574908834002187,-61.41766884032424
353,-64.88305238538467,-31.317105433093264,-20.42700243486201,-61.17591829902164
354,-64.81550710702464,-31.341889174705116,-20.260474322339086,-60.877880054488685
355,-64.68811009855189,-31.338339059393334,-20.075522167901347,-60.52390710920676
356,-64.50102326325583,-31.306467488428837,-19.87236645824506,-60.114418418954884
357,-64.25447730305847,-31.24632302658158,-19.651250495294786,-59.6498988928096
358,-63.948771718513925,-31.157990402120454,-19.412440396203372,-59.130899393144944
359,-63.584274808808836,-31.041590506813442,-19.15622509335199,-58.558036735632655
360,-63.16142367176217,-30.897280395927442,-18.88291633435007,-57.93199368924182
361,-62.68072420382527,-30.725253288228355,-18.592848682035367,-57.25351897623929
362,-62.142751100081746,-30.525738565981143,-18.286379514473918,-56.52342727218928
363,-61.54814785424778,-30.29900177494969,-17.96388902496007,-55.74259920595366
364,-60.89762675867168,-30.045344624396925,-17.625780222016424,-54.91198135969182
365,-60.19196890433419,-29.765104987084744,-17.27247892939393,-54.03258626886062
366,-59.432024180848515,-29.45865689927404,-16.904433786071802,-53.10549242221455
367,-58.61871127646003,-29.12641056072471,-16.522116246257536,-52.13184426180565
368,-57.753017678046604,-28.76881233469564,-16.126020579386946,-51.11285218298342
369,-56.83599967111838,-28.38634474794467,-15.716663870124123,-50.049792534394925
370,-55.86878233981791,-27.97952649072868,-15.294586018361453,-48.94400761798474
371,-54.85255956692005,-27.54891241680353,-14.860349739219618,-47.79690568899507
372,-53.78859403383196,-27.095093543424028,-14.414540563047558,-46.60996095596554
373,-52.67821722059322,-26.618697051344014,-13.957766835422559,-45.38471358073337
374,-51.52282940587578,-26.120386284816295,-13.49065971715015,-44.12276967843324
375,-50.32389966698379,-25.600860751592652,-13.013873184264162,-42.82580131749743
376,-49.08296587985385,-25.06085612292386,-12.528084028026715,-41.495546519655726
377,-47.80163471905485,-24.501144233559696,-12.033991854928217,-40.133809259935404
378,-46.481581657788034,-23.92253308174889,-11.53231908668737,-38.7424594666613
379,-45.12455096788702,-23.325866829239175,-11.023810960251147,-37.32343302145575
380,-43.73235571981765,-22.712025801277246,-10.509235527794823,-35.878731759238576
381,-42.30687778267821,-22.081926486608797,-9.989383656721941,-34.41042346822719
382,-40.85006782419924,-21.436521537478495,-9.465069029664344,-32.92064188993649
383,-39.36394531074365,-20.776799769629967,-8.937128144482147,-31.411586719178835
384,-6.026852561284957,-10.626341092451508,-239.72691426615188,-4.649593094039672
385,-5.972074977490758,-10.723925703380479,-250.77051551497874,-4.513112482104787
386,-5.9092984672451125,-10.810338504923584,-261.67751715431774,-4.368073614079384
387,-5.83871876227586,-10.885548568730247,-272.43115979385055,-4.214860417083935
388,-5.760533207853199,-10.949534764844605,-283.01518833599107,-4.053853482808204
389,-5.674940762789712,-11.002285761705568,-293.4138519758865,-3.8854300675112374
390,-5.5821419994403385,-11.04380002614671,-303.6119042014163,-3.70996409202137
391,-5.48233910370239,-11.07408582339639,-313.5946027931932,-3.5278261417362216
392,-5.375735875015538,-11.093161217077656,-323.3477098245625,-3.339383466622699
393,-5.262537726361829,-11.101054069208324,-332.857491661602,-3.1449999812169973
394,-5.1429516842656655,-11.097802040200868,-342.1107189631223,-2.945036264624596
395,-5.017186388793832,-11.083452588862563,-351.0946666806671,-2.7398495605202697
396,-4.885452093555467,-11.058062972395359,-359.7971140585124,-2.5297937771480625
397,-4.747960665702079,-11.021700246395973,-368.2063446336671,-2.315219487321328
398,-4.604925585927553,-10.974441264855809,-376.3111462358724,-2.0964739284226876
399,-4.4565619484681225,-10.91637268016102,-384.1008109876026,-1.87390100240406
400,-4.303086461102407,-10.84759094309246,-391.56513530406477,-1.6478412757866512
401,-4.14471744515138,-10.768202302825749,-398.69441989319773,-1.4186319796609501
402,-3.9816748354783775,-10.67832280693121,-405.479469755674,-1.1866070096867398
403,-3.814180180489124,-10.578078301373875,-411.9115941848981,-0.9520969260930802
404,-3.6424566421316866,-10.467604430513513,-417.9826067670072,-0.7154289536783298
405,-3.4667289958965095,-10.347046637104627,-423.68482538087136,-0.4769269818101353
406,-3.287223630816408,-10.21656016229643,-429.01107219809296,-0.2369115644254188
407,-3.104168549466552,-10.076310045632873,-433.95467368300683,0.004300079969599718
408,-2.9177933679644914,-9.926471125052624,-438.50946059268085,0.24639406829941718
409,-2.7283293159701265,-9.767228036889058,-442.6697679769148,0.4890598529192314
410,-2.5360092366857416,-9.598775215870305,-446.4304351782419,0.7319902216149704
411,-2.3410675868559716,-9.421316895119178,-449.7868058319264,0.9748812976032528
412,-2.143740436767824,-9.235067106153254,-452.73472786596676,1.2174325395314338
413,-1.9442654702506779,-9.040249678884805,-455.2705535010927,1.4593467414775583
414,-1.742881984676273,-8.83709824162083,-457.3911392507673,1.7003300329503883
415,-1.5398308909587133,-8.625856221063065,-459.09384592118494,1.9400918788894106
416,-1.3353547135544779,-8.40677684230795,-460.37653861127393,2.1783450796648034
417,-1.1296975904623938,-8.180123128846647,-461.237586712694,2.414805771077469
418,-0.923105273223683,-7.946167902565047,-461.67586390983763,2.64919342435902
419,-0.715825126921896,-7.705193783743753,-461.6907481798299,2.881230846171771
420,-0.5081061301829841,-7.457493191058108,-461.28212179252785,3.1106441786087577
421,-0.3001988751752458,-7.2033683415781535,-460.45037131052135,3.337162899193725
422,-0.09235556760934494,-6.943131250768659,-459.19638758913226,3.560519820881126
423,0.11516997326167375,-6.677103732489124,-457.5215657764153,3.7804510920561283
424,0.3221223146424206,-6.40561739899375,-455.42780531315725,3.996696196534602
425,0.5282444101951255,-6.129013660931469,-452.91750993287735,4.208997953563139
426,0.7332776000396555,-5.847643727345937,-449.9935876618267,4.417102517819035
427,0.9369616107535157,-5.56186860567551,-446.65945081898974,4.620759379410295
428,1.13903455537184,-5.272059101753283,-442.9190160160826,4.819721363875638
429,1.3392329333874007,-4.97859581980706,-438.7767041575531,5.013744632184499
430,1.5372916307506097,-4.681869162459366,-434.23744044058276,5.202588680737008
431,1.7329439198694967,-4.382279330727446,-429.30665435508445,5.386016341364019
432,1.925921459609746,-4.080236324023251,-423.99027968370314,5.563793781327088
433,2.11595429529466,-3.776159940153471,-418.29475450181684,5.735690503318484
434,2.302770858705187,-3.470479775319494,-412.22702117753494,5.9014793454611905
435,2.4860979680799042,-3.163635224117427,-405.79452637169993,6.0609364813088895
436,2.6656608281150245,-2.8560754795381134,-399.00522103788614,6.213841419845988
437,2.841183029964396,-2.5482595329670903,-391.8675604223996,6.359977005487588
438,3.012386551239501,-2.240656174184626,-384.39050406427936,6.499129418079512
439,3.178991756009457,-1.933743991365694,-376.583515795296,6.6310881728982825
440,3.340717394801017,-1.6280113710799977,-368.456563739953,6.755646120651142
441,3.497280604598568,-1.3239564982919383,-360.0201203154851,6.872599447476034
442,3.6483969088441306,-1.0220873563606483,-351.28516223186006,6.981747674941616
443,3.7937802174373627,-0.7229217270399699,-342.2631704917771,7.082893660047251
444,3.933142826735555,-0.426987190478459,-332.9661303906679,7.175843595223017
445,4.066195419553637,-0.13482112521938627,-323.40653151669625,7.260407008329696
446,4.1926470651641665,0.15302929179925653,-313.59736775075817,7.3363967626587785
447,4.3122052192973435,0.43600708524477094,-303.5521372664813,7.403629056932466
448,-3.9451093443749334,-6.718543885400693,-168.8673728447286,-4.776019024690907
449,-4.095774142655215,-7.062345957286356,-169.3585659079685,-5.077094597842928
450,-4.2444665346183035,-7.403649341592486,-169.6819546839971,-5.377560411689732
451,-4.390931649674852,-7.741874263226601,-169.8377263572818,-5.6768791499318905
452,-4.534922702776796,-8.076457405757614,-169.82621988562917,-5.974527502004057
453,-4.676200994417324,-8.406851911415858,-169.64792600018538,-6.269996163074939
454,-4.814535910630892,-8.732527381093062,-169.30348720543728,-6.562789834047323
455,-4.949704922993234,-9.052969874342377,-168.79369777920965,-6.85242722155806
456,-5.081493588621338,-9.367681909378353,-168.11950377266794,-7.138441037978075
457,-5.209695550173472,-9.676182463076948,-167.28200301031723,-7.420378001412348
458,-5.334112535849149,-9.978006970975514,-166.2824450900013,-7.697798835699939
459,-5.4545543593891805,-10.27270732727284,-165.12223138290426,-7.970278270413974
460,-5.570838920075612,-10.559851884829081,-163.8029150335498,-8.237405040861635
461,-5.682792202731766,-10.83902545516583,-162.3262009598008,-8.498781888084187
462,-5.790248277722243,-11.109829308466072,-160.69394585285994,-8.754025558856945
463,-5.89304930095289,-11.37188117357418,-158.9081581772693,-9.002766805689303
464,-5.991045513870827,-11.624815237995959,-156.9709981709108,-9.244650386824713
465,-6.084095243464445,-11.868282147898597,-154.88477784500566,-9.4793350662407
466,-6.1720649022633856,-12.101949008110699,-152.6519609841148,-9.706493613648835
467,-6.254828988338572,-12.325499382122272,-150.2751631461386,-9.925812804494784
468,-6.332270085302176,-12.538633292084707,-147.75715166231686,-10.13699341995824
469,-6.404278862307649,-12.741067218810816,-145.1008456372294,-10.339750246953002
470,-6.470754074049687,-12.932534101774811,-142.30931594879496,-10.533812078126891
471,-6.53160256076427,-13.112783339112287,-139.38578524827213,-10.71892171186183
472,-6.586739248228625,-13.281580787620266,-136.33362796025926,-10.894835952273768
473,-6.636087147761256,-13.43870876275715,-133.15637028269364,-11.06132560921275
474,-6.679577356221918,-13.583966038642743,-129.85769018685272,-11.21817549826285
475,-6.717149056011644,-13.717167848058274,-126.441417417353,-11.365184440742235
476,-6.748749515072712,-13.838145882446328,-122.91153349215072,-11.502165263703121
477,-6.774334086888674,-13.946748291910925,-119.27217170254157,-11.62894479993178
478,-6.7938662104843415,-14.042839685217466,-115.52761711316073,-11.745363887948551
479,-6.8073174104257905,-14.126301129792761,-111.68230656198291,-11.851277372007836
480,-6.814667296820359,-14.197030151725,-107.74082866032245,-11.946554102098084
481,-6.8159035653166375,-14.254940735763793,-103.70792379283294,-12.031076933941824
482,-6.811021997104498,-14.299963325320123,-99.58848411750759,-12.104742728995621
483,-6.800026458915048,-14.332044822466381,-95.38755356567913,-12.16746235445013
484,-6.78292890302068,-14.351148587936372,-91.11032784201979,-12.219160683230028
485,-6.759749367235035,-14.357254441125265,-86.76215442454114,-12.259776593994081
486,-6.730515974913017,-14.350358660089638,-82.3485325645945,-12.289262971135106
487,-6.695264934950789,-14.33047398154747,-77.87511328687042,-12.307586704779965
488,-6.65404054178578,-14.29762960087812,-73.34769938939893,-12.314728690789593
489,-6.606895175396679,-14.25187117212236,-68.77224544354972,-12.31068383075897
490,-6.553889301303425,-14.193260807982337,-64.15485779403176,-12.295461032017144
491,-6.495091470567228,-14.12187707982161,-59.50179455889351,-12.269083207627215
492,-6.430578319790559,-14.037815017665114,-54.81946562952314,-12.23158727638634
493,-6.360434571117135,-13.94118611019919,-50.11443267064779,-12.18302416282573
494,-6.284753032231947,-13.83211830477155,-45.39340912033453,-12.123458797210647
495,-6.203634596361239,-13.71075600739133,-40.66326018998963,-12.05297011554042
496,-6.117188242272513,-13.577260082729024,-35.931002864358824,-11.971651059548426
497,-6.025531034274528,-13.431807854116547,-31.203805901527357,-11.879608576702097
498,-5.928788122217312,-13.274593103547181,-26.488989832919852,-11.776963620202924
499,-5.827092741492139,-13.105826071675615,-21.794026963300382,-11.663851148986438
500,-5.720586213031548,-12.92573345781791,-17.126541370772504,-11.540420127722244
501,-5.609417943309333,-12.734558419951542,-12.49430890677905,-11.406833526813989
502,-5.49374542434055,-12.532560574715346,-7.905257196102459,-11.263268322399371
503,-5.373734233681509,-12.320015997409568,-3.367465636864517,-11.109915496350133
504,-5.249558034429776,-12.097217221995841,1.110834599473657,-10.946980036272102
505,-5.121398575224182,-11.864473241097167,5.5212605681113835,-10.774680935505126
506,-4.989445690244806,-11.622109505997965,9.855277550908658,-10.593251193123113
507,-4.853897299212988,-11.370467926643999,14.104199056386097,-10.402937813934024
508,-4.714959407391325,-11.109906871642467,18.25918681972486,-10.204001808479871
509,-4.572846105583672,-10.840801168261926,22.3112508027667,-9.99671819303672
510,-4.4277795701351375,-10.563542102432327,26.25124919401405,-9.781375989614684
511,-4.279990062932084,-10.278537418744998,30.069888408629865,-9.558278225957924
512,-3.6617773295263993,-10.679836409768782,-15.670352245288264,-3.4620975622237258
513,-3.8217539628731703,-11.007468095621471,-16.171969004686282,-3.62750056841478
514,-3.9807766836055665,-11.328249307002869,-16.66396719512373,-3.792096974252166
515,-4.138540778199529,-11.641659242216825,-17.145535265419063,-3.955576840619639
516,-4.294750427033102,-11.947195995914742,-17.615890390949055,-4.117639072619622
517,-4.449118704386449,-12.244376559095446,-18.074278473648743,-4.277991419573167
518,-4.601367578441824,-12.532736819105267,-18.519974142011492,-4.436350475019994
519,-4.751227911283593,-12.81183155963801,-18.952280751088956,-4.592441676718463
520,-4.898439458898223,-13.081234460734935,-19.370530382491047,-4.74599930664558
521,-5.042750871174281,-13.340538098784815,-19.774083844386027,-4.896766490997004
522,-5.1839196919024495,-13.58935394652385,-20.162330671500428,-5.044495200187037
523,-5.321712358775522,-13.827312373035745,-20.534689125119066,-5.188946248848639
524,-5.455904203388362,-14.054062643751676,-20.890606193085052,-5.329889295833407
525,-5.586279451237968,-14.269272920450296,-21.229557589799832,-5.46710284421159
526,-5.712631221723432,-14.472630261257715,-21.551047756223067,-5.600374241272087
527,-5.834761528145949,-14.663840620647534,-21.854609859872745,-5.729499678522437
528,-5.952481277708816,-14.842628849440812,-22.139805794825186,-5.854284191688834
529,-6.065610271517435,-15.008738694806087,-22.40622618171493,-5.974541660716116
530,-6.173977204579306,-15.16193280025937,-22.65349036773485,-6.090094809767765
531,-6.277419665804032,-15.301992705664142,-22.881246426636082,-6.200775207225907
532,-6.375784138003329,-15.428718847231346,-23.08917115872805,-6.306423265691323
533,-6.468925997890995,-15.541930557519397,-23.27697009087853,-6.406888241983436
534,-6.556709516082949,-15.641466065434205,-23.444377476513484,-6.502028237140306
535,-6.639007857097204,-15.727182496229108,-23.591156295617186,-6.591710196418657
536,-6.715703079353869,-15.798955871504946,-23.717098254732264,-6.675809909293834
537,-6.786686135175158,-15.856681109210006,-23.822023786959537,-6.754212009459853
538,-6.851856870785393,-15.900272023640063,-23.90578205195818,-6.826809974829358
539,-6.9111240263109845,-15.929661325438325,-23.968250935945612,-6.893506127533638
540,-6.9644052357804505,-15.944800621595508,-24.00933705169752,-6.954211633922634
541,-7.0116270271244066,-15.945660415449774,-24.02897573854792,-7.008846504564925
542,-7.052724822175568,-15.932230106686752,-24.027131062389046,-7.05733959424774
543,-7.087642936668753,-15.904517991339524,-24.0037958156715,-7.099628601976948
544,-7.116334580240876,-15.862551261788669,-23.958991517404055,-7.135660070977057
545,-7.138761856430954,-15.806376006762209,-23.892768413153853,-7.165389388691224
546,-7.1548957626801,-15.736057211335629,-23.80520547504628,-7.188780786781253
547,-7.164716190331531,-15.65167875693188,-23.696410401764982,-7.205807341127587
548,-7.168211924630551,-15.553343421321372,-23.56651961855191,-7.216450971829305
549,-7.165380644724578,-15.441172878622003,-23.415698277207266,-7.2207024432041385
550,-7.15622892366312,-15.31530769929911,-23.244140256089544,-7.2185613637884565
551,-7.140772228397778,-15.175907350165483,-23.052068160115503,-7.210036186337272
552,-7.119034919782258,-15.023150194381408,-22.839733320760196,-7.195144207824239
553,-7.091050252572369,-14.85723349145459,-22.60741579605692,-7.1739115694416515
554,-7.056860375426005,-14.67837339724023,-22.355424370597255,-7.146373256600449
555,-7.016516330903164,-14.486804963940974,-22.08409655553106,-7.112573098930208
556,-6.970078055465938,-14.282782140106923,-21.793798588566464,-7.0725637702791495
557,-6.917614379478524,-14.066577770635648,-21.484925433969853,-7.026406788714137
558,-6.859203027207201,-13.838483596772182,-21.157900782565893,-6.974172516520663
559,-6.794930616820361,-13.598810256108992,-20.813177051737526,-6.915940160202877
560,-6.724892660388477,-13.347887282586026,-20.451235385425946,-6.851797770483558
561,-6.649193563884132,-13.086063106490691,-20.07258565413063,-6.781842242304127
562,-6.56794662718199,-12.813705054457827,-19.67776645490931,-6.706179314824645
563,-6.481274044058827,-12.531199349469773,-19.267345111377978,-6.624923571423818
564,-6.389306902193498,-12.238951110856275,-18.841917673710913,-6.538198439698981
565,-6.292185183166966,-11.937384354294567,-18.402108918640653,-6.446136191466118
566,-6.19005776246228,-11.626941991809323,-17.948572349457994,-6.348877942759847
567,-6.0830824094645894,-11.30808583177269,-17.481990196011992,-6.246573653833424
568,-5.971425787461136,-10.981296578904242,-17.00307341470996,-6.139382129158746
569,-5.855263453641255,-10.647073834271035,-16.512561688517494,-6.0274710174263495
570,-5.734779859096379,-10.30593609528756,-16.011223426958445,-5.911016811545404
571,-5.61016834882003,-9.958420755715766,-15.499855766114909,-5.790204848643721
572,-5.481631161707826,-9.60508410566506,-14.979284568627268,-5.665229310067752
573,-5.349379430557479,-9.246501331592293,-14.450364423694138,-5.5362932213825795
574,-5.213633182068793,-8.883266516301774,-13.913978647072405,-5.4036084523719285
575,-5.074621336843666,-8.515992638945256,-13.371039281077222,-5.267395717038159
576,-7.345249528496621,-14.36275387030251,-14.720729105559581,-9.40655071674681
577,-7.526305231225402,-14.803854887118984,-15.193107558944202,-9.690096525686185
578,-7.702541812444609,-15.234542411150459,-15.655311952357446,-9.967354084839558
579,-7.873655548779184,-15.654175664283354,-16.106637164467497,-10.2378826841526
580,-8.039354983859104,-16.062138148796052,-16.546403778542373,-10.501258000369008
581,-8.19936092831936,-16.45783764735895,-16.973958082449904,-10.75707209703055
582,-8.353406459799965,-16.840706223034427,-17.388672068657772,-11.004933424477057
583,-8.50123692294597,-17.21020021927684,-17.78994343423346,-11.24446681984642
584,-8.642609929407433,-17.565800259932583,-18.177195580844284,-11.475313507074585
585,-8.777295357839442,-17.907011249239968,-18.549877614757385,-11.697131096895545
586,-8.905075353902102,-18.233362371829337,-18.90746434683972,-11.909593586841366
587,-9.025744330260544,-18.544407092723038,-19.2494562925581,-12.112391361242166
588,-9.13910896658491,-18.83972315733537,-19.575379671979086,-12.305231191226117
589,-9.244988209550394,-19.118912591472647,-19.884786409769145,-12.487836234719442
590,-9.343213272837172,-19.381601701333132,-20.17725413519449,-12.659946036446446
591,-9.433627637130472,-19.62744107350711,-20.45238618212122,-12.82131652792946
592,-9.516087050120506,-19.85610557497684,-20.70981158901521,-12.97172002748887
593,-9.59045952650255,-20.067294353116555,-20.949185098942156,-13.110945240243137
594,-9.656625347976865,-20.26073083569251,-21.170187159567615,-13.238797258108761
595,-9.714477063248747,-20.43616273086286,-21.372523923156876,-13.35509755980031
596,-9.763919488028511,-20.59336202717784,-21.555927246575138,-13.459684010830387
597,-9.804869705031496,-20.7321249935796,-21.720154691287373,-13.552410863509667
598,-9.837257063978045,-20.852272179402327,-21.86498952335837,-13.633148756946854
599,-9.861023181593524,-20.95364841437214,-21.990240713452685,-13.701784717048723
600,-9.876121941608325,-21.036122808607132,-22.095742936834803,-13.758222156520116
601,-9.882519494757842,-21.09958875261744,-22.181356573368934,-13.802380874863882
602,-9.880194258782518,-21.143963917305133,-22.246967707519136,-13.834197058380955
603,-9.869136918427774,-21.16919025396426,-22.292488128349248,-13.853623280170313
604,-9.84935042544407,-21.175233994280834,-22.317855329522946,-13.860628500128973
605,-9.820849998586876,-21.16208565033291,-22.32303250930373,-13.855198064952026
606,-9.783663123616694,-21.12976001459044,-22.308008570554886,-13.837333708132588
607,-9.737829553299012,-21.07829615991541,-22.272798120739502,-13.807053549961836
608,-9.683401307404358,-21.007757439561757,-22.217441471920512,-13.764392097528999
609,-9.620442672708279,-20.918231487175397,-22.142004640760618,-13.709400244721342
610,-9.5490302029913,-20.809830216794232,-22.046579348522368,-13.642145272224187
611,-9.469252719039012,-20.682689822848094,-21.931283021068104,-13.562710847520902
612,-9.381211308641983,-20.53697078015886,-21.79625878885995,-13.471197024892914
613,-9.285019326595812,-20.37285784394034,-21.641675486959887,-13.367720245419672
614,-9.180802394701105,-20.190560049798297,-21.46772765502966,-13.252413336978682
615,-9.068698401763486,-19.9903107137305,-21.274635537330823,-13.125425514245508
616,-8.948857503593587,-19.772367432126682,-21.062645082724764,-12.98692237869375
617,-8.821442123007063,-19.537012081768534,-20.83202794467265,-12.837085918595054
618,-8.686626949824571,-19.28455081982973,-20.58308148123544,-12.676114509019106
619,-8.54459894087179,-19.015314083875914,-20.31612875507392,-12.504222911833644
620,-8.3955573199794,-18.729656591864686,-20.031518533448693,-12.321642275704448
621,-8.239713577983109,-18.42795734214562,-19.72962528822012,-12.128620136095346
622,-8.07729147272362,-18.110619613460273,-19.410849195848385,-11.925420415268192
623,-7.90852702904665,-17.77807096494216,-19.075616137393478,-11.712323422282912
624,-7.733668538802939,-17.430763236116736,-18.72437769851521,-11.489625852997456
625,-7.552976560848233,-17.069172546901473,-18.357611169473113,-11.257640790067803
626,-7.366723921043277,-16.693799297605768,-17.97581954512661,-11.016697702948012
627,-7.17519571225384,-16.305168168930997,-17.57953152493487,-10.767142447890143
628,-6.978689294350696,-15.903828121970506,-17.16930151295686,-10.509337267944325
629,-6.777514294209627,-15.490352398209593,-16.74570961785137,-10.24366079295872
630,-6.571992605711426,-15.065338519525525,-16.30936165287696,-9.97050803957952
631,-6.362458389741897,-14.629408288187545,-15.860889135892009,-9.690290411250968
632,-6.149258074191848,-14.183207786856824,-15.400949289354667,-9.403435698215347
633,-5.932750353957099,-13.727407378586541,-14.930225040322894,-9.110388077512972
634,-5.713306190938477,-13.262701706821794,-14.44942502045444,-8.811608112982203
635,-5.491308814041818,-12.78980969539966,-13.959283566006857,-8.507572755259439
636,-5.267153719177967,-12.309474548549183,-13.460560717837456,-8.198775341779108
637,-5.041248669262768,-11.822463750891352,-12.954042221403395,-7.885725596773683
638,-4.814013694217081,-11.32956906743912,-12.440539526761576,-7.568949631273677
639,-4.585881090966771,-10.831606543597404,-11.92088978856871,-7.248989943107632
640,-3.908806383741643,-5.234479817050172,-8.063859042597716,-6.640637454996077
641,-4.146798509598027,-5.454112017834444,-8.217155336763902,-6.959929349881045
642,-4.3840182374884815,-5.671317825273934,-8.363542080386186,-7.276776029166882
643,-4.6200483299962,-5.885725144113548,-8.502823196670354,-7.5906259112636665
644,-4.85448273661345,-6.096973351638638,-8.634813325271342,-7.900943410830591
645,-5.086926593741572,-6.304713297674978,-8.759337822293187,-8.207208938775954
646,-5.316996224690975,-6.508607304588776,-8.87623276028905,-8.508918902257172
647,-5.544319139681147,-6.708329167286678,-8.985344928261213,-8.805585704680746
648,-5.768534035840638,-6.903564153215748,-9.086531831661073,-9.09673774570229
649,-5.9892907972070715,-7.094009002363492,-9.179661692389145,-9.381919421226533
650,-6.206250494727148,-7.279371927257835,-9.264613448795068,-9.660691123407295
651,-6.419085386256629,-7.459372612967143,-9.341276755677573,-9.932629240647504
652,-6.627478916560352,-7.633742217100201,-9.409551984284542,-10.197326157599198
653,-6.831125717312219,-7.80222336980623,-9.46935022231296,-10.454390255163519
654,-7.02973160709521,-7.964570173774885,-9.520593273908915,-10.703445910490691
655,-7.223013591401368,-8.12054820423623,-9.56321365966764,-10.944133496980074
656,-7.4106998626318115,-8.269934508960784,-9.597154616633448,-11.176109384280105
657,-7.592529800096712,-8.412517608259469,-9.622370098299797,-11.399045938288328
658,-7.768253970015331,-8.548097494983653,-9.638824774609242,-11.612631521151409
659,-7.9376341255159835,-8.676485634525122,-9.646494031953477,-11.81657049126507
660,-8.100443206636049,-8.797504964816095,-9.64536397317327,-12.010583203274189
661,-8.256465340322,-8.910989896329212,-9.63543141755855,-12.194406008072702
662,-8.40549584042934,-9.016786312077548,-9.61670390084833,-12.367791252803661
663,-8.547341207722669,-9.114751567614604,-9.58919967523075,-12.530507280859226
664,-8.681819129875645,-9.204754491034285,-9.552947709343057,-12.682338431880643
665,-8.808758481470985,-9.286675382970957,-9.507987688271616,-12.823085041758256
666,-8.927999324000474,-9.360406016599391,-9.454370013551904,-12.952563442631517
667,-9.039392905864982,-9.425849637634782,-9.39215580316851,-13.07060596288897
668,-9.142801662374419,-9.482920964332761,-9.321416891555133,-13.177060927168263
669,-9.23809921574778,-9.531546187489376,-9.242235829594593,-13.271792656356137
670,-9.325170375113107,-9.571662970441098,-9.154705884618824,-13.354681467588426
671,-9.40391113650753,-9.603220449064839,-9.05893104040886,-13.425623674250065
672,-9.474228682877223,-9.626179231777908,-8.955025997194847,-13.484531585975084
673,-9.53604138407743,-9.640511399538058,-8.843116171656051,-13.53133350864663
674,-9.589278796872469,-9.646200505843465,-8.723337696920858,-13.565973744396894
675,-9.633881664935714,-9.643241576732708,-8.595837422566747,-13.588412591607218
676,-9.669801918849602,-9.631641110784821,-8.460772914620303,-13.598626344908
677,-9.697002676105633,-9.611417079119235,-8.318312455557253,-13.596607295178755
678,-9.715458241104379,-9.582598925395812,-8.168635044302405,-13.582363729548083
679,-9.725154105155463,-9.545227565814837,-8.011930396229683,-13.555919931393671
680,-9.726086946477578,-9.499355389117017,-7.848398943162136,-13.517316180342313
681,-9.718264630198476,-9.445046256583483,-7.678251833371898,-13.466608752269899
682,-9.70170620835498,-9.382375502035778,-7.501710931580233,-13.403869919301384
683,-9.676441919892952,-9.31142993183588,-7.319008818957506,-13.329187949810851
684,-9.642513190667344,-9.232307824886176,-7.130388793123195,-13.242667108421443
685,-9.59997263344216,-9.14511893262948,-6.9361048681458755,-13.144427656005412
686,-9.54888404789045,-9.04998447904902,-6.736421774543242,-13.034605849684102
687,-9.489322420594345,-8.947037160668447,-6.531614959282093,-12.913353942827941
688,-9.421373925045023,-8.83642114655184,-6.32197058577834,-12.780840185056451
689,-9.345135921642733,-8.718292078303683,-6.107785533896993,-12.637248822238233
690,-9.260716957696769,-8.592817070068895,-5.889367399952176,-12.482780096491002
691,-9.168236767425505,-8.460174708532797,-5.667034496707119,-12.317650246181534
692,-9.067826271956358,-8.320555052921145,-5.4411158533741535,-12.142091505925714
693,-8.959627579325812,-8.174159635000098,-5.211951215614724,-11.956352106588508
694,-8.843793984479408,-8.02120145907624,-4.979891045539383,-11.760696275283957
695,-8.72048996927174,-7.861905001996587,-4.745296521707781,-11.555404235375217
696,-8.589891202466475,-7.696506213148543,-4.50853953912868,-11.340772206474515
697,-8.45218453973633,-7.525252514459955,-4.270002709259945,-11.117112404443159
698,-8.307568023663071,-7.348402800399073,-4.03007936000855,-10.884753041391553
699,-8.156250883737533,-7.16622743797457,-3.789173535730565,-10.644038325679189
700,-7.998453536359609,-6.979008266735535,-3.547699997231177,-10.39532846191464
701,-7.834407584838243,-6.787038598771471,-3.306084221764668,-10.138999650955565
702,-7.664355819391437,-6.590623218712294,-3.0647624030344316,-9.875444089908697
703,-7.4885522171462515,-6.390078383728344,-2.8241814511929597,-9.60506997212988
704,-7.764743784650659,-9.427466559027504,-0.3215946668361936,-8.23303728808832
705,-7.944660095330547,-9.747226446976534,-0.30147501769954554,-8.522937968621543
706,-8.118040272129305,-10.060883362776776,-0.2803665155226979,-8.807095621399348
707,-8.284652700290511,-10.367944316986456,-0.25832842341727197,-9.085089360822654
708,-8.444276709816188,-10.667933589362464,-0.23541912246071517,-9.356513064002785
709,-8.596702575466804,-10.960392728860336,-0.2116961116963027,-9.620975370761466
710,-8.74173151676124,-11.24488055363425,-0.18721600813313596,-9.878099683630841
711,-8.879175697976851,-11.520973151037046,-0.16203454674614437,-10.127524167853492
712,-9.00885822814939,-11.788263877620219,-0.13620658047608264,-10.368901751382344
713,-9.130613161073057,-12.046363359133922,-0.1097860802295341,-10.6019001248808
714,-9.24428549530051,-12.294899490526944,-0.0828261348789082,-10.826201741722613
715,-9.349731174142804,-12.533517435946727,-0.05537895126244159,-11.04150381799199
716,-9.446817085669446,-12.761879628739393,-0.027495854184198407,-11.247518332483521
717,-9.535421062708386,-12.97966577144967,0.0007727135859312007,-11.443972026702204
718,-9.615431882846003,-13.18657283582097,0.029377191312229173,-11.630606404863464
719,-9.686749268427096,-13.38231506279535,0.058268900293150266,-11.807177733893104
720,-9.749283886554919,-13.566623962513502,0.08740004386132219,-11.973457043427365
721,-9.802957349091143,-13.739248314314768,0.11672370738354633,-12.12923012581285
722,-9.847702212655884,-13.899954166737157,0.14619385826079528,-12.27429753610662
723,-9.883461978627674,-14.048524837517318,0.17576534592821622,-12.408474592076098
724,-9.910191093143496,-14.184760913590539,0.20539390185512796,-12.531591374199152
725,-9.92785494709876,-14.308480251090764,0.23503613954502223,-12.643492725664014
726,-9.936429876147303,-14.41951797535059,0.2646495545355638,-12.74403825236934
727,-9.935903160701391,-14.517726480901231,0.2941925243985901,-12.8331023229242
728,-9.926273025931732,-14.602975431472595,0.32362430874011094,-12.910574068648046
729,-9.907548641767463,-14.675151759993181,0.3529050492003096,-12.976357383570747
730,-9.87975012289614,-14.734159668590188,0.38199576945354063,-13.030370924432576
731,-9.84290852876377,-14.779920628589418,0.4108583752083328,-13.0725481106842
732,-9.797065863574767,-14.812373380515337,0.4394556542073864,-13.102837124486696
733,-9.742275076292001,-14.831473934091061,0.46775127622757445,-13.12120091071153
734,-9.678600060636741,-14.837195568238336,0.495709793079943,-13.127617176940591
735,-9.60611565508873,-14.829528831077548,0.5232966386097108,-13.122078393466152
736,-9.524907642886085,-14.808481539927737,0.5504781286962684,-13.104591793290894
737,-9.435072752025402,-14.774078781306596,0.5772214612531791,-13.075179372127893
738,-9.336718655261663,-14.726362910930415,0.6034947162281787,-13.03387788840063
739,-9.229963970108313,-14.665393553714189,0.6292668556031762,-12.980738863242985
740,-9.114938258837222,-14.591247603771512,0.654507723394252,-12.915828580499236
741,-8.991782028478662,-14.50401922441463,0.6791880456516596,-12.839228086724063
742,-8.860646730821355,-14.403819848154415,0.7032794304598248,-12.751033191182541
743,-8.721694762412449,-14.290778176700417,0.7267543679373452,-12.651354465850142
744,-8.575099464557518,-14.165040180960787,0.749586230236991,-12.540317245412748
745,-8.42104512332055,-14.02676910104234,0.7717492715457057,-12.418061627266622
746,-8.259726969523973,-13.876145446250515,0.793218628084604,-12.284742471518433
747,-8.091351178748646,-13.713366995089384,0.8139703181089736,-12.140529400985239
748,-7.916134871333841,-13.53864879526168,0.8339812419082739,-11.985606801194518
749,-7.734306112377269,-13.35222316366876,0.8532291818061368,-11.82017382038412
750,-7.546103911735052,-13.154339686410616,0.8716928021603669,-11.644444369502304
751,-7.351778224021753,-12.945265218785881,0.88935164936294,-11.458647122207712
752,-7.151589948610349,-12.725283885291834,0.9061861518400054,-11.26302551486938
753,-6.94581092963225,-12.494697079624355,0.9221776200518833,-11.057837746566767
754,-6.734723955977283,-12.25382346467801,0.9373082464930673,-10.8433567790897
755,-6.518622761293701,-12.002998972545962,0.9515611056922221,-10.619870336938398
756,-6.2978120239881905,-11.742576804520027,0.9649201542121847,-10.387680907323496
757,-6.072607367225853,-11.47292743109064,0.977370230649965,-10.14710574016601
758,-5.843335358930211,-11.194438591946895,0.9888970556367438,-9.898476848097335
759,-5.610333511783222,-10.90751529597649,0.999487231837875,-9.642141006459287
760,-5.373950283225255,-10.612579821265777,1.009128243952884,-9.378459753304059
761,-5.134545075455106,-10.310071715099735,1.0178084587154679,-9.10780938939423
762,-4.892488235430004,-10.000447793961968,1.0255171248934964,-8.830580978202777
763,-4.6481610548655805,-9.684182143534727,1.032244373289011,-8.547180345913077
764,-4.401955770235907,-9.361766118698883,1.037981216738225,-8.258028081418885
765,-4.1542755627734635,-9.033708343533938,1.0427195501115236,-7.963559536324353
766,-3.9055345584691628,-8.700534711318035,1.0464521503134643,-7.664224824944024
767,-3.656157828072332,-8.362788384527931,1.0491726762827764,-7.36048882430283
768,-3.0377220036724797,-8.68313733756051,2.212702699220619,-3.0633458631590913
769,-3.0638268817224614,-8.888220470403034,2.350376000565097,-3.130390771712386
770,-3.0860939437822754,-9.085862487624619,2.487620966558584,-3.194147999637891
771,-3.1045503106746786,-9.275807010502456,2.624197210390708,-3.2545673467602594
772,-3.1192250988818593,-9.457809799017546,2.759870753740637,-3.3116020703796534
773,-3.1301494205454405,-9.631638751854751,2.894414026777085,-3.365208885271744
774,-3.137356383466473,-9.797073906402753,3.0276058681583136,-3.415347963687702
775,-3.1408810911054448,-9.95390743875409,3.1592315250321263,-3.4619829353542126
776,-3.1407606425822676,-10.101943663705136,3.2890826530358734,-3.505080887473467
777,-3.137034132676296,-10.240999034756085,3.416957316296452,-3.544612364723156
778,-3.129742651826306,-10.370902144110987,3.5426599874302975,-3.5805513692564883
779,-3.1189292861305127,-10.491493722677717,3.6660015475433996,-3.612875360702168
780,-3.1046391173465557,-10.60262664006799,3.786799286231286,-3.641565256164413
781,-3.086919222891515,-10.704165904597364,3.9048769015790263,-3.6666054302229485
782,-3.0658186758418924,-10.795988663285222,4.020064500161242,-3.687983714933
783,-3.041388544933631,-10.877984201854792,4.132198597042093,-3.705691399825304
784,-3.0136818945620973,-10.950053944733131,4.24112211577528,-3.7197232319061007
785,-2.982753784782095,-11.012111455051127,4.346684388404056,-3.7300774156571386
786,-2.948661271307853,-11.06408243464352,4.448741155461214,-3.7367556130356703
787,-2.9114634055130395,-11.105904724048866,4.5471545659690875,-3.7397629434744517
788,-2.8712212344307453,-11.137528302509553,4.641793177439554,-3.7391079838817567
789,-2.827997800753499,-11.158915287971842,4.7325319558740375,-3.7348027686413476
790,-2.7818581428332614,-11.170039937085766,4.819252275763499,-3.726862789612503
791,-2.732869294681415,-11.170888645205244,4.901841920088452,-3.715306996130007
792,-2.6811002859687822,-11.16145994638799,4.98019508031894,-3.700157795004148
793,-2.6266221420256137,-11.141764513395595,5.054212356414558,-3.6814410505207182
794,-2.569507883841593,-11.111825157693435,5.123800756824435,-3.659186084441018
795,-2.5098325280658296,-11.07167682945074,5.188873698487263,-3.6334256760018477
796,-2.447673087006869,-11.021366617540581,5.249351006831242,-3.604196061915518
797,-2.3831085686326863,-10.960953749539843,5.305158915774147,-3.571536936369844
798,-2.3162199765706855,-10.890509591729247,5.356230067723272,-3.5354914510281468
799,-2.247090310107702,-10.81011764909336,5.402503513575462,-3.496106215029246
800,-2.1758045641900043,-10.719873565320563,5.4439247127171075,-3.453431294987476
801,-2.102449729423288,-10.61988512280307,5.4804455330241275,-3.407520214992665
802,-2.0271147920726826,-10.510272242636924,5.512024250861993,-3.3584299566101583
803,-1.9498907340627447,-10.391166984622007,5.538625551085713,-3.3062209588807936
804,-1.870870532977465,-10.262713547262026,5.560220527039833,-3.2509571183209265
805,-1.790149162060262,-10.125068267764512,5.576786680558445,-3.1927057889223978
806,-1.7078235902139889,-9.978399622040833,5.588307921965184,-3.131537782152574
807,-1.623992782000922,-9.822888224706185,5.594774570073209,-3.067527366954314
808,-1.5387576976427706,-9.658726829079585,5.59618335218524,-3.00075226974598
809,-1.4522212930206804,-9.48612032718388,5.592537404093528,-2.9312936744214464
810,-1.3644885196752186,-9.305285749745755,5.5838462700798575,-2.859236222350084
811,-1.2756663248063902,-9.116452266195711,5.570125902915563,-2.7846680123767706
812,-1.1858636512736223,-8.919861184668084,5.551398663861511,-2.7076806008218863
813,-1.0951914375957799,-8.715765952001034,5.527693322668115,-2.6283690014813192
814,-1.0037626179511525,-8.504432153736543,5.499045057575321,-2.546831685626457
815,-0.9116921221774651,-8.286137514120426,5.4654954553126185,-2.4631705820041936
816,-0.8190968757718645,-8.061171896102325,5.427092511099029,-2.377491076836923
817,-0.7260957998909354,-7.829837301335705,5.383890628643122,-2.2899020138225485
818,-0.6328098113506873,-7.592447870177856,5.335950620143001,-2.2005156941344697
819,-0.5393618226265618,-7.34932988168989,5.2833397062863074,-2.1094478764215974
820,-0.44587674185343207,-7.1008217536367555,5.2261315162502235,-2.0168177768083373
821,-0.3524814728255953,-6.847274042487215,5.164406087701464,-1.9227480688946024
822,-0.259304914996783,-6.589049443413856,5.098249866796292,-1.827364883755812
823,-0.16647796348015517,-6.3265227902930965,5.027755708180498,-1.7307978099428856
824,-0.07413350904830068,-6.060081055705174,4.95302287498942,-1.6331798934822415
825,0.017593561866759477,-5.790123350934154,4.874157038847922,-1.5346476378758063
826,0.10856636717358054,-5.517060925967919,4.791270279870415,-1.4353410041010082
827,0.19864602912128185,-5.241317169498172,4.7044810866608415,-1.3354034106107764
828,0.2876916742995569,-4.963327608920455,4.613914356312687,-1.2349817333335453
829,0.37556043363866776,-4.683539910334114,4.519701394408969,-1.1342263056732502
830,0.46210744240945106,-4.402413878542326,4.4219799150222405,-1.033290918509329
831,0.54718584022331,-4.120421457052089,4.320894040714599,-0.9323328201967198
832,-2.3059404635400154,-3.823014348165578,3.1746895247462685,-3.4173364894406237
833,-2.3768729572457246,-4.044052046970054,3.1682114236447947,-3.4856253721782293
834,-2.4460338506040276,-4.2641872855615075,3.1582975326819867,-3.551344434380355
835,-2.5133254493548267,-4.48303402831045,3.144983015966304,-3.6143890302172466
836,-2.5786538102947434,-4.700216671450596,3.1283053908458185,-3.6746594247716637
837,-2.6419287412771264,-4.915370043078846,3.108304527908215,-3.7320607940388704
838,-2.7030638012120587,-5.1281394031552905,3.0850226509807794,-3.7865032249266464
839,-2.76197630006633,-5.338180443503224,3.0585043371304184,-3.837901715255294
840,-2.8185872988634686,-5.545159287809122,3.0287965166636424,-3.8861761737576104
841,-2.8728216096837182,-5.748752491622659,2.9959484731265777,-3.931251420078923
842,-2.924607795664055,-5.948647042356693,2.9600118433049576,-3.9730571847770553
843,-2.9738781709981708,-6.144540359287283,2.921040617224123,-4.011528109322356
844,-3.020568800936486,-6.336140293553677,2.8790911381490325,-4.046603746097676
845,-3.064619501786145,-6.5231651281583085,2.8342221025842513,-4.078228558398385
846,-3.1059738409110142,-6.7053435779668105,2.7864945602739524,-4.106351920432358
847,-3.1445791367316858,-6.882414789707995,2.7359719142019188,-4.130928117319987
848,-3.1803864587254718,-7.054128341973875,2.682719920591548,-4.151916345094174
849,-3.213350627426411,-7.2202442452196545,2.626806688905849,-4.169280710700331
850,-3.2434302144252682,-7.380532941763718,2.568302681847429,-4.182990231996379
851,-3.2705875423695225,-7.534775305787646,2.5072807153585166,-4.193018837752758
852,-3.2947886849633847,-7.682762643336197,2.4438159586209465,-4.199345367652408
853,-3.316003466967788,-7.824296692317341,2.3779859340561686,-4.20195357229079
854,-3.3342054642003855,-7.95918962250222,2.309870517325228,-4.200832113175873
855,-3.3493720035355543,-8.087264035525166,2.2395519373287964,-4.19597456272813
856,-3.361484162904391,-8.208352964883705,2.1671147762071428,-4.187379404280553
857,-3.3705267712947222,-8.32229987593854,2.0926459693401513,-4.17505003207864
858,-3.3764884087510953,-8.428958665913582,2.016234805347316,-4.1589947512803995
859,-3.3793614063747746,-8.528193663895905,1.9379729260877379,-4.139226777956355
860,-3.3791418463237535,-8.619879630835795,1.85795432666013,-4.1157642390895335
861,-3.3758295618127443,-8.703901759546703,1.776275355402812,-4.088630172575472
862,-3.3694281371131822,-8.780155674705286,1.6930347138937105,-4.057852527222222
863,-3.359944907553228,-8.84854743285137,1.6083334569503716,-4.023464162750343
864,-3.347390959517758,-8.908993522387979,1.5222749926299406,-3.985502849792903
865,-3.331781130448375,-8.961420863581322,1.4349650822291762,-3.94401126989548
866,-3.3131340088434054,-9.005766808560788,1.346511840284442,-3.899037015516162
867,-3.291471934257896,-9.041979141318953,1.2570257345717182,-3.850632590025544
868,-3.266820997303611,-9.070016077711593,1.1666195861065876,-3.798855407706734
869,-3.2392110396490423,-9.089846265457638,1.0754085691442423,-3.7437677937553437
870,-3.2086756540194026,-9.101448784139238,0.9835102111794879,-3.685436984279502
871,-3.1752521841966255,-9.104813145201708,0.8910443929467329,-3.6239351262998363
872,-3.1389817250193617,-9.099939291953543,0.7981333484199977,-3.5593392777494897
873,-3.0999091223829875,-9.086837599566444,0.704901664812914,-3.4917314074741106
874,-3.058082973239604,-9.065528875075268,0.6114762825787149,-3.4211983952318574
875,-3.0135556255980247,-9.036044357378078,0.5179864954102482,-3.347832031693397
876,-2.9663831785237935,-8.998425717236108,0.4245639502399689,-3.2717290184419046
877,-2.916625482139168,-8.95272505727378,0.3313426472399371,-3.192990967973061
878,-2.8643461376231305,-8.899004911978698,0.23845893982182773,-3.1117244036950598
879,-2.8096124972113823,-8.837338247701652,0.14605153463691764,-3.0280407599285972
880,-2.752495664196349,-8.767808462656603,0.054261491576094306,-2.9420563819068746
881,-2.693070492927173,-8.690509386920715,-0.036767776230144135,-2.853892525775617
882,-2.631415588809718,-8.605545282434313,-0.12689050241169558,-2.7636753585930363
883,-2.567613308306569,-8.513030843000909,-0.2159585673588456,-2.671535958329864
884,-2.501749758937032,-8.413091194287205,-0.3038214982222766,-2.5776103138693354
885,-2.4339147992771313,-8.305861893823076,-0.3903264689130569,-2.482039325007195
886,-2.3642020389596143,-8.191488931001587,-0.4753183001026533,-2.3849688024516915
887,-2.292708838673948,-8.07012872707897,-0.5586394592229191,-2.286549467823583
888,-2.219536310166314,-7.941948135174646,-0.640130060466104,-2.186936953656132
889,-2.144789316239623,-7.807124440271214,-0.7196278647848471,-2.0862918033951092
890,-2.068576470753498,-7.665845359214458,-0.7969682798921813,-1.984779471398793
891,-1.9910101386242878,-7.518309040713333,-0.871984360261531,-1.8825703229379647
892,-1.9122064358250543,-7.364724065339984,-0.944506807126714,-1.7798396341959157
893,-1.832285229385584,-7.205309445529721,-1.0143639684819397,-1.6767675922684413
894,-1.7513701373923818,-7.040294625581053,-1.0813818390818095,-1.5735392951638432
895,-1.669588528988671,-6.8699194816556455,-1.1453840604413188,-1.4703447518029304
896,-4.0244564539944845,-8.671087512374351,-4.601286654178295,-6.014764447075506
897,-4.310428486394971,-8.966230297807698,-4.7775988465024355,-6.290334985900997
898,-4.5963792377604,-9.255695012439237,-4.950959384146511,-6.5634442852318
899,-4.881793281107363,-9.53902987381606,-5.121103982963714,-6.833623445008771
900,-5.166168144205757,-9.815798983082768,-5.287777067715357,-7.100417295036934
901,-5.44901430957875,-10.08558232498148,-5.4507317720709,-7.36338439498545
902,-5.72985521450278,-10.347975767851805,-5.609729938607931,-7.622097034387629
903,-6.00822725100757,-10.602591063630866,-5.764542118812178,-7.876141232640942
904,-6.283679765876132,-10.84905584785329,-5.914947573077497,-8.125116739007
905,-6.5557750606447405,-11.087013639651213,-6.060734270705885,-8.368637032611561
906,-6.824088391602958,-11.316123841754267,-6.2016988899074725,-8.606329322444552
907,-7.088207969793619,-11.536061740489579,-6.33764681780052,-8.837834547360016
908,-7.347734961012848,-11.746518505781808,-6.468392150411422,-9.062807376076181
909,-7.602283485810022,-11.947201191153086,-6.59375769267471,-9.280916207175379
910,-7.851480619487823,-12.137832733723068,-6.713574958433045,-9.491843169104136
911,-8.0949663921022,-12.318151954208899,-6.827684170437226,-9.695284120173095
912,-8.332393788462364,-12.487913556925234,-6.935934260346182,-9.890948648557051
913,-8.563428748130821,-12.646888129784235,-7.038182868726971,-10.078560072294959
914,-8.78775016542334,-12.794862144295536,-7.134296345054797,-10.257855439289903
915,-9.005049889408982,-12.93163795556631,-7.224149747712972,-10.428585527309114
916,-9.21503272391006,-13.057033802301204,-7.307626843992965,-10.590514843983991
917,-9.417416427502179,-13.170883806802374,-7.384620110094367,-10.743421626810056
918,-9.611931713514204,-13.273037974969485,-7.455030731124895,-10.887097843146973
919,-9.798322250028304,-13.363362196299667,-7.5187686011004065,-11.021349190218572
920,-9.976344659879887,-13.441738243887603,-7.575752322944884,-11.14599509511281
921,-10.145768520657656,-13.508063774425429,-7.625909208490447,-11.2608687147818
922,-10.306376364703569,-13.562252328202796,-7.669175278477342,-11.365816936041776
923,-10.45796367911288,-13.604233329106858,-7.705495262553941,-11.460700375573143
924,-10.600338905734096,-13.63395208462225,-7.734822599276759,-11.545393379920437
925,-10.733323441169015,-13.651369785831118,-7.7571194361104325,-11.619784025492336
926,-10.856751636772684,-13.65646350741311,-7.772356629427727,-11.683774118561663
927,-10.970470798653446,-13.649226207645349,-7.780513744509547,-11.737279195265378
928,-11.074341187672896,-13.629666728402475,-7.781579055544913,-11.780228521604581
929,-11.168236019445905,-13.597809795156603,-7.775549545630988,-11.812565093444539
930,-11.252041464340628,-13.553696016977366,-7.762430906773055,-11.834245636514616
931,-11.325656647478475,-13.497381886531878,-7.742237539884533,-11.845240606408352
932,-11.388993648734129,-13.428939780084749,-7.714992554786964,-11.845534188583416
933,-11.441977502735552,-13.348457957498075,-7.68072777021002,-11.835124298361611
934,-11.484546198863969,-13.256040562231458,-7.639483713791506,-11.814022580928896
935,-11.516650681253866,-13.15180762134201,-7.591309622077345,-11.782254411335353
936,-11.538254848793011,-13.035895045484288,-7.536263440521603,-11.739858894495207
937,-11.54933555512244,-12.908454628910379,-7.4744118234864585,-11.686888865186832
938,-11.549882608636453,-12.769654049469858,-7.405830134242228,-11.623410888052724
939,-11.539898772482609,-12.619676868609778,-7.330602444967351,-11.54950525759953
940,-11.519399764561756,-12.458722531374693,-7.248821536748393,-11.46526599819803
941,-11.488414257527992,-12.287006366406649,-7.160588899580051,-11.370800864083144
942,-11.446983878788693,-12.104759585945176,-7.0660147323651445,-11.266231339353922
943,-11.395163210504494,-11.9122292858273,-6.965217942914624,-11.151692637973564
944,-11.333019789589297,-11.709678445487535,-6.858326147947562,-11.027333703769392
945,-11.260634107710281,-11.497385927957888,-6.745475673091156,-10.893317210432881
946,-11.178099611287871,-11.275646479867842,-6.626811552880731,-10.749819561519617
947,-11.085522701495774,-11.044770731444387,-6.502487530759746,-10.59703089044935
948,-10.983022734260961,-10.805085196511996,-6.372666059079768,-10.435155060505943
949,-10.870732020263665,-10.55693227249261,-6.237518299100513,-10.264409664837409
950,-10.74879582493738,-10.300670240405687,-6.097224120989799,-10.08502602645588
951,-10.617372368468873,-10.03667326486816,-5.951972103823577,-9.897249198237644
952,-10.476632825798168,-9.765331394094448,-5.80195953558593,-9.701337962923102
953,-10.326761326618549,-9.487050559896456,-5.647392413169056,-9.497564833116797
954,-10.167954955376578,-9.202252577683566,-5.4884854423732845,-9.28621605128741
955,-10.000423751272066,-8.911375146462676,-5.325462037907065,-9.067591589767748
956,-9.824390708258095,-8.614871848838133,-5.15855432338697,-8.842005150754753
957,-9.640091775041007,-8.31321215101179,-4.988003131337694,-8.609784166309502
958,-9.447775855080403,-8.006881402782978,-4.814058003192064,-8.371269798357195
959,-9.24770480658915,-7.696380837548516,-4.636977189291023,-8.12681693868717
960,-80.88142535407833,-50.10783741944776,11.781699854976535,-115.72492650060585
961,-85.490104785476,-57.49721509502987,-4.459290540357703,-121.95390209213932
962,-90.0524275298237,-64.95213223628348,-21.096584687481872,-128.1119489875668
963,-94.56170829070952,-72.45832775270775,-38.09155194323522,-134.1901616128507
964,-99.01145096408203,-80.00185039484823,-55.406285863614386,-140.1798928569687
965,-103.3953486382506,-87.56905875429689,-73.00360420377328,-146.07275407191398
966,-107.70728359388531,-95.14662126369205,-90.84704891802323,-151.8606150726947
967,-111.9413273040169,-102.72151619671853,-108.90088615983268,-157.53560413733453
968,-116.0917404340368,-110.28103166810745,-127.13010628182751,-163.0901080068724
969,-120.15297284169736,-117.8127656336362,-145.50042383579077,-168.51677188536263
970,-124.11966357711118,-125.3046258901287,-163.97827757266273,-173.8084994398748
971,-127.986640882752,-132.74483007545518,-182.53083044254103,-178.95845280049372
972,-131.7489221934539,-140.12190566853215,-201.12596959468027,-183.96005256031955
973,-135.40171413641193,-147.42468998932256,-219.7323063774925,-188.80697777546763
974,-138.9404125311814,-154.64233019883554,-238.3191763385468,-193.49316596506858
975,-142.36060238967872,-161.76428329912682,-256.85663922456934,-198.01281311126857
976,-145.65805791618084,-168.78031613329816,-275.3154789814436,-202.36037365922863
977,-148.8287425073252,-175.6805053854978,-293.66720375421016,-206.5305605171251
978,-151.8688087521099,-182.45523758092017,-311.8840458870664,-210.51834505614994
979,-154.77459843189408,-189.09520908580612,-329.9389619233672,-214.31895711050998
980,-157.542642520397,-195.59142610744277,-347.8056326056243,-217.92788497742728
981,-160.16966118369885,-201.9352046941633,-365.4584628755065,-221.3408754171393
982,-162.65256378024043,-208.1181707353477,-382.8725818738397,-224.55393365289865
983,-164.98844886082315,-214.1322599614215,-400.02384294060676,-227.56332337097322
984,-167.17460416860897,-219.96971794385715,-416.8888236149474,-230.36556672064603
985,-169.2085066391206,-225.62310009517293,-433.4448256351586,-232.9574443142153
986,-171.0878224002414,-231.08527166893356,-449.66987493869436,-235.3359952269944
987,-172.810406772215,-236.34940775974994,-465.54272166216515,-237.4985169973121
988,-174.37430426764612,-241.40899330327915,-481.0428401413388,-239.44256562651225
989,-175.77774859149977,-246.25782307622467,-496.1504289111399,-241.16595557895366
990,-177.01916264110173,-250.890001696336,-510.8464107056501,-242.66675978201056
991,-178.09715850613804,-255.29994362240893,-525.1124324581075,-243.94330962607248
992,-179.01053746865588,-259.48237315428554,-538.9308653009077,-244.99419496454357
993,-179.75829000306248,-263.4323244328539,-552.2848045656026,-245.8182641138439
994,-180.33959577612612,-267.14514144004846,-565.1580697829012,-246.41462385340796
995,-180.75382364697512,-270.6164779988497,-577.5352046826691,-246.78263942568574
996,-181.00053166709893,-273.8422977732845,-589.401477193929,-246.9219345361424
997,-181.07946708034734,-276.81887426842565,-600.7428794448604,-246.83239135325806
998,-180.99056632293048,-279.54279083039216,-611.546127762799,-246.51415050852816
999,-180.73395502341924,-282.0109406463493,-621.7986626742377,-245.96761109646306
1000,-180.30994800274527,-284.22052674450845,-631.4886489048262,-245.19343067458834
1001,-179.71904927420047,-286.169061994127,-640.6049753793704,-244.19252526344465
1002,-178.96195204343718,-287.85436910550857,-649.1372552218338,-242.96606934658791
1003,-178.03953870846877,-289.274580630003,-657.0758257553359,-241.51549587058872
1004,-176.95288085966882,-290.42813896000604,-664.4117485021526,-239.84249624503326
1005,-175.7032392797713,-291.3137963289596,-671.136809183717,-237.94902034252226
1006,-174.29206394387109,-291.93061481135186,-677.2435177206189,-235.83727649867222
1007,-172.7209940194233,-292.27796632271685,-682.725108232604,-233.5097315121141
1008,-170.99185786624363,-292.3555326196349,-687.5755390385755,-230.9691106444941
1009,-169.10667303650837,-292.1633052997324,-691.7894926565924,-228.2183976204734
1010,-167.067646274754,-291.70158580168146,-695.3623758038707,-225.2608346277288
1011,-164.87717351787825,-290.9709854052007,-698.2903193967827,-222.09992231695117
1012,-162.53783989513863,-289.97242523105444,-700.5701785508575,-218.73941980184713
1013,-160.05241972815324,-288.70713624105355,-702.1995325807803,-215.18334465913827
1014,-157.42387653090105,-287.1766592380544,-703.1766850003933,-211.43597292856091
1015,-154.65536300972124,-285.38284486595967,-703.5006635226946,-207.50183911286658
1016,-151.7502210633134,-283.3278536097179,-703.1712200598391,-203.3857361778218
1017,-148.7119817827379,-281.01415579532386,-702.1888307231383,-199.09271555220806
1018,-145.5443654514153,-278.4445315898183,-700.5546958230597,-194.62808712782214
1019,-142.25128154512674,-275.6220710012877,-698.2707398692272,-189.99741925947507
1020,-138.8368287320139,-272.5501738788649,-695.3396115704218,-185.20653876499375
1021,-135.3052948725787,-269.23254991272853,-691.76468383458,-180.2615309252196
1022,-131.6611570196838,-265.67321863410325,-687.5500537687949,-175.16873948400908
1023,-127.90908141855202,-261.8765094152595,-682.7005426793161,-169.9347666482336
1024,-5.211874490263509,-90.81920661274337,-2272.1464999974473,-17.243699384325073
1025,-5.425727552160665,-92.531339298308,-2341.503720310726,-17.855089951365375
1026,-5.6355346956288415,-94.18117282025442,-2409.2096285192224,-18.45176101657227
1027,-5.841013205940934,-95.76573130865619,-2475.1638442703347,-19.032960771840063
1028,-6.0418900461580165,-97.28217477889231,-2539.269779477844,-19.597965855346523
1029,-6.23790185712936,-98.72779913164686,-2601.4346383219254,-20.14608135155283
1030,-6.428794957492416,-100.10003615290914,-2661.569417249142,-20.67664079120373
1031,-6.614325343672824,-101.39645351397378,-2719.5889049724424,-21.18900615132732
1032,-6.794258689884398,-102.6147547714403,-2775.4116824711678,-21.682567855235202
1033,-6.968370348129151,-103.75277936721368,-2828.9601229910463,-22.15674477252244
1034,-7.136445348197273,-104.80850262850389,-2880.1603920441944,-22.61098421906753
1035,-7.29827839766714,-105.7800357678261,-2928.942447409117,-23.04476195703242
1036,-7.4536738819053125,-106.6656258830008,-2975.24003913071,-23.457582194862567
1037,-7.602445864066539,-107.46365595715352,-3018.9907095202543,-23.848977587286797
1038,-7.744418085093738,-108.17264485871488,-3060.135793155421,-24.218509235317466
1039,-7.879423963718031,-108.79124734142087,-3098.6204168802674,-24.565766686250324
1040,-8.00730659645871,-109.31825404431254,-3134.3934998052405,-24.890367933664614
1041,-8.127918757623249,-109.752591491736,-3167.4077533071754,-25.191959417423014
1042,-8.24112289930732,-110.09332209334258,-3197.6196810292927,-25.470216023671643
1043,-8.346791151394754,-110.33964414408881,-3224.9895788812028,-25.724841084840083
1044,-8.444805321557581,-110.4908918242364,-3249.481535038908,-25.95556637964136
1045,-8.535056895256012,-110.54653519935208,-3271.063429944786,-26.162152133071967
1046,-8.617447035738438,-110.50618022030773,-3289.7069363076157,-26.3443870164118
1047,-8.691886584041427,-110.36956872328047,-3305.3875191025545,-26.502088147224246
1048,-8.758296058989735,-110.13657842975235,-3318.0844355711492,-26.635101089356112
1049,-8.816605657196297,-109.80722294651086,-3327.7807352213404,-26.743299852937664
1050,-8.866755253062234,-109.38165176564837,-3334.463259827443,-26.826586894382604
1051,-8.908694398776829,-108.86015026456244,-3338.1226434301675,-26.8848931163881
1052,-8.94238232431757,-108.24313970595581,-3338.753312336614,-26.91817786793472
1053,-8.967787937450119,-107.5311772378362,-3336.35348512026,-26.92642894428651
1054,-8.984889823728299,-106.72495589351657,-3330.9251726209804,-26.909662586990976
1055,-8.993676246494136,-105.82530459161488,-3322.4741779450255,-26.867923483879007
1056,-8.994145146877832,-104.83318813605442,-3311.01009646504,-26.801284769064964
1057,-8.986304143797753,-103.74970721606331,-3296.546315820059,-26.70984802294667
1058,-8.97017053396046,-102.57609840617486,-3279.1000159154914,-26.59374327220535
1059,-8.945771291860689,-101.31373416622765,-3258.692168923143,-26.45312898980572
1060,-8.91314306978136,-99.96412284136504,-3235.347539281202,-26.288192094995836
1061,-8.87233219779355,-98.52890866203572,-3209.0946836942385,-26.099147953307302
1062,-8.823394683756542,-97.0098717439934,-3179.9659511332193,-25.886240376555108
1063,-8.766396213317785,-95.40892808829686,-3147.9974828354875,-25.64974162283766
1064,-8.701412149912889,-93.72812958130996,-3113.2292123047764,-25.389952396536856
1065,-8.628527534765677,-91.96966399470176,-3075.704865311203,-25.107201848317953
1066,-8.547837086888125,-90.13585498544614,-3035.471959891273,-24.801847575129717
1067,-8.459445203080394,-88.22916209582229,-2992.5818063478764,-24.474275620204306
1068,-8.363465957930806,-86.25218075341425,-2947.0895072502876,-24.124900473057323
1069,-8.26002310381589,-84.20764227111137,-2899.0539574341637,-23.754165069487797
1070,-8.149250070900324,-82.09841384710795,-2848.5378440015566,-23.362540791578194
1071,-8.031289967136978,-79.92749856490327,-2795.607646320895,-22.950527467694418
1072,-7.906295578266896,-77.69803539330178,-2740.333636026994,-22.518653372485765
1073,-7.77442936781928,-75.41329918641296,-2682.789877021056,-22.067475226885023
1074,-7.635863477111543,-73.07670068365124,-2623.0542254706656,-21.597578198108348
1075,-7.4907797252492365,-70.69178650973619,-2561.2083298097946,-21.10957589965537
1076,-7.339369609126109,-68.26223917469247,-2497.337630738802,-20.604110391309124
1077,-7.181834303424077,-65.7918770738497,-2431.5313612244263,-20.08185217913607
1078,-7.0183846606132345,-63.28465448784249,-2363.882546499794,-19.54350021548609
1079,-6.849241210951853,-60.7446615826106,-2294.488004064413,-18.989781898992526
1080,-6.674634162486361,-58.17612440939874,-2223.448343684179,-18.42145307457209
1081,-6.4948034010513815,-55.58340490475669,-2150.86796739137,-17.839298033424978
1082,-6.309998490269703,-52.97100089053922,-2076.855069484651,-17.244129513034753
1083,-6.120478671552282,-50.34354607390613,-2001.521636529067,-16.636788697168445
1084,-5.92651286409826,-47.70581004732226,-1924.983447356051,-16.018145215876476
1085,-5.728379664894944,-45.062698288557435,-1847.3600730634166,-15.389097145492707
1086,-5.5263673487178115,-42.4192521606865,-1768.7748770153642,-14.750571008634415
1087,-5.32077386813052,-39.780648912089305,-1689.3550148424772,-14.103521774202292
1088,-0.08442831873178287,9.678867927396315,-2143.5787360991308,10.249098316851114
1089,-0.039208368067260135,9.559250541810991,-2185.0353250409717,10.26274863138566
1090,0.006304214032802121,9.426554406529531,-2224.5567814482256,10.26519727072782
1091,0.05204425935718825,9.281140570669933,-2262.0954662857253,10.25652863845957
1092,0.09794788991303348,9.12337198599948,-2297.606455680946,10.23683462055189
1093,0.14395251792581537,8.953613506934635,-2331.0475409239984,10.20621458536484
1094,0.18999684583936147,8.772231890541109,-2362.3792284676324,10.164775383647529
1095,0.2360208663158446,8.579595796533834,-2391.5647399272334,10.112631348538084
1096,0.2819658622357828,8.376075787276946,-2418.570012080828,10.049904295563694
1097,0.32777440669804236,8.162044327783823,-2443.3636968690785,9.976723522640599
1098,0.3733903630198351,7.937875785717039,-2465.9171613952844,9.893225810074084
1099,0.4187588847367187,7.703946431388424,-2486.2044879253845,9.799555420558471
1100,0.46382641560259985,7.460634437759011,-2504.2024738879536,9.695864099177122
1101,0.5085406895897296,7.20831988043905,-2519.8906318742024,9.58231107340247
1102,0.5528507308887056,6.947384737688034,-2533.2511896379847,9.459063053095957
1103,0.5967068539084729,6.6782128904146525,-2544.269090095785,9.326294230508088
1104,0.640060663276321,6.401190122176837,-2552.93199132673,9.184186280278437
1105,0.682865053837888,6.116704119181734,-2559.23026657258,9.032928359435582
1106,0.7250742106571578,5.825144470285702,-2563.157004237735,8.872717107397165
1107,0.7666436090164548,5.526902666994335,-2564.7080078892304,8.70375664596985
1108,0.8075300144164613,5.222372103462447,-2563.881796256742,8.5262585793494
1109,0.8476914825761945,4.911948076494061,-2560.679603232575,8.340441994120562
1110,0.887087359433024,4.596027785542437,-2555.1053778716787,8.146533459257146
1111,0.9256782811426664,4.275010332710047,-2547.165784391636,7.944767026122014
1112,0.9634261740791753,3.949296722748594,-2536.87020217267,7.735384228467065
1113,1.00029425483496,3.6192898630590022,-2524.230725757633,7.518634082433247
1114,1.0362470302207762,3.2853945636913995,-2509.262164852023,7.294773086550537
1115,1.071250297265717,2.948017537345158,-2491.982044323969,7.064065221737973
1116,1.1052711432172275,2.607567399368844,-2472.4106042042367,6.826781951303617
1117,1.1382779455410985,2.2644546677602873,-2450.570799686231,6.5832022209445915
1118,1.170240371921466,1.9190917631664925,-2426.4883011259876,6.3336124587470355
1119,1.2011293802608096,1.5718930088837197,-2400.1914940421875,6.078306575186168
1120,1.2309172186799588,1.2232746308574223,-2371.7114791161366,5.817585963126197
1121,1.259577425518089,0.873654757682313,-2341.0820721917894,5.551759497820427
1122,1.2870848293327137,0.523453420602274,-2308.3398042757235,5.281143536911169
1123,1.3134155488997032,0.17309255351044883,-2273.5239215371666,5.006061920429793
1124,1.338546993213264,-0.17700400705080171,-2236.6763853079688,4.726845970796697
1125,1.3624578614859562,-0.5264105218899121,-2197.8418720826253,4.443834492821315
1126,1.3851281431486773,-0.8746993491660814,-2157.067773518262,4.157373773702149
1127,1.4065391178506779,-1.2214409443893066,-2114.4041964346443,3.8678175830267167
1128,1.4266733554595488,-1.5662038604203392,-2069.9039628141722,3.5755271727715807
1129,1.445514716061231,-1.9085547474707285,-2023.6226098018785,3.2808712773023507
1130,1.4630483499600064,-2.2480583531027962,-1975.6183897054361,2.9842261133736736
1131,1.479260697678507,-2.5842775222296472,-1925.9522699951485,2.6859753801292303
1132,1.4941394899577047,-2.91677319711515,-1874.6879333039612,2.386510259101746
1133,1.507673747756924,-3.2451044173739807,-1821.8917774274478,2.0862294142129847
1134,1.5198537822538276,-3.568828319971571,-1767.632915323822,1.785538991773755
1135,1.5306711948444272,-3.887500139224141,-1711.9831751139316,1.484852620483894
1136,1.5401188771430816,-4.200673206798686,-1655.0171000812584,1.1845914114322857
1137,1.5481910109824915,-4.507898951712991,-1596.811948671922,0.8851839580968432
1138,1.5548830684137025,-4.8087269003356115,-1537.4476944946734,0.5870663363445336
1139,1.560191811706107,-5.102704676385882,-1477.007026320903,0.290682104431351
1140,1.5641152933474471,-5.389378000933923,-1415.5753480846317,-0.0035176969976687678
1141,1.5666528560438016,-5.668290692400629,-1353.240778882517,-0.2950745449084553
1142,1.5678051327196003,-5.9389846665576815,-1290.094152973854,-0.5835224338778966
1143,1.5675740465176136,-6.200999936527532,-1226.2290197805692,-0.8683878760938433
1144,1.5659628107989632,-6.453874612783422,-1161.7416438872226,-1.1491899013551128
1145,1.5629759291431127,-6.697144903149362,-1096.731005041014,-1.425440057071478
1146,1.558619195347867,-6.930345112800155,-1031.298798151772,-1.6966424082636815
1147,1.5528996934293802,-7.153007644261373,-965.5494332919635,-1.962293537563425
1148,1.5458257976221528,-7.364662997409372,-899.5900356966895,-2.2218825452133752
1149,1.5374071723790275,-7.564839769471292,-833.5304457636826,-2.474891049067162
1150,1.5276547723711928,-7.753064655025047,-767.483219053313,-2.720793184589378
1151,1.5165808424881801,-7.928862445999334,-701.5636262885837,-2.9590556048555805
1152,-4.993572765569863,-3.639764091208703,-61.91339510250771,-9.639225212094216
1153,-5.252051449146847,-3.7066517587431353,-61.89802381264037,-9.988530681210207
1154,-5.509420011511121,-3.7711942566487178,-61.820931050119846,-10.332024537904719
1155,-5.765204842969627,-3.8332655628490664,-61.68241254432778,-10.669156111938255
1156,-6.018945474162187,-3.892745305973202,-61.48281685021276,-10.999393103599035
1157,-6.270194576061529,-3.949518765355543,-61.222545348290225,-11.322221583702929
1158,-6.518517959973239,-4.003476871035917,-60.902052244642626,-11.637145993593515
1159,-6.763494577535797,-4.05451620375955,-60.52184457091934,-11.943689145142024
1160,-7.004716520720572,-4.102538994977069,-60.08248218433652,-12.24139222074737
1161,-7.241789021831812,-4.147453126844512,-59.58457776767742,-12.529814773336145
1162,-7.474330453506646,-4.189172132223299,-59.02879682929211,-12.808534726362627
1163,-7.701972328715086,-4.227615194680276,-58.41585770309756,-13.077148373808765
1164,-7.924359300760033,-4.262707148487671,-57.7465315485777,-13.335270380184186
1165,-8.141149163277259,-4.294378478623122,-57.02164235078337,-13.582533780526171
1166,-8.352012850235422,-4.322565320769665,-56.242066920332284,-13.818589980399711
1167,-8.556634435936065,-4.347209461315742,-55.40873489340907,-14.043108755897451
1168,-8.754711135013613,-4.368258337355192,-54.522628731765316,-14.255778253639711
1169,-8.945953302435369,-4.3856650366872545,-53.58478372271943,-14.45630499077448
1170,-9.130084433501503,-4.399388297816569,-52.596287979156834,-14.644413854977447
1171,-9.306841163845084,-4.409392509953178,-51.55828243952976,-14.819848104451939
1172,-9.47597326943206,-4.415647713012522,-50.47196086785739,-14.982369367928989
1173,-9.637243666561252,-4.418129597615448,-49.33856985372584,-15.131757644667257
1174,-9.790428411864356,-4.416819505088189,-48.15940881228802,-15.267811304453124
1175,-9.935316702305956,-4.411704427462397,-46.935829984263805,-15.390347087600619
1176,-10.071710875183504,-4.40277700747511,-45.66923843594001,-15.49920010495143
1177,-10.199426408127348,-4.390035538568768,-44.36109205917029,-15.594223837874939
1178,-10.318291919100691,-4.373483964891215,-43.01290157137518,-15.67529013826818
1179,-10.428149166399628,-4.3531318812956865,-41.62623051554217,-15.742289228555872
1180,-10.528853048653136,-4.328994533340827,-40.202695260225596,-15.795129701690385
1181,-10.620271604823055,-4.301092817290676,-38.74396499954672,-15.833738521151783
1182,-10.702286014204113,-4.269453280114665,-37.25176175319361,-15.858061020947757
1183,-10.774790596423896,-4.234108119487639,-35.72786036642138,-15.868060905613707
1184,-10.837692811442896,-4.19509518378983,-34.17408851005192,-15.863720250212678
1185,-10.890913259554454,-4.152457972106872,-32.592326680474024,-15.845039500335396
1186,-10.934385681384812,-4.106245634229798,-30.9845081996433,-15.812037472100233
1187,-10.968056957893051,-4.056512970655039,-29.352619215082438,-15.764751352153253
1188,-10.99188711037116,-4.003320432584425,-27.698698699880772,-15.703236697668162
1189,-11.005849300443986,-3.9467341219251857,-26.02483845269474,-15.627567436346352
1190,-11.00992983006926,-3.88682579128994,-24.333183097747444,-15.537835866416847
1191,-11.004128141537578,-3.823672843996715,-22.625930084829125,-15.434152656636368
1192,-10.988456817472404,-3.7573583340689356,-20.9053296892966,-15.316646846289295
1193,-10.962941580830098,-3.687970966235414,-19.173685012073825,-15.18546584518766
1194,-10.92762129489987,-3.615605095930369,-17.433351979651473,-15.040775433671158
1195,-10.882547963303821,-3.5403607292934125,-15.686739344087153,-14.88275976260716
1196,-10.827786729996909,-3.462343523169555,-13.936308683005338,-14.711621353390676
1197,-10.763415879266965,-3.3816647851092045,-12.184574399597375,-14.527581097944404
1198,-10.689526835734707,-3.298441473368164,-10.43410372262145,-14.330878258718688
1199,-10.606224164353707,-3.2127961969076377,-8.687516706402672,-14.12177046869153
1200,-10.513625570410424,-3.1248572153942185,-6.947486230833008,-13.900533731368604
1201,-10.411861899524164,-3.034758439199904,-5.216738001371246,-13.667462420783234
1202,-10.301077137647127,-2.9426394294020835,-3.4980505490430662,-13.422869281496409
1203,-10.181428411064383,-2.848645397783542,-1.7942552304410468,-13.167085428596772
1204,-10.053085986393848,-2.752927206832465,-0.10823622772456098,-12.900460347700637
1205,-9.91623327058633,-2.6556413697424297,1.5570694513800842,-12.623361894951959
1206,-9.7710668109255,-2.556950050412411,3.1986719735797857,-12.336176297022359
1207,-9.6177962950279,-2.4570210634467777,4.813528680014525,-12.03930815111111
1208,-9.45664455084293,-2.356027874155296,6.398544086257467,-11.733180424945157
1209,-9.287847546652872,-2.2541495985531292,7.950569882314894,-11.418234456779082
1210,-9.11165439107287,-2.1515710033608313,9.46640493262625,-11.094929955395145
1211,-8.92832733305093,-2.0484825060043543,10.942795276064116,-10.763745000103226
1212,-8.738141761867938,-1.9450801746150452,12.376434125934228,-10.4251760407409
1213,-8.541386207137638,-1.8415657280296451,13.763961869975446,-10.079737897673379
1214,-8.33836233880664,-1.7381465357902903,15.101966070359815,-9.727963761793525
1215,-8.129384967154424,-1.6350356181445114,16.386981463692493,-9.370405194521851
1216,-8.087820569670768,-8.396287393995713,-10.42058456510296,-7.516827522386317
1217,-8.380489864428954,-8.778861575076649,-10.864171226886661,-7.870663482531218
1218,-8.667380819359577,-9.157609322900614,-11.30286150585705,-8.220945948428485
1219,-8.948077789957205,-9.531896973659657,-11.735911314351164,-8.567101617471973
1220,-9.22217962965427,-9.90110974052138,-12.162599405733566,-8.908574123423904
1221,-9.489299689821088,-10.264651713628963,-12.582227374396489,-9.244824036414862
1222,-9.749065819765875,-10.621945860101167,-12.994119655759699,-9.575328862943781
1223,-10.001120366734726,-10.972434024032294,-13.397623526270554,-9.899583045878002
1224,-10.245120175911605,-11.31557692649225,-13.792109103404004,-10.21709796445318
1225,-10.480736590418388,-11.650854165526466,-14.176969345662586,-10.527401934273366
1226,-10.707655451314821,-11.977764216155991,-14.551620052576425,-10.830040207310946
1227,-10.925577097598534,-12.2958244303774,-14.915499864703197,-11.124574971906709
1228,-11.134216366205044,-12.604571037162842,-15.2680702636282,-11.410585352769758
1229,-11.333302592007731,-12.903559142460052,-15.608815571964302,-11.687667410977598
1230,-11.522579607817889,-13.192362729192315,-15.937242953351928,-11.955434143976074
1231,-11.701805744384687,-13.470574657258485,-16.252882412459112,-12.21351548557939
1232,-11.870753830395154,-13.737806663532991,-16.555286794981466,-12.461558305970115
1233,-12.029211192474218,-13.993689361865794,-16.844031787642173,-12.699226411699186
1234,-12.17697965518469,-14.237872243082453,-17.118715918191995,-12.926200545685896
1235,-12.313875541027265,-14.470023674984075,-17.37896055540927,-13.142178387217887
1236,-12.439729670440503,-14.68983090234733,-17.624409909099942,-13.346874551951167
1237,-12.55438736180085,-14.897000046924473,-17.854731030097494,-13.540020591910096
1238,-12.657708431422641,-15.091256107443275,-18.069613810262993,-13.721364995487416
1239,-12.749567193558079,-15.272342959607123,-18.268770982485112,-13.89067318744419
1240,-12.829852460397253,-15.440023356094922,-18.45193812068007,-14.047727528909862
1241,-12.898467542068136,-15.59407892656115,-18.618873639791662,-14.192327317382224
1242,-12.955330246636573,-15.73431017763586,-18.769358795791284,-14.324288786727434
1243,-13.00037288010628,-15.860536492924652,-18.903197685677885,-14.443445107180008
1244,-13.03354224641886,-15.97259613300869,-19.02021724747799,-14.549646385342786
1245,-13.054799647453795,-16.070346235444692,-19.12026726024569,-14.642759664186995
1246,-13.064120883028433,-16.153662814764928,-19.203220344062686,-14.722668923052222
1247,-13.061496250898022,-16.22244076247725,-19.26897196003819,-14.789275077646373
1248,-13.046930546755668,-16.276593847065055,-19.31744041030904,-14.842495980045737
1249,-13.020443064232339,-16.316054713987292,-19.348566838039623,-14.882266418694952
1250,-12.98206759489692,-16.340774885678464,-19.362315227421895,-14.908538118407009
1251,-12.931852428256136,-16.35072476154864,-19.35867240367538,-14.921279740363232
1252,-12.869860351754602,-16.34589361798345,-19.337648033047188,-14.92047688211333
1253,-12.796168650774796,-16.326289608344062,-19.299274622811975,-14.906132077575343
1254,-12.710869108637095,-16.29193976296722,-19.243607521271983,-14.878264797035653
1255,-12.614068006599725,-16.242889989165196,-19.170724917757013,-14.836911447149031
1256,-12.505886123858797,-16.17920507122584,-19.080727842624448,-14.782125370938564
1257,-12.386458737548292,-16.100968670412538,-18.97374016725921,-14.713976847795694
1258,-12.255935622740074,-16.00828332496426,-18.849908604073804,-14.632553093480228
1259,-12.114481052443864,-15.901270450095494,-18.70940270650831,-14.5379582601203
1260,-11.96227379760726,-15.780070337996285,-18.552414869030365,-14.43031343621243
1261,-11.799507127115742,-15.64484215783225,-18.379160327135153,-14.309756646621445
1262,-11.626388807792656,-15.495763955744541,-18.189877157345457,-14.176442852580541
1263,-11.443141104399215,-15.333032654849866,-17.98482627721159,-14.030543951691259
1264,-11.250000779634506,-15.156864055240483,-17.764291445311443,-13.872248777923495
1265,-11.047219094135482,-14.967492833984204,-17.528579261250478,-13.701763101615477
1266,-10.835061806476984,-14.765172545124392,-17.278019165661707,-13.519309629473799
1267,-10.613809173171697,-14.550175619679937,-17.012963440205702,-13.325128004573381
1268,-10.383755948670201,-14.322793365645323,-16.733787207570607,-13.1194748063575
1269,-10.145211385360927,-14.083335967990527,-16.440888431472114,-12.902623550637777
1270,-9.898499233570183,-13.832132488661115,-16.134687916653487,-12.67486468959418
1271,-9.643957741562135,-13.569530866578193,-15.815629308885528,-12.436505611775015
1272,-9.381939655538844,-13.295897917638388,-15.484179094966626,-12.187870642096941
1273,-9.112812219640208,-13.011619334713915,-15.140826602722708,-11.929301041844955
1274,-8.836957175944008,-12.717099687652507,-14.786084001007271,-11.661155008672397
1275,-8.554770764465893,-12.41276242327744,-14.420486299701357,-11.383807676600952
1276,-8.26666372315937,-12.099049865387558,-14.044591349713578,-11.097651116020653
1277,-7.973061287915829,-11.776423214757228,-13.658979842980084,-10.803094333689865
1278,-7.6744031925645055,-11.445362549136373,-13.264255312464606,-10.500563272735306
1279,-7.37114366887252,-11.106366823250456,-12.8610441321584,-10.190500812652024
1280,-9.47173027108382,-14.055742204850226,-15.775204779929794,-11.32908108265521
1281,-9.861664297786369,-14.51566047785575,-16.227998786118874,-11.679789017364609
1282,-10.246563327802573,-14.966333240630336,-16.66993650963912,-12.023124876297478
1283,-10.625798420516457,-15.40705294897941,-17.100321586644565,-12.358537469140199
1284,-10.998760225450074,-15.83713728990103,-17.518484279562887,-12.685495650541842
1285,-11.364858982263536,-16.255929181585937,-17.923781477095364,-13.003488320114117
1286,-11.723524520754996,-16.662796773417487,-18.315596694216914,-13.312024422431389
1287,-12.074206260860668,-17.057133445971715,-18.693340072176127,-13.61063294703072
1288,-12.416373212654795,-17.438357811017298,-19.056448378495205,-13.898862928411798
1289,-12.749513976349675,-17.805913711515544,-19.404385006969978,-14.176283446037004
1290,-13.073136742295656,-18.15927022162043,-19.736639977669952,-14.44248362433136
1291,-13.386769290981116,-18.49792164667855,-20.052729936938228,-14.697072632682541
1292,-13.689958993032489,-18.821387523229195,-20.35219815739156,-14.93967968544092
1293,-13.982272809214251,-19.129212619004225,-20.63461453792032,-15.169954041919494
1294,-14.263297290428927,-19.420966932928216,-20.899575603688533,-15.387565006393931
1295,-14.532638577717064,-19.696245695118346,-21.146704506133855,-15.592201928102558
1296,-14.789922402257286,-19.95466936688447,-21.375651022967553,-15.783574201246365
1297,-15.03479408536624,-20.195883640729047,-21.586091558174555,-15.96141126498899
1298,-15.266918538498597,-20.419559440347225,-21.777729142013406,-16.125462603456754
1299,-15.485980263247098,-20.62539292062676,-21.95029343101627,-16.27549774573858
1300,-15.691683351342522,-20.813105467648036,-22.103540707988937,-16.411306265886115
1301,-15.883751484653665,-20.982443698684104,-22.23725388201086,-16.532697782913623
1302,-16.061927935187388,-21.133179462200673,-22.351242488435112,-16.639501960798018
1303,-16.22597556508858,-21.265109837856038,-22.44534268888833,-16.731568508478905
1304,-16.37567682664017,-21.37805713650119,-22.519417271270882,-16.808767179858506
1305,-16.51083376226313,-21.471868900179725,-22.573355649756696,-16.870987773801712
1306,-16.63126800451647,-21.54641790212787,-22.60707386479331,-16.918140134136074
1307,-16.736820776097222,-21.601602146774496,-22.62051458310196,-16.950154149651787
1308,-16.827352889840476,-21.63734486974115,-22.613647097677426,-16.966979754101718
1309,-16.90274474871936,-21.653594537841936,-22.58646732778817,-16.968586926201343
1310,-16.962896345845,-21.65032484908368,-22.538997818976256,-16.95496568962883
1311,-17.007727264466617,-21.627534732665765,-22.471287743057353,-16.926126113025
1312,-17.037176677971413,-21.58524834898026,-22.383412898120785,-16.88209830999329
1313,-17.051203349884666,-21.52351508961188,-22.275475708529477,-16.822932439099826
1314,-17.049785633869654,-21.442409577337894,-22.147605224919975,-16.74869870387336
1315,-17.032921473727722,-21.342031666128275,-21.99995712420246,-16.65948735280529
1316,-17.00062840339822,-21.22250644114562,-21.83271370956071,-16.555408679349696
1317,-16.952943546958554,-21.08398421874513,-21.64608391045214,-16.436593021923258
1318,-16.889923618624127,-20.926640546474637,-21.440303282607776,-16.30319076390535
1319,-16.811644922748435,-20.750676203074633,-21.215634008032257,-16.15537233363796
1320,-16.71820335382294,-20.556317198478222,-20.972364895003846,-15.99332820442574
1321,-16.609714396477177,-20.343814773811133,-20.710811378074418,-15.817268894536001
1322,-16.4863131254787,-20.11344540139172,-20.4313155180695,-15.62742496719866
1323,-16.348154205733085,-19.86551078473098,-20.13424600208815,-15.424047030606323
1324,-16.195411892283943,-19.60033785853252,-19.81999814350311,-15.207405737914215
1325,-16.028280030312924,-19.318278788692584,-19.488993881960727,-14.977791787240212
1326,-15.8469720551397,-19.019710972300054,-19.14168178338094,-14.735515921664836
1327,-15.651720992221957,-18.705037037636398,-18.778537039957307,-14.480908929231257
1328,-15.442779457155442,-18.374684844175743,-18.400061470157006,-14.214321642945285
1329,-15.220419655673888,-18.029107482584838,-18.00678351872083,-13.936124940775361
1330,-14.984933383649095,-17.668783274723037,-17.599258256663166,-13.646709745652588
1331,-14.73663202709086,-17.29421577364233,-17.17806738127202,-13.346487025470706
1332,-14.47584656214702,-16.90593376358732,-16.743819216109014,-13.035887793086083
1333,-14.202927555103436,-16.50449125999525,-16.297148711009353,-12.71536310631774
1334,-13.918245162383986,-16.090467509495948,-15.838717442081892,-12.385384067947347
1335,-13.622189130550591,-15.664466989911906,-15.369213611709053,-12.04644182571919
1336,-13.315168796303173,-15.227119410258211,-14.889352048546902,-11.699047572340207
1337,-12.997613086479697,-14.779079710742577,-14.399874207525075,-11.343732545479988
1338,-12.669970518056143,-14.321028062765322,-13.901548169846828,-10.981048027770738
1339,-12.332709198146503,-13.853669868919399,-13.395168642989036,-10.61156534680732
1340,-11.986316824002818,-13.377735762990376,-12.881556960702154,-10.235875875147224
1341,-11.63130068301513,-12.89398160995642,-12.361561083010262,-9.854591030310576
1342,-11.268187652711504,-12.403188505988348,-11.836055596211029,-9.46834227478014
1343,-10.897524200758033,-11.906162778449554,-11.305941712875738,-9.077781116001331
1344,-14.115850144668606,-13.826809766299094,-15.137718542951902,-12.923519883455896
1345,-14.562043991213685,-14.280468395943561,-15.579297109173094,-13.362241392933525
1346,-14.99926745213808,-14.725247138401478,-16.00961366916982,-13.793304450177269
1347,-15.426810696839429,-15.16043705028541,-16.428035369547246,-14.215996815024162
1348,-15.843989450157627,-15.585354327422632,-16.833954085261308,-14.629630702860716
1349,-16.250144992374704,-15.99934030485499,-17.226786419618804,-15.033542784622863
1350,-16.644644159214934,-16.401761456839036,-17.605973704277215,-15.427094186795975
1351,-17.02687934184477,-16.792009396845955,-17.97098199924496,-15.809670491414833
1352,-17.396268486872874,-17.16950087756155,-18.32130209288112,-16.180681736063704
1353,-17.75225509635008,-17.53367779088634,-18.65644950189567,-16.539562413876233
1354,-18.094308227769442,-17.88400716793541,-18.975964471349346,-16.88577147353554
1355,-18.42192249406618,-18.219981179038527,-19.279411974653648,-17.218792319274172
1356,-18.73461806361774,-18.541117133740116,-19.56638171357091,-17.538132810874078
1357,-19.03194066024377,-18.846957480799194,-19.83648811821426,-17.843325263666685
1358,-19.313461563206047,-19.13706980818948,-20.089370347047566,-18.133926448532815
1359,-19.57877760720862,-19.411046843099303,-20.324692286885572,-18.409517591902713
1360,-19.827511182397664,-19.668506451931645,-20.54214255289374,-18.669704375756112
1361,-20.059310234361583,-19.909091640304126,-20.741434488588347,-18.91411693762213
1362,-20.273848264130976,-20.132470553048996,-20.92230616583647,-19.142409870579307
1363,-20.470824328178608,-20.338336474213158,-21.08452038485597,-19.35426222325563
1364,-20.649963038419436,-20.52640782705813,-21.22786467421549,-19.549377499828513
1365,-20.811014562210616,-20.696428174060138,-21.35215129083446,-19.727483660024788
1366,-20.953754622351507,-20.84816621690997,-21.45721721998312,-19.888333119120723
1367,-21.077984497083616,-20.98141579651306,-21.542924175282472,-20.031702747942017
1368,-21.18353102009067,-21.095995892989517,-21.609158598704322,-20.157393872863775
1369,-21.270246580498576,-21.19175062567407,-21.65583166057123,-20.26523227581054
1370,-21.338009122875405,-21.268549253116074,-21.68287925955659,-20.35506819425628
1371,-21.386722147231453,-21.326286173079524,-21.690262022684543,-20.42677632122439
1372,-21.416314709019154,-21.364880922543062,-21.677965305330027,-20.48025580528768
1373,-21.42674141913316,-21.38427817769995,-21.645999191218763,-20.51543025056838
1374,-21.41798244391031,-21.384447753958074,-21.594398492427263,-20.53224771673815
1375,-21.390043505129604,-21.36538460593997,-21.52322274938281,-20.530680719018072
1376,-21.342955880012212,-21.327108827482817,-21.432556230863472,-20.51072622817864
1377,-21.276776401221532,-21.269665651638398,-21.32250793399809,-20.472405670539782
1378,-21.191587456863104,-21.193125450673133,-21.193211584266304,-20.41576492797084
1379,-21.087496990484667,-21.097583736068092,-21.044825635498526,-20.34087433789056
1380,-20.964638501076113,-20.983161158518957,-20.877533269875943,-20.247828693267135
1381,-20.823171043069568,-20.850003507936044,-20.691542397930515,-20.136747242618167
1382,-20.66327922633928,-20.69828171344429,-20.48708565854503,-20.007773690010644
1383,-20.48517321620169,-20.52819184338328,-20.264420418952955,-19.861076195061017
1384,-20.289088733415443,-20.339955105307194,-20.02382877473862,-19.69684737293513
1385,-20.07528705418133,-20.133817845984872,-19.76561754983711,-19.51530429434824
1386,-19.84405501014233,-19.910051551399782,-19.49011829653428,-19.316688485565024
1387,-19.595704988383602,-19.668952846749978,-19.197687295466743,-19.101265928399588
1388,-19.33057493143247,-19.410843496448155,-18.88870555562192,-18.869327060215422
1389,-19.04902833725843,-19.136070404121682,-18.56357881433798,-18.621186773925455
1390,-18.751454259273164,-18.845005612612482,-18.222737537303892,-18.35718441799202
1391,-18.438267306330527,-18.538046303977126,-17.866636918559372,-18.077683796426854
1392,-18.109907642726526,-18.21561479948682,-17.495756880494923,-17.783073168791134
1393,-17.766840988199384,-17.878158559627384,-17.110602073851794,-17.4737652501954
1394,-17.40955861792943,-17.526150184099254,-16.71170187772206,-17.15019721129964
1395,-17.038577362539204,-17.160087411817507,-16.299610399548513,-16.812830678313254
1396,-16.65443960809344,-16.780493120911807,-15.874906475124742,-16.46215173299503
1397,-16.257713296099,-16.38791532872648,-15.438193668595098,-16.098670912653187
1398,-15.848991923504919,-15.982927191820405,-14.99010027245471,-15.722923210145318
1399,-15.428894542702418,-15.566127005967168,-14.53127930754945,-15.335468073878461
1400,-14.998065761524865,-15.1381382061549,-14.062408523075998,-14.936889407809044
1401,-14.557175743247818,-14.699609366586385,-13.58419039658177,-14.527795571442901
1402,-14.106920206588985,-14.251214200679009,-13.097352133964948,-14.108819379835273
1403,-13.648020425708252,-13.793651561064786,-12.6026456694745,-13.680618103590804
1404,-13.181223230207653,-13.327645439590333,-12.100847665710143,-13.243873468863557
1405,-12.707301005131404,-12.853944967316894,-11.59275951362237,-12.799291657356976
1406,-12.227051690965872,-12.373324414520317,-11.079207332512436,-12.347603306323933
1407,-11.741298783639598,-11.886583190691072,-10.561041970032356,-11.889563508566678
1408,-12.77661518660503,-12.866260049593135,-15.69511276053369,-12.433823224265849
1409,-13.113095327219485,-13.244659599220842,-16.184842762383035,-12.808710369523713
1410,-13.439964268533611,-13.61409705533581,-16.66393076153238,-13.174870425903606
1411,-13.75673455383309,-13.973998889898535,-17.13163028985003,-13.531741204581099
1412,-14.062938883789059,-14.32381341938161,-17.587222280979503,-13.87878179071146
1413,-14.358130116458213,-14.663010804769751,-18.0300150703396,-14.215472543429549
1414,-14.64188126728271,-14.991083051559754,-18.459344395124386,-14.541315095849928
1415,-14.913785509090257,-15.30754400976051,-18.87457339430312,-14.855832355066797
1416,-15.173456172094044,-15.611929373892998,-19.275092608620316,-15.158568502154044
1417,-15.420526743892777,-15.903796682990313,-19.66031998059579,-15.449088992165175
1418,-15.654650869470647,-16.1827253205976,-20.029700854524556,-15.726980554133359
1419,-15.875502351197397,-16.448316514772156,-20.382707976476876,-15.991851191071442
1420,-16.08277514882822,-16.7001933380833,-20.71884149429824,-16.24333017997191
1421,-16.27618337950385,-16.93800070761252,-21.03762895760947,-16.481068071806884
1422,-16.455461317750526,-17.16140538495332,-21.338625317806482,-16.704736691528158
1423,-16.620363395479963,-17.37009597621136,-21.621412928060597,-16.914029138067207
1424,-16.770664201989394,-17.56378293200433,-21.88560154331825,-17.10865978433511
1425,-16.906158483961587,-17.74219854746205,-22.13082832030118,-17.288364277222612
1426,-17.02666114546476,-17.905096962226416,-22.356757817506345,-17.45289953760011
1427,-17.132007247952647,-18.052254160451433,-22.563081995205955,-17.602043760317674
1428,-17.222052010264512,-18.183467970803136,-22.749520215447447,-17.735596414204995
1429,-17.29667080862508,-18.29855806645971,-22.915819242053526,-17.85337824207142
1430,-17.355759176644618,-18.397365965111405,-23.061753240622078,-17.955231260705965
1431,-17.399232805318846,-18.479755028960547,-23.187123778526296,-18.041018760877265
1432,-17.42702754302903,-18.545610464721555,-23.291759824914525,-18.110625307333628
1433,-17.439099395541906,-18.594839323620924,-23.375517750710454,-18.163956738802984
1434,-17.435424526009722,-18.62737050139728,-23.438281328612916,-18.200940167992954
1435,-17.4159992549702,-18.64315473830124,-23.479961733096005,-18.221523981590753
1436,-17.380840060346593,-18.64216461909561,-23.500497540409032,-18.225677840263277
1437,-17.329983577447624,-18.624394573055206,-23.499854728576636,-18.213392678657076
1438,-17.263486598967553,-18.589860873966952,-23.478026677398542,-18.184680705398304
1439,-17.18142607498608,-18.538601640129855,-23.43503416844982,-18.13957540309278
1440,-17.08389911296843,-18.470676834355025,-23.370925385080717,-18.078131528325994
1441,-16.971022977765333,-18.386168263965594,-23.285775912416735,-18.000425111663056
1442,-16.842935091613,-18.28517958079682,-23.179688737358575,-17.906553457648677
1443,-16.699793034133126,-18.167836281196042,-23.052794248582227,-17.79663514480731
1444,-16.541774542332927,-18.03428570602267,-22.905250236538834,-17.670810025642954
1445,-16.369077510605088,-17.884697040648156,-22.737241893454822,-17.52923922663932
1446,-16.181919990727803,-17.719261314956114,-22.54898181333183,-17.372105148259696
1447,-15.980540191864753,-17.538191403342154,-22.340709991946706,-17.199611464947072
1448,-15.765196480565105,-17.341722024714016,-22.11269382685154,-17.01198312512404
1449,-15.536167380763505,-17.130109742491502,-21.865228117373658,-16.809466351192853
1450,-15.293751573780147,-16.903632964606455,-21.598635064615603,-16.59232863953538
1451,-15.03826789832064,-16.66259194350285,-21.31326427145512,-16.360858760513146
1452,-14.770055350476127,-16.407308776136706,-21.009492742545213,-16.11536675846731
1453,-14.48947308372324,-16.138127403976135,-20.68772488431407,-15.856183951718668
1454,-14.196900408924089,-15.85541361300129,-20.348392504965137,-15.583662932567654
1455,-13.892736794326272,-15.559555033704438,-19.991954814477072,-15.298177567294347
1456,-13.577401865562871,-15.250961141089892,-19.618898424603742,-15.000122996158444
1457,-13.25133540565248,-14.930063254674055,-19.22973734887424,-14.689915633399295
1458,-12.914997354999153,-14.597314538485383,-18.825013002592883,-14.367993167235872
1459,-12.568867811392437,-14.253190001064421,-18.405294202839197,-14.034814559866794
1460,-12.21344703000737,-13.898186495463777,-17.97117716846794,-13.690860047470295
1461,-11.849255423404479,-13.532822719248141,-17.52328552010908,-13.33663114020427
1462,-11.476833561529775,-13.157639214494253,-17.0622702801678,-12.97265062220623
1463,-11.096742171714737,-12.773198367790938,-16.58880987282451,-12.599462551593316
1464,-10.709562138676356,-12.380084410239082,-16.10361012403482,-12.217632260462311
1465,-10.315894504517084,-11.978903417451656,-15.60740426152956,-11.827746354889621
1466,-9.91636046872486,-11.57028330955368,-15.100952914814787,-11.4304127149313
