,TP9,AF7,AF8,TP10
0,-1.418244032921416e-10,-7.272840544828748e-11,-8.655671157728142e-11,-1.3003437888993508e-10
1,-3.0337729019057113e-09,-1.5852737964972923e-09,-1.8518815565114865e-09,-2.7601689556534433e-09
2,-3.221953472641725e-08,-1.751205719387637e-08,-2.0714311136802097e-08,-2.934896373679932e-08
3,-2.265166715777707e-07,-1.28400815514185e-07,-1.5321060679153663e-07,-2.0648980766839995e-07
4,-1.1910916607026123e-06,-7.063693502649629e-07,-8.498352478869484e-07,-1.0860962380552593e-06
5,-5.01743051252159e-06,-3.1203757968289243e-06,-3.7822910146819488e-06,-4.574421705185113e-06
6,-1.7712902868230614e-05,-1.1567799970477667e-05,-1.411436693110765e-05,-1.6137459548918563e-05
7,-5.412986463429391e-05,-3.7131330163430145e-05,-4.556205063388694e-05,-4.924938818400671e-05
8,-0.0001467613303200096,-0.00010564665236723292,-0.0001302373122650018,-0.00013326146489922033
9,-0.0003599257578010164,-0.0002713492914934894,-0.0003357180907780991,-0.0003259493747947669
10,-0.0008108822187808549,-0.0006384185862936293,-0.0007918848716570855,-0.000731957339315807
11,-0.0016992518549903608,-0.0013923837306577967,-0.0017297261518758184,-0.0015282060508645058
12,-0.003345677313360342,-0.0028429029030223422,-0.0035335771855663145,-0.0029970356083796356
13,-0.006239892749098727,-0.0054787327852016164,-0.006807262839832898,-0.005567397491339896
14,-0.01109743260041566,-0.010034849144026274,-0.012453513667218185,-0.009863846707311361
15,-0.018923320106413954,-0.01757071397082183,-0.021764899278903987,-0.01676251248806147
16,-0.03108038589452128,-0.029557606677770673,-0.03652334223688319,-0.027452650804980595
17,-0.04935925934333165,-0.04797169509671512,-0.05910394653411196,-0.04350167962833861
18,-0.07604628234448635,-0.07538806599532623,-0.09257731387685829,-0.06692061881068634
19,-0.11398447161796686,-0.11506929243026325,-0.14080276024783553,-0.10022561327546023
20,-0.16662136023738772,-0.1710404389649546,-0.20850307023869316,-0.1464899398186763
21,-0.23803646394135813,-0.2481409631728653,-0.3013099621133966,-0.20937990713453059
22,-0.33294062412211983,-0.35204308244324245,-0.42576867791919687,-0.2931676037292358
23,-0.45663980919861835,-0.48922612017432077,-0.5892904040818054,-0.4027136351036951
24,-0.6149571991314577,-0.66689730514432,-0.8000427824447913,-0.5434138436915135
25,-0.8141095094785566,-0.8928515158365238,-1.0667715998807283,-0.7211055047111624
26,-1.0605363547801572,-1.1752654568850842,-1.3985506778050953,-0.9419305584675943
27,-1.3606846505243841,-1.522425547393035,-1.8044617074659646,-1.2121558937471006
28,-1.7207531958250126,-1.9423931555713392,-2.2932109273553376,-1.5379533233772027
29,-2.1464054100398937,-2.442615469744915,-2.8726947448570526,-1.9251445568409127
30,-2.6424607088292604,-3.0294949848693924,-3.5495313291286874,-2.378919158333064
31,-3.2125772935265022,-3.707935034353486,-4.328579542131542,-2.903536169171888
32,-3.858941150480919,-4.480882725867569,-5.212470033970684,-3.5020226191447166
33,-4.5819775661539595,-5.348893752663159,-6.2011756208211,-4.175884254599621
34,-5.380102152371558,-6.30974554039129,-7.291648894893321,-4.924845149169971
35,-6.249528060362045,-7.358125751785249,-8.477554132689859,-5.746633218424307
36,-7.184144699479281,-8.485422045499174,-9.749117789786169,-6.636827922354369
37,-8.175480870111791,-9.679636011888796,-11.093117170108108,-7.588784558383978
38,-9.212761782572565,-10.925439382831982,-12.493020383075086,-8.5936465205969
39,-10.283065078207702,-12.204384115988514,-13.929282801645012,-9.640452847123706
40,-11.371575986224029,-13.495270135059535,-15.37979640615998,-10.71634355799595
41,-12.461936542760576,-14.774665849080083,-16.820479252462064,-11.806860034401515
42,-13.536678731574224,-16.017567643570807,-18.22598349479672,-12.896332311730156
43,-14.57772674846047,-17.198175942462967,-19.570492581394653,-13.968339923584221
44,-15.566949609872008,-18.290757780892037,-20.828572038537423,-15.006228160514002
45,-16.486742353910095,-19.27055963357522,-21.976034171409648,-15.993657683768605
46,-17.320612424753556,-20.114729924595668,-22.990775395286285,-16.915162721372337
47,-18.05374756510643,-20.803208470339293,-23.853545918056433,-17.756691757928568
48,-18.673542442895226,-21.319540213653866,-24.548615059391032,-18.506104710918358
49,-19.17006295125171,-21.651573011432262,-25.06430131197617,-19.153601986624945
50,-19.53642939522984,-21.792003855311144,-25.39334384147757,-19.692063482991628
51,-19.769102548529943,-21.738744539322227,-25.533100868552793,-20.11727950776547
52,-19.86805983115739,-21.495086125856215,-25.48556962728226,-20.42806055813507
53,-19.83685256295457,-21.069651164957843,-25.257231735052514,-20.62621866388724
54,-19.682539272560042,-20.47613294847188,-24.858736290852793,-20.71641917866213
55,-19.41549430015254,-19.732831507417167,-24.304440382035946,-20.705908218474804
56,-19.049095371601602,-18.86200594155695,-23.61183253406798,-20.604127169101385
57,-18.599298313935872,-17.889071402328653,-22.800868701063138,-20.422231572388306
58,-18.08411136282961,-16.841676143969988,-21.89325250516914,-20.172536934764995
59,-17.522985283560022,-15.748699186318971,-20.91169159800963,-19.867918235381957
60,-16.93613862989167,-14.639212136521078,-19.87916039917588,-19.521192872096663
61,-16.34383994124921,-13.541449577477099,-18.818196376032912,-19.144518302759746
62,-15.765670641031031,-12.481831218452578,-17.750252862220922,-18.748835595161392
63,-15.219793887932711,-11.484075847304686,-16.69512661473604,-18.34338839249159
64,-14.722255596534573,-10.56844220466563,-15.670473318903097,-17.935343409692535
65,-14.286344226261658,-9.7511254756315,-14.691419465248384,-17.529533646805664
66,-13.92203568944387,-9.043830509088572,-13.770274789741947,-17.12833933659517
67,-13.635548702354535,-8.453534553084024,-12.916346046956914,-16.731714570622835
68,-13.429033775458876,-7.98244369929093,-12.135850415487402,-16.33735983539108
69,-13.30041544451971,-7.628138819140283,-11.431925261604963,-15.941032579729129
70,-13.243402148840886,-7.383898969868702,-10.80473004870074,-15.536979779323138
71,-13.247671631430626,-7.239183398214235,-10.251635442549196,-15.118468791660975
72,-13.299232402079548,-7.180247620991873,-9.767493665745361,-14.678386202402315
73,-13.3809541841746,-7.190864746428767,-9.344982573764744,-14.209869345877191
74,-13.47325269642603,-7.253120262615919,-8.975013668255492,-13.706932081540915
75,-13.554906842611082,-7.348246964980032,-8.647191485507951,-13.16504549957848
76,-13.603979699971335,-7.457466534189057,-8.35030881168023,-12.581635799475945
77,-13.598809002889627,-7.5628055121254745,-8.072859340564552,-11.95646585550086
78,-13.519028503831827,-7.647856005718926,-7.8035470304043395,-11.291873954422652
79,-13.34657899310095,-7.698455216350812,-7.5317697755439195,-10.592852553066866
80,-13.066667191194496,-7.703262574338872,-7.248054284611299,-9.866961080665874
81,-12.668632479442868,-7.654218508184369,-6.944419433179814,-9.124079029880946
82,-12.146685596700616,-7.546874345246395,-6.614647044949159,-8.376017900033434
83,-11.500489701685286,-7.380588217804036,-6.254442217683932,-7.636021901226441
84,-10.735561902682246,-7.1585868909167045,-5.861470003615928,-6.918196615446238
85,-9.863481670635725,-6.887897945337541,-5.435261362302161,-6.236911145040679
86,-8.90190077573768,-6.5791605801467785,-4.976988606611077,-5.606222054186965
87,-7.874356994386826,-6.246326320428668,-4.489118792751729,-5.039366275061515
88,-6.809900383183022,-5.906263049093884,-3.974962347367933,-4.548364928027715
89,-5.742546032922306,-5.578277032519599,-3.4381431830301032,-4.1437707353000155
90,-4.710570697776915,-5.283568064204778,-2.882024803454552,-3.834578809875087
91,-3.7556726227385413,-5.044632672244265,-2.3091333209829252,-3.62830499552037
92,-2.9220145402485045,-4.884629730302967,-1.7206217247069018,-3.531218956382837
93,-2.2551694374420492,-4.826721992768701,-1.1158193318813239,-3.5487023974565637
94,-1.800987468174199,-4.893406227790319,-0.49190596299955175,-3.685687668032927
95,-1.6044005078442956,-5.1058438790055085,0.1562574453055816,-3.9471199893936073
96,-1.7081788025182651,-5.48320363173049,0.8361203154850709,-4.338378939444692
97,-2.151652717353061,-6.042026946095251,1.5572460339976173,-4.865592634219428
98,-2.9694125697141716,-6.795627594764734,2.3309295771092167,-5.535781863479744
99,-4.190001529469172,-7.753536532829953,3.16964260951847,-6.356781353376918
100,-5.834620801256851,-8.921004015428597,4.086330406755668,-7.336900971316054
101,-7.915872633671934,-10.29857167626709,5.093594914473222,-8.484310275554359
102,-10.436574667850644,-11.881728124276487,6.202806909298077,-9.806154129720875
103,-13.38868794445545,-13.660662275288695,7.423197002799039,-11.30743341713544
104,-16.75240942672103,-15.620128824371898,8.760979369798116,-12.989710991238427
105,-20.495486899678863,-17.739439674841226,10.218562799129714,-14.8497264423708
106,-24.572818347064835,-19.99259349956326,11.793900389261955,-16.87802171552829
107,-28.92639834511877,-22.348552767854823,13.480021864839568,-19.05769114411142
108,-33.485669817963114,-24.77167354959502,15.264781597017185,-21.363372678865662
109,-38.16833009084672,-27.222288404671467,17.13084205074691,-23.76059124350246
110,-42.881625339701834,-29.657436985009497,19.055897963959865,-26.205550234362434
111,-47.524147575992075,-32.03173295636528,21.013132537895714,-28.64544399079935
112,-51.98812408531586,-34.29834980844029,22.97188451746458,-31.019334071358404
113,-56.162162026950774,-36.410102356538715,24.898495068613734,-33.25959732435834
114,-59.934382196018184,-38.320595515639674,26.757296126870234,-35.29391625097192
115,-63.19584741888438,-39.98540749508248,28.511697256438683,-37.04774442664098
116,-65.84416459079024,-41.36327115127749,30.125325635838674,-38.4471443354405
117,-67.78711707093164,-42.417215067941775,31.56317316357743,-39.42186448597141
118,-68.94616812265748,-43.115625227170156,32.79270563680304,-39.908499515815436
119,-69.25966813110614,-43.43318908073504,33.784891514317415,-39.85356307753117
120,-68.68559976327606,-43.35168654781688,34.51511210667865,-39.21629992315291
121,-67.20370680023628,-42.86059693840358,34.96392122721534,-37.97107134882807
122,-64.81687416351095,-41.95749686063728,35.11763017181638,-36.10916684238367
123,-61.55165798069167,-40.64823150113643,34.9687027322531,-33.63992335505913
124,-57.45790381588891,-38.94684987034168,34.51595387488153,-30.591070219108975
125,-52.6074361081559,-36.875303253801036,33.76455384371527,-27.008259839953567
126,-47.09184966840661,-34.4629147979971,32.725846218153826,-22.95378908261056
127,-41.01948190115567,-31.745636510451842,31.41699375028593,-18.504560899499527
128,-4.62179654166333e-11,-1.0876894130188433e-10,-6.7088765259938e-11,-3.521378823521849e-11
129,-9.772617491590875e-10,-2.3105446972673977e-09,-1.4649510343897059e-09,-7.218951193337696e-10
130,-9.477335713590275e-09,-2.560911295694313e-08,-1.6232840264225025e-08,-7.125562090591746e-09
131,-5.995723315761055e-08,-1.8751386026435484e-07,-1.1898291346101261e-07,-4.599722495242552e-08
132,-2.762520138017147e-07,-1.0290801705203564e-06,-6.524040847035777e-07,-2.1892087082374379e-07
133,-9.856455234396442e-07,-4.52945708431184e-06,-2.863644122656233e-06,-8.221997636433603e-07
134,-2.8161140344813408e-06,-1.6711505910304487e-05,-1.0516221126456019e-05,-2.5501781622085776e-06
135,-6.526430680361876e-06,-5.333333600408272e-05,-3.334093134335511e-05,-6.761308905922777e-06
136,-1.2094029292947772e-05,-0.00015074647437034332,-9.344602559043457e-05,-1.577595465560881e-05
137,-1.6474184146925863e-05,-0.000384390554174604,-0.00023587977896799138,-3.3277648962736834e-05
138,-9.612502794781708e-06,-0.0008974346360619896,-0.0005443740167355152,-6.514950017892615e-05
139,3.1230026509627736e-05,-0.0019417353362572091,-0.0011629545804740843,-0.00012142306023740037
140,0.00014811881981302357,-0.003932623149381263,-0.0023237172420379616,-0.00022029447177115304
141,0.00040865367012990863,-0.007518167177602723,-0.004380753294903458,-0.0003952599366383874
142,0.0009097154208039569,-0.01366257352595509,-0.007849989011478473,-0.0007063543239904466
143,0.0017761557270922922,-0.023742243983357444,-0.01345448677181597,-0.0012563402401049592
144,0.003151408705093754,-0.03965167545529136,-0.02217439572325186,-0.002212549061036373
145,0.005176918500907774,-0.063914740167924,-0.03530012856038537,-0.00383489089282631
146,0.007957708225286172,-0.09979494496751035,-0.054486473123918015,-0.006510265365847791
147,0.011512320329512883,-0.1513961664333424,-0.081804340562282,-0.010793201657112327
148,0.015706509455033105,-0.22374336725382796,-0.11978590445063093,-0.01745204710245155
149,0.02017127256817448,-0.3228312567247516,-0.17145820690211205,-0.027519386971631796
150,0.024207093974393495,-0.455628103393079,-0.24036004968948005,-0.042344544677857136
151,0.0266778452823529,-0.6300222045445298,-0.33053720040680523,-0.063644963844973
152,0.025899707792905943,-0.8547000475714422,-0.4465115904780251,-0.09355214175945394
153,0.019532631334363462,-1.1389480181314362,-0.5932211802643265,-0.13464681852078664
154,0.004483906979378689,-1.4923735567721026,-0.7759284351873885,-0.18997755291991528
155,-0.023164883663431855,-1.924546725566929,-1.0000968279669884,-0.2630567200343911
156,-0.0681952150217134,-2.444568901060641,-1.2712364047562439,-0.357828328748547
157,-0.13624074413369439,-3.0605813692288066,-1.5947211760666626,-0.47860287373027066
158,-0.23371670887395304,-3.7792325673116083,-1.9755828590265403,-0.6299557574335094
159,-0.36768055094205554,-4.605128217351139,-2.4182872334002243,-0.8165876731722161
160,-0.5456186763254931,-5.540293241765005,-2.9265009871340646,-1.043147656772424
161,-0.775159492575058,-6.583677752917591,-3.502858313014479,-1.3140221392303646
162,-1.063718954940951,-7.730741156588638,-4.148737563030647,-1.6330961343281563
163,-1.4180913280965939,-8.973148135572357,-4.86405886818093,-2.003495590017758
164,-1.8440041682485546,-10.298607684954055,-5.647113698093678,-2.427322798884593
165,-2.3456620056048423,-11.690881305335829,-6.4944368023528005,-2.9053993462142547
166,-2.925307223007088,-13.129978952261606,-7.400729808462633,-3.4370330149086943
167,-3.5828287488414294,-14.592551663071568,-8.35884396466871,-4.019826036282939
168,-4.315449245039534,-16.052478447942526,-9.359827180192664,-4.649541866233267
169,-5.117519469687125,-17.481632784714538,-10.393037766391275,-5.320046165879257
170,-5.980444404295141,-18.8508017947263,-11.446324297551548,-6.023334808209653
171,-6.8927595250339975,-20.130719856524554,-12.5062679836335,-6.749657546494681
172,-7.840367384014347,-21.293168964189263,-13.558481056073271,-7.487740695745651
173,-8.80693486894638,-22.31209134958364,-14.587952056149689,-8.225106232434628
174,-9.774440766872404,-23.164656371520035,-15.579426698792215,-8.94847859690606
175,-10.723852278146932,-23.832223774599253,-16.51781125179437,-9.644264551158116
176,-11.63589863519687,-24.301149219217695,-17.388584193565897,-10.29908593500321
177,-12.491900821009555,-24.563385290300317,-18.17820133796335,-10.900340323675087
178,-13.274609564524566,-24.61684160406279,-18.87447966078033,-11.436760801142682
179,-13.969000290676696,-24.465480552019578,-19.466945707454197,-11.898943788982962
180,-14.56297416072749,-24.119139910069038,-19.947135655564175,-12.27981350057027
181,-15.047918865083952,-23.593089123196684,-20.30883578112873,-12.574993333028935
182,-15.419091098256011,-22.907341591329445,-20.548254176638004,-12.783058402089583
183,-15.675794045912287,-22.085759721805438,-20.66411704716739,-12.905649364304827
184,-15.821336930557894,-21.15500186749459,-20.657685736591517,-12.947435378427489
185,-15.862778615921075,-20.14336960850512,-20.532693754711293,-12.915923013785031
186,-15.810472167516926,-19.079619381253494,-20.295206378501227,-12.821117394017929
187,-15.67744082139443,-17.991803712648334,-19.95340869693111,-12.675051101407801
188,-15.478626990888191,-16.90620412181992,-19.51733099575908,-12.491204708419868
189,-15.230064044244543,-15.846410356115037,-18.998522855990515,-12.283849749487908
190,-14.94802513555268,-14.832589640771763,-18.40968903973542,-12.067350083365513
191,-14.648204040172176,-13.880975968414074,-17.764301056739257,-11.855460572211541
192,-14.344979623739444,-13.00359425484287,-17.076198282429644,-11.660662599102151
193,-14.050808513630829,-12.208218659278739,-16.35919180116625,-11.49357415700828
194,-13.775780342891103,-11.498549689255924,-15.626683014723593,-11.362468245733991
195,-13.52735741038276,-10.874581911070425,-14.891307725330666,-11.272927352368217
196,-13.310306648970778,-10.33312397090155,-14.164615017764305,-11.227654124187788
197,-13.126817457525924,-9.868425721338891,-13.45678881610064,-11.2264493319353
198,-12.976785467875906,-9.472863808162884,-12.776418329009347,-11.266358433905108
199,-12.858230995477596,-9.137637120047174,-12.130321558156986,-11.341978233364754
200,-12.76781285531747,-8.853426878458798,-11.523423590353818,-11.445906027401504
201,-12.701394022627857,-8.610982506576178,-10.958688711067014,-11.569305880854603
202,-12.654615400848387,-8.401603266154138,-10.437102834483042,-11.702560661866812
203,-12.623437503452118,-8.217496304362657,-9.957700748054554,-11.835974577053184
204,-12.604616727262654,-8.052003365874173,-9.517631485481472,-11.9604893882918
205,-12.596092381739206,-7.899700042437587,-9.112254818719654,-12.068378338771371
206,-12.597271657234762,-7.756382036801302,-8.735262291092251,-12.153884814961085
207,-12.609210863024364,-7.618961545836421,-8.378817246175904,-12.213777358015813
208,-12.634701135238116,-7.485302716612142,-8.033709773617389,-12.247798099570467
209,-12.67827434207574,-7.354027730330496,-7.689524138624666,-12.258987413982604
210,-12.746149515988758,-7.224324347671621,-7.334817718726369,-12.253873182348945
211,-12.846141632138833,-7.095782024618759,-6.957311385834018,-12.242518419160444
212,-12.987552989398253,-6.9682775593115,-6.544091514530474,-12.238426098436793
213,-13.181063139995352,-6.84192341066975,-6.0818235606208315,-12.258304798659012
214,-13.438626844670825,-6.717083171562223,-5.556976795716713,-12.321703145289545
215,-13.773381738919943,-6.594450057898655,-4.956059559654303,-12.450524755051282
216,-14.199559199713223,-6.475176490695381,-4.2658642808462455,-12.668438230866293
217,-14.73238415728734,-6.361036504006105,-3.4737212872642917,-13.000198562497149
218,-15.387943099752649,-6.254598172751676,-2.567759848873705,-13.470897117424839
219,-16.182995069819434,-6.15938070516554,-1.5371738563485664,-14.105157588777274
220,-17.134698859120025,-6.079970439430574,-0.37248808048116,-14.926295296415855
221,-18.260231521853427,-6.022071865355014,0.9341808371289737,-15.955457588393456
222,-19.576279104272576,-5.992474022703737,2.3888765180515317,-17.21076408843955
223,-21.098390047231796,-5.998919015475367,3.995577989587071,-18.706467321415953
224,-22.84019450724228,-6.049867412631693,5.756009463176645,-20.452156743499046
225,-24.81250770909934,-6.154164165150191,7.669497451157837,-22.452032001095187
226,-27.022350676862715,-6.32061740568871,9.732887986954124,-24.704273566402414
227,-29.47193532417126,-6.557510221937476,11.940535615660394,-27.200539811202685
228,-32.15767124342987,-6.8720715367687975,14.284373677429787,-29.925618407059364
229,-35.06925766193754,-7.269936223342718,16.75407252586192,-32.857256585063645
230,-38.1889256783973,-7.7546264098013005,19.337289032577,-35.966189682080156
231,-41.490893163093645,-8.327085623194657,22.02000720845083,-39.21638114009991
232,-44.94108774548224,-8.98529505706805,24.78696597978555,-42.56548013755897
233,-48.49718231954592,-9.723996938355416,27.622165860008316,-45.965495500036965
234,-52.108972898117635,-10.534543934805317,30.50944112262366,-49.36367652085941
235,-55.71911122065024,-11.404886219274614,33.43307785652205,-52.703582868851015
236,-59.26418528487655,-12.319699832630757,36.37845098411955,-55.92631695786401
237,-62.67612106450723,-13.260652086615421,39.33264533902317,-58.97188321719548
238,-65.88385932660917,-14.206792576381838,42.285017932583024,-61.78063016924855
239,-68.81524409141618,-15.135052408500128,45.22765138600448,-64.29472407288205
240,-71.39904544486751,-16.02082983120105,48.15564286835594,-66.45959840198114
241,-73.56703052889155,-16.83863777784346,51.0671693042441,-68.22532270895243
242,-75.25599348156862,-17.562787962472253,53.96326857546368,-69.54783794023871
243,-76.40965799857959,-18.16808693793418,56.84727847185331,-70.39001265828715
244,-76.98037444260103,-18.630521585474728,59.72388091701745,-70.72248486190897
245,-76.93054592290905,-18.927914369337586,62.597709272707824,-70.52426588884437
246,-76.23373312434542,-19.040531928859526,65.4714920395566,-69.78309501388998
247,-74.87540447139679,-18.95163388978999,68.34372746373857,-68.49554491982484
248,-72.85331527217583,-18.647951987052892,71.20591034346761,-66.66688873294781
249,-70.17751596515215,-18.12009258267887,74.03936395051885,-64.31074866015234
250,-66.87000494587598,-17.36285826701974,76.81176508436106,-61.44855442818874
251,-62.964055186211695,-16.37548622716435,79.47348712953492,-58.10884648243381
252,-58.50325533625587,-15.161802236929715,81.95392273059187,-54.32646367517168
253,-53.54031452850937,-13.730289372939069,84.15798240790924,-50.141657226601424
254,-48.13568521664953,-12.094069985780312,85.96299596208992,-45.599171555130816
255,-42.356060017331785,-10.270798326823922,87.21626724933071,-40.74732811345577
256,1.3219105111766624e-10,-9.621177252612837e-11,-4.680540657431676e-09,3.769345430441874e-11
257,-1.1628785728895587e-11,-1.598326402687156e-09,-6.331079517675182e-08,3.642775839597387e-10
258,4.314962393110526e-09,-1.8085356729543962e-08,-7.331723375401672e-07,5.654384071863442e-09
259,4.261399225437123e-08,-1.3149417235591683e-07,-5.403889335246284e-06,5.018664702778134e-08
260,2.9914216318786887e-07,-7.18131072519942e-07,-2.9944789498641216e-05,3.232982475753291e-07
261,1.5864969731746462e-06,-3.1473376731329593e-06,-0.00013311017663392293,1.6219468033499071e-06
262,6.753711084417354e-06,-1.1570172886959212e-05,-0.0004959680532637367,6.65828482049153e-06
263,2.4083770229264134e-05,-3.682430223409865e-05,-0.0015984184541729127,2.3176181132638832e-05
264,7.414693927858643e-05,-0.00010389899777101113,-0.00456153131397245,7.026682168077676e-05
265,0.0002017566845482132,-0.00026472400850884666,-0.011740430151269706,0.00018956747271113157
266,0.0004943946271072856,-0.0006181348149807384,-0.027656569030543168,0.00046307554248500605
267,0.0011079515968257466,-0.001338693173386256,-0.060349793210380274,0.001039213493787297
268,0.0023001449204550777,-0.002715570257168438,-0.12320874928243614,0.002168661346788099
269,0.0044717506546985905,-0.005202008820095167,-0.23730810137298883,0.004251408979198785
270,0.008215767191902867,-0.009475018460977704,-0.4342435708845369,0.007896309555765056
271,0.014374612147801287,-0.01650402823537229,-0.7594137632210819,0.013993942402997341
272,0.024105055645689,-0.02762620936278837,-1.2756478859859544,0.02380264349724599
273,0.03894987401413774,-0.044625060361336955,-2.067020762018944,0.03904615230614866
274,0.060914086889383684,-0.06980750651824778,-3.242629169005243,0.062019503698538155
275,0.09254230995812517,-0.10607321482293307,-4.940030836836646,0.0956976746887441
276,0.1369923388529933,-0.156968219095126,-7.327976780532217,0.14383924321547795
277,0.19809871060839665,-0.22671359504475963,-10.608009121564054,0.21107521804377274
278,0.28041903491710646,-0.3201992343724996,-15.014463922869671,0.3029716468832331
279,0.38925532737169355,-0.44293303440108467,-20.81242112390892,0.4260538430056605
280,0.5306425305899216,-0.6009372418504312,-28.29319109766519,0.5877801623563186
281,0.7112965951034651,-0.8005862198439012,-37.767020796238505,0.7964540956489647
282,0.9385150684445736,-1.0483834244362797,-49.5528416969194,1.0610650036809461
283,1.2200241160159047,-1.3506796256738274,-63.965058179619476,1.391050204476776
284,1.5637676308925579,-1.7133391674137253,-81.29757958568557,1.7959745144073145
285,1.9776364527442938,-2.1413660568875406,-101.80551786281548,2.2851277917067825
286,2.4691387503349627,-2.638506627954871,-125.68519104332246,2.86704644480372
287,3.0450160468513134,-3.2068501027182856,-153.05327679417834,3.5489709886345286
288,3.710813288086716,-3.8464521507292875,-183.92613395014047,4.336258205731768
289,4.4704156394027965,-4.555009096874019,-218.2004414948101,5.231772813837168
290,5.325569146289094,-5.32761129804055,-255.63637937065275,6.235289108790062
291,6.2754066828685025,-6.156603073837725,-295.844584389931,7.342937226139836
292,7.316004213252786,-7.0315731777582275,-338.2780464421034,8.54673094695957
293,8.439995188958383,-7.93949409596761,-382.22996172775277,9.834214154415934
294,9.636272538491541,-8.865020557008203,-426.83832919962265,11.188261010771939
295,10.88980804727287,-9.790947906240834,-471.09777301387254,12.587060628772546
296,12.181617405005841,-10.698819992029035,-513.8787113729609,14.004310392557864
297,13.488895607969742,-11.569664715764606,-553.9535943246766,15.409633287811259
298,14.785341445334833,-12.384824320420352,-590.0295274146315,16.76922396846936
299,16.04168176742389,-13.126837772460135,-620.7862133977528,18.04671638374593
300,17.226396307021584,-13.780325147895585,-644.9178101789107,19.204253241714266
301,18.306632519136482,-14.332819473793203,-661.1770417260294,20.203725055799094
302,19.2492878061149,-14.775490561852726,-668.419729280085,21.00813479275135
303,20.022224353003853,-15.10370827176518,-665.6478412393848,21.58303404192115
304,20.595570664340986,-15.317399464666213,-652.0491965962826,21.897968996379095
305,20.94305440066438,-15.421163452601677,-627.0320930556976,21.927869950150928
306,21.04330396231246,-15.424124607104202,-590.2533589695184,21.654316821208056
307,20.88105169766953,-15.339517172635343,-541.6386310496757,21.066615500928926
308,20.4481702373176,-15.184015196999972,-481.39401980698534,20.16262564743295
309,19.74447564725606,-14.976838510306107,-410.00871847344945,18.949289743539463
310,18.778237466674696,-14.73868242904252,-328.2485149486581,17.4428255262168
311,17.566346251320187,-14.490532954225785,-237.14055672002831,15.668558647587735
312,16.134103977048575,-14.252439437098747,-137.95007166087336,13.660388897938928
313,14.514620934079069,-14.042322115102921,-32.150045778472354,11.459900642276214
314,12.747823876696874,-13.874891993222397,78.61491369590865,9.115145391479356
315,10.879102833903206,-13.760755149945139,192.56915117222613,6.67914067927178
316,8.957646462320545,-13.70576291666494,307.84952278435657,4.20814362050079
317,7.0345363645715215,-13.710654184119074,422.55049813345454,1.7597688377883827
318,5.160687661979302,-13.771017268278705,534.7694257034973,-0.6089717517225217
319,3.3847353001898677,-13.877577577895655,642.6506993229099,-2.843625759293331
320,1.7509721864684507,-14.016795221051925,744.427711025075,-4.894172077231366
321,0.29744603019554483,-14.171735250405812,838.461638667285,-6.716729594842407
322,-0.9456836697810265,-14.32315412727752,923.2762805908308,-8.275032397523821
323,-1.957438381407491,-14.450730673343566,997.5883047816682,-9.541611870193453
324,-2.72688984550913,-14.53435956829303,1060.3324188151407,-10.498639892944126
325,-3.2535542993058204,-14.555421170565214,1110.6810893208603,-11.138403161782186
326,-3.5472853336327117,-14.497943478999334,1148.058545443183,-11.463395744796461
327,-3.6276668817784015,-14.349580218057344,1172.1488955785603,-11.486034326555709
328,-3.5229364139419292,-14.102342684916723,1182.898274359029,-11.22801718213834
329,-3.268495839654866,-13.753041018073016,1180.5110243475722,-10.719362778454892
330,-2.905091658508857,-13.303411535165187,1165.4400097530506,-9.997176214716415
331,-2.476764859610899,-12.759929096106397,1138.3712615751585,-9.104201051277075
332,-2.0286834801881874,-12.133325389407402,1100.2032695267244,-8.087220260810238
333,-1.60497605321226,-11.437854018771134,1052.0213646636876,-6.995373123439299
334,-1.24668207068158,-10.690359843733102,995.0677769432893,-5.878454917891312
335,-0.9899264917530574,-9.909222099088614,930.708097063357,-4.785263321195329
336,-0.8644097141981937,-9.113247567810355,860.395013252476,-3.762049614584049
337,-0.8922834841426225,-8.320591159450878,785.6303212924003,-2.8511244337607944
338,-1.0874582078041897,-7.547776661017968,707.9263071299797,-2.0896574522850493
339,-1.4553598853763297,-6.8088806676073235,628.7676672351811,-1.508698913530609
340,-1.993127387434325,-6.1149285682714485,549.5751518564183,-1.1324393493898073
341,-2.6902150112248453,-5.473534150203954,471.67208658997174,-0.9777131331706431
342,-3.5293431569737432,-4.888795281696335,396.2548438587084,-1.053742490263873
343,-4.487722783885596,-4.361438822580233,324.3682010123041,-1.3621115639864372
344,-5.5384680265757,-3.8891899478154004,256.88633862413167,-1.896955092110681
345,-6.652106137421009,-3.4673258294445195,194.5000111375819,-2.645342899467296
346,-7.7980949127060475,-3.0893622009863044,137.71017180734077,-3.587839495765859
347,-8.94626449078996,-2.7478143673641156,86.82806927320642,-4.699217326078932
348,-10.068112355753849,-2.43497200230335,41.981568608767894,-5.949302402684166
349,-11.137896220757531,-2.143629414324006,3.127199274008533,-7.303931717639629
350,-12.133487801490363,-1.8677194127947867,-29.932788759800587,-8.726002473622996
351,-13.036969588388413,-1.602808707447751,-57.52926172581571,-10.176593320998343
352,-13.834975077841928,-1.3464250594132505,-80.101965690619,-11.616137141766604
353,-14.51878925746862,-1.0982001594736348,-98.17333190083883,-13.005623378721106
354,-15.08423915850041,-0.8598264071365201,-112.32146368438464,-14.307805430103489
355,-15.531413243997912,-0.6348393901822557,-123.15341769708171,-15.488385337103828
356,-15.86425269693049,-0.4282499350551833,-131.27981571940325,-16.517144202222404
357,-16.090057616134352,-0.24605931463096245,-137.2917056013062,-17.368983030420836
358,-16.218947171361677,-0.0946978915692355,-141.74043751904514,-18.02483566665251
359,-16.26330593092739,0.019569211915615507,-145.12114533424855,-18.472413816310596
360,-16.237239718115898,0.09122600118256412,-147.86023048822477,-18.706744365200745
361,-16.156054716356664,0.11603900402951711,-150.30704815103866,-18.730461872035548
362,-16.03576440401943,0.09150614544399355,-152.72980133686602,-18.553824711988337
363,-15.892621425727954,0.01719493477366795,-155.31546600996595,-18.194432178921616
364,-15.74266674470006,-0.10504733229824448,-158.17340760767394,-17.676631858057842
365,-15.601286647917611,-0.27101958027152295,-161.34221086638067,-17.030621229773192
366,-15.482769562999383,-0.47422874006065135,-164.79913651599776,-16.29126394410227
367,-15.399858733163976,-0.7060790911744448,-168.47154122614248,-15.496658441162726
368,-15.363303145523302,-0.9561743229692444,-172.2495544431383,-14.686513344098115
369,-15.381416762559182,-1.2127122222355666,-175.99929567917818,-13.900398934844883
370,-15.45966398087438,-1.4629481816200651,-179.57593923495097,-13.175955623017487
371,-15.600296271788059,-1.6937016350547975,-182.83598607292197,-12.547147523496063
372,-15.802070044598677,-1.8918791386379565,-185.64818309658813,-12.042651354749902
373,-16.060078313052063,-2.044989030554052,-187.90263209218554,-11.684467641184114
374,-16.36572796391571,-2.1416252399268685,-189.51775021121958,-11.4868326846902
375,-16.706890042967295,-2.171901478096299,-190.44487399009802,-11.455496268248707
376,-17.068242223184225,-2.1278212935370733,-190.67043315612307,-11.587412074831702
377,-17.431811065229727,-2.0035737962169597,-190.21575297800175,-11.870866243966486
378,-17.777707573176063,-1.7957488549990144,-189.13466704538266,-12.286045518263311
379,-18.085034147888113,-1.5034689813211124,-187.50923114319178,-12.806021521115003
380,-18.332925566373095,-1.1284378467049614,-185.44391755836975,-13.398103436868348
381,-18.50167239732495,-0.6749075082320197,-183.0587332960431,-14.025489468165926
382,-18.573863732910706,-0.14956810275597435,-180.48174221528558,-14.649129626368767
383,-18.535478673877865,0.4386347964469459,-177.8414784856173,-15.229700119436371
384,-5.797905113048494e-12,-3.813285250691071e-10,-6.537545162788879e-11,-3.779634291358225e-11
385,-2.3356401872219816e-11,-1.198332358661803e-09,-1.1473822201848643e-09,-5.922520940795298e-10
386,8.763358141214936e-11,-1.8749381069387467e-08,-1.3104518469395248e-08,-6.744994801637368e-09
387,3.2448193546580275e-09,-1.3625310794479089e-07,-9.745988203199607e-08,-4.981053018618935e-08
388,2.952068152362502e-08,-7.582154032230917e-07,-5.434907443008956e-07,-2.77689348516949e-07
389,1.667706900826579e-07,-3.3855514362857727e-06,-2.4297412946464846e-06,-1.2498528627966044e-06
390,6.831645013849525e-07,-1.2661778671610052e-05,-9.103602498702404e-06,-4.749405145423813e-06
391,2.1499729381169554e-06,-4.0963125322598105e-05,-2.9506989305338668e-05,-1.5721695841889555e-05
392,5.25938233870987e-06,-0.00011734062395609445,-8.473002925899217e-05,-4.6372056775935904e-05
393,9.514831512605052e-06,-0.00030316080516125865,-0.00021960047742526347,-0.0001239414430186853
394,9.32449628662868e-06,-0.000716905352210081,-0.0005214109400237752,-0.0003040534358266936
395,-1.4476173963541136e-05,-0.001570521038767566,-0.0011480076055825862,-0.0006915871826259009
396,-0.00010971182735255607,-0.003219098919842384,-0.0023673908388853176,-0.0014706332797601333
397,-0.0003761541601553323,-0.006224881941260446,-0.004610751492842091,-0.002944300288084692
398,-0.000997837030258988,-0.011435365687539296,-0.008540489294234158,-0.0055841678946853815
399,-0.002284460688749575,-0.020073951846208294,-0.01513420097883532,-0.01008825864851613
400,-0.004721328290727922,-0.033840005628053824,-0.025784748214818277,-0.01744560471197525
401,-0.009026731305780342,-0.05501349540671622,-0.04241518949672345,-0.0290047635755723
402,-0.016215116412036858,-0.08655768109191402,-0.06760551067515401,-0.046542901445956596
403,-0.0276636224895364,-0.132211489484189,-0.10472581700807068,-0.07233127782544871
404,-0.04517862093555645,-0.19656165308206291,-0.15806819558463484,-0.10919213147301807
405,-0.07105769140477092,-0.2850832444262803,-0.23296712007492434,-0.16054109449061607
406,-0.10814104655642331,-0.40413651687550456,-0.33589633560260806,-0.2304084315611446
407,-0.15984499705699892,-0.560907944915392,-0.4745288083270232,-0.3234318239362503
408,-0.23016904514477657,-0.7632846867978205,-0.6577456938943633,-0.44481346130066746
409,-0.32366806083038197,-1.019654223146095,-0.8955804666201133,-0.6002352003006285
410,-0.44538198081227603,-1.3386250293006476,-1.1990855072737454,-0.7957276446811072
411,-0.6007175338725451,-1.7286693198146432,-1.5801107228039466,-1.0374920379798036
412,-0.7952794186799796,-2.1976951058235255,-2.0509873385775603,-1.331677479153972
413,-1.0346518696080829,-2.752561375324513,-2.6241149165181477,-1.684119713416906
414,-1.324135361862636,-3.3985566295541525,-3.3114558155376925,-2.1000511673129663
415,-1.6684470019713158,-4.138866875460151,-4.123948384298849,-2.5837946218312906
416,-2.0713966122919403,-4.974063698078782,-5.070857630218144,-3.1384547345447773
417,-2.5355534839212397,-5.901646126802559,-6.15908930167948,-3.765622561814783
418,-3.061921253940524,-6.915671017322572,-7.392499588541535,-4.465108457994255
419,-3.6496403883902935,-8.006505723327544,-8.771237449161204,-5.23471838745681
420,-4.295739118421653,-9.160733431714654,-10.29115949841919,-6.070087716937241
421,-4.994953925978704,-10.36123591433613,-11.94335820715102,-6.964584796628905
422,-5.739639320826396,-11.587470244867351,-13.713842685953187,-7.909293976575214
423,-6.519783473989546,-12.815945749416954,-15.583407418058314,-8.893084249958164
424,-7.323141377571777,-14.020895282399035,-17.5277178247642,-9.902765688159421
425,-8.135490878168671,-15.175121794091151,-19.517632505040353,-10.923331466121358
426,-8.941009521973445,-16.25098803766073,-21.519770625197495,-11.93827877823516
427,-9.722762108034816,-17.221505073234102,-23.49731982477357,-12.929997629939228
428,-10.463280840509139,-18.061465260643367,-25.411066015453013,-13.880212881974968
429,-11.145212821372215,-18.74855824766253,-27.220612621782564,-14.770462594215829
430,-11.752004048690834,-19.26440510005044,-28.8857442383019,-15.582595057289193
431,-12.268585460090403,-19.595446322107936,-30.367879315792496,-16.299267890611166
432,-12.682024956527057,-19.73362463261001,-31.63154911142263,-16.904434852542746
433,-12.98210972458921,-19.676812555067027,-32.645836207520624,-17.383808961063767
434,-13.161825589049096,-19.428948103380627,-33.38570562628825,-17.725293538690526
435,-13.217704640275748,-18.999858085426492,-33.83316486433197,-17.919375320662528
436,-13.150018940290394,-18.404767157803136,-33.978195803096014,-17.95947539340065
437,-12.962806430081708,-17.663510398544233,-33.81941102215116,-17.842254328394397
438,-12.663724750270287,-16.7994865259592,-33.364399087143525,-17.567867558082806
439,-12.263738897353932,-15.838406748635457,-32.629737301273636,-17.140166079224997
440,-11.776658684548162,-14.806909014105297,-31.64066548904293,-16.56683616783909
441,-11.218550995747961,-13.731118368127346,-30.43042975361387,-15.859470039480708
442,-10.607059024359181,-12.635240079070481,-29.03931986379973,-15.033557360812848
443,-9.960665561955874,-11.540272933188971,-27.513437058474526,-14.108385443704458
444,-9.297939758695666,-10.462925100206816,-25.903239822208903,-13.10683429119378
445,-8.636806658731999,-9.414804644184608,-24.26192310405883,-12.055051959459817
446,-7.9938763281139815,-8.401941206953467,-22.643691326033277,-10.981996486354468
447,-7.383864712172492,-7.424675756030732,-21.101987473739783,-9.918833354677096
448,-6.819131808991298,-6.477932445642286,-19.68773986563758,-8.898182505163925
449,-6.309354862709447,-5.551862245995799,-18.44768529334843,-7.953216515469926
450,-5.8613456988822685,-4.632823695559503,-17.42282256600396,-7.116621612022899
451,-5.479012627574937,-3.7046435065825407,-16.647044552545868,-6.419445052145838
452,-5.16345902058897,-2.7500807056119663,-16.14598999630637,-5.889865032461003
453,-4.913203225709777,-1.7524035497755626,-15.936149037605691,-5.5519313819607925
454,-4.724498480316958,-0.6969799261864431,-16.02424877914339,-5.424335662846513
455,-4.591727442984249,0.427220532389775,-16.40693756729991,-5.519276887673832
456,-4.50784414470064,1.626310396075238,-17.0707790076332,-5.841492952265274
457,-4.46483649322116,2.9004423927281464,-17.992559071979617,-6.387527357447079
458,-4.454184618277592,4.243113777684802,-19.139901865713686,-7.145295378746053
459,-4.467293873008773,5.6408693762097215,-20.47218160639394,-8.094003468840649
460,-4.495885700114838,7.07343158286209,-21.941710058650536,-9.204460610463286
461,-4.532334256642318,8.514259466660201,-23.495170144360483,-10.439801152252032
462,-4.5699411229449,9.931512608594142,-25.075257873641274,-11.756616177939746
463,-4.603144255949332,11.28937015899078,-26.622486380756946,-13.10646586661657
464,-4.627660534466277,12.549633874900628,-28.077098055297363,-14.437720182687926
465,-4.640563917051546,13.673526632623537,-29.381023934564173,-15.697651475274965
466,-4.640303459414859,14.623586375098403,-30.479824170163777,-16.83468215287888
467,-4.626667128570616,15.365549813057333,-31.324540029060984,-17.800675355997488
468,-4.60069836063866,15.870120949964527,-31.873387107201836,-18.553148010715567
469,-4.56457262937154,16.114526160693817,-32.09322169829463,-19.057284815366373
470,-4.521441069926796,16.08377004864688,-31.9607179199034,-19.287638910194826
471,-4.475247639003129,15.771523595141193,-31.463202330670416,-19.22941970693653
472,-4.43052556749396,15.18059746831215,-30.599105195348763,-18.87928949384137
473,-4.392178191154224,14.322977277981346,-29.378002772130728,-18.245616532299778
474,-4.365248942454022,13.219422531638443,-27.82024229848944,-17.34816194855062
475,-4.35468563969356,11.898655562493582,-25.956159826920423,-16.217209273693218
476,-4.365105248922042,10.396188903222175,-23.824919696624708,-14.892177291354272
477,-4.400566678479531,8.752858433765583,-21.473022167059778,-13.419786944608747
478,-4.464360360521014,7.013143760119176,-18.952541536796083,-11.851879316907826
479,-4.558823957013527,5.223366348574416,-16.319169997482035,-10.243002177733134
480,-4.685193335177937,3.4298592968972694,-13.630151715747518,-8.64789566481232
481,-4.843496990169974,1.6772006542094398,-10.942196600112908,-7.119012310492324
482,-5.032500345332272,0.0065949342130062595,-8.309463501614063,-5.704202416438038
483,-5.249703831751478,-1.5455240785396078,-5.781698145014604,-4.444683178372573
484,-5.491395472281225,-2.9486113835300136,-3.40260214345947,-3.3733901920829727
485,-5.752755216705556,-4.178809398928713,-1.2084966592947528,-2.5137848829067497
486,-6.028004926988648,-5.2194059195679525,0.7726714444456944,-1.8791630527022618
487,-6.310595026103297,-6.060949299513618,2.521950655904281,-1.472480126413215
488,-6.593416576801314,-6.701036980399729,4.029620998694562,-1.2866795915409925
489,-6.8690260533543315,-7.143809920283929,5.2950511769835,-1.3054841517567217
490,-7.129869442003575,-7.399199023489618,6.3261991692174515,-1.504585680622842
491,-7.3684926658556655,-7.481980034664874,7.138793461982054,-1.8531513144655805
492,-7.577726697201831,-7.410699783321867,7.755244267129966,-2.3155498451461036
493,-7.750838017401193,-7.2065392763941425,8.203343237651568,-2.8531955516132204
494,-7.88163822409881,-6.892177597606307,8.514816088556366,-3.42640609874322
495,-7.964550459778221,-6.490715480689041,8.723795059779466,-3.996177098429675
496,-7.994634696015941,-6.024708961167206,8.86527744146916,-4.525787799580979
497,-7.9675782676580535,-5.51535277839981,8.973632766294733,-4.982168922888551
498,-7.879661784809308,-4.981840826638771,9.081215226620547,-5.336983234365023
499,-7.727713154921981,-4.440918075124936,9.217129978959342,-5.567390313976088
500,-7.509063693022669,-3.9066258392094975,9.40619283959918,-5.6564875900897915
501,-7.221520170967129,-3.390230667305237,9.668113041778643,-5.593438826574714
502,-6.863365171138693,-2.9003172381874944,10.016918725733877,-5.3733178295973545
503,-6.433395276539198,-2.4430176067907245,10.46063505723812,-4.996708392898017
504,-5.931002571413312,-2.022343518075932,11.001215591671329,-4.469110914103512
505,-5.35630000333527,-1.640585172663331,11.634718855597459,-3.800211556689862
506,-4.71028588864604,-1.2987391917768645,12.351714209138862,-3.003071424662964
507,-3.9950377302046385,-0.9969302086289847,13.137893953268115,-2.0932912402215322
508,-3.21392095719617,-0.7347945862460955,13.974862457122146,-1.0882018236188353
509,-2.3717945359253156,-0.5118006693970363,14.84106790620912,-0.006122756039525683
510,-1.475192999743626,-0.3274873190630198,15.71283820187805,1.134278379266397
511,-0.5324636157954522,-0.18161067958083368,16.565479637108037,2.314505047386213
512,-9.955437127620399e-11,-8.706171364100987e-11,-1.9925699519459336e-10,-7.261608450306415e-11
513,-9.521890184322094e-10,-1.759039938352941e-09,-2.3200584893420796e-09,-1.0019298114947322e-10
514,-1.1828441437074834e-08,-1.9788151307081085e-08,-2.7916266675374086e-08,-2.3805133491070448e-09
515,-8.983786505594823e-08,-1.4662450110918662e-07,-2.0482555341014667e-07,-1.963545636739432e-08
516,-5.155858193881579e-07,-8.141141333043882e-07,-1.1319969135509842e-06,-1.265424257297544e-07
517,-2.3787358924859876e-06,-3.6232196124448065e-06,-5.01725482933178e-06,-6.529902100199653e-07
518,-9.214909542806304e-06,-1.3508030199167093e-05,-1.8631519676572484e-05,-2.8215531151718135e-06
519,-3.0915228944957486e-05,-4.3531911373032164e-05,-5.982706045043426e-05,-1.0488390143103849e-05
520,-9.188073304988685e-05,-0.0001241627193468813,-0.00017006909111998643,-3.423342472702455e-05
521,-0.00024616519481897395,-0.0003192752466027574,-0.00043595310828192834,-9.972482616280287e-05
522,-0.0006028108001882542,-0.0007512357514899688,-0.0010227408324257497,-0.0002628188130587594
523,-0.0013645195105831504,-0.001637197903470016,-0.002222609935338986,-0.0006340055249103707
524,-0.002882063534436421,-0.003338224041360975,-0.00451952957064399,-0.00141439464823789
525,-0.0057256238979745975,-0.006422147219078499,-0.008671695071579928,-0.002944620435772377
526,-0.010772763349652176,-0.011740270862546365,-0.0158112426332221,-0.005767005898213648
527,-0.019311215511551516,-0.020517066359114444,-0.0275596369260132,-0.010700291147001547
528,-0.03315299866749906,-0.03445088001851139,-0.04615548606296749,-0.01892511134402203
529,-0.054754438176094614,-0.05582220255343475,-0.07458963379387683,-0.032077131585194665
530,-0.08733440373017715,-0.08760424082902236,-0.11674009155078321,-0.0523431699837994
531,-0.13498063249736755,-0.13356846432091196,-0.17749686315594126,-0.08255386859578005
532,-0.20273171705224813,-0.19837571643621346,-0.26286419813812006,-0.1262646832599694
533,-0.29662048576289285,-0.2876417167175899,-0.38002559309846945,-0.18781535766021695
534,-0.4236634650918617,-0.40796470197043433,-0.5373555050733525,-0.27235692706952996
535,-0.5917812143173821,-0.5669028597418143,-0.7443616095193957,-0.38583487701229746
536,-0.8096360357238197,-0.7728902856820117,-1.0115430291665106,-0.5349176913250157
537,-1.0863771111162686,-1.0350824500114155,-1.350153302833178,-0.7268617664508514
538,-1.4312885692202821,-1.3631254552411347,-1.7718619346123592,-0.9693066668950556
539,-1.8533430508082909,-1.7668474820461064,-2.288314659490565,-1.269998887041568
540,-2.3606716855622265,-2.255875561602286,-2.910599696523607,-1.6364476905167868
541,-2.9599705210392457,-2.839186030724774,-3.6486347245761115,-2.075523010809916
542,-3.655872672542587,-3.5246025774987952,-4.510496772569519,-2.5930123392996944
543,-4.450323857053159,-4.318261434726478,-5.501724404688386,-3.193160211055082
544,-5.342005404703635,-5.224068622754438,-6.62462800374807,-3.8782193404378136
545,-6.325852483970721,-6.243178651944219,-7.877649181649825,-4.648046000031249
546,-7.392715600208132,-7.373527162124596,-9.254813588954914,-5.49977347196528
547,-8.529210342072831,-8.609451071287893,-10.745322122755107,-6.427596350332817
548,-9.717793741720184,-9.941428544747655,-12.333323102937882,-7.422695106715508
549,-10.937095479063148,-11.35596734777834,-13.997902233442593,-8.473324713115709
550,-12.162518501650435,-12.835664013024735,-15.71331794423382,-9.565083182750811
551,-13.367106900553578,-14.359448082857037,-17.449497434756257,-10.681365804759555
552,-14.522659838038944,-15.903015964629816,-19.17279394418359,-11.803998810785941
553,-15.601050179747597,-17.43944825593133,-20.84698948013544,-12.914032701629308
554,-16.57568673970058,-18.939993383311506,-22.43451061131417,-13.9926612273286
555,-17.42304144484825,-20.374989686995733,-23.897809166403505,-15.022218207392237
556,-18.124149193944273,-21.714888329164452,-25.200846059970736,-15.987192608282744
557,-18.665980341995034,-22.931331248568338,-26.310605888856276,-16.875194106012117
558,-19.04258479074575,-23.998232482091485,-27.19856335799003,-17.677798052758355
559,-19.255913034701457,-24.892808102963375,-27.84202049320826,-18.391200880969414
560,-19.31623319032464,-25.596500248842222,-28.22523647864459,-19.016624600710045
561,-19.242083482568308,-26.095744451853978,-28.340279797128378,-19.560421713013824
562,-19.059726038029304,-26.382536677053515,-28.187545073557875,-20.03384894984589
563,-18.80209864285403,-26.45476671996785,-27.775893965141258,-20.452498727592147
564,-18.50729441716751,-26.31629722384919,-27.122399831034286,-20.835399893457414
565,-18.216632732971785,-25.97678165114988,-26.25169848651749,-21.203822814738775
566,-17.97241570283611,-25.45122909555907,-25.194970669655323,-21.579846629715536
567,-17.81549086584858,-24.759337882884438,-23.988604375445444,-21.984767022882252
568,-17.782760108522787,-23.92463258847412,-22.672605218206556,-22.43743952542002
569,-17.90478564976324,-22.973449644306754,-21.288839076234165,-22.95266452143203
570,-18.203644823788828,-21.93382449870847,-19.879202083886042,-23.539724417075313
571,-18.69117605159923,-20.834337890497924,-18.483817829133354,-24.2011799882147
572,-19.367739134645294,-19.702979946397495,-17.139359884225552,-24.9320214651877
573,-20.22158496673993,-18.56608847947767,-15.877589791562489,-25.719250950150272
574,-21.228894523227464,-17.447412243076112,-14.724186819936785,-26.54194731427574
575,-22.35450673486646,-16.36734140726529,-13.697927311536441,-27.371834542668356
576,-23.55331222249011,-15.342336777635575,-12.810249451287223,-28.174341700815273
577,-24.772247778439752,-14.38457702290445,-12.065215374014338,-28.910109732946182
578,-25.952787921030623,-13.501830242296654,-11.459858273575776,-29.53686951729755
579,-27.033797418839626,-12.697543426629055,-10.984879140715792,-30.011589072599456
580,-27.9545846786516,-11.971131572865731,-10.62563753189399,-30.29276740405385
581,-28.657982012441874,-11.318438128260974,-10.363364549461847,-30.342739660809958
582,-29.09327624462422,-10.732330669383584,-10.176515155490714,-30.129854259592392
583,-29.2188221314348,-10.203390645071352,-10.042171624267061,-29.630387898645104
584,-29.00419101390768,-9.720653790253877,-9.937410781452328,-28.830078819497636
585,-28.431736376008903,-9.27235834801453,-9.840554403587891,-27.725181290177108
586,-27.49749437413167,-8.846661230236418,-9.732234265431115,-26.3229736371424
587,-26.21137833757448,-8.432287259109716,-9.596219657759027,-24.641686257558867
588,-24.59666891629682,-8.019083184239792,-9.419974474467404,-22.70985257475389
589,-22.688843091393874,-7.598455768878077,-9.194931538737324,-20.565122275878238
590,-20.53382283489164,-7.163681416195743,-8.91649209212763,-18.2526096598493
591,-18.185755510045162,-6.710083076092994,-8.583776840276563,-15.822878134497914
592,-15.704461365621098,-6.235078050341949,-8.199170241684296,-13.329682792290367
593,-13.152697695924106,-5.738107352328443,-7.767710985828315,-10.827605281818869
594,-10.593393863599049,-5.220463102800224,-7.296388110643772,-8.369718163902716
595,-8.087006527755731,-4.685034804822972,-6.793403872290104,-6.005409760419647
596,-5.689130672039429,-4.135998080158382,-6.267461357423824,-3.7784859256495094
597,-3.448480671841073,-3.5784705292249117,-5.727127573484203,-1.7256436559294075
598,-1.4053282947368715,-3.0181588542419187,-5.180312059223221,0.12461532182281172
599,0.4095468437434423,-2.4610194455617256,-4.6338880623310965,1.752592969612713
600,1.975372130305692,-1.9129515272583715,-4.093469054753366,3.147518852277832
601,3.281372795812168,-1.3795379989930592,-3.5633390176333832,4.307213790055853
602,4.326279614542569,-0.8658445855049167,-3.0465216369045,5.237345232884149
603,5.117419757050889,-0.37628309115660963,-2.544962289366944,5.950349086778134
604,5.669476272083197,0.08546028825001249,-2.05978844425349,6.464108892910109
605,6.003013962507973,0.5164352679380291,-1.5916093726157676,6.800492099197097
606,6.142874681178809,0.9143841992939937,-1.1408152791087292,6.983844464754273
607,6.116543696264193,1.2776564431358888,-0.7078389562251773,7.039537900219381
608,5.952581350115139,1.6050941093862652,-0.29334948904935126,6.992655136090315
609,5.679201783826503,1.895904328475286,0.10164345861275419,6.8668779382137535
610,5.323064183930535,2.1495335431241602,0.4757855136693606,6.683625698322928
611,4.908323203846615,2.3655584997106023,0.8274730062814263,6.461469789249065
612,4.455965139020667,2.5436067051618294,1.1550363962552634,6.215827614199051
613,3.9834363382890303,2.683316224184247,1.4569906408830313,5.958920196780234
614,3.504551454044985,2.7843410255991303,1.7323241965232217,5.699959876565881
615,3.0296526902432843,2.846403938034765,1.9807938884914764,5.44552136583891
616,2.5659782839117753,2.869394967910831,2.203191613425932,5.200041029589338
617,2.1181895899413865,2.8535085853714093,2.4015506197473457,4.966386016399718
618,1.6890014930635524,2.7994099018963827,2.579263812789341,4.74643658287552
619,1.2798601482055074,2.7084166971531216,2.741093602825372,4.54163084735298
620,0.8916149002992165,2.5826822141489014,2.8930617953576965,4.353430388010116
621,0.5251370653436999,2.4253626522410943,3.0422181659300422,4.183676388516917
622,0.1818464458037423,2.240753411931725,3.1962968995332974,4.03481830074951
623,-0.13588384192171277,2.034379369446061,3.3632802319162183,3.9100090936822425
624,-0.42446315617652236,1.8130267385603975,3.550897495287059,3.8130722360486247
625,-0.6789680712959536,1.5847072980385217,3.7660947294932865,3.7483550963232464
626,-0.8931742821606492,1.3585497603823156,4.0145143373069665,3.7204910379275264
627,-1.0597247488074164,1.1446175765944997,4.300025598091992,3.73409790985747
628,-1.1704155777199698,0.953657193832106,4.624344816009459,3.7934435429003392
629,-1.216575406495733,0.7967853490984995,4.98677858697716,3.902109184875475
630,-1.1895103362076553,0.68512801705194,5.384115330233864,4.062679588388419
631,-1.0809845780320542,0.6294268177557164,5.810679649314575,4.276484128861649
632,-0.8837068443394652,0.6396307905804687,6.258552135047521,4.543407365099926
633,-0.591793918828022,0.7244923581302198,6.717945081196454,4.861780554212337
634,-0.20118567646850963,0.8911860561148568,7.177713270914076,5.228358510740903
635,0.2900102305464456,1.1449673332983437,7.625969334560447,5.638379562289234
636,0.8812610354691636,1.4888866239953717,8.05076571731249,6.085700724240782
637,1.56945062673217,1.9235711950128052,8.440800324039946,6.562995823328011
638,2.3488266466080225,2.4470841734493987,8.786100578414127,7.0620011285543915
639,3.211053528193702,3.0548668296941393,9.07864105321726,7.573791024195924
640,-1.0706236982595898e-10,-1.1469144800984293e-10,-2.632188688335508e-10,-1.5293356896415707e-10
641,-1.2517095736783754e-09,-1.5171111373499578e-09,-1.6524172352688186e-09,-1.9483737513245324e-09
642,-1.4752275845429061e-08,-1.773082829506921e-08,-2.1230150661840275e-08,-2.2776365675504698e-08
643,-1.0956383225158115e-07,-1.3130565473472327e-07,-1.538911378318536e-07,-1.6653692894304975e-07
644,-6.158809307798042e-07,-7.308606085024035e-07,-8.458242732709942e-07,-9.195834568198669e-07
645,-2.792689569544176e-06,-3.2619886366006706e-06,-3.733606039138455e-06,-4.088315331543212e-06
646,-1.0666923918939467e-05,-1.2198207858463583e-05,-1.3826898566563328e-05,-1.528532638908915e-05
647,-3.537591933749333e-05,-3.94383384393103e-05,-4.435227640549583e-05,-4.9563274572146865e-05
648,-0.00010412336210507484,-0.00011286048328146274,-0.00012614514289982373,-0.00014256105658602648
649,-0.00027657284574682223,-0.00029116720018978863,-0.0003240028080048387,-0.00037012333013843664
650,-0.0006717507565859892,-0.000687253317743116,-0.0007625732658197189,-0.000879402479327915
651,-0.001508078992998764,-0.0015020980043313511,-0.0016642270381115201,-0.001933857253374743
652,-0.0031579925926545627,-0.0030706131879451037,-0.00340071877483567,-0.00397336474726271
653,-0.006217122348688661,-0.005920120731042997,-0.006559542268180628,-0.007689283461440017
654,-0.01158669689198664,-0.010841232807663363,-0.012024630526670958,-0.0141129892272863
655,-0.020566856206424306,-0.01896996554492494,-0.02106975032932054,-0.02471529386856002
656,-0.03495777080731442,-0.031878840410968605,-0.03546143678291365,-0.041512962172897704
657,-0.057164447091215514,-0.05167347676152568,-0.057566779778844904,-0.06717706843992687
658,-0.09029955907835827,-0.08108962851075911,-0.09045961857740366,-0.10513601015766291
659,-0.138276648701692,-0.12358380485443841,-0.13801687119940054,-0.15966380931715382
660,-0.2058838950812234,-0.18340870322657365,-0.2049949749999252,-0.23594220460894985
661,-0.2988267999357069,-0.26566297438431363,-0.2970749518391474,-0.34008336785093235
662,-0.423727105043397,-0.37630377314315633,-0.4208639457395515,-0.4790994103316186
663,-0.5880654474448874,-0.5221104360017834,-0.5838413514645988,-0.6608055612024468
664,-0.8000569937316065,-0.7105887401276669,-0.7942392803064969,-0.8936463555077563
665,-1.0684524808861042,-0.9498075348561107,-1.060849976862428,-1.1864382469394736
666,-1.4022614278705556,-1.2481630316904977,-1.3927570165087506,-1.5480274993814809
667,-1.810399255583394,-1.6140704170123887,-1.7989922343736453,-1.986868477889301
668,-2.3012653477326626,-2.0555874660266453,-2.2881261192943145,-2.510534205210352
669,-2.8822644621274685,-2.579980159873435,-2.8678052512504792,-3.125177874491105
670,-3.55928916911574,-3.1932456585874647,-3.544255812539639,-3.83497050576423
671,-4.336185876300877,-3.8996131071132023,-4.321776983059357,-4.641545605264384
672,-5.214231094899552,-4.701047318242457,-5.20225173768927,-5.543485901224023
673,-6.191647659787297,-5.596784088432239,-6.184705180048926,-6.5358895900731495
674,-7.2631923608258075,-6.582928311130994,-7.264941595046939,-7.610053629392045
675,-8.41984669785444,-7.652146784995537,-8.435290677733555,-8.753309298181385
676,-9.64864087371142,-8.79348625043795,-9.684490279090536,-9.949040244314114
677,-10.93263744261237,-9.992343531084785,-10.997727450223428,-11.176905555983055
678,-12.251095079656125,-11.230608605102809,-12.356851487015629,-12.413280106091703
679,-13.57982496748461,-12.486993209667967,-13.740762809721703,-13.631912029353424
680,-14.891742670678227,-13.737547560428487,-15.12597055189997,-14.804783284708474
681,-16.157607624304653,-14.956356584602315,-16.487300759631538,-15.90314469391445
682,-17.346931085590136,-16.1163954705512,-17.79872699644174,-16.898682647683888
683,-18.429022291901354,-17.190513131172274,-19.034286544413185,-17.76476203930076
684,-19.374132527158057,-18.152502222905024,-20.169038960628388,-18.477680297199413
685,-20.154648591319393,-18.97820635751863,-21.18001964907616,-19.01786166975331
686,-20.746281443920953,-19.64660975304453,-22.047139753745892,-19.370919891938584
687,-21.129192822108283,-20.140852182339923,-22.753984985731893,-19.528521112050488
688,-21.28900259408889,-20.44911298109433,-23.28847017431163,-19.488987346261755
689,-21.21762246148818,-20.565312067551684,-23.643313092735177,-19.25759323187144
690,-20.913867299118902,-20.48958331364424,-23.816300432606727,-18.846524859393178
691,-20.383803559738915,-20.22848582870196,-23.810330095174006,-18.274487950637262
692,-19.640804411644254,-19.794931343268487,-23.633226747942835,-17.565972521473434
693,-18.70529323830807,-19.207820242752334,-23.297340835054218,-16.750201188423272
694,-17.60417071392874,-18.491394201409495,-22.818953823623445,-15.859807354604902
695,-16.369935720437926,-17.674328944892892,-22.217523347756448,-14.92930664614849
696,-15.039526426191479,-16.788605507167873,-21.514809972859773,-13.993439030278129
697,-13.65292391859058,-15.86821149361514,-20.733932184960924,-13.085468973739435
698,-12.251575449015963,-14.947734339431081,-19.8983976380307,-12.235535698190859
699,-10.876706300980592,-14.060915626347223,-19.031157175312586,-11.469144477037752
700,-9.567597473820994,-13.239238634316347,-18.15372402534431,-10.80588278550668
701,-8.359910295830035,-12.510620335964186,-17.28539465003461,-10.258432458631491
702,-7.284138595137913,-11.898274100556096,-16.442600322529888,-9.831931683032877
703,-6.364264504636779,-11.419800925623376,-15.638410269754292,-9.523720091812462
704,-5.616685851091421,-11.086555577226674,-14.882198380794692,-9.323478022791814
705,-5.0494719968560835,-10.903320268922213,-14.179476626221613,-9.213748814815938
706,-4.661991280831714,-10.868303047065561,-13.531889980907405,-9.170812221521317
707,-4.44493706168983,-10.973461569907801,-12.937360297285434,-9.16585863096741
708,-4.380760977278374,-11.205136190013244,-12.390360936661484,-9.1663987012096
709,-4.444501991198891,-11.544959947630106,-11.882300222345096,-9.137831946927784
710,-4.6049790928806456,-11.970998137682148,-11.40199025041083,-9.045091447751986
711,-4.826295418036182,-12.45905731495629,-10.936177932262593,-8.854280440750411
712,-5.069583487533864,-12.984093766371767,-10.470117099647688,-8.534220108791825
713,-5.294906530735043,-13.521645191066508,-9.988163407754183,-8.057835903943657
714,-5.463220751842604,-14.04920707887366,-9.474377031018424,-7.403321719536219
715,-5.538298802583489,-14.547477221590324,-8.913121279806715,-6.555036267763664
716,-5.488516107402395,-15.00139792179147,-8.28964766602351,-5.5041031342867335
717,-5.288408783067264,-15.400935427519721,-7.590659509078146,-4.2487038206969645
718,-4.9199240626302885,-15.741549467527046,-6.804846590626978,-2.7940702879548835
719,-4.373300436418096,-16.024321813119382,-5.923382885443394,-1.1521989188935384
720,-3.6475343040372707,-16.255730869218723,-4.940378056774777,0.6586795215316209
721,-2.7504118221431972,-16.447078569360308,-3.853271595297608,2.6148299501906394
722,-1.698107743102754,-16.613595427558796,-2.6631565007424527,4.687893362002523
723,-0.5143761316998188,-16.77326852607415,-1.3750175146543044,6.845865844182742
724,0.7706204423735274,-16.945454415374606,0.0021323430219688856,9.054126008275508
725,2.1217775354363835,-17.149353367118717,1.4552335677180075,11.276465092768799
726,3.500730320348619,-17.402432105035366,2.967295849815635,13.476080775091148
727,4.867658517404016,-17.718888230160562,4.517660544209193,15.61650403677992
728,6.183118459336697,-18.10825038760917,6.0824182607037205,17.662437539184907
729,7.4098068609685885,-18.57420354813434,7.634983609260736,19.580493022825326
730,8.514167325119484,-19.113718630264188,9.146821143674275,21.339823437221494
731,9.467762030630178,-19.716550562049097,10.588307380151758,22.912652219554875
732,10.248346675438718,-20.365149490111204,11.929704051310972,24.27470691593278
733,10.840605530563925,-21.035007259588422,13.14220824294025,25.405567097832748
734,11.236524151354025,-21.695436703785553,14.199036830591353,26.288937172774435
735,11.435398339055658,-22.31075611062046,15.076496365776007,26.912853391584736
736,11.443497849656588,-22.84182694433147,15.754986117369636,27.269831350168474
737,11.273420926406036,-23.247870951835246,16.219881524354914,27.356956192131655
738,10.943190123769385,-23.488474605293295,16.46224813195206,27.175913311081448
739,10.475150584166062,-23.525675598611553,16.47934185722202,26.73295336366009
740,9.894738466360327,-23.32601882477661,16.274860189051655,26.03878249707683
741,9.229189458495537,-22.86246845105182,15.85892030271608,25.108367214058806
742,8.506255329826216,-22.116068585175682,15.247753957016826,23.96064363540469
743,7.752990841036064,-21.077257251152435,14.463124803419266,22.618123209525876
744,6.994664717916844,-19.746756317314556,13.531490440530366,21.10639125355567
745,6.253837626092423,-18.135982539872785,12.482947923975692,19.453500766399774
746,5.54963790237024,-16.266950697059016,11.350015774991014,17.68927131050207
747,4.8972530552791875,-14.171667304236657,10.16631655623878,15.844510745806293
748,4.307642601660579,-11.891040943234414,8.965230554740138,13.950185492657354
749,3.787466408686094,-9.473361155338692,7.778592738741999,12.036571991159267
750,3.339212948223746,-6.972420559224493,6.635501810103804,10.13242714063697
751,2.9615039886267622,-4.445373124167702,5.561302527504489,8.264218007418663
752,2.649546425324478,-1.950434357503926,4.576791027893087,6.455450399613372
753,2.395698151802336,0.4554639728767814,3.697678597031612,4.726132002824232
754,2.1901130485423983,2.718951317060047,2.9343329017609285,3.09239882880262
755,2.021430050855731,4.792320142310059,2.2917981256042044,1.566324330844026
756,1.8774726480578285,6.635355169973273,1.7700778157740757,0.15591932525713562
757,1.7459278238850537,8.216808976024195,1.3646477405654627,-1.1346812592533213
758,1.6149772742242232,9.51546252796232,1.0671522015355028,-2.3048608624201767
759,1.4738584327899655,10.520731469837033,0.8662271282702368,-3.3570202517179673
760,1.3133380018711907,11.232802450655573,0.7483880172426257,-4.2959696965455105
761,1.1260857751617985,11.66230714302741,0.6989205423650838,-5.12825829894275
762,0.9069411990628087,11.829563454826589,0.702716401271661,-5.861488634809001
763,0.6530692547057269,11.763432669741887,0.7450058446874543,-6.503665578343947
764,0.36400594179941975,11.499856979961345,0.8119503972692109,-7.062624992754638
765,0.04159700386274812,11.080153558826124,0.891073365324814,-7.545580960726569
766,-0.3101633948421218,10.549148748233108,0.9715206519135139,-7.9588198631385065
767,-0.6853844780073012,9.95323913856875,1.0441589969881007,-8.307556733133149
768,-1.5089162767170217e-10,-1.120897261600022e-10,-1.2593737175295056e-10,-9.605501500622164e-11
769,1.2846965676400795e-09,-1.912250969298776e-09,-2.1008955707055077e-09,-6.247109908572632e-10
770,1.0503451630456039e-08,-2.158585829796176e-08,-2.3733191028433962e-08,-8.481577733826971e-09
771,7.356531057839292e-08,-1.5862431932758345e-07,-1.729038012873017e-07,-6.658351160678213e-08
772,3.6816226696378834e-07,-8.752432270881173e-07,-9.454451108536194e-07,-3.979003721594735e-07
773,1.4407822962792727e-06,-3.875334883218399e-06,-4.1456703743206344e-06,-1.911968697043581e-06
774,4.552671515701842e-06,-1.4388955645209191e-05,-1.5234611694525395e-05,-7.694483694056324e-06
775,1.1842456026334968e-05,-4.62270214558131e-05,-4.8421452163677536e-05,-2.670138606766221e-05
776,2.537408073205422e-05,-0.00013155142617403596,-0.00013629922613919444,-8.163776149685203e-05
777,4.3317596910657145e-05,-0.0003377422527101846,-0.0003461446066565057,-0.00022370792112436758
778,5.078374054759766e-05,-0.0007938629669180141,-0.0008050197385957767,-0.0005571961669973828
779,2.433228481811604e-06,-0.0017289985701870023,-0.0017355583439919724,-0.0012765344762706598
780,-0.00020580790773998273,-0.0035241966665387208,-0.0035038069229024194,-0.002717610060956983
781,-0.0007781037708328311,-0.00677900288283793,-0.006679815448299115,-0.005423891134295533
782,-0.002074544754663176,-0.012392679697214463,-0.012110794825278012,-0.010226686048648384
783,-0.004682102512214659,-0.02165912158754007,-0.021005565566012598,-0.018337634448118485
784,-0.009500255073057228,-0.0363730986295479,-0.03502762608509049,-0.03145017581752583
785,-0.01783949653552417,-0.05894371854764362,-0.05639249013013661,-0.05184519497985691
786,-0.03152917681937693,-0.09250890141781526,-0.08796307715221248,-0.08249424487317501
787,-0.053029116811566336,-0.141042406414361,-0.13333506879125262,-0.12715185381598337
788,-0.08553729540162198,-0.20944282637066816,-0.19690255370591198,-0.19042661104501574
789,-0.1330836240609063,-0.30359228570691016,-0.28389318838044125,-0.2778191895380825
790,-0.20059779297994487,-0.43037164798110783,-0.40036174546241593,-0.3957145895544896
791,-0.2939375946205477,-0.5976190583605713,-0.5531314123947938,-0.5513160017442218
792,-0.4198636783347897,-0.814019807487726,-0.7496736776227304,-0.752509208183781
793,-0.5859475092151507,-1.088917890786165,-0.9979201231142835,-1.0076494309016195
794,-0.8004017328501187,-1.4320433106987827,-1.30600297542708,-1.3252669774264076
795,-1.071825960219886,-1.8531540247801779,-1.68192573800339,-1.713693608817889
796,-1.4088662759994153,-2.3615972968463637,-2.1331704726603693,-2.180617991572575
797,-1.8197931070681692,-2.965801721066615,-2.6662539858407635,-2.7325854035303547
798,-2.312009209057928,-3.6727179373639873,-3.2862508954921466,-3.3744634626155694
799,-2.8915067486138306,-4.487232554106103,-3.9963068475404673,-4.108901423446146
800,-3.562299216458058,-5.411585480072602,-4.797169493045808,-4.93581495751654
801,-4.325859822031429,-6.444825231042526,-5.686767791706255,-5.851931047782135
802,-5.180602519421037,-7.58233930515134,-6.6598713218740295,-6.850428429174862
803,-6.121444592306385,-8.815497051153887,-7.707860275605185,-7.920707764001988
804,-7.139489987780874,-10.131440286407608,-8.818633508841009,-9.048322151167612
805,-8.221870039493538,-11.51305214505728,-9.976676485817777,-10.215092553300071
806,-9.35177246748627,-12.93912723859771,-11.163303407633672,-11.399424275446137
807,-10.508680945342512,-14.384756419895494,-12.357078671925315,-12.576830095535174
808,-11.668836264028554,-15.821927666110147,-13.534412520898085,-13.720653430237487
809,-12.805916915649474,-17.220331520482002,-14.670314858873473,-14.802971696131898
810,-13.89192231932748,-18.5483460305844,-15.739280369152027,-15.7956466728365
811,-14.898227031924538,-19.774163180662374,-16.716267931339985,-16.671476292466775
812,-15.796760341319912,-20.86700747969783,-17.577728770486218,-17.40539213260797
813,-16.56125376322906,-21.79838854091279,-18.302631548730492,-17.97563992330985
814,-17.168490317449862,-22.543323957377783,-18.873429492418904,-18.364877299952035
815,-17.599484595757943,-23.081467045780613,-19.276915063798803,-18.561124039375628
816,-17.840522312669087,-23.398076398542948,-19.50491179759495,-18.55850517831309
817,-17.883992408129444,-23.484770631856136,-19.554760452322903,-18.35773645048163
818,-17.728954072567,-23.340021991494787,-19.429567065103363,-17.966314014296042
819,-17.381394659687643,-22.9693559812142,-19.13819306384505,-17.398385707763442
820,-16.854151653317647,-22.385240091112532,-18.694981482763144,-16.67429824128114
821,-16.16649142707066,-21.606661970239237,-18.11922770005209,-15.819832829035121
822,-15.34335822195527,-20.658414871255477,-17.434417183921976,-14.865159763147972
823,-14.414327245607254,-19.570124763112478,-16.667265746023702,-13.84355928407933
824,-13.41231439684201,-18.375068063245145,-15.846608969612369,-12.789970581468863
825,-12.372110604749002,-17.108840554628525,-15.002196098546934,-11.739441880419163
826,-11.328819838001094,-15.807945917252354,-14.163449051339876,-10.725561487469804
827,-10.316286037479186,-14.508375899602356,-13.358248939466277,-9.7789520443561
828,-9.365595065365486,-13.244253210591724,-12.61181032422226,-8.925907864301708
829,-8.503733386768934,-12.04660285151747,-11.945697673028908,-8.18724824114496
830,-7.752475560357707,-10.942308257218473,-11.377029563428502,-7.577448240190746
831,-7.127558436818763,-9.953296073616947,-10.917904941700899,-7.1040933742076335
832,-6.638182071472285,-9.095978649916711,-10.575073044702656,-6.767686631406596
833,-6.286857206911484,-8.380967510853566,-10.349855363760012,-6.561816778003199
834,-6.069598222944195,-7.813055331681933,-10.238315072539848,-6.473676946188342
835,-5.976440026130121,-7.391449310856523,-10.231657300633774,-6.484903409601192
836,-5.992238987729948,-7.110226257327214,-10.31683305780024,-6.572687319153458
837,-6.097702809391903,-6.958969871230147,-10.477310871466212,-6.711097933119074
838,-6.270583308363708,-6.923544091602697,-10.693973649098751,-6.872545321743444
839,-6.486959907201944,-6.986953163987354,-10.946094106666607,-7.029303984128788
840,-6.7225403116547415,-7.130239162224026,-11.212340456507947,-7.155016473378579
841,-6.953907913626049,-7.3333707108902315,-11.471764846092691,-7.226097891422865
842,-7.159652537730524,-7.576082127378059,-11.704730135465129,-7.222967969011304
843,-7.32133140421676,-7.838629530864072,-11.893735644318523,-7.1310471034272735
844,-7.424219940341474,-8.102439044714151,-12.0241091118386,-6.941465811666812
845,-7.457826228236556,-8.3506313616149,-12.084539771474578,-6.65145279937509
846,-7.416157430781928,-8.568415940606172,-12.06743566699714,-6.26438442723426
847,-7.29774068708986,-8.743356278934547,-11.969096631245332,-5.789496776715606
848,-7.1054138109382405,-8.865514435334049,-11.789702352271762,-5.2412797681856205
849,-6.845912192369266,-8.927487908126057,-11.53312246021214,-4.638589850596308
850,-6.529286824331084,-8.92435493720858,-11.206562457787694,-4.003532616940521
851,-6.168194212308178,-8.853545474062896,-10.820065578367048,-3.360178579191142
852,-5.777101875299814,-8.714654771452643,-10.385896172237674,-2.7331836783794956
853,-5.37145369845169,-8.509215252102276,-9.917834877233654,-2.1463906970943945
854,-4.966837724393537,-8.2404404189966,-9.430419374059564,-1.6214883473134747
855,-4.578195623183829,-7.912952413219288,-8.938166774098677,-1.1768014205276585
856,-4.21910820648222,-7.532502647804993,-8.454814417835124,-0.8262780408231307
857,-3.901185574075972,-7.105692926232708,-7.992614999678864,-0.5787291928154661
858,-3.6335840802837787,-6.63970277957381,-7.561719420809203,-0.43736182949485214
859,-3.4226657135024157,-6.142027537408205,-7.1696767284218765,-0.3996307791144367
860,-3.2718088117469097,-5.620230987304776,-6.821075080484866,-0.4574170732063142
861,-3.1813722882649165,-5.081716332760076,-6.517341174813684,-0.5975221143983245
862,-3.1488090865626015,-4.533519426914398,-6.256708224707413,-0.8024492942228186
863,-3.1689185551097183,-3.98212870368233,-6.03435461357349,-1.0514282997873692
864,-3.2342222756229875,-3.43333657575962,-5.8427070021245076,-1.3216234496051957
865,-3.3354434082364826,-2.8921270664726006,-5.671893193775662,-1.5894566958617757
866,-3.462065899700468,-2.3626038809500507,-5.51032189665084,-1.8319691274238377
867,-3.602946672656889,-1.8479619632453321,-5.345359184355071,-2.0281423564329417
868,-3.7469514961157997,-1.350503861987597,-5.164065581312814,-2.1601034728513895
869,-3.8835836417131495,-0.8717001065580109,-4.953953780432331,-2.214144203662932
870,-4.003574045900549,-0.4122904288034505,-4.703725447999949,-2.181496104216488
871,-4.099402464166327,0.027579766833080426,-4.4039465008372884,-2.058818137811955
872,-4.165721392174365,0.44819562116448464,-4.047623627841907,-1.8483699594064802
873,-4.199658317650575,0.8500917494353365,-3.6306503831014747,-1.557862616485854
874,-4.200977415171632,1.2338655257240096,-3.1520985467886,-1.1999972662003997
875,-4.172088700258725,1.5999973419837772,-2.6143391230408723,-0.7917208885361292
876,-4.117900646735595,1.9486905775646035,-2.0229868467098404,-0.35324470577983125
877,-4.045520720704541,2.2797431715039624,-1.3866718740768627,0.09311487734398384
878,-3.9638167539075475,2.5924608315454813,-0.7166519292634485,0.5242024846972254
879,-3.882860227188252,2.8856191615734574,-0.026287067186051564,0.9173205202831577
880,-3.8132797323168726,3.1574785323929224,0.6695931526363685,1.2514783869208657
881,-3.765558850488184,3.405851670004029,1.3553943724582425,1.508519626603389
882,-3.749316872780586,3.62822002401107,2.015494595209419,1.6740608601955096
883,-3.7726132177400085,3.8218913291056444,2.6349731286438396,1.7381890234609856
884,-3.8413167822091125,3.984187706473757,3.2002920531191292,1.6958792836074081
885,-3.958579849405136,4.112651386765267,3.6998948560044513,1.5471139846367057
886,-4.124452175153462,4.205253864269716,4.124692977717152,1.296701822660856
887,-4.335664621014881,4.260594051453998,4.468418775002327,0.9538150075147201
888,-4.5856032362772225,4.278071772412911,4.727832275323241,0.5312791473344275
889,-4.864484729156168,4.258024546650992,4.902778443395152,0.044664957561896236
890,-5.159733227082952,4.20181792841418,4.99610089067122,-0.488758249962914
891,-5.456546896975851,4.111882516425856,5.013426386554513,-1.05114046750765
892,-5.7386318081059144,3.9916940516801005,4.9628415575437375,-1.6251708250353574
893,-5.989070171912798,3.8456966269384223,4.854488297064925,-2.1951316032129196
894,-6.191281455991142,3.6791727143671293,4.700107393790155,-2.747824591608287
895,-6.330028426515649,3.4980671482946644,4.51256070725955,-3.273317698359972
896,-3.59265648496622e-10,-1.9804689425576293e-10,2.711996613968262e-10,-3.0140082456974497e-10
897,-3.948256047824558e-09,-3.347152399255047e-09,2.8822585730583886e-09,-5.243723903215271e-09
898,-4.7901481148047275e-08,-3.853369401172638e-08,3.5114298629712935e-08,-5.9540580922375445e-08
899,-3.600938855961557e-07,-2.8491126218141667e-07,2.6632410583346425e-07,-4.4171005889638363e-07
900,-2.0424460065884367e-06,-1.5807630122910596e-06,1.525026521466573e-06,-2.4640986869056145e-06
901,-9.30510490345085e-06,-7.02862345233605e-06,7.011448662172693e-06,-1.1044337804535185e-05
902,-3.5549012590286555e-05,-2.616822802783026e-05,2.7054785780957055e-05,-4.1543727603650905e-05
903,-0.00011743358091576544,-8.41761101221431e-05,9.03460078456269e-05,-0.00013524770574802424
904,-0.00034315669562700934,-0.00023950911766634845,0.00026719029909814517,-0.0003899169244043139
905,-0.000902952362270068,-0.0006140231336131718,0.0007125628423467036,-0.0010134289679668558
906,-0.002170444311466709,-0.0014395776766746617,0.0017387201556619493,-0.002408971177426575
907,-0.00482284973192111,-0.0031245573250002433,0.003928579182217661,-0.005299365860334483
908,-0.010006088541024551,-0.006342763936458523,0.008301800925690671,-0.010896097887158833
909,-0.01954823940106276,-0.01214607271533393,0.016545603815181394,-0.02111597451020448
910,-0.03622156464181892,-0.022101090336190773,0.031321495082471305,-0.03884518901182498
911,-0.06404961790742897,-0.038448659345644204,0.056657121877631375,-0.06824674133107361
912,-0.10865131393907737,-0.06428299525978437,0.09842865849602479,-0.11510230373284845
913,-0.1776083755339853,-0.10374432009896994,0.1649332281137176,-0.18717373352773173
914,-0.28083628635217917,-0.16221506041451042,0.26754238501207794,-0.29456282098134584
915,-0.43093219104912484,-0.24650546984765465,0.42141676523125793,-0.45004111384584106
916,-0.6434664585983181,-0.36501059067145836,0.6462486767471018,-0.6693153599626132
917,-0.9371783859687773,-0.5278174553008617,0.966984115955315,-0.9711888985004479
918,-1.3340320227362796,-0.746739910510112,1.4144589242792938,-1.3775762025954583
919,-1.8590867076255646,-1.0352586240745585,2.025866608113036,-1.9133278581037247
920,-2.540140327859174,-1.4083458698219762,2.8449592840436466,-2.605827735818668
921,-3.40711214127551,-1.8821585646027623,3.921870298768745,-3.4843334958823076
922,-4.491146144395882,-2.4735888428467465,5.312439723479012,-4.579045717949647
923,-5.823434005757092,-3.1996690724766808,7.076924077613821,-5.919908854767062
924,-7.433776980179571,-4.0768374504157565,9.277980962891963,-7.535167460216898
925,-9.348927229089378,-5.120080702469759,11.977838622031499,-9.449722092812406
926,-11.590769331258743,-6.3419814009031,15.234590614589639,-11.683349463882978
927,-14.17442166123952,-7.751708381432332,19.097597308704334,-14.248869592768783
928,-17.10635383211216,-9.353998867847835,23.60202925823252,-17.15035785326267
929,-20.38262977472939,-11.148189350045513,28.76265224273427,-20.381510832165624
930,-23.987394635591365,-13.127357946594696,34.56702806780601,-23.924280513206245
931,-27.891725871958922,-15.27764304064441,40.96838537960438,-27.74789008690953
932,-32.05296271229847,-17.577800643871317,47.878495290945665,-31.80833538390881
933,-36.41461260352122,-19.999055971978056,55.16096095057908,-36.04845802544161
934,-40.90690816906945,-22.50529315934135,62.625391127746134,-40.398650120203015
935,-45.44805486177105,-25.05361145314523,70.02296878878357,-44.778216970511956
936,-49.94616978752134,-27.595257319761753,77.04394036789296,-49.09738567555501
937,-54.30186894653098,-30.07692068707959,83.31753515899237,-53.25990636059411
938,-58.4114166578282,-32.44236122411327,88.41477310514574,-57.16615211393977
939,-62.17031066875587,-34.63430849658137,91.85453113335687,-60.7165869095294
940,-65.47714288143331,-36.5965596322813,93.11311259628242,-63.815441079815024
941,-68.23755113763373,-38.27618126834349,91.63740356923876,-66.37441377246219
942,-70.36806388040928,-39.62571047672859,86.86150860401439,-68.31621295796506
943,-71.79963731691521,-40.60524307073519,78.22654533494594,-69.5777465003755
944,-72.48069432714415,-41.18429791347564,65.20305334742864,-70.11279234991166
945,-72.37949536068578,-41.343352758884265,47.31525175276502,-69.8940009832719
946,-71.485703389873,-41.07496065633702,24.166177587081386,-68.91411730448458
947,-69.81104607315186,-40.38437539521987,-4.537430699199742,-67.1863503266123
948,-67.38902669776346,-39.28963889884918,-38.96175850782678,-64.74386497638444
949,-64.27368829626768,-37.82111143936446,-79.12535847809987,-61.63841883797128
950,-60.53748908304434,-36.02045529569998,-124.88270438342371,-57.93821473202062
951,-56.2683981210997,-33.9391121268332,-175.91305300459436,-53.725084401513755
952,-51.5663637340011,-31.63634191953084,-231.7156375881397,-49.091155664778725
953,-46.5393404559732,-29.17691521003569,-291.61196815265805,-44.13518218071873
954,-41.299080931024726,-26.628568835129727,-354.75570041519177,-38.958729375987616
955,-35.9569065166675,-24.059347686562326,-420.1501710027834,-33.662411525055255
956,-30.619664489399877,-21.534960064565567,-486.67330045349655,-28.342363964636355
957,-25.38606189389638,-19.116272106015547,-553.1091593840192,-23.087112542975042
958,-20.34353764595411,-16.85705762562349,-618.1851012175675,-17.97497177072885
959,-15.565797882962043,-14.80210437167846,-680.6130117765682,-13.072066493574354
960,-11.111097286997298,-12.985757212085327,-739.1329358582017,-8.431032098690189
961,-7.021304235111532,-11.430954561546177,-792.5571346945974,-4.090408149808816
962,-3.32174308554332,-10.148787889060204,-839.8125227330806,-0.07470237634570309
963,-0.021765391411777444,-9.138587009239014,-879.9794376581456,3.6049318687864034
964,2.884033981637943,-8.38850762045936,-912.3248169794117,6.949489517109615
965,5.414068108833647,-7.876573668938705,-936.3280826493594,9.970484807746097
966,7.597608087690637,-7.572106956213415,-951.6983599802397,12.688018271569034
967,9.472373287867976,-7.437460926321525,-958.3820605645444,15.128663748497074
968,11.082003865199859,-7.429965468984801,-956.5603192781226,17.323297213999357
969,12.47355033450116,-7.503984998524676,-946.6362685198947,19.304980243221678
970,13.695100609929364,-7.612992878447878,-929.2126331814688,21.106996373588913
971,14.79364505217078,-7.7115708451042755,-905.0606115125039,22.761119910736994
972,15.813256227413095,-7.757251709797198,-875.081444230971,24.296175485570497
973,16.793634258473276,-7.712136286888757,-840.2624429259627,25.736924732568994
974,17.769042666720637,-7.5442302863688315,-801.629528168387,27.103295420180153
975,18.767635022819448,-7.228462851835072,-760.1985027086624,28.409949420449646
976,19.811151070663836,-6.747364673313544,-716.9273475035611,29.666169927581894
977,20.914943163572975,-6.091399440567173,-672.6717779620444,30.876035721408563
978,22.088280777313365,-5.2589571325289155,-628.1461415068331,32.03884123062833
979,23.334872597057526,-4.25603078455594,-583.8914878665413,33.149715429409405
980,24.653542175371356,-3.0956094425170426,-540.2523160622251,34.2003898119095
981,26.038993707561232,-1.7968287810472972,-497.3631141409489,35.18006520068589
982,27.482608682584207,-0.38392716004746513,-455.1453765310966,36.07632853873714
983,28.973221266781575,1.1149411418459039,-413.31532650023723,36.87607369501293
984,30.49782977842958,2.668982002326199,-371.40210432250495,37.56638453017057
985,32.04221248299597,4.246073411923696,-328.77572216993644,38.135343759450855
986,33.59142748267706,5.814061669911273,-284.6836515536686,38.57273738667255
987,35.13018792372947,7.341993422074428,-238.29451513371157,38.87063142132721
988,36.643114712581365,8.80123977036048,-188.74701816161482,39.02380509098734
989,38.114879169693076,10.166474463416474,-135.2019900397099,39.03003250174789
990,39.530256932423896,11.41647495654533,-76.89522559178067,38.890212296629244
991,40.87412150357534,12.534722592720705,-13.188727474022963,38.6083519494185
992,42.131410332115365,13.509786131384711,56.382038391595735,38.191419568817956
993,43.28709799634687,14.33548108854142,132.06715104654307,37.64908136257575
994,44.326209577162565,15.010805773446501,213.8695713187884,36.99334697673544
995,45.233902899839954,15.539663366682994,301.52256448517636,36.238147613970305
996,45.99564108336386,15.930387738764614,394.47857014046804,35.39887287801381
997,46.59746756025161,16.19509874857422,491.91040839610014,34.491891727941045
998,47.02638511532212,16.348920079110826,592.7251784503733,33.534080847924066
999,47.270829548352616,16.409098864268444,695.5906314672532,32.542380441840514
1000,47.32121803187156,16.39407086011158,798.9732084160571,31.533393092940866
1001,47.17054263427835,16.32251733080482,901.1863526687313,30.52303614660087
1002,46.81497156947118,16.21245980062791,1000.4471674378717,29.52625244618362
1003,46.254415001821044,16.080436376509642,1094.9390213311344,28.55677870045824
1004,45.49300948845404,15.940798568032712,1182.877342407481,27.626965928705317
1005,44.5394755585533,15.805160808942405,1262.575609106822,26.747642693955328
1006,43.40730679380009,15.682026535603072,1332.508466019748,25.9280095141799
1007,42.11475579987835,15.576605166215167,1391.368975324676,25.175552008693124
1008,40.684592646560404,15.490824009019871,1438.1172624826918,24.495961157802657
1009,39.143624130692835,15.423528509721868,1472.0182179515932,23.89305146404662
1010,37.521977035513046,15.370853871267366,1492.6664556207963,23.368671671021325
1011,35.85216428339145,15.326741538174522,1499.9973742513757,22.922607588402172
1012,34.167968346412025,15.283566028964879,1494.283884171962,22.55248197828158
1013,32.50319044462229,15.232831644421397,1476.1191062522842,22.253661857563014
1014,30.890325737987936,15.165895187800112,1446.3860797105306,22.01918833759121
1015,29.359233124694924,15.074670191271192,1406.2161858314907,21.839747715289054
1016,27.93587235198661,14.95227034992487,1356.9385652326866,21.703704306380082
1017,26.641180584658663,14.793554682971351,1300.0232418875053,21.59721514241953
1018,25.49015517586524,14.595544084107699,1237.0209405657029,21.50444398005744
1019,24.49119969877974,14.35768781448479,1169.5026790547045,21.40788728653965
1020,23.645776967383775,14.081968543921617,1099.0021276946447,21.288818249167143
1021,22.948396560616565,13.772844992522733,1026.9634643971265,21.127846792530093
1022,22.386946119679838,13.437041339546374,954.6970338369626,20.90558460024134
1023,21.943356442919267,13.083201669065868,883.3445761345096,20.60339492681488
1024,3.888825367236213e-11,-6.5173578780258e-11,1.1132411628672226e-10,3.2178124006153256e-12
1025,8.9208791214573e-10,-1.337849961339375e-09,1.8925657835746164e-09,2.7916319097572203e-11
1026,8.538873816050097e-09,-1.5028304519425146e-08,2.097829408816506e-08,-9.905929929489715e-10
1027,5.292093977977405e-08,-1.1111660186975767e-07,1.520154443263205e-07,-1.668969862039213e-08
1028,2.3435734202966384e-07,-6.158717224405708e-07,8.220038954353153e-07,-1.4488878594697842e-07
1029,7.771506132746604e-07,-2.7369031598474676e-06,3.5575156370375016e-06,-8.728369944991608e-07
1030,1.924767417303473e-06,-1.0190203692128652e-05,1.2871493824292389e-05,-4.0686267160061895e-06
1031,3.1979727298399935e-06,-3.27958671388542e-05,4.017435231103288e-05,-1.556610884298318e-05
1032,1.0978318464792915e-06,-9.339820779252574e-05,0.00011075117977641696,-5.077836341780925e-05
1033,-1.604690828235598e-05,-0.0002397097429309921,0.00027470113897135946,-0.00014514459581382261
1034,-7.747661084839219e-05,-0.0005626494585905356,0.0006222294236770265,-0.00037118899406709166
1035,-0.00024474201664841853,-0.001222416203911457,0.0013029130425861873,-0.0008634881965165732
1036,-0.0006323774696815407,-0.0024829702384036294,0.002547690931586153,-0.0018520709058008587
1037,-0.0014346377260528252,-0.0047549249592152044,0.004691503273508111,-0.0037039793399801504
1038,-0.0029581898181679986,-0.008646180668156797,0.008193835033878244,-0.0069720782254187996
1039,-0.005660553266948056,-0.015019006464398415,0.013653861594799805,-0.012449692318452473
1040,-0.010193926584977963,-0.025051648565252695,0.0218163928922172,-0.02122916679672071
1041,-0.017453689509099608,-0.04030185155748355,0.033564247276239786,-0.0347618587067063
1042,-0.02863030471296375,-0.06276887790209147,0.04989209521919313,-0.054916299405932345
1043,-0.045262590722992796,-0.09494973009681527,0.07185633368594546,-0.08403027058115314
1044,-0.06928943428159413,-0.1398844162417141,0.1004955249839513,-0.12495134012175395
1045,-0.10309605294182335,-0.20118440455428313,0.13671667105814028,-0.18105922046972914
1046,-0.14955011516178837,-0.2830380743839171,0.18114436468080788,-0.2562625628422111
1047,-0.21202258238695298,-0.3901871584196326,0.23393267195514786,-0.35496294550405466
1048,-0.2943881333075691,-0.5278690120827829,0.2945433102279049,-0.48198010585549056
1049,-0.40100036901860925,-0.7017210641991712,0.36149794889610876,-0.6424347904768047
1050,-0.5366375831195983,-0.9176459176627884,0.43211687424918566,-0.8415885689608191
1051,-0.7064157370995224,-1.1816380815376932,0.5022604123539811,-1.0846431196073552
1052,-0.9156665290515321,-1.4995759610305939,0.5660929707659149,-1.3765044901622712
1053,-1.169780085965805,-1.8769852328568333,0.6158920179567624,-1.7215204515359033
1054,-1.4740136615004933,-2.3187818583182485,0.6419254462224807,-2.123201216752651
1055,-1.8332695223472832,-2.8290046148996817,0.6324203657594845,-2.5839355475283647
1056,-2.25184686876184,-3.4105481341474975,0.5736442734920507,-3.104715737498653
1057,-2.7331742714438287,-4.064908075322132,0.45011568322373463,-3.684886195357207
1058,-3.279530879578847,-4.7919502822752165,0.24495564871346956,-4.321931171161495
1059,-3.891766556481688,-5.589715564088115,-0.059615756929102516,-5.011317185307601
1060,-4.56903294836936,-6.454271031454273,-0.48164288556648843,-5.746404526854139
1061,-5.308539066193703,-7.379617631167669,-1.0386729256982148,-6.518439627624528
1062,-6.105346082921725,-8.357661604239949,-1.7468951398149084,-7.316636355336361
1063,-6.952216566250233,-9.378255109173365,-2.6202174458602436,-8.12834969321106
1064,-7.839533073641682,-10.429308351452233,-3.6693263321120004,-8.939340326242757
1065,-8.755299763292154,-11.496972485661933,-4.90078333610151,-9.734123749130294
1066,-9.685238404490065,-12.565889585702195,-6.3162153445743625,-10.496393042423762
1067,-10.612987091000157,-13.619503373061683,-7.91165613796336,-11.209500770049326
1068,-11.520406285975247,-14.640422354723547,-9.677092579926986,-11.856982737068112
1069,-12.387992648348623,-15.610825627995336,-11.596260760459586,-12.423104608006263
1070,-13.195396366398782,-16.512900817834474,-13.646725629477888,-12.893411497369003
1071,-13.922032475457229,-17.3293032517719,-15.80026290241273,-13.255260484654423
1072,-14.547771067308856,-18.043625326892705,-18.023545087356442,-13.49831654758473
1073,-15.053685734352156,-18.64086486668627,-20.279115341395574,-13.614993643246303
1074,-15.422834339535143,-19.10788097849652,-22.526614558848326,-13.600824547595753
1075,-15.641041501431513,-19.43382549788074,-24.724209760856294,-13.454745479030203
1076,-15.697648330753287,-19.61053764355221,-26.83015674709251,-13.179284373559167
1077,-15.586192362609205,-19.63288915603603,-28.80441829703588,-12.78064482233809
1078,-15.304979763808324,-19.4990671119474,-30.610252122898018,-12.268680916469144
1079,-14.857513090550428,-19.210781899441255,-32.21568108574426,-11.656761260004469
1080,-14.252741288321484,-18.77338858274302,-33.59476232961231,-10.961522945367376
1081,-13.505104284317452,-18.195911110273517,-34.728581841350994,-10.20251833041643
1082,-12.634352377382847,-17.49096058621252,-35.605915957649685,-9.401759308660763
1083,-11.66513047138429,-16.674541191295447,-36.22352049647246,-8.583165831844097
1084,-10.626328564221197,-15.765740390311404,-36.586030217182206,-7.771927992781297
1085,-9.550212091524362,-14.78630384728329,-36.70547469522817,-6.993794011684384
1086,-8.471357976513355,-13.760099979332146,-36.60043983696826,-6.27429984108782
1087,-7.425433907042291,-12.712484209792324,-36.294925586383165,-5.637959623014475
1088,-6.447868868244594,-11.669578517287642,-35.81696840900155,-5.107439696272018
1089,-5.572471665067284,-10.657487489245453,-35.19711068804039,-4.702741999769765
1090,-4.830060310839076,-9.701477325711348,-34.466807297474745,-4.44042523193206
1091,-4.247168033907881,-8.825148601556076,-33.6568618317754,-4.332893742310824
1092,-3.844890812579642,-8.049636588694467,-32.79598114282939,-4.387784690379955
1093,-3.6379366763049656,-7.392874192728263,-31.909527333815667,-4.607483410080073
1094,-3.633928631350122,-6.868951842543442,-31.018531911126104,-4.988795001463874
1095,-3.83300131456236,-6.487605930478241,-30.139018533031383,-5.522796701530264
1096,-4.22771693927147,-6.253862695597685,-29.281660056595417,-6.194890380569697
1097,-4.803309700937491,-6.167857961004673,-28.451773895693112,-6.985067586077068
1098,-5.538250696049984,-6.224845170964711,-27.649638567842764,-7.868391137751969
1099,-6.405108672024883,-6.415395155440469,-26.871095087958782,-8.81568772788969
1100,-7.371666460207631,-6.725781520760391,-26.10838074612008,-9.794435740971482
1101,-8.40223947699142,-7.138536135922333,-25.35113067122407,-10.769822140605124
1102,-9.459131961792279,-7.633150476701604,-24.587475136636876,-11.70593249699689
1103,-10.504159439845226,-8.186891152059578,-23.805158173222146,-12.567029818462972
1104,-11.500162915281479,-8.77569221950572,-22.992605790650742,-13.31887146471355
1105,-12.412441812179022,-9.37508319826711,-22.139879544627405,-13.930009473781235
1106,-13.21003857043562,-9.961110188607636,-21.239462523389356,-14.373018352624513
1107,-13.866817596545689,-10.51120824741707,-20.286838872534464,-14.625595882822914
1108,-14.362294249830404,-11.004986115612652,-19.28084347669544,-14.671486820086729
1109,-14.682184746658383,-11.424889398609654,-18.223774155744092,-14.501186368596148
1110,-14.818664108452284,-11.756715133584626,-17.121273727982906,-14.112389574381286
1111,-14.770335310594687,-11.989958961989421,-15.982002799055202,-13.51016367458671
1112,-14.541927497508135,-12.117985359807793,-14.817135549849784,-12.70683229530429
1113,-14.143753706956637,-12.138020924014642,-13.639719688275502,-11.72157262220045
1114,-13.590968452159464,-12.050979872469426,-12.463947696204192,-10.579738777234384
1115,-12.902672407437496,-11.861139023382428,-11.304389312460595,-9.311936161191113
1116,-12.100915166806729,-11.575686059243944,-10.175234719742862,-7.952882031026439
1117,-11.209647679869322,-11.204169578951769,-9.089594313817502,-6.540096704729954
1118,-10.253673823556008,-10.75788227098293,-8.058894587784318,-5.1124771961509525
1119,-9.257646082015752,-10.249209670928566,-7.092401204398366,-3.708810443761568
1120,-8.24514391191046,-9.690976631240733,-6.196890471408148,-2.3662862432059217
1121,-7.2378655220959365,-9.095822048799619,-5.376479959201751,-1.1190702430208699
1122,-6.254955056988422,-8.475629692597929,-4.632618606984499,0.0030051416812038865
1123,-5.312478265545169,-7.841039219397816,-3.964226940270202,0.9755790717350725
1124,-4.423051417837642,-7.201056706916553,-3.36796947894112,1.780684206785488
1125,-3.5956211103239135,-6.5627784068396435,-2.8386343925223585,2.407415350827939
1126,-2.835387076810645,-5.931235182376709,-2.3695902496930845,2.8523180174275296
1127,-2.143856388681804,-5.309358653310726,-1.953286443370698,3.1194809617705523
1128,-1.5190155043000226,-4.698063895705149,-1.581762647761527,3.2203279598740955
1129,-0.9556062572464977,-4.0964380594409455,-1.247133421649196,3.1731154256281537
1130,-0.4454925029008927,-3.5020197726628903,-0.9420167367581409,3.0021536907981163
1131,0.021894952414030167,-2.911150814791023,-0.6598795935081211,2.7367808103571964
1132,0.45904693050533846,-2.3193792539916376,-0.3952798389667244,2.410128295660899
1133,0.8798097528245234,-1.7218919757704478,-0.1439905742545247,2.0577276651866105
1134,1.298776742911742,-1.1139541988656467,0.09699815895327572,1.7160144394039334
1135,1.7306507212041717,-0.4913341101794314,0.32959687889688793,1.4207915991216034
1136,2.189592334824435,0.14930789418934323,0.5548410589499273,1.20571720647028
1137,2.6885709832453113,0.8100837631612898,0.7732021581077316,1.100880697079038
1138,3.238737285327017,1.4916117343843465,0.9849585647911083,1.1315292419387932
1139,3.848838145348423,2.192831844337024,1.1905952871266057,1.316999602610009
1140,4.524697131513948,2.9109112417990586,1.391199140203387,1.669902258813512
1141,5.2687837697997795,3.6412432069969918,1.5888164929137072,2.195593645703706
1142,6.0798951778433095,4.377539224706808,1.7867432267945282,2.8919595772945343
1143,6.952971878074675,5.112008919406875,1.9897211137280733,3.7495188822371164
1144,7.8790663081775545,5.83561841822517,2.2040210235745445,4.751841531361343
1145,8.845477384148184,6.538414033088025,2.437400823533801,5.876260818961071
1146,9.836057650484692,7.209895273329634,2.698934150837484,7.094845320918651
1147,10.831691458009445,7.83941923664332,2.9987149562159505,8.375584211106936
1148,11.810933639645551,8.416617413537052,3.34745130603928,9.68372971238815
1149,12.750788727004675,8.931805850486882,3.7559697976457525,10.983233423627361
1150,13.627601430425074,9.376370397817494,4.23465846505575,12.238209319865375
1151,14.418020669474112,9.743110350697648,4.792880680264528,13.414355626488259
1152,-9.476556770947607e-11,-1.447615454767232e-10,-1.0472503625399115e-10,-9.476958498456211e-11
1153,-9.008714417910683e-10,-1.8131786362994465e-09,-1.794560523760655e-09,-1.3150310982444155e-09
1154,-1.2189220318326312e-08,-2.132888923290488e-08,-2.0308115492174042e-08,-1.679735176219785e-08
1155,-9.784111685706738e-08,-1.5628776570608147e-07,-1.496647519523038e-07,-1.3259179556473018e-07
1156,-5.881974477041081e-07,-8.61396151517065e-07,-8.27900112472519e-07,-7.817295573590031e-07
1157,-2.8149633181162204e-06,-3.8074579167938433e-06,-3.67395237326713e-06,-3.66884795947944e-06
1158,-1.1198240936337889e-05,-1.4103283375429655e-05,-1.3669353124497443e-05,-1.4319485907808626e-05
1159,-3.8205761758729016e-05,-4.5183666748482215e-05,-4.400281058267076e-05,-4.796787352093503e-05
1160,-0.00011445347034671627,-0.00012819280351084424,-0.00012547842446761754,-0.00014123904366135972
1161,-0.00030675344955475773,-0.00032808904754696435,-0.00032285756793371613,-0.0003725373799782785
1162,-0.0007469163087894562,-0.0007687709094479952,-0.0007606884342648489,-0.0008939498510017269
1163,-0.0016735853996957075,-0.001669301650455761,-0.0016610124283549658,-0.0019768633933128703
1164,-0.0034884316488773483,-0.0033927631721962126,-0.003394792499888175,-0.004072534540139061
1165,-0.006826968913664805,-0.0065085578656311335,-0.00654806912176055,-0.007887801769108558
1166,-0.012643082553159251,-0.011868085987028505,-0.012002777598982916,-0.014475002304365749
1167,-0.02230507375563089,-0.020692723368859748,-0.021030954981307005,-0.025333916869217616
1168,-0.03769944568894988,-0.03467177479935328,-0.03539973014192115,-0.04252207373747354
1169,-0.0613368339736612,-0.05606658760022109,-0.05748302907931884,-0.06876803355703061
1170,-0.09645250958803091,-0.08781520677437438,-0.09037427745286729,-0.10758034277793121
1171,-0.14709184635264744,-0.13362996599000607,-0.13799255568967603,-0.16334278066482602
1172,-0.21816924973811072,-0.19807842914849225,-0.205172751844158,-0.24138447924699175
1173,-0.315487527280468,-0.28663637958327076,-0.2977284721769087,-0.3480117674935992
1174,-0.44570409211141226,-0.4057004863407383,-0.4224751548037535,-0.4904876953916487
1175,-0.6162311649129257,-0.5625481037337707,-0.5872003370434026,-0.6769455321506245
1176,-0.8350596097432069,-0.7652326930416131,-0.8005687112140751,-0.9162244175455978
1177,-1.1105000833535679,-1.0224056314167551,-1.0719516444167976,-1.21761875104803
1178,-1.4508405873136994,-1.3430587299016423,-1.4111742661910665,-1.5905377637723788
1179,-1.8639258848329014,-1.7361863845975836,-1.8281778236826507,-2.0440777676491946
1180,-2.3566712515946824,-2.2103717417402393,-2.3326004522261967,-2.5865165013986413
1181,-2.934530141759056,-2.7733072292982635,-2.9332854202969907,-3.2247462193363217
1182,-3.6009419589707914,-3.4312659700939845,-3.6377319448344587,-3.9636690581241094
1183,-4.3567916484494456,-4.188546608088784,-4.451509562501395,-4.805584241075145
1184,-5.199916743960712,-5.0469194800676895,-5.37766249316757,-5.749601453173094
1185,-6.1246995241098485,-6.005106474575069,-6.416135141792464,-6.791118078798887
1186,-7.121781659697048,-7.058329812556462,-7.563253406715192,-7.921399623633418
1187,-8.177935894669272,-8.197966003760206,-8.811298326852748,-9.127302215694847
1188,-9.276123613076514,-9.41133993455432,-10.148208311949894,-10.391173149168408
1189,-10.395758707270259,-10.681690227436672,-11.557443455482604,-11.690959793458118
1190,-11.513187217168582,-11.988330489437931,-13.018040102480855,-13.00054872400559
1191,-12.60237930142271,-13.307022008333785,-14.504876100278342,-14.2903458214205
1192,-13.6358158239721,-14.610562167272878,-15.989157315843752,-15.528094650913923
1193,-14.58553715826463,-15.869580005274782,-17.439124567297288,-16.679915417611415
1194,-15.424307992650851,-17.05351679800599,-18.820967656566683,-17.711531293697814
1195,-16.126840377952508,-18.131756207142107,-20.09992040243464,-18.58963424380602
1196,-16.671009301318023,-19.07485648392755,-21.24149823667411,-19.283329964442192
1197,-17.038991430244565,-19.855827247893817,-22.212828873815287,-19.765592170983314
1198,-17.218258712998423,-20.451386354367248,-22.984017646303975,-20.014650976873572
1199,-17.202364131053013,-20.843128879593625,-23.529483006525215,-20.015238910808545
1200,-16.991466840771587,-21.018540817168116,-23.829194998084585,-19.759621457588295
1201,-16.592557593711057,-20.97179484146023,-23.8697504899923,-19.248346732213317
1202,-16.019361903619895,-20.704274468632406,-23.645223775356055,-18.49066066816778
1203,-15.29191686013016,-20.224785701501045,-23.15773961694208,-17.504549289842924
1204,-14.435836663623205,-19.549431188930697,-22.417727669876573,-16.316387626793855
1205,-13.481300742126718,-18.701140121884936,-21.443831872185715,-14.96019482395478
1206,-12.461815400563141,-17.708866442912623,-20.262465164247956,-13.476516046074329
1207,-11.412814057813568,-16.606487284606015,-18.90701785698344,-11.910972663333197
1208,-10.370170929906775,-15.431451559331638,-17.416746061509162,-10.312541506828886
1209,-9.368707716117031,-14.223244146005074,-15.83538371451106,-8.731640397761053
1210,-8.44077207964361,-13.021742983174011,-14.209536812269393,-7.2181094865394035
1211,-7.614960801465005,-11.865553744981263,-12.586930647142903,-5.819185383276308
1212,-6.915050003390327,-10.790408937961184,-11.014589435095688,-4.577567024081259
1213,-6.359180751748642,-9.82771500686975,-9.537032286109671,-3.5296685558359937
1214,-5.959331704180452,-9.003322449932032,-8.194569667747691,-2.704145353141539
1215,-5.72109248747209,-8.336580669763404,-7.021780239921665,-2.1207651752932013
1216,-5.643733406271803,-7.839722207967519,-6.046239287358402,-1.7896781891807918
1217,-5.720550024842556,-7.517601355322275,-5.287557401001833,-1.7111182704612633
1218,-5.939446330716426,-7.36779120553327,-4.75677228338341,-1.8755449821013124
1219,-6.283708626699863,-7.381022363340965,-4.456118585425925,-2.2642125393008485
1220,-6.732914984462857,-7.541927138879847,-4.379181598338979,-2.8501304853977096
1221,-7.2639223876721495,-7.830036351792827,-4.511421527512198,-3.5993619711915894
1222,-7.85187539579642,-8.22096298046692,-4.831036980810605,-4.472590264455697
1223,-8.471185372221896,-8.687698550097755,-5.310120123398476,-5.426872733288365
1224,-9.096437078545994,-9.201944891360744,-5.916042521536657,-6.417494330163561
1225,-9.70318879092132,-9.73540574260997,-6.613000677953546,-7.39982978090665
1226,-10.268642416872275,-10.260969422602797,-7.363644178985348,-8.33112559361962
1227,-10.772170720325368,-10.75372478695324,-8.130707472003007,-9.172119682940949
1228,-11.19569901091132,-11.191767038886402,-8.878568591070014,-9.888427635098614
1229,-11.523947838091198,-11.556766488569673,-9.574664350102621,-10.45163969746171
1230,-11.74455070088326,-11.834290752713605,-10.190701152812288,-10.84009049543272
1231,-11.848066176555951,-12.013887881531698,-10.703612946351656,-11.039282947082906
1232,-11.827906860654496,-12.088953230165785,-11.09623223388197,-11.041967420594663
1233,-11.680208102888423,-12.056415608390294,-11.357655631720943,-10.847895481286276
1234,-11.403657903979113,-11.91628749963091,-11.483301375954575,-10.46328344896555
1235,-10.999306159714614,-11.67112952238487,-11.474671638179037,-9.90003379563731
1236,-10.47036741495137,-11.325480556231753,-11.338846692176316,-9.17477176990049
1237,-9.822027133268449,-10.885302262613848,-11.087750179415695,-8.307760434951467
1238,-9.061257609047514,-10.35748042518425,-10.737234305478466,-7.321759428344546
1239,-8.19664622363144,-9.749416339429095,-10.30604033831089,-6.240891301824897
1240,-7.238235955859088,-9.068730194167308,-9.814693029116842,-5.0895744645512995
1241,-6.197375941368719,-8.323086053506168,-9.284387580413952,-3.8915739778021927
1242,-5.086578524510689,-7.520135736179083,-8.735924729471918,-2.669211142273862
1243,-3.919378510319753,-6.667567619963687,-8.188743774132918,-1.4427605659996998
1244,-2.7101901357845866,-5.773237150318834,-7.660095371934065,-0.2300498555568877
1245,-1.4741574859229138,-4.845349218177044,-7.164386256464196,0.9537368254640345
1246,-0.2269946553310915,-3.8926590442298057,-6.71271720790228,2.096063329943933
1247,1.0151872969839095,-2.924657754239126,-6.3126242981294265,3.1868779251491794
1248,2.2360688443390138,-1.9517113147170269,-5.968022170994996,4.218314611032796
1249,3.419327647241855,-0.9851264475656347,-5.6793374404292445,5.184299125272075
1250,4.5488625681254335,-0.03712411669147052,-5.443810728252514,6.080102941388291
1251,5.609036501656327,0.8792904827271912,-5.255937889525601,6.90188888103041
1252,6.584937245926355,1.7505634046651275,-5.108015054224076,7.646289156559579
1253,7.4626540528443215,2.5629257845278866,-4.990748566808435,8.310051266460679
1254,8.229565845369445,3.3028105481568373,-4.89388993499536,8.889779762507008
1255,8.874635575253413,3.95732951665425,-4.806857448484446,9.381793125658865
1256,9.38870386043762,4.51478331821438,-4.71930996032464,9.782105249717247
1257,9.764773657600315,4.965173524665612,-4.621643961927277,10.08653083228284
1258,9.998276237792453,5.3006857183050435,-4.50539200251551,10.290903894147332
1259,10.087307118555481,5.516113617201904,-4.363508162524438,10.39138936317061
1260,10.032819112087878,5.609197804311731,-4.190534245714215,10.384859892636133
1261,9.838758502255672,5.580857615551338,-3.982648253707239,10.26930436498591
1262,9.512130032613667,5.435300978274829,-3.737604193126907,10.044231377500546
1263,9.062977271535301,5.18000392037343,-3.454579000992035,9.711030697736568
1264,8.504267410266205,4.825558577648792,-3.1339479295896515,9.273258375645856
1265,7.851673533316326,4.385395350395082,-2.77701371295877,8.736816630133958
1266,7.123252459312756,3.8753909241562305,-2.3857168413678105,8.110007303643478
1267,6.339021678509132,3.3133789440925576,-1.9623540685022092,7.403446840914603
1268,5.5204441671288444,2.7185839720370493,-1.5093297983466298,6.629840725232804
1269,4.689834690234339,2.1110019777162177,-1.028960492103625,5.8036253811747756
1270,3.8697054721353403,1.5107519844594852,-0.5233461703557446,4.940495038291327
1271,3.082072814841164,0.9374237784229414,0.005683838740252131,4.056839291899477
1272,2.347749215392539,0.4094458637679646,0.5565507956183177,3.169123505334584
1273,1.6856477286833647,-0.056503665308263645,1.127838504082883,2.293248494503804
1274,1.112126561638917,-0.44602287597451185,1.718149295873529,1.4439279282848756
1275,0.6404020408772565,-0.747430600918491,2.325920428333176,0.6341215100798928
1276,0.2800568569364759,-0.9521152139633232,2.949220461624411,-0.12544080941443383
1277,0.03666771031216892,-1.054776221013555,3.5855470919185435,-0.8266135676996373
1278,-0.08842777399426831,-1.0535507954601755,4.231648411104047,-1.4640468282203938
1279,-0.0982103962471922,-0.9500209823497963,4.8833884425173535,-2.0352398814972377
1280,-7.838359925962269e-11,-7.247685497866731e-11,-9.729549611593443e-11,-2.0363962131358628e-10
1281,-1.4265127900856584e-09,-1.586626028726758e-09,-1.5857839532082216e-09,-1.2779694693864377e-09
1282,-1.7627213298299237e-08,-1.7966181018295622e-08,-1.8754100996046103e-08,-1.8350095858454845e-08
1283,-1.390468789931611e-07,-1.3446083272911199e-07,-1.4144356482390054e-07,-1.3980783301120345e-07
1284,-8.159827249763167e-07,-7.537989278610422e-07,-8.007610465163898e-07,-8.01752728953641e-07
1285,-3.8054246133880138e-06,-3.386417357622911e-06,-3.6324955405846563e-06,-3.6628230569189474e-06
1286,-1.4738729405609273e-05,-1.2738708359716728e-05,-1.3794345377775394e-05,-1.3920245238260745e-05
1287,-4.8931585537753195e-05,-4.1394523966337214e-05,-4.5244541833343386e-05,-4.5429521315088145e-05
1288,-0.0001426303471976131,-0.00011894828164733329,-0.00013120550810862832,-0.00013037605208030524
1289,-0.0003720601000684315,-0.00030783980263965035,-0.00034260421645714744,-0.00033531572523198865
1290,-0.0008822139581408896,-0.000728190232810117,-0.0008174261990492106,-0.0007849432647756605
1291,-0.0019264538056787321,-0.0015935987937050259,-0.0018035309288012115,-0.0016942142134382704
1292,-0.003916996573045522,-0.0032592173895216845,-0.0037165301273080513,-0.0034086899653638274
1293,-0.00748554418342812,-0.006282636858441496,-0.007213029015399654,-0.0064523943594452515
1294,-0.013552654823457968,-0.011497307469987072,-0.013278052745245385,-0.011581990668848909
1295,-0.02340372841321118,-0.020097376717141586,-0.023324017323143018,-0.01984555890018694
1296,-0.03876839681686361,-0.03373183745920296,-0.03929713705387775,-0.032643370823827754
1297,-0.06189858575348809,-0.054604594131498776,-0.06378563135014902,-0.05178690082423163
1298,-0.09563868223405451,-0.08557540515356268,-0.10012236513605488,-0.0795510171861265
1299,-0.1434794179278374,-0.1302547469371667,-0.1524726637471369,-0.1187130540175825
1300,-0.2095857568692654,-0.19308374275616585,-0.22589620093908522,-0.1725717288571803
1301,-0.2987887414624328,-0.27938878701206715,-0.3263704581699047,-0.24493879636474158
1302,-0.41653229864641916,-0.39539974635861075,-0.4607628047657416,-0.3400973180222596
1303,-0.5687684442888428,-0.5482208850762208,-0.6367391093823063,-0.46272231277531567
1304,-0.7617978414462169,-0.745745034044717,-0.8625991902825982,-0.6177622297102563
1305,-1.0020567435412495,-0.996503932876212,-1.1470332548092594,-0.8102826956859341
1306,-1.2958556166539037,-1.309450966812096,-1.4987985425158665,-1.0452770721546332
1307,-1.6490789862767228,-1.6936764861249982,-1.9263212743021463,-1.3274514413095595
1308,-2.066860186206551,-2.158060316198707,-2.4372353029768075,-1.6609944851654603
1309,-2.553248495170473,-2.710870701793411,-3.037875153534623,-2.0493452945085004
1310,-3.1108892471724676,-3.3593235271537294,-3.7327469891452734,-2.494973980575622
1311,-3.7407395234590375,-4.1091199499802435,-4.524006053107846,-2.9991909621475648
1312,-4.441842615297132,-4.963984298361191,-5.41097282836404,-3.5620006071348547
1313,-5.211183323144967,-5.925226911193511,-6.389722097825774,-4.18201357827561
1314,-6.043643028054408,-6.991358238436414,-7.452778826988395,-4.856429473735455
1315,-6.932068198593452,-8.157780655409612,-8.588952090822188,-5.581097273584235
1316,-7.867458697082396,-9.41658282464835,-9.783333043459288,-6.350655677667009
1317,-8.839273459886833,-10.756457915186619,-11.01747541374079,-7.158749126152914
1318,-9.835841635749581,-12.162761583361714,-12.269767550748211,-7.9983086854011045
1319,-10.84485792257759,-13.617718580044977,-13.515994189330442,-8.861880611786326
1320,-11.853932507866526,-15.10077864558455,-14.730074417754416,-9.741980040262398
1321,-12.851159504736751,-16.589113631861313,-15.884950496874835,-10.631443327710047
1322,-13.825663910557829,-18.058239257764498,-16.953590953913693,-11.523750843865972
1323,-14.768086447769635,-19.482737207314777,-17.910061574926264,-12.413292619653287
1324,-15.670968361128738,-20.837046930568558,-18.730610450742287,-13.295552434926616
1325,-16.529004062572675,-22.096291859394896,-19.394708860463602,-14.167191204135872
1326,-17.339138006174398,-23.237102049630874,-19.885989149418617,-15.026017662857628
1327,-18.100492844449086,-24.238394674540636,-20.193024124755137,-15.870842762098432
1328,-18.814128267997837,-25.08207542779387,-20.309899794345014,-16.70122350158124
1329,-19.482643212982246,-25.75362773982709,-20.23654400903406,-17.51711145293649
1330,-20.10964730352235,-26.242562610048083,-19.97878699792068,-18.318430179447247
1331,-20.699139287358076,-26.54270944985698,-19.548144926875672,-19.10461342310423
1332,-21.254839654687796,-26.652337084686256,-18.961333423356137,-19.874141441962568
1333,-21.779530677395684,-26.57410331724485,-18.239533504468817,-20.624115798966724
1334,-22.27445902472549,-26.314840520721244,-17.407446596073463,-21.34991253952106
1335,-22.738853495208126,-25.885192987279545,-16.492187618624577,-22.04494991758967
1336,-23.16960320917411,-25.299128708798467,-15.522074756426658,-22.70059954345045
1337,-23.561130350325858,-24.57335357890107,-14.525380983255486,-23.30625976746861
1338,-23.90547713796953,-23.726659470351333,-13.52911513840309,-23.84959806990819
1339,-24.192610337373036,-22.779239161065743,-12.557898976631995,-24.316956344146508
1340,-24.41092953221818,-21.752000635821606,-11.633000951135594,-24.693900216387014
1341,-24.547948913555004,-20.665910968154957,-10.771577761535834,-24.96588178613019
1342,-24.591107902761,-19.54139599724775,-9.986161502351012,-25.11897544700238
1343,-24.52865479561783,-18.397816713293725,-9.2844146216479,-25.14063943637253
1344,-24.350540754808385,-17.25303711545227,-8.669158109032097,-25.02045228614236
1345,-24.049259294330955,-16.12309183633374,-8.138661668088846,-24.75077355868459
1346,-23.620568938107596,-15.02195555317547,-7.6871692786783665,-24.32728235152246
1347,-23.06404377034176,-13.961410581382204,-7.305620376085797,-23.749354648367046
1348,-22.383407785169304,-12.951004426028376,-6.982516516757573,-23.020251398152666
1349,-21.586623596067643,-11.998085667261753,-6.70487621513844,-22.147102269478136
1350,-20.685723131352773,-11.107904448025822,-6.459216913042963,-21.140684417968966
1351,-19.696386027459248,-10.283762936838777,-6.232502915827582,-20.0150099858833
1352,-18.63728910249089,-9.527201277358255,-6.013001710371408,-18.786749268013974
1353,-17.529266255758664,-8.838205480536061,-5.790998224463471,-17.474527613437306
1354,-16.39433122989287,-8.215425248818415,-5.559326963565809,-16.098142245651903
1355,-15.254624921793125,-7.6563916544472805,-5.313694867584736,-14.677749826494775
1356,-14.131353571946574,-7.157726771874567,-5.052782284188297,-13.233076240913228
1357,-13.043783930576929,-6.715339641693708,-4.778124565117706,-11.782696968523746
1358,-12.008356602017873,-6.32460517382096,-4.493791347377343,-10.343429801240301
1359,-11.03796987623465,-5.980524633248598,-4.205893555580591,-8.929872411281073
1360,-10.14147429287127,-5.677868054087417,-3.9219586549122116,-7.554105964667075
1361,-9.323403925080038,-5.411300195186676,-3.6502221059945996,-6.225573482393585
1362,-8.583954946835348,-5.175492409082172,-3.39888692459796,-4.951128840014943
1363,-7.919206586365881,-4.96522301255991,-3.1754036602486804,-3.7352400910038215
1364,-7.32156509424738,-4.775468426460001,-2.9858200596220574,-2.5803203334363274
1365,-6.780398652621942,-4.601486574669647,-2.8342435316119503,-1.4871512477281863
1366,-6.2828208211549255,-4.438892954052938,-2.722450732708526,-0.45535942112073796
1367,-5.814572618881216,-4.2837286364415945,-2.649667802785466,0.516096260141567
1368,-5.360949152527667,-4.132518481686409,-2.612532689815006,1.4284663116902874
1369,-4.907716065111453,-3.9823172142517964,-2.6052384156381807,2.282817063686991
1370,-4.4419639280656416,-3.8307408308562345,-2.6198438797768677,3.07973023409401
1371,-3.9528545400099633,-3.6759810264195862,-2.6467276897598566,3.8191152478013595
1372,-3.4322212953645566,-3.5168008449419537,-2.6751513523564974,4.500144006626806
1373,-2.874995677768067,-3.3525104608886833,-2.693891581807089,5.12130776518144
1374,-2.2794429351507923,-3.1829228079544674,-2.691897993497584,5.680586193652508
1375,-1.6472014247333433,-3.0082896749896575,-2.658932254137317,6.175710150465131
1376,-0.983131228593583,-2.8292198934523958,-2.5861478383883734,6.604492847078698
1377,-0.2949877553143935,-2.6465823373413446,-2.4665754949999483,6.965199219415978
1378,0.40705532737969413,-2.461397598229069,-2.2954877352045857,7.256920844512816
1379,1.1110025679115885,-2.274723294030271,-2.0706252641668828,7.479923576666625
1380,1.8037163708821775,-2.0875388915449227,-1.7922784005900454,7.6359373967653195
1381,2.4716407138164835,-1.9006365382444648,-1.4632263880286929,7.728362452221599
1382,3.101529340872651,-1.714524591431596,-1.0885464285409747,7.762371721065333
1383,3.681140573047335,-1.5293502387442337,-0.6753118331197939,7.7448983834838545
1384,4.199864581615257,-1.3448468023957563,-0.2322044999432598,7.6845042703425515
1385,4.64925420044036,-1.1603100387033642,0.23092923147066113,7.591133966726124
1386,5.023436744168424,-0.9746060363914831,0.7035486879908184,7.475766821988925
1387,5.319391473237571,-0.7862112737884137,1.1748849411725408,7.349985919117806
1388,5.537084921307251,-0.5932831438034109,1.634375782881444,7.225488411855229
1389,5.679463815997007,-0.39375697386589253,2.072047347919045,7.113565334424115
1390,5.75231241108862,-0.18546345769036024,2.4788263684218834,7.024580667354334
1391,5.763987492822333,0.03374133112874163,2.846774003345124,6.967479353705923
1392,5.725049931536471,0.26584240156666694,3.1692391638721737,6.949352137786535
1393,5.64781617647791,0.5125384550158042,3.44093561601809,6.9750819077401
1394,5.545856120198684,0.775130257269848,3.6579523321447676,7.047091618427666
1395,5.433464976384258,1.0544336474804883,3.8177102881716665,7.165208209963292
1396,5.32513609832215,1.3507246425003043,3.9188810155510123,7.326650403840152
1397,5.235059224271569,1.6637220431496844,3.961282838426799,7.526141383853875
1398,5.176664799352945,1.9926103343367647,3.945770004818747,7.756140573216449
1399,5.162230243618638,2.336102633925978,3.8741280831556835,8.00718232729549
1400,5.202558774376905,2.6925402087468955,3.7489861595162646,8.26830392976427
1401,5.306736182643973,3.060021939076938,3.5737527422462594,8.527541061565664
1402,5.481966236326135,3.436554401790757,3.3525780909104297,8.772466391784397
1403,5.733481338092444,3.820211224894148,3.0903413562041755,8.990745998453503
1404,6.0645216786367255,4.209289200698863,2.7926569274811412,9.170688900300778
1405,6.4763733286477905,4.602448371010908,2.4658912059801072,9.301766644176203
1406,6.968453570189514,4.99882387817083,2.117178985470308,9.375082406035311
1407,7.538430457704196,5.398098752015549,1.7544278385787353,9.383772192429722
1408,-1.2090342911679118e-10,-8.404331843055171e-11,-7.841908190267326e-11,-1.0807056129954214e-10
1409,-2.3636753308306175e-09,-1.5455414570554665e-09,-7.918884983614617e-10,-1.9937717607043726e-09
1410,-2.7342071141223332e-08,-1.7343742261339757e-08,-9.605715454220298e-09,-2.2708227727335846e-08
1411,-2.054733571141853e-07,-1.274493242226183e-07,-7.18343593676821e-08,-1.6938458606228867e-07
1412,-1.1531048346831039e-06,-7.025364205069202e-07,-4.0546193510130473e-07,-9.416739429285545e-07
1413,-5.16462375784636e-06,-3.1060862143339414e-06,-1.8379093152874328e-06,-4.181492866455962e-06
1414,-1.9290149624399455e-05,-1.151199930121552e-05,-6.988034013051291e-06,-1.5492518696835256e-05
1415,-6.200540944330284e-05,-3.69102395329983e-05,-2.2994573808942653e-05,-4.9422784597222596e-05
1416,-0.0001756705586979068,-0.00010482488480498569,-6.702630555994103e-05,-0.00013902770839180397
1417,-0.0004470854246215238,-0.00026861389723835345,-0.00017625797266827205,-0.00035145050107581507
1418,-0.0010381144110375479,-0.0006303355702413903,-0.00042433553474779744,-0.000810839250972527
1419,-0.002227796983639992,-0.00137101649571712,-0.0009465613323308363,-0.001729465026547236
1420,-0.004466812455642563,-0.0027917352611206816,-0.0019760160621584036,-0.0034475425719781103
1421,-0.008444726304196935,-0.005366306016507383,-0.003892600090019865,-0.006482068308638648
1422,-0.015169904380746828,-0.009805541676728237,-0.007286417871158246,-0.01158483925771031
1423,-0.026061106558459255,-0.017132143136861358,-0.013036029722573663,-0.019809464924621805
1424,-0.04304841196410668,-0.02876418588871441,-0.022400783141329695,-0.03258641286240559
1425,-0.06867936542123086,-0.04660396090504522,-0.037124791061607834,-0.05180389068116701
1426,-0.10622419246189144,-0.0731275622343713,-0.05954821314240063,-0.07989070659714317
1427,-0.1597717905072852,-0.11146915715347741,-0.09271948983686032,-0.11989537731117714
1428,-0.23430621249998143,-0.16549244083657183,-0.1405002354464478,-0.17555398524121651
1429,-0.3357518820797756,-0.23984053980971196,-0.20765275413232342,-0.2513379790445205
1430,-0.47097523855422185,-0.3399548204209269,-0.29989879286333276,-0.35247253005586615
1431,-0.647731105737002,-0.4720528947400425,-0.42393731037434884,-0.4849162056778192
1432,-0.8745437853836926,-0.6430568096240787,-0.5874089477769666,-0.6552934886711104
1433,-1.1605154681001202,-0.8604640642925009,-0.7987956829625669,-0.8707729306202894
1434,-1.515057925627896,-1.1321567520020417,-1.0672460676269195,-1.1388855715034594
1435,-1.9475475935864675,-1.4661476211792945,-1.402319585277813,-1.4672808520891838
1436,-2.4669091331484894,-1.8702659708630303,-1.813648133459204,-1.863420743227092
