timestamps,TP9,AF7,AF8,TP10,Right AUX
1728632905.718,-35.645,-62.988,-26.367,-10.254,0.000
1728632905.722,-27.832,-61.035,-30.762,-37.109,0.000
1728632905.726,-4.395,-50.293,-28.809,-35.645,0.000
1728632905.730,-5.371,-36.621,-27.344,-35.645,0.000
1728632905.733,-21.973,-36.621,-26.367,-14.160,0.000
1728632905.737,-30.273,-39.551,-29.785,-15.625,0.000
1728632905.741,-31.738,-33.691,-25.391,-14.648,0.000
1728632905.745,3.906,-25.391,-13.672,22.949,0.000
1728632905.749,22.461,-29.297,-13.672,13.672,0.000
1728632905.753,-16.602,-34.180,-27.344,-12.695,0.000
1728632905.757,-26.855,-25.879,-33.203,-25.879,0.000
1728632905.761,-22.949,-28.320,-30.273,-41.992,0.000
1728632905.765,-13.672,-38.574,-31.738,-40.527,0.000
1728632905.768,4.395,-34.668,-31.250,-30.762,0.000
1728632905.772,-11.230,-29.297,-28.809,-19.531,0.000
1728632905.776,-41.016,-26.855,-19.531,-17.090,0.000
1728632905.780,-33.203,-25.391,-18.066,-18.555,0.000
1728632905.784,-9.766,-28.809,-29.785,-11.230,0.000
1728632905.788,-0.488,-29.297,-43.457,-5.859,0.000
1728632905.792,-14.648,-32.227,-43.945,-28.320,0.000
1728632905.796,-36.133,-38.086,-42.480,-36.133,0.000
1728632905.800,-44.434,-28.809,-52.734,-27.832,0.000
1728632905.804,-21.484,-27.344,-55.664,-30.762,0.000
1728632905.808,-10.254,-45.410,-54.199,-23.926,0.000
1728632905.812,-34.668,-41.504,-69.336,-24.414,0.000
1728632905.815,-40.527,-26.855,-72.266,-31.250,0.000
1728632905.819,-38.574,-27.832,-61.523,-44.922,0.000
1728632905.823,-30.762,-32.227,-56.641,-50.293,0.000
1728632905.827,-3.906,-33.203,-53.223,-40.527,0.000
1728632905.831,-12.207,-39.551,-52.734,-35.645,0.000
1728632905.835,-50.781,-51.758,-53.711,-27.344,0.000
1728632905.839,-63.477,-51.758,-49.316,-35.156,0.000
1728632905.843,-37.109,-41.992,-43.945,-45.410,0.000
1728632905.847,-14.160,-35.645,-38.574,-39.062,0.000
1728632905.851,-30.762,-43.457,-33.691,-26.367,0.000
1728632905.855,-57.129,-44.434,-37.598,-10.742,0.000
1728632905.859,-60.547,-50.781,-43.945,-31.250,0.000
1728632905.862,-36.621,-58.105,-36.621,-49.316,0.000
1728632905.866,-16.113,-41.992,-27.344,-30.762,0.000
1728632905.870,-22.461,-22.949,-14.160,-19.043,0.000
1728632905.874,-36.133,-29.297,-23.926,-31.250,0.000
1728632905.878,-40.039,-31.250,-29.297,-23.926,0.000
1728632905.882,-35.645,-18.066,-10.254,-18.555,0.000
1728632905.886,-21.484,-21.484,-15.137,-11.719,0.000
1728632905.890,-10.254,-33.691,-27.832,0.488,0.000
1728632905.894,-17.090,-36.133,-22.949,5.859,0.000
1728632905.898,-20.996,-28.320,-20.996,5.859,0.000
1728632905.902,-15.137,-34.180,-19.043,-19.531,0.000
1728632905.905,-11.230,-28.809,-18.555,-28.809,0.000
1728632905.909,-1.465,-17.090,-24.902,-19.531,0.000
1728632905.913,-10.254,-16.602,-23.438,-11.719,0.000
1728632905.917,-30.762,-20.508,-20.020,-4.883,0.000
1728632905.921,-32.227,-19.531,-19.531,-13.672,0.000
1728632905.925,-7.812,-22.461,-20.508,-16.113,0.000
1728632905.929,5.859,-23.438,-24.414,-1.953,0.000
1728632905.933,-7.324,-23.438,-35.645,3.906,0.000
1728632905.937,-29.785,-37.109,-42.480,-16.113,0.000
1728632905.941,-31.738,-24.902,-39.551,-27.832,0.000
1728632905.945,-9.277,-11.719,-36.621,-34.180,0.000
1728632905.948,12.207,-26.855,-39.551,-35.156,0.000
1728632905.952,7.812,-30.762,-43.945,-8.789,0.000
1728632905.956,-17.090,-33.203,-55.176,-18.066,0.000
1728632905.960,-49.316,-36.133,-52.734,-30.273,0.000
1728632905.964,-31.250,-20.508,-35.156,-16.113,0.000
1728632905.968,11.719,-11.230,-33.691,-19.043,0.000
1728632905.972,-13.184,-31.738,-56.152,-37.109,0.000
1728632905.976,-47.363,-51.758,-62.500,-47.363,0.000
1728632905.980,-32.715,-52.734,-49.805,-41.504,0.000
1728632905.984,1.953,-40.039,-36.133,-31.250,0.000
1728632905.988,-8.301,-35.156,-21.484,-24.902,0.000
1728632905.991,-43.457,-40.527,-30.273,-27.832,0.000
1728632905.995,-50.781,-43.945,-43.945,-43.457,0.000
1728632905.999,-45.410,-41.504,0.000,-55.664,0.000
1728632906.003,-23.438,-30.273,0.000,-26.367,0.000
1728632906.007,-4.395,-30.273,0.000,-8.301,0.000
1728632906.011,-8.789,-32.227,0.000,-15.137,0.000
1728632906.015,-14.160,-35.156,0.000,-15.625,0.000
1728632906.019,-21.484,-39.551,0.000,-22.949,0.000
1728632906.023,-19.531,-35.156,0.000,-22.461,0.000
1728632906.027,0.000,-31.250,0.000,-10.742,0.000
1728632906.030,-9.277,-35.156,0.000,-12.207,0.000
1728632906.034,-22.461,-36.621,0.000,-17.090,0.000
1728632906.038,-30.762,-35.156,0.000,-2.441,0.000
1728632906.042,-26.367,-21.973,0.000,-7.812,0.000
1728632906.046,0.488,-12.695,-21.484,-9.766,0.000
1728632906.050,8.789,-11.719,-20.508,0.488,0.000
1728632906.054,-11.719,-10.254,-24.902,-17.090,0.000
1728632906.058,-33.691,-28.320,-25.879,-23.438,0.000
1728632906.062,-37.598,-35.156,-24.902,-21.973,0.000
1728632906.066,-13.184,-23.926,-27.344,-9.766,0.000
1728632906.069,6.836,-26.855,-31.738,-8.301,0.000
1728632906.073,-12.207,-29.785,-37.109,-10.742,0.000
1728632906.077,-20.996,-17.578,-35.645,-20.996,0.000
1728632906.081,-5.859,-12.207,-37.109,-39.062,0.000
1728632906.085,3.906,-12.695,-43.457,-31.738,0.000
1728632906.089,-13.184,-8.789,-47.363,-11.719,0.000
1728632906.093,-68.359,-26.367,-58.594,-20.020,0.000
1728632906.097,-82.520,-46.875,-58.105,-38.574,0.000
1728632906.101,-61.035,-42.480,-48.828,-41.504,0.000
1728632906.105,-33.691,-25.879,-38.086,-47.363,0.000
1728632906.108,-22.949,-16.113,-35.645,-53.223,0.000
1728632906.112,-40.527,-21.973,-44.922,-55.664,0.000
1728632906.116,-43.945,-40.527,-49.805,-42.969,0.000
1728632906.120,-37.598,-41.016,-39.062,-38.574,0.000
1728632906.124,-35.645,-25.391,-28.809,-41.016,0.000
1728632906.128,-39.062,-31.738,-27.832,-22.949,0.000
1728632906.132,-31.250,-39.551,-24.902,-20.508,0.000
1728632906.136,-36.621,-41.992,-25.879,-25.879,0.000
1728632906.140,0.000,-36.133,-30.762,-33.691,0.000
1728632906.143,0.000,-28.809,-30.273,-36.133,0.000
1728632906.147,0.000,-32.715,-30.762,-35.645,0.000
1728632906.151,0.000,-37.109,-32.715,-28.320,0.000
1728632906.155,0.000,-39.062,-32.715,-19.043,0.000
1728632906.159,0.000,-32.227,-36.133,-17.578,0.000
1728632906.163,0.000,-25.391,-27.832,-13.184,0.000
1728632906.167,0.000,-17.578,-15.137,-17.578,0.000
1728632906.171,0.000,-19.043,-11.719,-14.648,0.000
1728632906.175,0.000,-22.461,-15.137,-11.719,0.000
1728632906.179,0.000,-32.227,-18.066,-26.855,0.000
1728632906.183,0.000,-35.156,-7.324,-24.414,0.000
1728632906.187,8.301,-27.832,-4.395,-10.742,0.000
1728632906.190,4.395,-29.785,-10.742,-3.906,0.000
1728632906.194,-3.418,-28.320,-17.090,-1.465,0.000
1728632906.198,-20.996,-23.438,-17.090,-6.348,0.000
1728632906.202,8.301,-14.648,-10.742,-9.766,0.000
1728632906.206,20.020,-8.789,-12.695,-19.043,0.000
1728632906.210,-1.465,-26.367,-19.531,-22.949,0.000
1728632906.214,-24.902,-43.457,-28.809,-20.996,0.000
1728632906.218,-49.316,-49.316,-40.039,-21.973,0.000
1728632906.222,-26.855,-46.387,-36.133,-17.578,0.000
1728632906.226,-11.719,-31.250,-25.391,-13.184,0.000
1728632906.230,-26.855,-24.414,-32.227,-7.324,0.000
1728632906.234,-32.715,-29.785,-43.457,-19.531,0.000
1728632906.237,-36.621,-27.344,-46.875,-46.875,0.000
1728632906.241,-30.273,-13.672,-54.688,-34.668,0.000
1728632906.245,-19.531,-21.484,-63.477,-16.602,0.000
1728632906.249,-24.414,-37.109,-64.941,-40.527,0.000
1728632906.253,-25.391,-40.527,-61.523,-48.340,0.000
1728632906.257,-45.898,-39.551,-60.547,-26.855,0.000
1728632906.261,-57.617,-41.504,-56.152,-36.621,0.000
1728632906.265,-33.691,-49.316,-57.617,-39.551,0.000
1728632906.269,-39.062,-45.898,-62.500,-37.598,0.000
1728632906.273,-46.387,-32.715,-59.082,-33.203,0.000
1728632906.276,-41.992,-28.809,-53.223,-33.691,0.000
1728632906.280,-43.945,-35.645,-43.457,-40.527,0.000
1728632906.284,-27.832,-37.598,-36.133,-24.902,0.000
1728632906.288,-21.973,-37.109,-34.180,-26.367,0.000
1728632906.292,-28.809,-41.504,-37.598,-27.832,0.000
1728632906.296,-43.457,-45.410,-35.156,-18.555,0.000
1728632906.300,-55.664,-38.086,-23.438,-28.809,0.000
1728632906.304,-32.227,-21.973,-21.484,-32.715,0.000
1728632906.308,3.418,-29.297,-15.625,-11.719,0.000
1728632906.312,0.000,-37.598,-12.207,-1.465,0.000
1728632906.316,-41.992,-32.227,-16.602,-20.996,0.000
1728632906.320,-35.645,-24.414,-13.672,-30.762,0.000
1728632906.323,-11.719,-22.949,-9.766,-13.184,0.000
1728632906.327,0.000,-25.391,-8.789,-0.488,0.000
1728632906.331,-11.719,-20.996,-13.184,-4.395,0.000
1728632906.335,-46.875,-27.832,-20.020,-3.906,0.000
1728632906.339,-39.062,-38.574,-20.996,-7.324,0.000
1728632906.343,-14.648,-31.250,-19.531,-26.367,0.000
1728632906.347,11.719,-26.367,-18.555,-21.973,0.000
1728632906.351,1.953,-20.996,-17.090,-4.883,0.000
1728632906.355,-16.602,-27.832,-25.391,-1.953,0.000
1728632906.359,-24.414,-39.551,-34.668,-6.836,0.000
1728632906.363,-18.066,-29.785,-27.344,-17.090,0.000
1728632906.366,20.020,-28.320,-22.461,-12.207,0.000
1728632906.370,-6.348,-34.668,-34.668,-12.207,0.000
1728632906.374,-63.965,-41.016,-50.781,-24.414,0.000
1728632906.378,-81.055,-44.434,-51.758,-33.203,0.000
1728632906.382,-54.199,-40.527,-53.711,-33.691,0.000
1728632906.386,-27.832,-40.527,-53.223,-31.738,0.000
1728632906.390,-30.273,-44.922,-43.945,-45.898,0.000
1728632906.394,-44.434,-43.945,-49.805,-50.781,0.000
1728632906.398,-36.133,-40.039,-51.270,-47.363,0.000
1728632906.402,-20.508,-39.062,-50.781,-41.016,0.000
1728632906.405,-8.301,-33.691,-53.711,-30.762,0.000
1728632906.409,-17.578,-25.391,-60.547,-41.504,0.000
1728632906.413,-50.293,-41.992,-69.336,-44.434,0.000
1728632906.417,-58.594,-58.594,-67.383,-54.199,0.000
1728632906.421,-46.875,-54.688,-67.383,-69.336,0.000
1728632906.425,-47.363,-42.969,-66.406,-55.664,0.000
1728632906.429,-30.273,-31.738,-61.523,-36.133,0.000
1728632906.433,-34.180,-36.621,-62.988,-42.969,0.000
1728632906.437,-51.270,-46.875,-73.242,-50.293,0.000
1728632906.441,-28.809,-53.711,-72.754,-31.738,0.000
1728632906.445,-19.531,-55.176,-63.965,-5.371,0.000
1728632906.449,-20.508,-46.875,-56.152,-11.230,0.000
1728632906.453,-29.297,-40.039,-51.270,-17.090,0.000
1728632906.456,-48.340,-40.527,-48.828,-23.438,0.000
1728632906.460,-16.602,-35.645,-41.504,-34.180,0.000
1728632906.464,12.207,-31.250,-34.668,-29.297,0.000
1728632906.468,-12.207,-32.715,-31.250,-20.020,0.000
1728632906.472,-25.391,-42.969,-23.438,-4.395,0.000
1728632906.476,-27.344,-52.246,-18.555,-7.812,0.000
1728632906.480,-29.785,-54.199,-23.926,-13.672,0.000
1728632906.484,-24.414,-43.945,-21.484,-0.977,0.000
1728632906.488,-6.836,-41.504,-21.973,0.488,0.000
1728632906.491,-2.441,-43.457,-23.926,-14.160,0.000
1728632906.495,-28.809,-39.062,-15.625,-17.090,0.000
1728632906.499,-36.133,-45.410,-11.719,-14.160,0.000
1728632906.503,-15.137,-45.898,-5.371,-7.324,0.000
1728632906.507,4.883,-42.969,-7.812,-3.418,0.000
1728632906.511,-12.695,-43.945,-14.648,-12.207,0.000
1728632906.515,-42.969,-44.922,-18.555,-7.812,0.000
1728632906.519,-37.109,-47.363,-25.391,-4.395,0.000
1728632906.523,-9.766,-53.711,-26.855,-27.344,0.000
1728632906.527,10.254,-61.523,-23.926,-27.344,0.000
1728632906.530,-16.113,-64.453,-20.996,-19.043,0.000
1728632906.534,-72.754,-74.707,-35.645,-17.578,0.000
1728632906.538,-86.426,-89.355,-48.828,-38.086,0.000
1728632906.542,-48.340,-84.961,-41.992,-53.223,0.000
1728632906.546,-10.742,-74.219,-34.668,-45.410,0.000
1728632906.550,-23.438,-79.590,-35.156,-49.316,0.000
1728632906.554,-57.129,-83.496,-39.551,-52.734,0.000
1728632906.558,-71.289,-74.707,-43.457,-53.711,0.000
1728632906.562,-41.504,-65.430,-37.598,-42.480,0.000
1728632906.566,-1.465,-69.824,-36.621,-39.551,0.000
1728632906.570,-33.203,-81.055,-50.293,-46.875,0.000
1728632906.574,-65.918,-78.125,-50.293,-45.898,0.000
1728632906.577,-62.012,-72.754,-46.875,-48.828,0.000
1728632906.581,-52.246,-67.383,-41.504,-50.781,0.000
1728632906.585,-23.926,-61.523,-46.875,-29.785,0.000
1728632906.589,-27.344,-64.453,-53.223,-31.250,0.000
1728632906.593,-33.203,-70.312,-52.246,-52.246,0.000
1728632906.597,-17.578,-78.125,-51.270,-49.805,0.000
1728632906.601,-29.297,-72.266,-45.898,-48.828,0.000
1728632906.605,-29.785,-67.871,-43.457,-44.922,0.000
1728632906.609,-38.086,-71.289,-42.969,-25.391,0.000
1728632906.613,-55.176,-58.105,-42.480,-31.250,0.000
1728632906.617,-51.270,-47.363,-42.480,-39.551,0.000
1728632906.620,-32.227,-50.293,-40.527,-42.480,0.000
1728632906.624,-20.508,-55.664,-34.668,-35.645,0.000
1728632906.628,4.395,-55.176,-37.598,-17.578,0.000
1728632906.632,-4.883,-52.246,-32.715,-10.742,0.000
1728632906.636,-60.059,-52.734,-29.297,-27.344,0.000
1728632906.640,-48.828,-62.012,-33.203,-37.598,0.000
1728632906.644,-21.973,-60.059,-30.273,-25.879,0.000
1728632906.648,-11.230,-45.898,-21.484,-16.602,0.000
1728632906.652,-19.531,-62.012,-27.344,-14.160,0.000
1728632906.656,-22.461,-81.543,-34.180,-23.926,0.000
1728632906.660,7.812,-53.223,-32.227,-15.625,0.000
1728632906.663,-8.301,-41.992,-34.668,7.812,0.000
1728632906.667,-21.484,-64.453,-63.965,10.742,0.000
1728632906.671,13.672,-62.988,-83.984,12.207,0.000
1728632906.675,18.066,-87.402,-90.820,17.090,0.000
1728632906.679,-22.461,-101.562,-67.383,9.277,0.000
1728632906.683,4.395,-69.824,-75.684,-1.465,0.000
1728632906.687,67.383,-40.039,-73.730,36.621,0.000
1728632906.691,38.574,-103.516,-47.852,-3.418,0.000
1728632906.695,6.348,-132.324,-86.914,-46.387,0.000
1728632906.699,-0.977,-49.805,-65.430,2.441,0.000
1728632906.703,41.992,-28.320,-45.410,58.594,0.000
1728632906.706,93.750,16.602,-27.344,89.844,0.000
1728632906.710,101.074,-96.680,28.320,80.078,0.000
1728632906.714,146.973,-89.844,55.176,145.508,0.000
1728632906.718,95.215,-23.926,-57.617,104.980,0.000
1728632906.722,61.035,-143.066,51.758,56.641,0.000
1728632906.726,143.555,86.426,17.578,114.258,0.000
1728632906.730,145.508,395.508,-251.953,92.773,0.000
1728632906.734,78.125,239.746,-166.016,81.055,0.000
1728632906.738,40.527,229.492,4.395,91.797,0.000
1728632906.742,-9.766,497.559,76.172,-16.113,0.000
1728632906.746,-101.074,554.688,129.883,-121.582,0.000
1728632906.749,-36.133,570.312,92.285,-20.996,0.000
1728632906.753,201.660,619.629,88.379,181.641,0.000
1728632906.757,237.305,694.824,89.844,218.262,0.000
1728632906.761,197.754,748.535,11.230,161.621,0.000
1728632906.765,148.926,835.449,76.172,122.559,0.000
1728632906.769,108.398,920.410,156.738,133.301,0.000
1728632906.773,153.320,969.727,186.035,167.480,0.000
1728632906.777,189.453,964.355,202.637,191.895,0.000
1728632906.781,233.398,966.309,239.746,188.965,0.000
1728632906.785,265.137,966.797,287.598,181.641,0.000
1728632906.788,274.902,966.309,338.867,191.406,0.000
1728632906.792,251.465,966.309,375.000,202.148,0.000
1728632906.796,241.211,966.797,396.484,185.059,0.000
1728632906.800,247.559,966.797,401.855,170.898,0.000
1728632906.804,248.535,966.797,389.648,169.434,0.000
1728632906.808,228.027,966.797,392.578,162.109,0.000
1728632906.812,191.895,966.797,410.156,163.086,0.000
1728632906.816,177.246,966.797,424.316,140.625,0.000
1728632906.820,202.148,966.797,439.453,115.723,0.000
1728632906.824,216.309,966.309,450.195,126.953,0.000
1728632906.827,188.965,966.797,461.914,125.977,0.000
1728632906.831,147.949,966.797,466.797,101.562,0.000
1728632906.835,144.531,966.309,460.938,81.055,0.000
1728632906.839,172.852,966.309,459.961,72.754,0.000
1728632906.843,170.898,966.797,445.801,72.266,0.000
1728632906.847,175.781,967.285,426.758,82.031,0.000
1728632906.851,151.367,963.379,418.457,84.473,0.000
1728632906.855,96.191,969.727,403.320,70.801,0.000
1728632906.859,118.652,940.918,368.652,63.965,0.000
1728632906.863,135.742,839.844,310.547,47.852,0.000
1728632906.866,104.004,734.863,225.586,33.691,0.000
1728632906.870,65.430,636.230,152.344,39.062,0.000
1728632906.874,35.156,532.227,108.887,4.395,0.000
1728632906.878,9.766,425.293,32.227,-41.504,0.000
1728632906.882,8.301,333.496,-34.180,-57.617,0.000
1728632906.886,13.184,254.883,-83.008,-42.969,0.000
1728632906.890,11.230,162.598,-136.719,-50.293,0.000
1728632906.894,-26.367,62.012,-174.805,-65.918,0.000
1728632906.898,-69.336,-4.883,-174.805,-58.594,0.000
1728632906.901,-62.500,-47.363,-158.691,-69.336,0.000
1728632906.905,-48.828,-110.840,-157.715,-64.941,0.000
1728632906.909,-45.898,-176.758,-172.363,-62.988,0.000
1728632906.913,-65.918,-223.145,-205.566,-80.078,0.000
1728632906.917,-75.684,-263.184,-243.652,-71.777,0.000
1728632906.921,-68.359,-300.781,-274.902,-79.102,0.000
1728632906.925,-46.875,-333.984,-302.246,-80.078,0.000
1728632906.929,-66.895,-368.164,-304.199,-65.918,0.000
1728632906.933,-92.285,-428.711,-289.551,-66.895,0.000
1728632906.937,-100.586,-496.582,-290.039,-81.055,0.000
1728632906.941,-86.914,-541.992,-300.293,-81.055,0.000
1728632906.945,-63.477,-590.332,-294.434,-70.312,0.000
1728632906.948,-55.176,-653.320,-261.719,-69.336,0.000
1728632906.952,-77.148,-699.707,-241.699,-74.707,0.000
1728632906.956,-118.164,-722.168,-231.934,-81.543,0.000
1728632906.960,-130.371,-747.070,-225.586,-97.656,0.000
1728632906.964,-114.746,-759.766,-219.238,-89.355,0.000
1728632906.968,-105.469,-771.973,-213.867,-85.938,0.000
1728632906.972,-133.301,-788.574,-203.125,-86.914,0.000
1728632906.976,-161.133,-793.945,-184.570,-83.984,0.000
1728632906.980,-160.645,-764.648,-173.828,-86.426,0.000
1728632906.984,-118.164,-727.051,-178.223,-78.613,0.000
1728632906.988,-96.191,-714.355,-178.711,-82.031,0.000
1728632906.991,-114.258,-711.426,-175.293,-80.078,0.000
1728632906.995,-131.836,-709.961,-178.711,-102.051,0.000
1728632906.999,-133.789,-689.941,-155.762,-121.094,0.000
1728632907.003,-96.680,-646.484,-126.953,-104.004,0.000
1728632907.007,-85.938,-625.488,-104.980,-91.797,0.000
1728632907.011,-118.652,-614.258,-79.102,-83.008,0.000
1728632907.015,-129.395,-584.473,-71.777,-68.848,0.000
1728632907.019,-140.625,-562.012,-69.336,-79.590,0.000
1728632907.023,-142.090,-543.945,-66.895,-96.680,0.000
1728632907.027,-110.352,-519.531,-67.383,-83.984,0.000
1728632907.031,-118.164,-498.047,-65.430,-75.684,0.000
1728632907.034,-153.320,-500.488,-67.383,-84.473,0.000
1728632907.038,-129.395,-502.930,-66.895,-80.566,0.000
1728632907.042,-79.590,-494.629,-66.895,-83.496,0.000
1728632907.046,-75.195,-482.910,-64.941,-74.219,0.000
1728632907.050,-87.402,-477.051,-66.406,-52.734,0.000
1728632907.054,-85.938,-478.516,-77.637,-43.945,0.000
1728632907.058,-69.336,-456.055,-68.359,-49.316,0.000
1728632907.062,-67.383,-433.105,-61.523,-52.734,0.000
1728632907.066,-73.730,-411.621,-80.078,-56.152,0.000
1728632907.070,-93.750,-381.348,-83.984,-66.895,0.000
1728632907.074,-113.281,-367.676,-83.496,-60.547,0.000
1728632907.077,-103.027,-355.469,-78.125,-66.895,0.000
1728632907.081,-80.078,-339.355,-61.523,-63.477,0.000
1728632907.085,-51.758,-330.566,-56.152,-59.082,0.000
1728632907.089,-59.570,-323.730,-58.594,-49.805,0.000
1728632907.093,-104.004,-323.730,-55.664,-49.805,0.000
1728632907.097,-97.656,-327.148,-55.176,-75.195,0.000
1728632907.101,-61.523,-309.082,-49.316,-82.520,0.000
1728632907.105,-72.754,-291.992,-39.551,-64.941,0.000
1728632907.109,-85.938,-284.180,-40.039,-54.199,0.000
1728632907.113,-88.379,-277.832,-41.992,-65.918,0.000
1728632907.117,-92.285,-277.344,-40.039,-65.918,0.000
1728632907.120,-60.547,-267.578,-36.621,-62.500,0.000
1728632907.124,-60.059,-267.090,-35.156,-56.641,0.000
1728632907.128,-97.168,-268.555,-42.480,-64.453,0.000
1728632907.132,-112.305,-270.020,-52.734,-72.266,0.000
1728632907.136,-114.258,-279.297,-54.199,-69.336,0.000
1728632907.140,-98.633,-290.527,-47.363,-67.871,0.000
1728632907.144,-64.453,-288.574,-42.480,-45.898,0.000
1728632907.148,-53.711,-273.438,-38.574,-41.504,0.000
1728632907.152,-66.406,-258.301,-42.969,-54.688,0.000
1728632907.156,-87.891,-252.441,-54.199,-73.242,0.000
1728632907.159,-65.430,-257.324,-56.641,-77.637,0.000
1728632907.163,-47.852,-260.742,-60.547,-67.871,0.000
1728632907.167,-73.730,-257.812,-64.941,-52.734,0.000
1728632907.171,-92.285,-251.953,-67.383,-53.223,0.000
1728632907.175,-86.914,-245.605,-67.383,-71.289,0.000
1728632907.179,-73.242,-241.211,-61.523,-61.035,0.000
1728632907.183,-44.434,-230.469,-64.941,-45.898,0.000
1728632907.187,-3.418,-218.262,-69.336,-41.504,0.000
1728632907.191,-7.812,-210.449,-67.383,-33.203,0.000
1728632907.195,-47.852,-209.961,-88.379,-16.113,0.000
1728632907.198,-59.570,-208.984,-101.562,-14.160,0.000
1728632907.202,-49.316,-204.590,-86.426,-25.391,0.000
1728632907.206,-40.039,-205.078,-84.961,-25.879,0.000
1728632907.210,-44.434,-209.961,-78.613,-27.832,0.000
1728632907.214,-53.711,-213.867,-68.848,-43.945,0.000
1728632907.218,-62.012,-207.031,-68.848,-50.293,0.000
1728632907.222,-50.781,-198.242,-62.012,-45.410,0.000
1728632907.226,-26.367,-187.988,-62.012,-33.691,0.000
1728632907.230,-27.832,-181.152,-66.406,-37.109,0.000
1728632907.234,-59.570,-183.594,-71.777,-33.691,0.000
1728632907.237,-69.824,-183.594,-72.754,-20.020,0.000
1728632907.241,-41.504,-178.711,-59.570,-6.348,0.000
1728632907.245,-17.090,-159.668,-60.059,-26.855,0.000
1728632907.249,-26.367,-149.902,-58.594,-43.457,0.000
1728632907.253,-56.641,-158.691,-55.664,-26.367,0.000
1728632907.257,-45.410,-154.785,-66.406,-40.527,0.000
1728632907.261,-12.695,-142.578,-73.242,-60.059,0.000
1728632907.265,-33.691,-140.625,-73.730,-44.434,0.000
1728632907.269,-70.312,-144.531,-66.406,-31.738,0.000
1728632907.272,-80.566,-152.344,-62.988,-41.504,0.000
1728632907.276,-87.891,-158.691,-61.523,-46.387,0.000
1728632907.280,-61.035,-153.320,-56.641,-41.992,0.000
1728632907.284,-21.484,-150.879,-60.059,-23.926,0.000
1728632907.288,-30.762,-150.391,-62.012,-26.367,0.000
1728632907.292,-70.801,-146.973,-63.477,-52.246,0.000
1728632907.296,-76.172,-145.996,-62.500,-51.270,0.000
1728632907.300,-57.129,-156.738,-53.711,-47.363,0.000
1728632907.304,-47.852,-165.039,-53.223,-38.574,0.000
1728632907.308,-34.668,-155.762,-52.734,-37.109,0.000
1728632907.312,-40.527,-151.855,-54.688,-59.570,0.000
1728632907.316,-53.711,-154.297,-59.082,-60.059,0.000
1728632907.319,-55.176,-149.902,-59.082,-54.688,0.000
1728632907.323,-40.039,-147.949,-53.711,-41.504,0.000
1728632907.327,-21.484,-153.320,-49.805,-22.949,0.000
1728632907.331,-38.086,-149.414,-57.129,-25.879,0.000
1728632907.335,-41.992,-138.184,-55.176,-28.809,0.000
1728632907.339,-34.668,-136.230,-43.945,-31.738,0.000
1728632907.343,-18.066,-126.465,-31.250,-23.926,0.000
1728632907.347,2.441,-114.746,-32.715,-10.742,0.000
1728632907.351,-25.391,-115.234,-37.598,-14.648,0.000
1728632907.355,-51.270,-116.211,-40.527,-32.227,0.000
1728632907.359,-42.480,-116.211,-38.574,-29.297,0.000
1728632907.362,-7.812,-115.234,-37.109,-22.461,0.000
1728632907.366,18.066,-112.305,-43.945,-30.762,0.000
1728632907.370,-20.996,-107.422,-44.434,-18.555,0.000
1728632907.374,-62.988,-104.004,-41.016,-4.395,0.000
1728632907.378,-28.320,-92.285,-35.156,0.000,0.000
1728632907.382,-13.184,-81.543,-23.438,-3.906,0.000
1728632907.386,-21.484,-77.148,-26.855,-11.719,0.000
1728632907.390,-27.832,-68.848,-40.527,-8.301,0.000
1728632907.394,-31.738,-74.219,-43.945,-17.578,0.000
1728632907.398,-32.227,-74.707,-43.457,-33.691,0.000
1728632907.402,-25.391,-63.477,-36.621,-27.832,0.000
1728632907.405,-22.949,-55.176,-26.855,-28.809,0.000
1728632907.409,-27.832,-53.223,-17.578,-34.668,0.000
1728632907.413,-33.203,-61.035,-17.090,-38.574,0.000
1728632907.417,-55.176,-59.570,-16.602,-68.359,0.000
1728632907.421,-44.922,-63.965,-8.301,-60.059,0.000
1728632907.425,-25.391,-68.848,-7.812,-32.227,0.000
1728632907.429,-53.711,-68.359,-14.648,-49.316,0.000
1728632907.433,-91.797,-62.988,-15.137,-48.828,0.000
1728632907.437,-82.031,-58.594,-13.184,-50.293,0.000
1728632907.441,-33.203,-50.293,-20.020,-61.035,0.000
1728632907.445,-26.367,-51.270,-15.625,-55.176,0.000
1728632907.448,-50.781,-67.383,-24.902,-61.523,0.000
1728632907.452,-46.875,-67.383,-42.969,-67.383,0.000
1728632907.456,-66.406,-53.223,-33.691,-66.895,0.000
1728632907.460,-69.336,-55.664,-34.180,-50.781,0.000
1728632907.464,-49.805,-65.918,-43.945,-40.527,0.000
1728632907.468,-47.852,-64.453,-40.527,-42.480,0.000
1728632907.472,-49.316,-52.246,-37.109,-44.434,0.000
1728632907.476,-54.199,-45.410,-29.297,-44.434,0.000
1728632907.480,-47.852,-49.805,-20.996,-41.016,0.000
1728632907.484,-0.488,-45.898,-21.973,-42.480,0.000
1728632907.488,3.906,-34.668,-24.902,-33.691,0.000
1728632907.491,-42.480,-33.691,-27.344,-25.879,0.000
1728632907.495,-43.457,-46.875,-27.832,-20.020,0.000
1728632907.499,-28.320,-41.504,-27.832,-8.301,0.000
1728632907.503,-15.137,-26.855,-28.809,-20.996,0.000
1728632907.507,-5.859,-33.203,-25.879,-6.836,0.000
1728632907.511,-25.391,-33.691,-27.832,-1.953,0.000
1728632907.515,-36.621,-19.043,-33.203,-35.645,0.000
1728632907.519,-12.695,-7.324,-28.809,-42.969,0.000
1728632907.523,6.348,-11.230,-24.902,-17.578,0.000
1728632907.527,-21.973,-23.926,-36.133,-15.137,0.000
1728632907.530,-49.805,-24.414,-41.992,-35.645,0.000
1728632907.534,-43.457,-27.344,-40.527,-50.781,0.000
1728632907.538,-35.156,-31.738,-39.551,-50.781,0.000
1728632907.542,0.000,-28.320,-40.039,-39.551,0.000
1728632907.546,-3.418,-23.438,-36.133,-38.574,0.000
1728632907.550,-56.641,-19.531,-41.504,-38.574,0.000
1728632907.554,-68.359,-25.879,-57.129,-36.621,0.000
1728632907.558,-53.223,-33.203,-57.617,-36.621,0.000
1728632907.562,-28.809,-25.879,-57.617,-38.574,0.000
1728632907.566,-31.250,-18.555,-64.453,-40.039,0.000
1728632907.569,-41.504,-30.273,-63.965,-45.410,0.000
1728632907.573,-50.293,-45.898,-62.012,-50.781,0.000
1728632907.577,-46.387,-53.711,-51.758,-58.594,0.000
1728632907.581,-16.113,-47.852,-43.945,-52.734,0.000
1728632907.585,-30.762,-31.250,-43.457,-44.922,0.000
1728632907.589,-48.828,-30.273,-55.176,-50.293,0.000
1728632907.593,-67.871,-33.691,-65.430,-44.434,0.000
1728632907.597,-63.965,-30.762,-62.500,-44.922,0.000
1728632907.601,-28.809,-28.320,-58.594,-63.477,0.000
1728632907.605,-15.625,-28.320,-63.477,-65.918,0.000
1728632907.608,-23.926,-24.414,-72.266,-35.645,0.000
1728632907.612,-52.734,-34.668,-75.684,-16.113,0.000
1728632907.616,-61.035,-53.223,-79.590,-29.297,0.000
1728632907.620,-31.250,-40.039,-73.242,-23.438,0.000
1728632907.624,3.906,-19.531,-52.246,-12.207,0.000
1728632907.628,-7.812,-12.207,-44.434,-9.766,0.000
1728632907.632,-30.762,-17.090,-50.781,-19.043,0.000
1728632907.636,-31.738,-28.809,-52.246,-21.973,0.000
1728632907.640,-14.160,-18.555,-48.828,-11.719,0.000
1728632907.643,4.883,-5.371,-50.293,-11.230,0.000
1728632907.647,3.906,-4.395,-56.641,-12.695,0.000
1728632907.651,-15.137,-13.672,-53.711,-0.977,0.000
1728632907.655,-34.668,-16.602,-46.387,8.789,0.000
1728632907.659,-23.926,-13.184,-46.387,-1.465,0.000
1728632907.663,-19.043,-15.625,-53.711,-19.531,0.000
1728632907.667,-34.180,-13.672,-49.316,-22.949,0.000
1728632907.671,-32.715,-23.926,-42.480,-33.691,0.000
1728632907.675,-30.762,-33.203,-46.387,-32.227,0.000
1728632907.679,-15.625,-17.090,-42.480,-17.090,0.000
1728632907.683,13.184,-0.488,-39.551,-16.113,0.000
1728632907.686,5.371,-0.977,-45.410,-3.906,0.000
1728632907.690,-29.297,-10.742,-53.223,4.395,0.000
1728632907.694,-54.199,-9.277,-48.340,-12.207,0.000
1728632907.698,-42.480,0.977,-37.598,-11.719,0.000
1728632907.702,-13.184,2.441,-43.457,-14.160,0.000
1728632907.706,-5.371,-9.766,-49.805,-40.527,0.000
1728632907.710,-26.367,-16.113,-46.875,-43.457,0.000
1728632907.714,-40.039,-21.973,-50.781,-46.387,0.000
1728632907.718,-39.551,-40.039,-65.430,-55.664,0.000
1728632907.721,-18.066,-39.551,-69.336,-42.480,0.000
1728632907.725,-7.324,-26.367,-71.777,-27.344,0.000
1728632907.729,-55.664,-25.879,-72.266,-32.227,0.000
1728632907.733,-87.402,-36.621,-61.523,-41.992,0.000
1728632907.737,-56.152,-39.551,-51.758,-41.504,0.000
1728632907.741,-18.066,-16.113,-41.016,-21.973,0.000
1728632907.745,-2.930,-7.324,-39.551,-32.227,0.000
1728632907.749,-35.645,-36.133,-47.852,-43.457,0.000
1728632907.753,-50.781,-53.711,-53.223,-25.391,0.000
1728632907.757,-40.039,-46.387,-56.641,-50.781,0.000
1728632907.761,-36.621,-42.969,-47.852,-62.500,0.000
1728632907.764,-26.367,-45.898,-42.480,-39.551,0.000
1728632907.768,-33.691,-41.992,-46.875,-41.504,0.000
1728632907.772,-74.707,-31.250,-43.457,-43.945,0.000
1728632907.776,-67.383,-29.785,-49.316,-48.828,0.000
1728632907.780,-24.902,-28.809,-45.410,-35.156,0.000
1728632907.784,-13.184,-31.250,-34.668,-6.348,0.000
1728632907.788,-1.465,-27.832,-37.109,7.812,0.000
1728632907.792,-13.184,-19.531,-41.016,-6.836,0.000
1728632907.796,-40.039,-23.438,-38.574,-22.461,0.000
1728632907.800,-11.230,-26.367,-36.133,-23.438,0.000
1728632907.804,15.137,-11.719,-39.062,-12.695,0.000
1728632907.807,-24.902,2.930,-40.527,2.441,0.000
1728632907.811,-55.664,-11.719,-42.969,4.395,0.000
1728632907.815,-52.246,-20.996,-41.504,-13.672,0.000
1728632907.819,-19.531,-0.488,-31.738,-9.766,0.000
1728632907.823,16.602,3.418,-30.273,-0.488,0.000
1728632907.827,18.555,-0.977,-27.344,1.953,0.000
1728632907.831,-22.949,-8.301,-19.531,1.465,0.000
1728632907.835,-40.527,-12.695,-22.949,-20.996,0.000
1728632907.839,-18.555,-8.301,-24.414,-17.090,0.000
1728632907.843,-18.555,-20.996,-33.203,-1.953,0.000
1728632907.847,-17.578,-19.531,-41.016,2.441,0.000
1728632907.850,-25.391,-6.836,-31.250,-0.977,0.000
1728632907.854,-43.945,-13.184,-28.809,-16.113,0.000
1728632907.858,-19.531,-5.371,-29.297,-32.715,0.000
1728632907.862,-3.418,-2.441,-19.043,-32.715,0.000
1728632907.866,-31.250,-25.879,-20.508,-41.016,0.000
1728632907.870,-58.594,-30.762,-28.809,-37.598,0.000
1728632907.874,-61.035,-20.996,-27.832,-27.832,0.000
1728632907.878,-29.785,-16.113,-24.902,-41.992,0.000
1728632907.882,-3.418,-26.367,-22.949,-33.203,0.000
1728632907.886,-2.930,-41.992,-20.996,-15.625,0.000
1728632907.890,-28.320,-49.805,-23.438,-21.973,0.000
1728632907.893,-56.152,-59.570,-24.902,-29.785,0.000
1728632907.897,-51.270,-57.617,-25.391,-35.156,0.000
1728632907.901,-35.156,-44.434,-27.344,-39.062,0.000
1728632907.905,-19.531,-42.480,-26.367,-18.066,0.000
1728632907.909,-20.020,-53.711,-34.668,-10.254,0.000
1728632907.913,-49.316,-65.918,-41.504,-11.230,0.000
1728632907.917,-54.688,-50.293,-36.621,-30.762,0.000
1728632907.921,-11.230,-27.832,-34.668,-37.598,0.000
1728632907.925,13.672,-25.391,-33.691,-16.113,0.000
1728632907.929,-7.812,-38.574,-40.039,-11.230,0.000
1728632907.932,-40.527,-46.387,-41.504,-39.551,0.000
1728632907.936,-15.625,-38.086,-28.809,-31.250,0.000
1728632907.940,1.953,-28.320,-20.020,20.508,0.000
1728632907.944,-13.184,-24.902,-21.484,20.020,0.000
1728632907.948,-10.254,-26.855,-26.855,2.441,0.000
1728632907.952,-26.367,-20.996,-28.320,-14.160,0.000
1728632907.956,-36.621,-14.648,-30.762,-10.742,0.000
1728632907.960,0.000,-19.043,-34.180,-11.230,0.000
1728632907.964,27.344,-29.785,-36.621,-23.926,0.000
1728632907.968,-19.043,-32.715,-44.434,-30.273,0.000
1728632907.971,-52.246,-35.645,-58.594,-20.996,0.000
1728632907.975,-10.742,-30.762,-59.082,-21.973,0.000
1728632907.979,8.789,-20.020,-50.293,-20.508,0.000
1728632907.983,-20.508,-23.926,-51.758,-9.277,0.000
1728632907.987,-38.574,-34.668,-52.734,-33.691,0.000
1728632907.991,-44.922,-40.039,-43.945,-32.227,0.000
1728632907.995,-38.086,-23.438,-24.414,-30.273,0.000
1728632907.999,-12.207,-13.672,-14.160,-48.340,0.000
1728632908.003,-6.348,-28.809,-12.207,-26.367,0.000
1728632908.007,-4.883,-37.598,-13.184,-12.695,0.000
1728632908.010,-18.555,-32.715,-15.625,-16.113,0.000
1728632908.014,-62.012,-37.109,-14.160,-21.973,0.000
1728632908.018,-65.430,-37.598,-16.113,-23.926,0.000
1728632908.022,-26.367,-26.367,-13.672,-23.926,0.000
1728632908.026,-5.371,-33.203,-19.531,-40.039,0.000
1728632908.030,-40.039,-47.852,-30.762,-49.805,0.000
1728632908.034,-62.012,-54.688,-34.668,-25.879,0.000
1728632908.038,-33.203,-46.387,-29.297,-12.207,0.000
1728632908.042,-16.602,-41.992,-22.461,-32.227,0.000
1728632908.046,-35.156,-45.898,-25.391,-15.137,0.000
1728632908.049,-49.316,-53.711,-32.227,-11.230,0.000
1728632908.053,-56.641,-58.594,-45.410,-53.711,0.000
1728632908.057,-43.945,-48.340,-42.969,-56.641,0.000
1728632908.061,0.000,-44.922,-42.480,-50.293,0.000
1728632908.065,0.000,-47.852,-49.316,-46.875,0.000
1728632908.069,0.000,-54.688,-37.598,-38.574,0.000
1728632908.073,0.000,-49.316,-34.668,-44.434,0.000
1728632908.077,0.000,-45.410,-45.410,-57.129,0.000
1728632908.081,0.000,-46.875,-46.875,-47.852,0.000
1728632908.085,0.000,-39.551,-39.551,-22.461,0.000
1728632908.089,0.000,-32.227,-39.551,-21.484,0.000
1728632908.093,0.000,-23.438,-43.945,-33.203,0.000
1728632908.096,0.000,-23.926,-46.875,-23.926,0.000
1728632908.100,0.000,-16.113,-45.410,-5.371,0.000
1728632908.104,0.000,-9.277,-40.039,-14.648,0.000
1728632908.108,-18.066,-24.414,-39.062,-21.973,0.000
1728632908.112,-10.254,-37.598,-36.133,-20.508,0.000
1728632908.116,-34.668,-31.250,-32.227,-22.949,0.000
1728632908.120,-15.625,-19.043,-26.367,-15.625,0.000
1728632908.124,-0.488,-17.090,-23.926,-15.137,0.000
1728632908.128,-14.160,-21.484,-22.949,0.000,0.000
1728632908.132,-30.273,-23.926,-25.391,-2.930,0.000
1728632908.136,-42.480,-23.438,-27.832,-32.227,0.000
1728632908.140,-23.926,-17.578,-27.344,-16.113,0.000
1728632908.143,5.859,-16.113,-36.621,-19.043,0.000
1728632908.147,-3.418,-17.090,-33.691,-38.086,0.000
1728632908.151,-51.270,-23.926,-32.227,-42.969,0.000
1728632908.155,-59.570,-28.320,-29.785,-47.852,0.000
1728632908.159,-8.789,-20.508,-21.973,-52.246,0.000
1728632908.163,3.906,-20.508,-17.578,-46.387,0.000
1728632908.167,-24.414,-25.391,-18.066,-12.695,0.000
1728632908.171,-31.250,-30.762,-29.785,-3.418,0.000
1728632908.175,-49.316,-39.062,-35.156,-25.391,0.000
1728632908.179,-63.477,-37.109,-32.715,-37.598,0.000
1728632908.183,-42.969,-33.203,-40.527,-47.852,0.000
1728632908.186,-42.969,-44.922,-50.293,-55.664,0.000
1728632908.190,-59.082,-50.293,-48.828,-50.781,0.000
1728632908.194,-63.965,-35.645,-38.086,-51.270,0.000
1728632908.198,-36.133,-33.203,-33.203,-52.734,0.000
1728632908.202,-19.531,-46.387,-39.062,-46.387,0.000
1728632908.206,-36.133,-44.922,-42.969,-32.227,0.000
1728632908.210,-47.852,-34.668,-46.387,-32.715,0.000
1728632908.214,-58.105,-44.922,-51.270,-45.410,0.000
1728632908.218,-37.598,-42.969,-36.621,-30.273,0.000
1728632908.222,-6.348,-32.227,-33.691,-7.324,0.000
1728632908.226,-18.555,-46.875,-55.176,-25.879,0.000
1728632908.229,-32.715,-57.129,-64.453,-32.227,0.000
1728632908.233,-41.016,-50.781,-62.988,-27.832,0.000
1728632908.237,-50.293,-41.016,-47.852,-43.945,0.000
1728632908.241,-22.949,-26.367,-34.668,-37.109,0.000
1728632908.245,0.000,-21.973,-32.715,-18.066,0.000
1728632908.249,0.000,-27.344,-26.855,-6.348,0.000
1728632908.253,0.000,-24.414,-20.996,6.348,0.000
1728632908.257,0.000,-15.625,-13.672,2.441,0.000
1728632908.261,0.000,-8.789,-11.230,-11.719,0.000
1728632908.265,0.000,-9.766,-14.160,-13.184,0.000
1728632908.269,0.000,-19.043,-20.020,-7.812,0.000
1728632908.272,0.000,-30.273,-22.949,-14.648,0.000
1728632908.276,0.000,-32.715,-16.113,-9.277,0.000
1728632908.280,0.000,-17.578,-7.324,-13.184,0.000
1728632908.284,0.000,2.441,-10.742,-22.949,0.000
1728632908.288,0.000,-1.465,-21.973,-31.250,0.000
1728632908.292,0.000,-7.324,-19.043,-38.574,0.000
1728632908.296,-23.926,-10.254,-15.137,-35.156,0.000
1728632908.300,-8.301,-24.414,-21.484,-33.203,0.000
1728632908.304,-15.137,-31.738,-31.250,-29.297,0.000
1728632908.308,-13.184,-25.879,-29.297,-18.555,0.000
1728632908.311,-52.734,-28.320,-19.043,-20.020,0.000
1728632908.315,-74.707,-30.762,-25.391,-40.527,0.000
1728632908.319,-36.621,-20.996,-32.227,-34.668,0.000
1728632908.323,-41.504,-22.461,-32.715,-17.578,0.000
1728632908.327,-39.062,-31.250,-36.621,-38.086,0.000
1728632908.331,-28.320,-40.527,-34.668,-61.035,0.000
1728632908.335,-53.711,-42.480,-42.969,-64.941,0.000
1728632908.339,-37.109,-33.203,-49.805,-50.293,0.000
1728632908.343,-21.484,-31.738,-48.828,-45.898,0.000
1728632908.347,-37.109,-42.480,-52.734,-48.340,0.000
1728632908.350,-61.035,-59.082,-60.547,-57.617,0.000
1728632908.354,-69.336,-56.641,-60.547,-60.547,0.000
1728632908.358,-44.922,-37.598,-49.805,-50.781,0.000
1728632908.362,-12.695,-32.715,-51.270,-42.480,0.000
1728632908.366,-14.160,-39.062,-58.594,-20.996,0.000
1728632908.370,-41.016,-39.062,-52.734,-3.906,0.000
1728632908.374,-36.621,-37.598,-52.246,-4.883,0.000
1728632908.378,0.000,-43.457,-44.434,-15.137,0.000
1728632908.382,6.348,-45.898,-33.203,-21.973,0.000
1728632908.386,-26.855,-41.504,-37.109,-31.738,0.000
1728632908.390,-43.457,-31.250,-35.156,-25.391,0.000
1728632908.394,-8.301,-14.648,-30.762,-10.742,0.000
1728632908.397,7.324,-6.348,-29.297,-10.254,0.000
1728632908.401,-5.859,-10.742,-27.832,2.441,0.000
1728632908.405,-15.625,-17.578,-24.414,14.160,0.000
1728632908.409,-31.738,-25.879,-27.344,9.277,0.000
1728632908.413,-34.668,-35.645,-32.227,-1.465,0.000
1728632908.417,-8.789,-26.367,-24.414,-2.930,0.000
1728632908.421,17.578,-15.625,-18.555,5.371,0.000
1728632908.425,22.461,-17.578,-25.391,0.488,0.000
1728632908.429,10.742,-1.465,-22.461,4.395,0.000
1728632908.433,-1.465,0.488,-26.855,-6.836,0.000
1728632908.436,-7.324,-16.113,-42.480,-30.762,0.000
1728632908.440,-6.836,-28.809,-49.316,-35.645,0.000
1728632908.444,-22.461,-36.621,-55.176,-45.898,0.000
1728632908.448,-26.367,-37.598,-56.641,-35.156,0.000
1728632908.452,-25.391,-27.832,-61.035,-35.645,0.000
1728632908.456,-45.898,-19.043,-68.359,-59.570,0.000
1728632908.460,-27.832,-19.043,-63.477,-53.711,0.000
1728632908.464,-29.785,-15.625,-58.105,-47.363,0.000
1728632908.468,-48.340,-17.090,-56.641,-38.574,0.000
1728632908.472,-45.898,-28.320,-61.035,-20.508,0.000
1728632908.475,-42.969,-32.227,-67.383,-37.598,0.000
1728632908.479,-34.668,-28.320,-60.059,-56.641,0.000
1728632908.484,-28.809,-33.203,-57.129,-54.199,0.000
1728632908.487,-34.668,-34.180,-52.246,-45.898,0.000
1728632908.491,-49.805,-28.809,-39.551,-30.273,0.000
1728632908.495,-44.434,-39.062,-44.434,-33.203,0.000
1728632908.499,-36.133,-51.758,-49.805,-40.527,0.000
1728632908.503,-36.133,-47.363,-51.270,-52.246,0.000
1728632908.507,-45.410,-26.855,-47.852,-48.828,0.000
1728632908.511,-65.918,-29.785,-49.316,-32.715,0.000
1728632908.515,-49.805,-48.340,-52.734,-43.945,0.000
1728632908.519,-20.508,-45.898,-41.992,-30.273,0.000
1728632908.523,-3.418,-40.039,-39.551,-13.672,0.000
1728632908.527,-6.348,-34.668,-41.992,-18.066,0.000
1728632908.531,-45.898,-24.902,-44.922,-16.602,0.000
1728632908.534,-75.684,-29.785,-51.270,-33.203,0.000
1728632908.538,-50.293,-35.156,-51.270,-32.715,0.000
1728632908.542,-25.391,-35.156,-43.457,-6.836,0.000
1728632908.546,-28.320,-40.039,-32.715,-14.160,0.000
1728632908.550,-27.344,-44.434,-38.574,-25.391,0.000
1728632908.554,-30.273,-36.133,-49.805,-32.715,0.000
1728632908.558,-10.742,-19.531,-36.133,-39.062,0.000
1728632908.562,1.465,-19.043,-22.461,-25.391,0.000
1728632908.566,-13.184,-21.484,-28.320,-20.020,0.000
1728632908.570,-43.945,-22.461,-33.203,-26.855,0.000
1728632908.573,-53.711,-23.438,-37.598,-25.391,0.000
1728632908.578,-19.043,-22.461,-38.574,-23.926,0.000
1728632908.582,20.508,-19.531,-37.598,-43.457,0.000
1728632908.585,9.277,-25.391,-48.340,-51.758,0.000
1728632908.589,-37.598,-27.832,-54.688,-20.020,0.000
1728632908.593,-51.758,-20.996,-53.711,-7.812,0.000
1728632908.597,-29.297,-20.996,-42.480,-9.766,0.000
1728632908.601,-14.648,-29.297,-28.809,-16.602,0.000
1728632908.605,-16.602,-44.434,-35.645,-26.855,0.000
1728632908.609,-64.453,-50.293,-51.270,-32.715,0.000
1728632908.613,-77.148,-39.551,-50.293,-47.852,0.000
1728632908.617,-30.273,-27.832,-43.945,-56.152,0.000
1728632908.621,0.000,-28.809,-42.969,-41.504,0.000
1728632908.625,-1.953,-29.297,-41.504,-30.762,0.000
1728632908.628,-35.156,-30.273,-42.480,-40.039,0.000
1728632908.632,-53.711,-41.504,-51.270,-41.504,0.000
1728632908.636,-45.410,-51.270,-52.734,-39.062,0.000
1728632908.640,-35.156,-52.246,-47.363,-16.602,0.000
1728632908.644,-36.133,-52.246,-43.945,-17.090,0.000
1728632908.648,-50.293,-69.336,-40.527,-37.598,0.000
1728632908.652,-40.527,-80.078,-37.109,-40.039,0.000
1728632908.656,-31.250,-66.895,-33.203,-39.551,0.000
1728632908.660,-34.180,-54.199,-36.621,-33.691,0.000
1728632908.664,-34.180,-58.105,-44.922,-37.109,0.000
1728632908.667,-41.016,-70.801,-56.641,-26.367,0.000
1728632908.671,-39.551,-62.988,-51.270,-16.113,0.000
1728632908.675,-55.664,-48.340,-41.016,-12.695,0.000
1728632908.679,-27.832,-46.387,-39.551,-5.859,0.000
1728632908.683,-0.977,-53.711,-41.992,-17.578,0.000
1728632908.687,-16.113,-56.152,-46.875,-21.484,0.000
1728632908.691,-19.043,-51.270,-46.387,-27.832,0.000
1728632908.695,-12.695,-46.875,-45.410,-34.668,0.000
1728632908.699,-4.883,-41.504,-39.062,-25.879,0.000
1728632908.703,-1.465,-40.527,-42.969,-23.438,0.000
1728632908.706,-20.020,-41.504,-59.082,-27.344,0.000
1728632908.710,-34.180,-43.457,-59.570,-27.344,0.000
1728632908.714,-31.738,-41.992,-58.105,-32.715,0.000
1728632908.718,-29.297,-30.273,-57.129,-29.297,0.000
1728632908.722,-15.137,-27.344,-49.805,-17.090,0.000
1728632908.726,7.324,-30.762,-48.340,-18.555,0.000
1728632908.730,-15.137,-37.598,-54.199,-10.254,0.000
1728632908.734,-31.738,-42.969,-56.152,-8.789,0.000
1728632908.738,-5.371,-37.598,-42.969,-14.160,0.000
1728632908.742,3.418,-45.410,-37.598,-8.301,0.000
1728632908.745,-22.461,-54.199,-39.551,2.930,0.000
1728632908.749,-45.898,-47.363,-43.457,-2.441,0.000
1728632908.753,-34.668,-44.434,-47.363,-33.203,0.000
1728632908.757,-26.367,-53.711,-45.898,-37.598,0.000
1728632908.761,-35.156,-51.758,-48.340,-23.926,0.000
1728632908.765,-37.109,-41.016,-57.617,-30.762,0.000
1728632908.769,-40.039,-58.105,-62.988,-35.156,0.000
1728632908.773,-52.246,-70.801,-65.918,-42.480,0.000
1728632908.777,-48.340,-62.500,-64.453,-48.828,0.000
1728632908.780,-28.320,-61.523,-58.105,-47.852,0.000
1728632908.784,-23.438,-57.617,-64.941,-43.945,0.000
1728632908.788,-45.410,-60.547,-68.848,-30.762,0.000
1728632908.792,-66.895,-65.918,-60.059,-26.855,0.000
1728632908.796,-30.273,-45.898,-60.059,-29.297,0.000
1728632908.800,-14.160,-32.227,-63.477,-16.113,0.000
1728632908.804,-41.504,-42.969,-64.453,-21.973,0.000
1728632908.808,-64.453,-61.035,-77.148,-40.039,0.000
1728632908.812,-64.941,-66.895,-85.449,-41.992,0.000
1728632908.815,-48.340,-51.758,-81.543,-47.363,0.000
1728632908.819,-18.555,-37.598,-77.637,-40.527,0.000
1728632908.823,-10.254,-41.504,-68.848,-15.137,0.000
1728632908.827,-27.344,-45.410,-65.430,-14.160,0.000
1728632908.831,-37.109,-38.086,-66.406,-4.395,0.000
1728632908.835,-29.785,-34.668,-62.012,-11.230,0.000
1728632908.839,-4.883,-33.203,-57.617,-36.621,0.000
1728632908.843,-9.766,-34.668,-56.641,-33.691,0.000
1728632908.847,-33.203,-37.109,-61.523,-23.926,0.000
1728632908.851,-40.527,-30.762,-65.918,-15.625,0.000
1728632908.855,-34.180,-22.461,-62.012,-17.090,0.000
1728632908.859,-16.113,-18.066,-52.246,-18.066,0.000
1728632908.862,-2.930,-20.508,-48.828,-25.879,0.000
1728632908.866,-13.672,-18.555,-49.805,-28.809,0.000
1728632908.870,-22.949,-9.277,-47.852,-14.648,0.000
1728632908.874,-26.855,-21.484,-44.922,-7.324,0.000
1728632908.878,-21.973,-28.320,-39.551,-9.766,0.000
1728632908.882,-10.742,-20.996,-45.898,-25.879,0.000
1728632908.886,-22.949,-16.113,-50.781,-18.555,0.000
1728632908.890,-41.016,-17.090,-41.016,3.906,0.000
1728632908.894,-32.227,-19.043,-38.086,-26.855,0.000
1728632908.898,-10.254,-18.066,-41.504,-36.621,0.000
1728632908.902,-2.930,-32.715,-50.293,-23.438,0.000
1728632908.905,0.000,-41.992,-56.641,-18.555,0.000
1728632908.909,0.000,-31.738,-47.363,-20.508,0.000
1728632908.913,0.000,-38.574,-41.504,-44.434,0.000
1728632908.917,0.000,-45.898,-45.410,-49.316,0.000
1728632908.921,0.000,-47.852,-44.922,-50.293,0.000
1728632908.925,0.000,-51.270,-46.387,-47.852,0.000
1728632908.929,0.000,-54.199,-48.340,-43.945,0.000
1728632908.933,0.000,-55.664,-47.363,-64.453,0.000
1728632908.937,0.000,-59.082,-49.316,-52.734,0.000
1728632908.941,0.000,-56.641,-46.875,-26.855,0.000
1728632908.945,0.000,-42.480,-41.992,-24.902,0.000
1728632908.948,0.000,-45.898,-48.828,-24.902,0.000
1728632908.952,-37.109,-51.758,-55.664,-38.086,0.000
1728632908.956,-28.809,-46.875,-61.523,-44.922,0.000
1728632908.960,-33.203,-42.969,-67.871,-42.969,0.000
1728632908.964,-19.043,-42.480,-69.336,-41.504,0.000
1728632908.968,-28.320,-40.039,-78.613,-33.203,0.000
1728632908.972,-37.109,-37.598,-73.730,-46.387,0.000
1728632908.976,-31.738,-31.738,-61.035,-55.664,0.000
1728632908.980,-32.715,-24.414,-49.316,-32.227,0.000
1728632908.984,-29.785,-26.367,-41.992,0.977,0.000
1728632908.988,-28.320,-37.109,-51.758,-0.977,0.000
1728632908.991,-27.832,-33.203,-47.363,-23.926,0.000
1728632908.995,-13.672,-17.578,-28.809,-24.414,0.000
1728632908.999,0.000,-5.371,-26.855,-11.230,0.000
1728632909.003,0.000,-8.789,-32.715,-2.441,0.000
1728632909.007,0.000,-24.414,-43.945,-10.742,0.000
1728632909.011,0.000,-31.250,-50.293,-24.414,0.000
1728632909.015,0.000,-24.902,-42.480,-21.973,0.000
1728632909.019,0.000,-28.320,-31.250,-6.836,0.000
1728632909.023,0.000,-29.785,-27.344,-4.395,0.000
1728632909.027,0.000,-23.438,-29.785,-8.789,0.000
1728632909.030,0.000,-32.715,-26.855,-23.438,0.000
1728632909.034,0.000,-21.484,-23.438,-22.949,0.000
1728632909.038,0.000,-8.789,-21.973,-7.324,0.000
1728632909.042,0.000,-14.160,-20.508,-7.812,0.000
1728632909.046,-20.508,-27.344,-37.109,-20.508,0.000
1728632909.050,-53.711,-42.969,-48.340,-33.203,0.000
1728632909.054,-54.688,-44.922,-39.062,-33.203,0.000
1728632909.058,-37.598,-34.180,-31.738,-29.297,0.000
1728632909.062,-15.625,-25.879,-27.832,-23.926,0.000
1728632909.066,-21.484,-32.715,-32.715,-41.504,0.000
1728632909.070,-39.551,-40.039,-34.668,-35.156,0.000
1728632909.073,-35.645,-38.086,-22.949,-6.348,0.000
1728632909.077,-42.480,-35.645,-11.719,-10.254,0.000
1728632909.081,-43.457,-42.480,-16.113,-13.672,0.000
1728632909.085,-39.062,-47.363,-27.344,-14.160,0.000
1728632909.089,-39.551,-43.945,-31.250,-29.297,0.000
1728632909.093,-33.203,-40.527,-24.414,-49.805,0.000
1728632909.097,-36.621,-43.457,-25.879,-56.641,0.000
1728632909.101,-52.734,-38.086,-33.203,-48.340,0.000
1728632909.105,-56.152,-34.180,-28.809,-30.762,0.000
1728632909.108,-46.387,-42.969,-32.227,-26.367,0.000
1728632909.112,-40.039,-41.992,-41.016,-33.691,0.000
1728632909.116,-38.086,-38.574,-43.945,-41.504,0.000
1728632909.120,-30.762,-36.133,-44.434,-50.781,0.000
1728632909.124,-37.598,-32.227,-40.039,-43.457,0.000
1728632909.128,-46.387,-40.039,-40.039,-25.879,0.000
1728632909.132,-32.715,-35.645,-45.898,-28.320,0.000
1728632909.136,-28.320,-19.531,-42.480,-40.527,0.000
1728632909.140,-23.438,-20.996,-43.457,-36.621,0.000
1728632909.144,-5.371,-30.762,-48.828,-29.297,0.000
1728632909.147,8.301,-33.691,-43.945,-18.066,0.000
1728632909.151,14.160,-19.043,-41.992,-11.230,0.000
1728632909.155,13.672,-7.812,-31.250,0.000,0.000
1728632909.159,-10.742,-27.832,-39.062,-5.371,0.000
1728632909.163,-9.766,-73.730,-51.270,-4.883,0.000
1728632909.167,-22.461,-80.078,-45.410,0.977,0.000
1728632909.171,-32.227,-66.895,-39.062,11.719,0.000
1728632909.175,55.176,-51.758,-45.898,48.340,0.000
1728632909.179,67.383,-42.969,-71.289,44.434,0.000
1728632909.183,47.363,-62.988,-103.516,80.078,0.000
1728632909.187,83.496,-20.996,-44.434,122.070,0.000
1728632909.191,52.246,-46.875,2.930,59.082,0.000
1728632909.194,74.219,-105.469,1.953,46.387,0.000
1728632909.198,83.984,-81.543,28.809,27.344,0.000
1728632909.202,29.297,-139.160,-85.938,-19.043,0.000
1728632909.206,132.812,-197.266,-49.805,139.160,0.000
1728632909.210,238.770,25.879,194.336,291.016,0.000
1728632909.214,166.992,154.785,-60.059,181.152,0.000
1728632909.218,138.184,120.117,-221.191,140.625,0.000
1728632909.222,-29.785,85.938,92.773,11.230,0.000
1728632909.226,-133.301,279.297,194.336,-128.418,0.000
1728632909.230,-84.473,407.715,136.230,-95.215,0.000
1728632909.234,-95.215,398.438,30.762,-22.949,0.000
1728632909.237,57.129,612.793,5.371,94.727,0.000
1728632909.241,121.094,701.660,10.254,97.168,0.000
1728632909.245,69.336,681.641,-10.742,52.734,0.000
1728632909.249,70.801,711.426,62.500,67.383,0.000
1728632909.253,87.402,776.855,135.742,95.215,0.000
1728632909.257,144.043,804.688,149.414,118.164,0.000
1728632909.261,198.242,841.309,174.316,145.996,0.000
1728632909.265,216.797,853.516,169.434,179.688,0.000
1728632909.269,208.008,872.559,168.457,193.848,0.000
1728632909.273,222.168,918.457,207.520,182.617,0.000
1728632909.277,265.137,957.031,238.281,190.430,0.000
1728632909.281,0.000,967.285,259.766,186.035,0.000
1728632909.284,0.000,965.820,253.418,158.691,0.000
1728632909.288,0.000,966.797,242.676,159.180,0.000
1728632909.292,0.000,966.797,261.230,161.133,0.000
1728632909.296,0.000,966.797,282.227,138.184,0.000
1728632909.300,0.000,966.797,299.316,129.883,0.000
1728632909.304,0.000,966.309,315.918,132.812,0.000
1728632909.308,0.000,965.820,325.684,123.535,0.000
1728632909.312,0.000,967.773,321.289,112.793,0.000
1728632909.316,0.000,942.383,319.824,120.117,0.000
1728632909.320,0.000,911.621,310.547,112.793,0.000
1728632909.323,0.000,896.973,271.484,89.355,0.000
1728632909.327,142.578,877.930,236.328,91.797,0.000
1728632909.331,126.465,863.770,221.680,89.355,0.000
1728632909.335,159.668,833.008,204.102,69.336,0.000
1728632909.339,159.668,781.738,171.875,75.195,0.000
1728632909.343,136.230,726.074,131.348,69.824,0.000
1728632909.347,109.863,660.645,87.891,36.621,0.000
1728632909.351,73.242,584.473,62.500,25.879,0.000
1728632909.355,71.289,502.441,54.199,29.297,0.000
1728632909.359,111.816,427.734,39.062,30.273,0.000
1728632909.363,110.352,362.793,-0.488,-0.977,0.000
1728632909.366,48.340,310.547,-52.246,-28.320,0.000
1728632909.370,-16.602,263.184,-111.328,-33.203,0.000
1728632909.374,-39.551,208.496,-148.926,-59.570,0.000
1728632909.378,-30.762,144.043,-131.348,-62.500,0.000
1728632909.382,-19.531,66.895,-103.516,-41.992,0.000
1728632909.386,-35.645,-6.348,-114.258,-58.594,0.000
1728632909.390,-63.477,-67.383,-137.207,-70.312,0.000
1728632909.394,-60.547,-123.047,-147.461,-72.266,0.000
1728632909.398,-53.711,-191.895,-142.578,-74.219,0.000
1728632909.402,-37.598,-269.531,-134.277,-48.340,0.000
1728632909.406,-47.852,-323.242,-140.625,-56.152,0.000
1728632909.409,-69.336,-361.328,-164.551,-80.078,0.000
1728632909.413,-77.637,-415.527,-212.402,-89.355,0.000
1728632909.417,-82.031,-459.473,-274.902,-84.473,0.000
1728632909.421,-73.730,-473.145,-306.152,-71.777,0.000
1728632909.425,-93.750,-498.535,-302.246,-78.125,0.000
1728632909.429,-106.934,-536.621,-283.203,-78.125,0.000
1728632909.433,-95.703,-574.219,-264.160,-100.098,0.000
1728632909.437,-85.449,-609.375,-245.605,-85.938,0.000
1728632909.441,-60.547,-621.094,-233.887,-43.945,0.000
1728632909.445,-71.289,-645.508,-238.770,-47.852,0.000
1728632909.448,-110.352,-678.223,-243.652,-62.012,0.000
1728632909.452,-121.582,-676.270,-227.539,-76.172,0.000
1728632909.456,-71.289,-648.438,-204.590,-81.055,0.000
1728632909.460,-56.641,-634.766,-188.477,-65.430,0.000
1728632909.464,-108.398,-644.043,-177.246,-67.871,0.000
1728632909.468,-122.070,-628.906,-176.270,-76.172,0.000
1728632909.472,-97.168,-588.867,-157.715,-76.172,0.000
1728632909.476,-68.359,-541.992,-140.137,-66.895,0.000
1728632909.480,-86.426,-504.395,-131.348,-41.992,0.000
1728632909.483,-91.797,-475.586,-115.723,-41.992,0.000
1728632909.487,-103.516,-470.215,-111.816,-55.176,0.000
1728632909.491,-121.582,-475.586,-106.934,-48.828,0.000
1728632909.495,-91.797,-457.520,-94.238,-46.387,0.000
1728632909.499,-48.340,-434.082,-86.914,-56.641,0.000
1728632909.503,-51.270,-421.875,-86.426,-60.547,0.000
1728632909.507,-118.164,-415.527,-95.215,-59.570,0.000
1728632909.511,-146.973,-387.695,-90.820,-54.688,0.000
1728632909.515,-111.816,-362.793,-79.590,-53.711,0.000
1728632909.519,-85.938,-368.652,-80.566,-69.336,0.000
1728632909.523,-93.262,-371.094,-76.172,-79.590,0.000
1728632909.527,-104.980,-343.262,-67.383,-75.195,0.000
1728632909.531,-105.957,-318.848,-64.941,-70.801,0.000
1728632909.534,-76.660,-310.547,-49.805,-74.707,0.000
1728632909.538,-78.613,-302.734,-28.320,-73.730,0.000
1728632909.542,-110.352,-295.898,-20.020,-70.312,0.000
1728632909.546,-117.676,-288.086,-28.809,-81.543,0.000
1728632909.550,-140.625,-278.320,-34.668,-80.566,0.000
1728632909.554,-132.324,-254.395,-20.020,-76.660,0.000
1728632909.558,-82.520,-221.191,0.977,-89.844,0.000
1728632909.562,-78.125,-208.984,0.977,-88.867,0.000
1728632909.566,-115.723,-211.914,-7.812,-83.496,0.000
1728632909.569,-125.977,-208.008,-8.301,-83.008,0.000
1728632909.573,-87.891,-193.848,-17.090,-74.707,0.000
1728632909.577,-58.594,-180.176,-20.996,-69.824,0.000
1728632909.581,-57.129,-167.480,-12.207,-54.199,0.000
1728632909.585,-59.570,-171.387,-12.695,-43.945,0.000
1728632909.589,-74.707,-184.082,-21.484,-54.199,0.000
1728632909.593,-76.172,-172.852,-20.996,-56.152,0.000
1728632909.597,-56.641,-172.852,-26.855,-58.594,0.000
1728632909.601,-48.340,-157.227,-26.367,-62.988,0.000
1728632909.605,-60.547,-136.719,-15.137,-55.664,0.000
1728632909.609,-63.965,-142.578,-18.066,-51.758,0.000
1728632909.612,-81.055,-145.020,-20.508,-62.500,0.000
1728632909.616,-83.008,-136.230,-22.949,-63.477,0.000
1728632909.620,-52.246,-129.395,-22.949,-38.574,0.000
1728632909.624,-53.711,-136.719,-15.625,-43.457,0.000
1728632909.628,-62.500,-146.973,-23.438,-52.734,0.000
1728632909.632,-70.312,-140.137,-23.926,-42.969,0.000
1728632909.636,-70.801,-131.348,-9.277,-41.504,0.000
1728632909.640,-53.711,-145.020,-3.906,-39.062,0.000
1728632909.644,-63.477,-168.457,-8.301,-38.086,0.000
1728632909.648,-74.707,-166.504,-10.254,-50.781,0.000
1728632909.652,-79.102,-154.297,-19.043,-43.945,0.000
1728632909.655,-71.777,-148.926,-34.668,-37.109,0.000
1728632909.659,-61.035,-149.902,-39.062,-51.758,0.000
1728632909.663,-75.195,-155.273,-44.922,-62.500,0.000
1728632909.667,-98.145,-150.879,-57.129,-86.426,0.000
1728632909.671,-110.352,-161.621,-52.734,-90.820,0.000
1728632909.675,-79.102,-181.152,-40.527,-64.941,0.000
1728632909.679,-46.875,-167.480,-35.645,-46.387,0.000
1728632909.683,-51.270,-145.020,-33.203,-49.316,0.000
1728632909.687,-75.684,-144.531,-40.527,-52.734,0.000
1728632909.691,-90.820,-140.625,-48.340,-68.359,0.000
1728632909.695,-71.289,-135.742,-41.992,-97.168,0.000
1728632909.698,-71.289,-140.137,-41.016,-94.238,0.000
1728632909.702,-83.008,-140.625,-50.781,-70.801,0.000
1728632909.706,-85.938,-137.695,-65.918,-72.754,0.000
1728632909.710,-83.496,-136.230,-58.594,-70.312,0.000
1728632909.714,-67.871,-137.695,-47.363,-48.340,0.000
1728632909.718,-56.641,-135.254,-55.664,-61.035,0.000
1728632909.722,-63.965,-129.395,-63.477,-68.359,0.000
1728632909.726,-60.059,-111.328,-67.383,-56.641,0.000
1728632909.730,-40.039,-100.586,-56.641,-41.504,0.000
1728632909.734,-56.152,-105.469,-48.828,-37.598,0.000
1728632909.738,-54.199,-86.426,-43.945,-52.734,0.000
1728632909.741,-14.160,-75.195,-34.668,-48.340,0.000
1728632909.745,-27.832,-99.609,-37.598,-61.523,0.000
1728632909.749,-75.195,-120.605,-43.457,-70.801,0.000
1728632909.753,-61.523,-115.723,-46.387,-56.152,0.000
1728632909.757,-23.438,-115.234,-43.457,-50.293,0.000
1728632909.761,-35.156,-100.586,-30.762,-52.246,0.000
1728632909.765,-48.828,-79.590,-28.809,-50.293,0.000
1728632909.769,-57.129,-76.660,-35.156,-41.992,0.000
1728632909.773,-64.941,-61.523,-20.508,-40.527,0.000
1728632909.777,-46.387,-60.059,-10.254,-36.133,0.000
1728632909.780,-26.855,-76.172,-15.137,-29.297,0.000
1728632909.784,-45.898,-83.008,-10.742,-30.762,0.000
1728632909.788,-71.289,-87.891,-7.324,-29.785,0.000
1728632909.792,-48.340,-84.961,-11.230,-32.715,0.000
1728632909.796,-39.062,-84.473,-18.555,-26.367,0.000
1728632909.800,-49.805,-99.121,-26.367,-31.738,0.000
1728632909.804,-46.387,-108.398,-30.762,-45.410,0.000
1728632909.808,-68.848,-106.445,-41.504,-52.734,0.000
1728632909.812,-73.730,-104.980,-42.969,-54.199,0.000
1728632909.816,-29.785,-90.820,-28.809,-42.480,0.000
1728632909.819,-14.648,-85.938,-30.762,-28.809,0.000
1728632909.823,-20.020,-89.844,-42.480,-36.133,0.000
1728632909.827,-51.758,-82.520,-35.645,-46.387,0.000
1728632909.831,-74.707,-86.426,-36.133,-37.109,0.000
1728632909.835,-49.805,-78.125,-48.340,-46.875,0.000
1728632909.839,-28.809,-65.430,-53.711,-58.105,0.000
1728632909.843,-9.766,-61.523,-52.734,-59.570,0.000
1728632909.847,-53.711,-65.430,-49.805,-59.082,0.000
1728632909.851,-74.219,-74.219,-53.223,-55.664,0.000
1728632909.855,-28.320,-69.824,-56.152,-49.805,0.000
1728632909.858,-2.441,-55.176,-44.434,-38.574,0.000
1728632909.862,1.465,-30.273,-34.180,-25.879,0.000
1728632909.866,-33.691,-39.062,-42.969,-40.039,0.000
1728632909.870,-67.383,-62.500,-47.852,-50.781,0.000
1728632909.874,-27.832,-58.594,-31.250,-47.852,0.000
1728632909.878,8.301,-62.988,-21.973,-29.297,0.000
1728632909.882,-19.531,-73.242,-23.438,-20.508,0.000
1728632909.886,-34.180,-56.152,-18.066,-24.414,0.000
1728632909.890,-33.203,-49.316,-20.996,-27.344,0.000
1728632909.893,-22.949,-54.688,-23.438,-21.973,0.000
1728632909.897,5.371,-49.805,-10.742,-1.465,0.000
1728632909.901,4.395,-48.828,0.977,4.883,0.000
1728632909.905,-35.645,-57.617,-8.301,-16.602,0.000
1728632909.909,-35.645,-79.590,-23.438,-29.785,0.000
1728632909.913,-23.926,-88.867,-16.602,-19.531,0.000
1728632909.917,-18.066,-70.801,-2.441,-21.973,0.000
1728632909.921,-27.344,-69.336,-2.930,-20.020,0.000
1728632909.925,-61.035,-95.215,-4.395,-12.695,0.000
1728632909.929,-71.289,-102.051,-0.977,-20.996,0.000
1728632909.933,-59.082,-83.984,-3.418,-42.480,0.000
1728632909.936,-14.648,-81.543,-0.488,-27.344,0.000
1728632909.940,-2.930,-77.637,5.859,-9.277,0.000
1728632909.944,-27.832,-78.613,-5.859,-22.949,0.000
1728632909.948,-42.480,-101.562,-20.508,-39.551,0.000
1728632909.952,-51.758,-99.121,-19.531,-47.852,0.000
1728632909.956,-27.344,-88.867,-31.250,-28.809,0.000
1728632909.960,-8.789,-83.496,-29.297,-26.367,0.000
1728632909.964,-45.410,-77.148,-12.695,-40.039,0.000
1728632909.968,-81.055,-76.660,-19.531,-27.344,0.000
1728632909.971,-57.129,-64.453,-15.625,-21.484,0.000
1728632909.975,-34.180,-59.570,-15.137,-48.828,0.000
1728632909.979,-20.996,-58.105,-22.461,-56.641,0.000
1728632909.983,-3.418,-51.270,-21.484,-50.781,0.000
1728632909.987,-50.781,-57.129,-27.344,-42.969,0.000
1728632909.991,-62.500,-63.477,-34.180,-44.922,0.000
1728632909.995,-27.832,-63.477,-34.668,-38.574,0.000
1728632909.999,-28.320,-59.082,-28.809,-16.602,0.000
1728632910.003,-34.668,-49.316,-25.879,-18.066,0.000
1728632910.007,-50.781,-48.340,-36.621,-36.621,0.000
1728632910.011,-32.227,-38.086,-42.480,-42.969,0.000
1728632910.014,-16.602,-30.273,-40.527,-20.020,0.000
1728632910.018,-21.973,-37.109,-25.879,-2.930,0.000
1728632910.022,-17.090,-32.227,-12.695,-35.645,0.000
1728632910.026,-29.785,-27.832,-20.996,-49.316,0.000
1728632910.030,-51.758,-30.273,-20.508,-49.316,0.000
1728632910.034,-26.855,-13.184,-9.766,-33.691,0.000
1728632910.038,2.441,4.395,-2.441,-1.953,0.000
1728632910.042,-1.953,-11.230,-3.418,-2.930,0.000
1728632910.046,-19.043,-31.738,-12.207,-19.043,0.000
1728632910.050,-52.246,-32.715,-16.113,-38.086,0.000
1728632910.054,-41.504,-24.414,-13.672,-37.109,0.000
1728632910.058,-17.090,-15.137,-15.625,-33.203,0.000
1728632910.061,-6.348,-20.020,-18.555,-23.926,0.000
1728632910.065,-31.738,-26.367,-15.625,-9.766,0.000
1728632910.069,-45.410,-21.973,-8.789,-16.113,0.000
1728632910.073,-15.137,-24.414,-5.859,-16.113,0.000
1728632910.077,-8.789,-30.273,-4.395,-8.301,0.000
1728632910.081,-30.273,-30.762,-7.812,-24.902,0.000
1728632910.085,-54.688,-34.180,-13.184,-52.246,0.000
1728632910.089,-67.383,-32.715,-16.113,-62.988,0.000
1728632910.093,-28.320,-39.551,-8.301,-40.039,0.000
1728632910.097,10.742,-58.105,-3.418,-22.949,0.000
1728632910.101,-5.371,-44.434,-18.555,-35.645,0.000
1728632910.104,-49.805,-25.391,-24.902,-39.551,0.000
1728632910.108,-85.938,-44.434,-24.902,-50.293,0.000
1728632910.112,-59.082,-53.223,-26.367,-48.340,0.000
1728632910.116,-33.203,-46.387,-16.602,-29.785,0.000
1728632910.120,-36.133,-48.828,-16.602,-41.504,0.000
1728632910.124,-53.711,-48.340,-28.320,-41.016,0.000
1728632910.128,-62.988,-40.039,-30.273,-34.180,0.000
1728632910.132,-44.434,-39.551,-30.762,-40.039,0.000
1728632910.136,-34.668,-45.898,-27.832,-29.297,0.000
1728632910.140,-10.742,-33.691,-24.414,-10.254,0.000
1728632910.143,-1.465,-25.879,-28.809,-30.762,0.000
1728632910.147,-23.926,-27.832,-24.414,-58.105,0.000
1728632910.151,-12.207,-28.320,-17.090,-46.875,0.000
1728632910.155,-12.695,-26.367,-23.438,-31.738,0.000
1728632910.159,-20.996,-24.902,-24.902,-16.113,0.000
1728632910.163,-22.461,-37.598,-34.668,-17.090,0.000
1728632910.167,-40.039,-41.016,-51.270,-22.461,0.000
1728632910.171,-43.457,-28.809,-48.828,-21.973,0.000
1728632910.175,-4.395,-18.555,-44.922,-21.973,0.000
1728632910.179,19.531,-25.391,-41.504,-12.695,0.000
1728632910.182,13.184,-30.273,-31.738,-7.324,0.000
1728632910.186,-23.438,-29.785,-30.273,-4.883,0.000
1728632910.190,-45.898,-41.016,-37.598,-14.160,0.000
1728632910.194,-28.809,-40.527,-38.086,-12.695,0.000
1728632910.198,-22.949,-35.156,-28.809,2.441,0.000
1728632910.202,-27.344,-31.738,-20.020,-6.836,0.000
1728632910.206,-31.738,-31.250,-21.973,-32.715,0.000
1728632910.210,-38.574,-36.621,-20.996,-37.109,0.000
1728632910.214,-26.855,-41.016,-9.277,-20.508,0.000
1728632910.218,-11.230,-52.246,-11.230,-30.762,0.000
1728632910.221,-18.066,-52.246,-25.391,-38.574,0.000
1728632910.225,-45.898,-44.922,-23.438,-11.230,0.000
1728632910.229,-89.355,-49.316,-18.555,-16.113,0.000
1728632910.233,-63.965,-59.082,-21.484,-59.082,0.000
1728632910.237,-29.297,-53.223,-13.672,-47.852,0.000
1728632910.241,-56.641,-53.223,-13.184,-28.809,0.000
1728632910.245,-76.172,-63.965,-18.555,-38.086,0.000
1728632910.249,-71.777,-62.988,-8.789,-60.547,0.000
1728632910.253,-27.344,-69.824,-5.371,-56.152,0.000
1728632910.257,7.324,-67.871,-17.090,-45.898,0.000
1728632910.261,-36.621,-62.500,-26.367,-35.156,0.000
1728632910.264,-79.590,-72.266,-31.738,-32.227,0.000
1728632910.268,-89.844,-69.824,-37.598,-42.480,0.000
1728632910.272,-74.219,-52.734,-32.227,-50.781,0.000
1728632910.276,-31.250,-41.992,-23.926,-46.387,0.000
1728632910.280,-13.672,-44.922,-25.391,-32.715,0.000
1728632910.284,-28.320,-48.828,-31.250,-29.785,0.000
1728632910.288,-41.992,-46.875,-32.227,-39.551,0.000
1728632910.292,-21.484,-41.016,-28.809,-33.691,0.000
1728632910.296,-7.812,-31.250,-27.832,-18.066,0.000
1728632910.299,-4.395,-41.992,-32.227,-24.414,0.000
1728632910.303,-3.418,-43.457,-30.762,-36.621,0.000
1728632910.307,-37.109,-39.551,-35.645,-32.227,0.000
1728632910.311,-30.273,-41.504,-38.574,-17.578,0.000
1728632910.315,1.465,-36.133,-38.574,0.000,0.000
1728632910.319,-22.461,-25.879,-41.992,10.254,0.000
1728632910.323,-38.574,-13.184,-42.969,-11.230,0.000
1728632910.327,-26.367,-15.137,-42.969,-35.645,0.000
1728632910.331,-19.043,-26.367,-42.480,-37.598,0.000
1728632910.334,13.184,-10.742,-30.273,-20.996,0.000
1728632910.338,13.184,0.000,-20.508,-18.066,0.000
1728632910.342,-18.066,-20.020,-28.809,-18.555,0.000
1728632910.346,-45.898,-28.320,-40.039,-16.602,0.000
1728632910.350,-59.082,-30.273,-49.316,-57.129,0.000
1728632910.354,-39.551,-26.855,-41.016,-65.918,0.000
1728632910.358,-33.691,-19.043,-37.109,-33.691,0.000
1728632910.362,-49.316,-27.344,-37.109,-38.086,0.000
1728632910.366,-52.734,-35.645,-37.109,-39.062,0.000
1728632910.370,-63.965,-22.949,-41.504,-42.969,0.000
1728632910.374,-56.641,-22.461,-37.598,-43.945,0.000
1728632910.378,-22.461,-40.039,-31.250,-29.785,0.000
1728632910.381,-27.344,-45.898,-26.367,-32.715,0.000
1728632910.385,-60.547,-51.270,-30.273,-45.410,0.000
1728632910.389,-64.941,-48.340,-26.855,-38.574,0.000
1728632910.393,-28.809,-41.992,-14.648,-39.062,0.000
1728632910.397,-5.859,-38.574,-5.859,-25.391,0.000
1728632910.401,-23.926,-38.574,-10.742,-1.953,0.000
1728632910.405,-47.852,-50.781,-18.555,-26.367,0.000
1728632910.409,-45.898,-47.852,-21.484,-70.312,0.000
1728632910.413,-32.715,-40.527,-23.926,-63.965,0.000
1728632910.417,-34.668,-42.969,-26.855,-28.320,0.000
1728632910.421,-40.527,-40.527,-34.180,-23.438,0.000
1728632910.424,-47.363,-50.293,-39.062,-28.320,0.000
1728632910.428,-52.246,-51.270,-35.645,-43.457,0.000
1728632910.432,-44.434,-29.785,-31.738,-43.457,0.000
1728632910.436,-22.461,-29.297,-37.598,-15.137,0.000
1728632910.440,-20.996,-41.504,-40.527,-6.836,0.000
1728632910.444,-41.016,-35.156,-40.039,-28.320,0.000
1728632910.448,-29.785,-24.414,-47.852,-28.320,0.000
1728632910.452,-15.137,-18.555,-43.457,-7.324,0.000
1728632910.456,-20.020,-11.719,-29.297,-10.742,0.000
1728632910.460,4.395,-13.672,-32.227,-16.113,0.000
1728632910.464,-14.648,-21.484,-41.992,-24.902,0.000
1728632910.467,-76.172,-16.602,-36.133,-38.574,0.000
1728632910.471,-57.129,-7.324,-19.531,-19.531,0.000
1728632910.475,8.789,-10.742,-14.160,-9.277,0.000
1728632910.479,22.461,-18.555,-20.508,-23.438,0.000
1728632910.483,-26.367,-21.484,-20.996,-18.555,0.000
1728632910.487,-48.340,-20.020,-19.043,-21.973,0.000
1728632910.491,-33.203,-18.555,-26.367,-36.621,0.000
1728632910.495,-24.414,-19.043,-32.715,-26.855,0.000
1728632910.499,-25.879,-17.578,-30.762,-20.020,0.000
1728632910.503,-39.062,-24.902,-25.391,-13.184,0.000
1728632910.507,-29.785,-29.785,-25.391,-13.184,0.000
1728632910.510,-10.742,-31.738,-19.043,-5.859,0.000
1728632910.514,1.465,-30.273,-9.766,18.555,0.000
1728632910.518,0.977,-21.484,-13.672,18.066,0.000
1728632910.522,-33.691,-27.344,-19.043,-22.461,0.000
1728632910.526,-36.621,-39.551,-27.832,-47.852,0.000
1728632910.530,-29.785,-46.875,-34.668,-51.758,0.000
1728632910.534,-43.945,-34.668,-23.926,-49.805,0.000
1728632910.538,-31.738,-37.598,-15.137,-47.363,0.000
1728632910.542,-47.363,-61.523,-27.344,-56.152,0.000
1728632910.546,-68.359,-63.477,-43.457,-67.871,0.000
1728632910.549,-61.523,-49.316,-38.086,-42.969,0.000
1728632910.553,-45.410,-43.457,-28.320,-26.855,0.000
1728632910.557,-24.902,-42.969,-34.668,-42.969,0.000
1728632910.561,-32.227,-43.945,-39.551,-33.203,0.000
1728632910.565,-38.574,-39.551,-36.133,-41.016,0.000
1728632910.569,-47.363,-34.668,-37.109,-41.016,0.000
1728632910.573,-46.875,-45.410,-44.922,-25.879,0.000
1728632910.577,-19.531,-33.691,-38.574,-43.457,0.000
1728632910.581,-43.945,-18.066,-34.668,-46.875,0.000
1728632910.585,-78.125,-23.926,-41.504,-43.945,0.000
1728632910.589,-52.734,-30.273,-36.133,-47.363,0.000
1728632910.592,-21.484,-25.391,-28.320,-29.785,0.000
1728632910.596,-8.789,-16.113,-31.738,-39.062,0.000
1728632910.600,-19.531,-19.043,-35.156,-37.598,0.000
1728632910.604,-35.156,-31.738,-40.039,-14.648,0.000
1728632910.608,-42.969,-36.133,-50.293,-20.996,0.000
1728632910.612,-22.461,-23.926,-41.504,-32.715,0.000
1728632910.616,19.531,-21.973,-30.273,-29.297,0.000
1728632910.620,-2.930,-32.715,-34.668,-14.648,0.000
1728632910.624,-30.762,-28.809,-37.598,-7.812,0.000
1728632910.627,-26.855,-25.879,-45.410,-27.344,0.000
1728632910.631,-24.902,-30.762,-48.340,-39.551,0.000
1728632910.635,1.953,-19.043,-40.039,-21.484,0.000
1728632910.639,15.625,-15.625,-34.668,-0.977,0.000
1728632910.643,-37.109,-34.668,-35.645,-12.695,0.000
1728632910.647,-54.199,-38.086,-30.762,-28.809,0.000
1728632910.651,-13.672,-28.809,-30.273,-35.645,0.000
1728632910.655,-8.301,-33.691,-33.691,-33.203,0.000
1728632910.659,-45.410,-43.457,-31.250,-25.879,0.000
1728632910.663,-56.641,-47.363,-34.668,-36.133,0.000
1728632910.666,-50.293,-56.641,-30.273,-47.363,0.000
1728632910.670,-38.574,-50.293,-22.949,-42.969,0.000
1728632910.674,-6.348,-37.109,-26.855,-21.484,0.000
1728632910.678,-16.602,-36.133,-25.879,4.883,0.000
1728632910.682,-49.316,-41.016,-34.668,-3.418,0.000
1728632910.686,-55.664,-40.527,-38.574,-30.273,0.000
1728632910.690,-48.340,-41.992,-25.879,-36.133,0.000
1728632910.694,-41.992,-40.527,-19.043,-40.527,0.000
1728632910.698,-38.086,-34.180,-28.320,-38.086,0.000
1728632910.702,-40.527,-48.828,-45.898,-38.086,0.000
1728632910.706,-42.969,-61.035,-57.617,-32.715,0.000
1728632910.710,-37.109,-57.129,-59.082,-33.691,0.000
1728632910.713,-32.715,-49.316,-55.176,-33.203,0.000
1728632910.717,-14.160,-36.133,-58.594,-11.719,0.000
1728632910.721,-0.488,-27.832,-56.152,4.395,0.000
1728632910.725,-36.621,-24.902,-57.129,-10.742,0.000
1728632910.729,-46.875,-24.414,-53.223,-26.367,0.000
1728632910.733,-23.438,-25.391,-44.922,-1.953,0.000
1728632910.737,-23.926,-31.250,-50.293,1.953,0.000
1728632910.741,-28.809,-32.715,-52.734,-26.855,0.000
1728632910.745,-30.762,-34.180,-50.293,-38.086,0.000
1728632910.749,-25.391,-25.879,-44.434,-30.273,0.000
1728632910.753,-8.789,-19.043,-43.457,-18.066,0.000
1728632910.757,11.719,-23.438,-46.387,-23.926,0.000
1728632910.760,-10.742,-23.438,-43.945,-36.621,0.000
1728632910.764,-25.879,-20.508,-42.480,-21.484,0.000
1728632910.768,-32.227,-24.414,-46.387,-14.160,0.000
1728632910.772,-55.664,-25.391,-44.434,-26.367,0.000
1728632910.776,-17.090,-28.809,-30.762,-11.719,0.000
1728632910.780,-10.254,-21.484,-27.832,-16.113,0.000
1728632910.784,-30.762,-17.090,-33.691,-20.020,0.000
1728632910.788,-17.578,-22.949,-36.133,-13.672,0.000
1728632910.792,-11.719,-25.391,-34.180,-15.625,0.000
1728632910.796,-11.230,-27.832,-29.785,-17.578,0.000
1728632910.800,-15.625,-33.691,-35.156,-21.484,0.000
1728632910.803,-32.715,-42.480,-42.480,-18.066,0.000
1728632910.807,-51.758,-43.945,-45.898,-29.785,0.000
1728632910.811,-32.227,-49.316,-41.992,-45.410,0.000
1728632910.815,-13.672,-48.828,-28.320,-35.156,0.000
1728632910.819,-14.648,-44.434,-20.996,-0.977,0.000
1728632910.823,-37.109,-55.176,-30.762,-8.789,0.000
1728632910.827,-45.898,-61.523,-42.480,-50.781,0.000
1728632910.831,-34.180,-59.570,-36.621,-45.410,0.000
1728632910.835,-32.227,-61.035,-27.832,-32.715,0.000
1728632910.839,-10.254,-59.082,-30.273,-28.809,0.000
1728632910.843,-26.367,-52.246,-27.832,-25.879,0.000
1728632910.846,-64.453,-51.758,-31.738,-30.762,0.000
1728632910.850,-51.270,-55.176,-45.410,-41.992,0.000
1728632910.854,-21.484,-68.848,-45.410,-46.875,0.000
1728632910.858,-9.766,-81.543,-40.527,-34.180,0.000
1728632910.862,-29.297,-75.195,-48.828,-26.367,0.000
1728632910.866,-52.246,-70.312,-57.617,-28.809,0.000
1728632910.870,-46.387,-67.383,-46.387,-42.480,0.000
1728632910.874,0.000,-56.152,-37.598,-37.598,0.000
1728632910.878,0.000,-42.480,-38.086,-32.227,0.000
1728632910.882,0.000,-45.410,-42.969,-44.922,0.000
1728632910.886,0.000,-52.734,-46.875,-45.898,0.000
1728632910.889,0.000,-46.875,-52.246,-26.367,0.000
1728632910.893,0.000,-41.992,-48.828,-17.578,0.000
1728632910.897,0.000,-50.781,-35.645,-35.156,0.000
1728632910.901,0.000,-61.035,-32.715,-32.227,0.000
1728632910.905,0.000,-55.176,-36.133,-17.090,0.000
1728632910.909,0.000,-40.039,-36.621,-12.207,0.000
1728632910.913,0.000,-27.832,-28.320,-7.324,0.000
1728632910.917,0.000,-22.461,-27.344,0.000,0.000
1728632910.921,-4.395,-32.227,-34.668,-7.812,0.000
1728632910.925,-61.523,-38.574,-45.410,-24.414,0.000
1728632910.928,-38.086,-35.156,-48.828,-32.715,0.000
1728632910.932,-2.441,-41.504,-36.133,-23.926,0.000
1728632910.936,14.160,-54.688,-29.297,-14.648,0.000
1728632910.940,-4.883,-63.477,-34.180,-9.766,0.000
1728632910.944,-43.945,-61.523,-39.062,-14.160,0.000
1728632910.948,-47.363,-44.434,-39.062,-33.691,0.000
1728632910.952,-21.484,-39.551,-36.621,-40.527,0.000
1728632910.956,-0.488,-49.316,-29.297,-22.461,0.000
1728632910.960,-1.953,-54.199,-28.809,-7.812,0.000
1728632910.964,-30.762,-62.988,-45.410,-9.766,0.000
1728632910.967,-68.359,-62.500,-49.316,-26.367,0.000
1728632910.971,-64.941,-52.246,-43.945,-47.852,0.000
1728632910.975,-34.180,-49.316,-41.016,-46.387,0.000
1728632910.979,-5.859,-40.039,-46.875,-30.762,0.000
1728632910.983,-8.301,-40.527,-47.363,-34.668,0.000
1728632910.987,-47.852,-55.664,-43.945,-36.133,0.000
1728632910.991,-48.828,-62.012,-42.480,-33.691,0.000
1728632910.995,-23.926,-57.617,-41.504,-25.879,0.000
1728632910.999,-32.715,-50.293,-43.945,-18.066,0.000
1728632911.003,-50.293,-51.270,-47.852,-22.461,0.000
1728632911.006,-61.035,-46.387,-49.805,-41.016,0.000
1728632911.010,-49.316,-37.598,-41.992,-34.668,0.000
1728632911.014,-26.367,-30.273,-41.992,-13.672,0.000
1728632911.018,-10.254,-20.508,-44.922,-26.367,0.000
1728632911.022,-8.789,-18.066,-50.781,-31.738,0.000
1728632911.026,-18.555,-25.391,-57.617,-29.297,0.000
1728632911.030,-15.137,-25.391,-57.617,-23.438,0.000
1728632911.034,-11.230,-18.066,-62.500,-21.484,0.000
1728632911.038,-7.812,-21.484,-69.824,-36.621,0.000
1728632911.042,-11.230,-22.949,-67.383,-32.227,0.000
1728632911.045,-33.203,-26.855,-67.383,-24.414,0.000
1728632911.049,-20.996,-21.484,-66.406,-18.066,0.000
1728632911.053,16.602,-3.906,-53.711,-14.160,0.000
1728632911.057,25.879,0.977,-40.039,-5.859,0.000
1728632911.061,-9.277,-7.324,-35.645,-4.883,0.000
1728632911.065,-26.367,-18.066,-35.156,-22.949,0.000
1728632911.069,-0.488,-18.555,-30.273,-18.066,0.000
1728632911.073,8.301,-18.066,-23.926,7.812,0.000
1728632911.077,-6.836,-27.344,-23.438,-0.977,0.000
1728632911.080,-25.391,-30.762,-31.738,-23.438,0.000
1728632911.084,-52.734,-34.180,-26.367,-28.809,0.000
1728632911.088,-61.035,-34.180,-25.879,-24.414,0.000
1728632911.092,-31.250,-42.480,-26.855,-20.508,0.000
1728632911.096,-22.461,-46.875,-19.043,-12.695,0.000
1728632911.100,-35.645,-36.621,-22.461,-16.113,0.000
1728632911.104,-45.898,-32.715,-28.320,-32.715,0.000
1728632911.108,-60.059,-43.945,-25.391,-48.340,0.000
1728632911.112,-32.227,-43.457,-15.625,-39.551,0.000
1728632911.116,-3.418,-40.039,-22.461,-32.227,0.000
1728632911.120,-36.621,-47.363,-38.574,-46.875,0.000
1728632911.123,-80.566,-60.547,-40.527,-45.898,0.000
1728632911.127,-63.477,-60.059,-33.203,-17.090,0.000
1728632911.131,-36.621,-51.758,-31.738,-26.367,0.000
1728632911.135,-35.156,-52.734,-29.785,-42.480,0.000
1728632911.139,-21.484,-54.688,-35.156,-40.527,0.000
1728632911.143,-30.273,-53.711,-44.434,-43.945,0.000
1728632911.147,-48.828,-44.922,-44.922,-59.570,0.000
1728632911.151,-24.902,-37.598,-44.922,-43.457,0.000
1728632911.155,0.000,-36.621,-40.527,-35.156,0.000
1728632911.159,0.000,-34.668,-37.598,-42.969,0.000
1728632911.163,0.000,-41.016,-39.062,-26.855,0.000
1728632911.167,0.000,-46.875,-51.758,-36.133,0.000
1728632911.170,0.000,-40.527,-53.223,-37.598,0.000
1728632911.174,0.000,-32.227,-43.945,-19.043,0.000
1728632911.178,0.000,-27.832,-50.293,-29.297,0.000
1728632911.182,0.000,-27.832,-51.270,-37.109,0.000
1728632911.186,0.000,-35.645,-48.340,-23.926,0.000
1728632911.190,0.000,-28.809,-51.758,-29.297,0.000
1728632911.194,0.000,-11.230,-48.340,-15.137,0.000
1728632911.198,0.000,-16.602,-45.898,9.277,0.000
1728632911.202,0.000,-20.996,-47.852,-14.160,0.000
1728632911.206,-29.785,-21.973,-43.457,-43.457,0.000
1728632911.210,-44.434,-23.438,-40.527,-45.410,0.000
1728632911.213,-8.301,-23.438,-37.109,-31.738,0.000
1728632911.217,-12.207,-29.785,-34.180,-13.672,0.000
1728632911.221,-50.293,-40.039,-40.527,-15.625,0.000
1728632911.225,-37.598,-40.527,-37.598,-32.715,0.000
1728632911.229,-28.809,-39.551,-30.273,-24.902,0.000
1728632911.233,-35.645,-52.246,-29.297,-38.086,0.000
1728632911.237,-42.969,-57.129,-28.809,-60.059,0.000
1728632911.241,-46.387,-60.547,-30.273,-42.969,0.000
1728632911.245,-35.156,-63.477,-36.133,-34.180,0.000
1728632911.249,0.000,-56.152,-35.645,-42.969,0.000
1728632911.252,0.000,-50.293,-34.180,-39.551,0.000
1728632911.256,0.000,-47.852,-31.250,-27.832,0.000
1728632911.260,0.000,-46.875,-25.879,-13.184,0.000
1728632911.264,0.000,-44.434,-21.484,-11.719,0.000
1728632911.268,0.000,-58.105,-17.090,-25.879,0.000
1728632911.272,0.000,-61.523,-12.207,-20.996,0.000
1728632911.276,0.000,-46.875,-14.160,-18.555,0.000
1728632911.280,0.000,-36.133,-23.926,-25.391,0.000
1728632911.284,0.000,-36.621,-30.273,-35.645,0.000
1728632911.288,0.000,-41.016,-32.227,-42.969,0.000
1728632911.292,0.000,-34.180,-29.785,-27.832,0.000
1728632911.295,-14.160,-24.902,-29.785,-15.625,0.000
1728632911.299,-12.207,-24.414,-39.062,-28.809,0.000
1728632911.303,-3.906,-28.809,-45.898,-33.691,0.000
1728632911.307,-21.973,-33.203,-47.852,-42.480,0.000
1728632911.311,-23.926,-33.691,-50.781,-34.180,0.000
1728632911.315,0.000,-26.855,-45.898,-8.789,0.000
1728632911.319,-12.207,-22.949,-44.922,-22.461,0.000
1728632911.323,-27.832,-18.555,-51.758,-32.227,0.000
1728632911.327,-29.785,-20.996,-47.852,-30.273,0.000
1728632911.331,-15.625,-28.320,-49.805,-20.508,0.000
1728632911.334,-7.324,-26.367,-50.781,-8.789,0.000
1728632911.338,-32.715,-36.133,-47.363,-13.184,0.000
1728632911.342,-39.062,-44.434,-46.387,-13.184,0.000
1728632911.346,-26.367,-36.133,-45.410,-17.090,0.000
1728632911.350,-14.648,-35.645,-48.828,-21.484,0.000
1728632911.354,-8.789,-38.574,-46.875,-21.484,0.000
1728632911.358,-10.742,-39.062,-45.410,-25.879,0.000
1728632911.362,-30.762,-49.316,-41.504,-21.484,0.000
1728632911.366,-51.758,-50.781,-44.922,-15.625,0.000
1728632911.370,-50.293,-40.039,-50.293,-20.996,0.000
1728632911.373,-27.832,-29.297,-41.504,-28.320,0.000
1728632911.377,-31.738,-28.809,-35.156,-34.180,0.000
1728632911.381,-37.109,-38.086,-30.762,-33.203,0.000
1728632911.385,-30.273,-40.527,-26.855,-36.621,0.000
1728632911.389,-52.246,-36.133,-21.973,-29.785,0.000
1728632911.393,-25.391,-37.598,-24.902,-14.648,0.000
1728632911.397,-7.324,-45.410,-25.391,-16.602,0.000
1728632911.401,-45.410,-56.641,-28.809,-32.715,0.000
1728632911.405,-51.270,-54.688,-30.762,-41.016,0.000
1728632911.408,-29.297,-47.363,-29.297,-40.039,0.000
1728632911.412,-13.672,-47.852,-40.527,-36.621,0.000
1728632911.416,-23.438,-50.293,-42.480,-21.484,0.000
1728632911.420,-49.316,-48.828,-46.875,-25.391,0.000
1728632911.424,-53.711,-44.922,-58.105,-30.762,0.000
1728632911.428,-34.668,-31.738,-53.223,-16.113,0.000
1728632911.432,-12.695,-29.785,-51.270,-22.949,0.000
1728632911.436,-29.297,-44.434,-63.965,-41.504,0.000
1728632911.440,-57.129,-41.992,-64.941,-50.781,0.000
1728632911.443,-54.688,-31.250,-63.477,-46.387,0.000
1728632911.447,-20.508,-35.645,-66.406,-21.484,0.000
1728632911.451,9.277,-36.133,-76.172,-22.461,0.000
1728632911.455,5.371,-33.203,-91.797,-39.551,0.000
1728632911.459,-4.395,-27.832,-80.566,-28.320,0.000
1728632911.463,-20.508,-48.828,-55.176,-6.348,0.000
1728632911.467,-37.598,-57.617,-48.828,-18.066,0.000
1728632911.471,4.395,-20.996,-50.293,5.371,0.000
1728632911.475,29.297,-26.855,-75.684,6.836,0.000
1728632911.479,-0.977,-75.195,-91.309,-26.367,0.000
1728632911.483,28.809,-105.469,-71.289,6.348,0.000
1728632911.487,62.500,-94.238,-66.895,37.598,0.000
1728632911.490,51.270,-97.656,-134.277,48.340,0.000
1728632911.494,105.957,-85.938,-64.453,127.441,0.000
1728632911.498,80.566,-9.277,25.879,94.727,0.000
1728632911.502,-7.324,-74.219,-30.273,-4.395,0.000
1728632911.506,119.629,-157.227,16.113,128.906,0.000
1728632911.510,147.461,-172.852,9.766,150.391,0.000
1728632911.514,75.684,-144.531,-7.812,53.711,0.000
1728632911.518,238.281,29.297,137.695,176.270,0.000
1728632911.522,147.949,185.059,86.914,154.297,0.000
1728632911.526,2.930,284.180,-194.824,44.434,0.000
1728632911.530,33.691,390.625,-252.441,28.320,0.000
1728632911.534,-40.039,391.602,56.641,-74.707,0.000
1728632911.537,-63.965,443.848,241.211,-62.500,0.000
1728632911.541,-67.383,439.941,150.391,-24.902,0.000
1728632911.545,13.184,340.820,115.234,27.344,0.000
1728632911.549,140.137,525.391,118.164,103.516,0.000
1728632911.553,162.109,698.730,77.637,129.883,0.000
1728632911.557,157.227,758.789,100.586,150.391,0.000
1728632911.561,163.574,808.105,95.215,140.137,0.000
1728632911.565,201.660,805.664,95.703,135.742,0.000
1728632911.569,239.258,874.023,117.676,155.273,0.000
1728632911.573,241.699,915.039,125.488,195.801,0.000
1728632911.577,0.000,927.246,133.789,197.754,0.000
1728632911.580,0.000,961.426,143.555,163.574,0.000
1728632911.584,0.000,969.238,162.598,150.391,0.000
1728632911.588,0.000,952.637,161.621,139.648,0.000
1728632911.592,0.000,924.316,140.625,135.742,0.000
1728632911.596,0.000,904.785,127.441,127.441,0.000
1728632911.600,0.000,886.719,135.254,113.281,0.000
1728632911.604,0.000,862.305,150.879,104.980,0.000
1728632911.608,0.000,848.633,168.457,100.098,0.000
1728632911.612,0.000,832.520,179.199,104.492,0.000
1728632911.616,0.000,808.105,168.457,121.582,0.000
1728632911.619,0.000,798.340,154.785,114.258,0.000
1728632911.623,111.816,782.715,139.160,90.332,0.000
1728632911.627,127.441,758.789,124.512,68.359,0.000
1728632911.631,163.086,750.000,117.676,59.570,0.000
1728632911.635,163.574,739.746,104.492,84.473,0.000
1728632911.639,140.137,709.473,84.473,86.914,0.000
1728632911.643,116.211,659.668,57.129,80.566,0.000
1728632911.647,107.910,621.094,34.668,70.312,0.000
1728632911.651,120.117,592.773,31.250,79.590,0.000
1728632911.655,119.141,550.781,10.742,66.406,0.000
1728632911.659,108.887,501.953,-33.691,37.109,0.000
1728632911.662,89.844,447.266,-70.801,52.246,0.000
1728632911.666,52.246,381.348,-71.289,38.574,0.000
1728632911.670,42.480,304.199,-60.547,12.207,0.000
1728632911.674,59.082,230.469,-56.641,3.418,0.000
1728632911.678,49.805,175.781,-80.078,1.465,0.000
1728632911.682,-6.836,130.371,-111.328,-10.254,0.000
1728632911.686,-40.527,89.355,-125.000,-31.250,0.000
1728632911.690,-22.461,39.062,-143.555,-36.133,0.000
1728632911.694,-5.859,-20.020,-152.832,-36.621,0.000
1728632911.698,-16.113,-76.660,-156.250,-34.668,0.000
1728632911.701,-41.504,-124.023,-164.551,-38.086,0.000
1728632911.705,-29.297,-152.832,-162.109,-44.922,0.000
1728632911.709,-21.973,-192.871,-146.484,-52.246,0.000
1728632911.713,-63.477,-249.512,-114.746,-64.453,0.000
1728632911.717,-82.520,-298.828,0.000,-65.918,0.000
1728632911.721,-93.262,-348.145,0.000,-64.453,0.000
1728632911.725,-98.633,-385.742,0.000,-75.684,0.000
1728632911.729,-86.914,-424.316,0.000,-85.449,0.000
1728632911.733,-72.266,-471.191,0.000,-67.383,0.000
1728632911.737,-86.426,-507.812,0.000,-47.852,0.000
1728632911.740,-115.234,-535.156,0.000,-51.758,0.000
1728632911.744,-118.164,-570.312,0.000,-73.242,0.000
1728632911.748,-98.633,-572.266,0.000,-87.402,0.000
1728632911.752,-62.012,-553.711,0.000,-75.684,0.000
1728632911.756,-52.734,-559.082,0.000,-61.035,0.000
1728632911.760,-107.422,-581.055,0.000,-56.641,0.000
1728632911.764,-131.836,-583.496,-126.465,-56.641,0.000
1728632911.768,-117.676,-580.566,-121.582,-60.547,0.000
1728632911.772,-100.586,-580.078,-111.328,-53.711,0.000
1728632911.776,-90.332,-569.336,-103.516,-57.129,0.000
1728632911.779,-90.332,-543.457,-104.492,-73.242,0.000
1728632911.783,-73.730,-517.578,-100.098,-62.988,0.000
1728632911.787,-67.871,-507.324,-78.125,-69.336,0.000
1728632911.791,-90.820,-494.629,-51.270,-72.754,0.000
1728632911.795,-79.590,-484.375,-40.039,-44.922,0.000
1728632911.799,-94.727,-486.816,-33.691,-54.199,0.000
1728632911.803,-124.023,-488.281,-25.879,-86.914,0.000
1728632911.807,-102.051,-472.656,-22.949,-82.520,0.000
1728632911.811,-61.523,-454.102,-24.414,-63.965,0.000
1728632911.815,-58.594,-428.223,-25.879,-56.152,0.000
1728632911.819,-104.980,-384.277,-34.668,-64.453,0.000
1728632911.823,-136.230,-367.188,-53.711,-92.285,0.000
1728632911.826,-122.559,-379.883,-60.059,-86.426,0.000
1728632911.830,-82.520,-387.695,-49.316,-54.199,0.000
1728632911.834,-71.777,-371.582,-47.363,-67.383,0.000
1728632911.838,-81.055,-340.820,-46.387,-68.359,0.000
1728632911.842,-90.820,-333.496,-54.688,-64.941,0.000
1728632911.846,-90.332,-331.055,-81.055,-78.125,0.000
1728632911.850,-99.121,-317.383,-82.520,-65.430,0.000
1728632911.854,-82.520,-299.805,-71.777,-70.312,0.000
1728632911.858,-59.082,-298.828,-67.383,-75.684,0.000
1728632911.862,-90.332,-300.293,-68.359,-64.941,0.000
1728632911.866,-103.027,-285.645,-58.594,-70.312,0.000
1728632911.870,-60.059,-267.578,-38.086,-50.781,0.000
1728632911.873,-40.039,-268.555,-37.598,-37.598,0.000
1728632911.877,-53.711,-266.113,-34.180,-48.340,0.000
1728632911.881,-92.773,-242.188,-19.531,-55.176,0.000
1728632911.885,-104.980,-228.516,-20.020,-61.523,0.000
1728632911.889,-51.758,-229.492,-20.020,-54.199,0.000
1728632911.893,-29.785,-230.469,-20.996,-58.594,0.000
1728632911.897,-62.012,-227.051,-19.531,-63.965,0.000
1728632911.901,-96.191,-228.516,-15.137,-41.504,0.000
1728632911.905,-102.539,-230.957,-18.066,-54.199,0.000
1728632911.909,-74.707,-226.562,-9.766,-65.430,0.000
1728632911.913,-65.430,-207.031,-7.324,-46.875,0.000
1728632911.916,-73.242,-191.895,-22.461,-52.246,0.000
1728632911.920,-66.406,-180.176,-34.180,-58.105,0.000
1728632911.924,-66.406,-172.363,-35.645,-70.312,0.000
1728632911.928,-77.148,-164.062,-31.738,-73.730,0.000
1728632911.932,-65.918,-145.020,-17.578,-46.875,0.000
1728632911.936,-55.176,-146.973,-20.020,-41.992,0.000
1728632911.940,-71.289,-161.621,-38.574,-30.273,0.000
1728632911.944,-82.520,-154.297,-36.621,-26.367,0.000
1728632911.948,-70.312,-139.160,-26.855,-42.480,0.000
1728632911.952,-56.152,-124.023,-18.066,-39.062,0.000
1728632911.956,-53.223,-118.652,-20.508,-49.805,0.000
1728632911.959,-70.312,-123.047,-30.273,-80.078,0.000
1728632911.963,-75.684,-129.395,-28.809,-76.172,0.000
1728632911.967,-57.129,-126.953,-27.344,-53.711,0.000
1728632911.971,-58.105,-124.023,-22.461,-59.570,0.000
1728632911.975,-63.477,-138.672,-22.461,-54.688,0.000
1728632911.979,-53.711,-141.602,-30.273,-41.992,0.000
1728632911.983,-71.777,-126.953,-40.527,-48.828,0.000
1728632911.987,-80.566,-108.398,-42.480,-50.293,0.000
1728632911.991,-42.969,-99.121,-28.320,-29.785,0.000
1728632911.995,-39.062,-96.680,-23.438,-8.789,0.000
1728632911.998,-59.570,-94.238,-28.809,-17.090,0.000
1728632912.002,-51.758,-94.727,-34.668,-37.109,0.000
1728632912.006,-41.016,-98.145,-35.645,-36.621,0.000
1728632912.010,-35.645,-97.656,-23.438,-32.227,0.000
1728632912.014,-22.461,-95.215,-23.926,-40.527,0.000
1728632912.018,-49.316,-99.609,-37.598,-51.270,0.000
1728632912.022,-67.383,-104.492,-36.621,-57.617,0.000
1728632912.026,-66.895,-111.816,-27.832,-38.574,0.000
1728632912.030,-47.363,-100.098,-19.531,-17.090,0.000
1728632912.034,-24.902,-63.477,-10.254,-17.578,0.000
1728632912.038,-43.457,-67.383,-17.090,-30.273,0.000
1728632912.041,-62.500,-82.520,-24.902,-51.270,0.000
1728632912.045,-62.012,-78.125,-23.438,-61.035,0.000
1728632912.049,-47.852,-73.730,-14.648,-55.176,0.000
1728632912.053,-26.367,-56.152,-6.348,-41.016,0.000
1728632912.057,-40.527,-49.805,-2.441,-30.273,0.000
1728632912.061,-73.242,-55.664,-1.953,-32.715,0.000
1728632912.065,-59.082,-67.871,4.883,-27.344,0.000
1728632912.069,-27.344,-74.219,7.812,-15.137,0.000
1728632912.073,-30.273,-58.105,-7.324,-9.277,0.000
1728632912.077,-37.598,-32.715,-7.324,-27.344,0.000
1728632912.080,-38.574,-22.461,-1.465,-33.203,0.000
1728632912.084,-31.250,-29.785,-16.602,-40.527,0.000
1728632912.088,-38.086,-26.367,-24.414,-46.387,0.000
1728632912.092,-39.551,-15.137,-15.137,-36.133,0.000
1728632912.096,-35.645,-10.742,-13.184,-34.180,0.000
1728632912.100,-40.039,-22.949,-18.555,-27.832,0.000
1728632912.104,-46.387,-32.227,-28.320,-37.109,0.000
1728632912.108,-67.383,-34.180,-29.297,-44.434,0.000
1728632912.112,-50.781,-46.387,-25.879,-32.227,0.000
1728632912.116,-16.113,-40.527,-31.250,-24.902,0.000
1728632912.119,-21.973,-33.203,-47.852,-31.738,0.000
1728632912.123,-77.637,-39.551,-54.688,-54.688,0.000
1728632912.127,-86.426,-40.527,-55.664,-62.012,0.000
1728632912.131,-48.340,-40.527,-45.898,-48.828,0.000
1728632912.135,-27.344,-37.109,-22.461,-36.621,0.000
1728632912.139,-37.598,-30.273,-23.438,-29.785,0.000
1728632912.143,-52.246,-42.969,-37.598,-39.551,0.000
1728632912.147,-48.340,-59.570,-38.086,-54.688,0.000
1728632912.151,-44.434,-59.082,-26.855,-46.875,0.000
1728632912.154,-29.297,-45.410,-21.973,-36.133,0.000
1728632912.158,-45.410,-39.062,-19.531,-39.062,0.000
1728632912.162,-75.684,-45.898,-15.625,-52.246,0.000
1728632912.166,-59.082,-61.035,-24.902,-51.758,0.000
1728632912.170,-9.277,-65.918,-23.438,-36.133,0.000
1728632912.174,-3.418,-69.824,-25.879,-34.668,0.000
1728632912.178,-55.176,-68.359,-36.621,-34.668,0.000
1728632912.182,-82.031,-45.898,-38.086,-50.781,0.000
1728632912.186,-68.848,-31.738,-35.156,-57.129,0.000
1728632912.189,-39.062,-28.809,-20.996,-35.645,0.000
1728632912.193,-42.480,-39.551,-17.090,-31.738,0.000
1728632912.197,-49.805,-47.363,-20.508,-40.039,0.000
1728632912.201,-27.344,-44.922,-10.254,-34.668,0.000
1728632912.205,-13.672,-50.781,-0.977,-27.344,0.000
1728632912.209,-16.113,-63.965,-8.301,-28.809,0.000
1728632912.213,-25.879,-63.965,-20.020,-32.227,0.000
1728632912.217,-41.992,-58.594,-31.738,-40.527,0.000
1728632912.221,-50.781,-72.754,-43.457,-45.898,0.000
1728632912.225,-58.594,-84.961,-37.109,-48.828,0.000
1728632912.229,-39.062,-64.941,-27.832,-30.273,0.000
1728632912.233,-24.414,-55.664,-32.715,-26.855,0.000
1728632912.236,-44.922,-60.547,-32.227,-44.434,0.000
1728632912.240,-57.129,-60.547,-33.691,-41.992,0.000
1728632912.244,-56.641,-61.523,-30.273,-45.898,0.000
1728632912.248,-28.809,-60.059,-21.973,-43.945,0.000
1728632912.252,-15.137,-59.082,-27.344,-39.062,0.000
1728632912.256,-41.504,-62.500,-27.344,-23.438,0.000
1728632912.260,-66.895,-62.012,-36.133,-24.414,0.000
1728632912.264,-59.570,-58.594,-45.410,-60.059,0.000
1728632912.268,-19.043,-57.617,-36.621,-52.734,0.000
1728632912.272,0.000,-63.477,-37.598,-23.926,0.000
1728632912.275,1.465,-62.500,-41.504,-21.973,0.000
1728632912.279,-36.133,-48.340,-45.410,-27.344,0.000
1728632912.283,-55.664,-46.875,-53.223,-39.551,0.000
1728632912.287,-8.789,-50.781,-47.852,-32.715,0.000
1728632912.291,9.277,-62.500,-48.340,-14.648,0.000
1728632912.295,-22.949,-69.824,-51.270,-4.395,0.000
1728632912.299,-44.434,-69.336,-38.574,-5.371,0.000
1728632912.303,-50.293,-69.824,-39.551,-29.785,0.000
1728632912.307,-39.062,-77.148,-36.621,-35.645,0.000
1728632912.311,-18.555,-88.867,-33.203,-21.973,0.000
1728632912.315,-17.578,-93.750,-43.457,-20.996,0.000
1728632912.319,-41.504,-82.031,-45.898,-15.137,0.000
1728632912.322,-55.176,-75.684,-45.410,-13.672,0.000
1728632912.326,-34.180,-79.590,-38.574,-22.461,0.000
1728632912.330,12.695,-60.059,-23.926,-12.695,0.000
1728632912.334,34.180,-45.410,-25.391,-6.348,0.000
1728632912.338,-26.367,-57.129,-39.551,-25.391,0.000
1728632912.342,-78.613,-61.523,-42.480,-35.156,0.000
1728632912.346,-61.523,-60.547,-33.691,-18.066,0.000
1728632912.350,-16.113,-65.918,-24.902,-2.441,0.000
1728632912.354,32.715,-65.430,-12.695,6.836,0.000
1728632912.358,15.625,-55.176,-17.090,-0.488,0.000
1728632912.362,-29.297,-58.594,-40.039,-22.461,0.000
1728632912.365,-20.020,-62.012,-43.945,-24.414,0.000
1728632912.369,-11.230,-56.641,-32.715,-19.043,0.000
1728632912.373,-19.043,-63.965,-27.344,-20.996,0.000
1728632912.377,-42.480,-63.965,-33.691,-25.391,0.000
1728632912.381,-47.852,-64.941,-47.852,-29.297,0.000
1728632912.385,-29.785,-53.223,-47.852,-21.973,0.000
1728632912.389,-8.301,-37.109,-40.527,-20.508,0.000
1728632912.393,-3.418,-48.340,-44.922,-18.066,0.000
1728632912.397,-15.137,-40.527,-45.898,-7.812,0.000
1728632912.401,-35.156,-39.062,-45.410,-13.672,0.000
1728632912.405,-62.500,-59.082,-62.012,-54.199,0.000
1728632912.408,-44.922,-42.969,-57.129,-58.105,0.000
1728632912.412,-31.738,-36.133,-53.223,-41.992,0.000
1728632912.416,-38.574,-43.945,-60.059,-32.227,0.000
1728632912.420,-38.574,-44.434,-62.988,-9.277,0.000
1728632912.424,-32.715,-41.016,-54.199,-8.789,0.000
1728632912.428,-3.906,-36.133,-47.363,-17.090,0.000
1728632912.432,28.320,-15.625,-49.316,-19.531,0.000
1728632912.436,7.812,-6.836,-52.246,-19.531,0.000
1728632912.440,-32.715,-17.578,-55.664,-33.203,0.000
1728632912.444,-47.852,-24.902,-52.734,-48.828,0.000
1728632912.447,-36.133,-22.461,-42.480,-27.344,0.000
1728632912.451,-9.277,-16.602,-39.551,8.301,0.000
1728632912.455,-14.160,-22.949,-48.340,-0.488,0.000
1728632912.459,-34.668,-21.973,-44.922,-6.836,0.000
1728632912.463,-46.875,-15.137,-47.852,-6.836,0.000
1728632912.467,-42.969,-17.578,-48.828,-34.180,0.000
1728632912.471,-13.672,-12.207,-28.809,-27.344,0.000
1728632912.475,-26.855,-19.043,-27.344,-7.324,0.000
1728632912.479,-50.293,-35.645,-38.574,-18.555,0.000
1728632912.483,-64.453,-41.504,-37.109,-40.039,0.000
1728632912.486,-76.172,-52.734,-38.574,-38.086,0.000
1728632912.490,-48.340,-52.734,-30.762,-16.113,0.000
1728632912.494,-30.273,-40.527,-13.672,-7.324,0.000
1728632912.498,-41.992,-32.227,-12.695,-20.508,0.000
1728632912.502,-40.527,-39.062,-19.531,-34.668,0.000
1728632912.506,-35.156,-49.805,-23.926,-38.574,0.000
1728632912.510,-37.109,-43.457,-31.250,-40.527,0.000
1728632912.514,-33.203,-35.645,-26.367,-40.527,0.000
1728632912.518,-22.949,-37.109,-33.691,-42.480,0.000
1728632912.521,-30.762,-51.270,-40.527,-45.410,0.000
1728632912.525,-50.781,-46.387,-28.320,-49.316,0.000
1728632912.529,-30.273,-31.250,-27.832,-41.504,0.000
1728632912.533,-25.879,-33.203,-40.527,-27.344,0.000
1728632912.537,-54.199,-46.875,-46.387,-37.109,0.000
1728632912.541,-57.617,-48.828,-42.480,-51.270,0.000
1728632912.545,-47.852,-43.457,-42.969,-43.945,0.000
1728632912.549,-30.762,-52.246,-42.480,-39.551,0.000
1728632912.553,-25.879,-56.152,-39.062,-37.109,0.000
1728632912.557,-53.223,-69.336,-37.598,-22.461,0.000
1728632912.560,0.000,-83.008,-36.133,-11.230,0.000
1728632912.564,0.000,-72.754,-29.297,-28.320,0.000
1728632912.568,0.000,-70.312,-23.926,-38.086,0.000
1728632912.572,0.000,-58.105,-33.203,-35.645,0.000
1728632912.576,0.000,-49.805,-40.039,-42.480,0.000
1728632912.580,0.000,-55.176,-43.457,-30.762,0.000
1728632912.584,0.000,-50.293,-56.641,-31.738,0.000
1728632912.588,0.000,-46.875,-54.199,-48.340,0.000
1728632912.592,0.000,-53.223,-39.551,-32.715,0.000
1728632912.596,0.000,-71.777,-36.133,-13.184,0.000
1728632912.599,0.000,-79.590,-33.203,-16.113,0.000
1728632912.603,0.000,-62.500,-26.855,-36.133,0.000
1728632912.607,-10.742,-56.152,-27.832,-27.344,0.000
1728632912.611,-8.789,-60.547,-25.879,-27.344,0.000
1728632912.615,-16.113,-53.711,-27.344,-46.387,0.000
1728632912.619,-16.602,-57.129,-33.691,-53.711,0.000
1728632912.623,-32.227,-77.637,-32.227,-52.246,0.000
1728632912.627,-32.715,-93.750,-37.109,-41.016,0.000
1728632912.631,-33.203,-91.797,-44.434,-39.062,0.000
1728632912.635,-22.949,-80.566,-49.316,-35.645,0.000
1728632912.639,-12.207,-69.336,-51.758,2.441,0.000
1728632912.643,-41.016,-74.707,-46.387,-3.906,0.000
1728632912.646,-51.270,-76.172,-34.180,-44.922,0.000
1728632912.650,-31.738,-73.730,-32.715,-35.156,0.000
1728632912.654,-43.457,-73.730,-37.598,-30.762,0.000
1728632912.658,-65.918,-73.242,-32.227,-32.227,0.000
1728632912.662,-69.824,-71.289,-30.273,-33.203,0.000
1728632912.666,-28.809,-59.082,-30.762,-32.715,0.000
1728632912.670,0.488,-49.805,-28.320,-7.812,0.000
1728632912.674,-11.230,-53.711,-25.879,-6.836,0.000
1728632912.678,-16.602,-61.035,-28.809,-10.254,0.000
1728632912.682,-26.855,-73.730,-35.645,-2.930,0.000
1728632912.686,-13.184,-67.871,-36.133,-10.742,0.000
1728632912.690,-6.836,-48.340,-36.621,-20.996,0.000
1728632912.693,-4.395,-36.621,-34.180,-29.297,0.000
1728632912.697,-29.785,-40.527,-36.621,-33.691,0.000
1728632912.701,-67.871,-45.410,-39.062,-37.598,0.000
1728632912.705,-69.336,-48.828,-38.086,-39.062,0.000
1728632912.709,-38.574,-48.340,-40.039,-42.969,0.000
1728632912.713,-26.367,-40.039,-40.039,-40.039,0.000
1728632912.717,-51.758,-42.480,-35.156,-29.785,0.000
1728632912.721,-59.570,-41.016,-35.645,-27.832,0.000
1728632912.725,-42.969,-21.484,-37.598,-24.902,0.000
1728632912.729,-8.789,-14.648,-40.039,-19.531,0.000
1728632912.733,-0.977,-27.832,-52.246,-36.133,0.000
1728632912.736,-11.719,-37.109,-53.223,-47.852,0.000
1728632912.740,-22.949,-33.203,-47.363,-47.363,0.000
1728632912.744,-33.203,-27.344,-51.758,-57.129,0.000
1728632912.748,0.000,-7.812,-41.504,-52.246,0.000
1728632912.752,0.000,6.836,-30.762,-32.715,0.000
1728632912.756,0.000,-0.977,-34.668,-26.367,0.000
1728632912.760,0.000,-6.348,-32.227,-27.832,0.000
1728632912.764,0.000,-10.742,-30.762,-51.758,0.000
1728632912.768,0.000,-14.648,-34.180,-50.293,0.000
1728632912.772,0.000,-14.160,-33.203,-20.996,0.000
1728632912.775,0.000,-34.180,-33.203,-24.414,0.000
1728632912.779,0.000,-58.594,-34.180,-36.621,0.000
1728632912.783,0.000,-55.176,-32.227,-58.594,0.000
1728632912.787,0.000,-44.434,-30.762,-51.270,0.000
1728632912.791,0.000,-42.969,-28.320,-38.086,0.000
1728632912.795,-36.621,-46.387,-31.250,-50.293,0.000
1728632912.799,-48.340,-43.457,-39.062,-39.062,0.000
1728632912.803,-52.246,-42.969,-37.598,-27.344,0.000
1728632912.807,-39.062,-43.457,-26.367,-41.016,0.000
1728632912.811,-17.578,-42.480,-14.648,-41.504,0.000
1728632912.815,-12.695,-42.969,-17.090,-30.273,0.000
1728632912.818,-34.668,-44.434,-27.344,-32.227,0.000
1728632912.822,-52.734,-51.270,-19.531,-15.625,0.000
1728632912.826,-38.574,-55.176,-6.348,2.930,0.000
1728632912.830,20.020,-52.246,-6.836,-22.461,0.000
1728632912.834,11.230,-42.969,-20.508,-50.781,0.000
1728632912.838,-62.500,-42.969,-28.809,-41.504,0.000
1728632912.842,-72.266,-43.457,-24.902,-39.551,0.000
1728632912.846,-32.715,-30.273,-14.648,-38.086,0.000
1728632912.850,-12.207,-32.227,-20.508,-26.855,0.000
1728632912.854,-44.922,-39.062,-36.621,-26.855,0.000
1728632912.857,-61.523,-33.203,-49.316,-44.434,0.000
1728632912.861,-28.809,-35.645,-49.316,-59.570,0.000
1728632912.865,-13.672,-36.621,-39.551,-44.922,0.000
1728632912.869,-35.156,-32.715,-34.668,-30.273,0.000
1728632912.873,-43.945,-36.621,-34.668,-40.039,0.000
1728632912.877,-40.039,-52.246,-39.551,-30.762,0.000
1728632912.881,-41.504,-60.059,-39.551,-30.273,0.000
1728632912.885,-37.109,-45.898,-34.668,-42.480,0.000
1728632912.889,-34.668,-29.785,-26.367,-30.762,0.000
1728632912.892,-8.789,-22.461,-27.344,-21.484,0.000
1728632912.896,-7.324,-10.254,-26.855,-19.043,0.000
1728632912.900,-45.898,-15.137,-23.926,-39.551,0.000
1728632912.904,-41.016,-20.508,-27.344,-43.945,0.000
1728632912.908,-3.906,-9.766,-25.391,-24.902,0.000
1728632912.912,-8.789,-26.855,-32.715,-26.367,0.000
1728632912.916,-34.668,-40.527,-41.504,-38.574,0.000
1728632912.920,-44.922,-41.016,-39.551,-53.223,0.000
1728632912.924,-40.527,-46.875,-35.645,-52.246,0.000
1728632912.928,-42.480,-43.457,-35.645,-46.387,0.000
1728632912.932,-36.133,-42.969,-39.551,-42.969,0.000
1728632912.935,-11.230,-38.086,-41.016,-20.508,0.000
1728632912.939,-32.227,-41.992,-44.922,-14.648,0.000
1728632912.943,-53.223,-45.410,-40.039,-44.434,0.000
1728632912.947,-33.203,-40.527,-30.273,-33.691,0.000
1728632912.951,-3.418,-40.039,-26.855,-0.977,0.000
1728632912.955,-6.836,-45.898,-26.367,-15.625,0.000
1728632912.959,-24.414,-56.152,-31.738,-18.555,0.000
1728632912.963,-19.043,-49.805,-30.762,-13.184,0.000
1728632912.967,-2.930,-39.062,-26.855,-24.414,0.000
1728632912.970,6.348,-32.715,-29.785,-29.297,0.000
1728632912.974,-15.625,-36.133,-32.715,-27.344,0.000
1728632912.978,-26.855,-40.527,-39.062,-19.531,0.000
1728632912.982,4.395,-45.410,-43.457,-27.344,0.000
1728632912.986,9.277,-56.641,-40.039,-35.645,0.000
1728632912.990,-4.883,-56.152,-37.109,-22.949,0.000
1728632912.994,-0.488,-49.316,-45.410,-18.066,0.000
1728632912.998,-23.926,-55.664,-54.199,-12.207,0.000
1728632913.002,-43.457,-58.105,-53.711,-1.953,0.000
1728632913.006,-26.367,-51.758,-51.758,-12.695,0.000
1728632913.010,-11.230,-44.922,-50.781,-16.113,0.000
1728632913.014,-8.301,-39.062,-55.664,-12.207,0.000
1728632913.017,-16.602,-41.016,-71.777,-15.625,0.000
1728632913.021,-29.785,-45.410,-75.684,-13.184,0.000
1728632913.025,-25.879,-51.270,-76.172,-22.949,0.000
1728632913.029,0.000,-50.293,-79.590,-35.156,0.000
1728632913.033,0.000,-53.223,-75.684,-31.738,0.000
1728632913.037,0.000,-63.965,-71.777,-32.715,0.000
1728632913.041,0.000,-58.594,-58.105,-41.992,0.000
1728632913.045,0.000,-57.129,-43.457,-30.273,0.000
1728632913.049,0.000,-57.617,-40.527,-20.508,0.000
1728632913.053,0.000,-58.105,-45.898,-26.855,0.000
1728632913.057,0.000,-60.547,-48.340,-32.715,0.000
1728632913.061,0.000,-62.500,-61.035,-28.320,0.000
1728632913.064,0.000,-53.711,-62.988,-18.555,0.000
1728632913.068,0.000,-40.039,-46.875,-27.832,0.000
1728632913.072,0.000,-54.688,-41.992,-25.391,0.000
1728632913.076,-21.484,-59.570,-47.852,-39.551,0.000
1728632913.080,-50.781,-56.152,-46.875,-37.598,0.000
1728632913.084,-27.832,-60.547,-48.340,-19.531,0.000
1728632913.088,-8.301,-58.594,-49.805,-33.691,0.000
1728632913.092,-12.695,-61.523,-39.062,-35.156,0.000
1728632913.096,-38.574,-67.871,-28.320,-13.184,0.000
1728632913.100,-74.707,-68.848,-32.715,-14.648,0.000
1728632913.104,-54.199,-65.918,-43.457,-24.414,0.000
1728632913.107,-24.414,-54.688,-42.480,-21.973,0.000
1728632913.111,-21.484,-43.457,-38.086,-30.273,0.000
1728632913.115,-24.902,-50.781,-32.227,-21.484,0.000
1728632913.119,-38.574,-61.035,-29.785,-20.508,0.000
1728632913.123,-23.438,-53.223,-35.156,-22.461,0.000
1728632913.127,-5.371,-44.434,-38.086,-21.973,0.000
1728632913.131,-0.488,-47.363,-52.246,-32.227,0.000
1728632913.135,-11.719,-45.410,-52.734,-27.344,0.000
1728632913.139,-46.875,-41.992,-48.828,-31.250,0.000
1728632913.143,-57.129,-44.922,-49.316,-34.180,0.000
1728632913.147,-33.691,-44.922,-47.363,-29.785,0.000
1728632913.150,-11.230,-35.156,-48.340,-10.254,0.000
1728632913.154,-8.789,-32.227,-46.387,8.789,0.000
1728632913.158,-39.551,-41.504,-46.387,-4.883,0.000
1728632913.162,-37.109,-45.898,-62.012,-35.156,0.000
1728632913.166,7.812,-32.715,-57.129,-34.668,0.000
1728632913.170,-3.418,-22.461,-40.527,-23.926,0.000
1728632913.174,-33.203,-31.250,-44.922,-27.832,0.000
1728632913.178,-28.320,-36.621,-52.246,-36.621,0.000
1728632913.182,-46.875,-26.855,-47.852,-39.062,0.000
1728632913.186,-38.086,-22.461,-35.156,-30.273,0.000
1728632913.189,-14.648,-29.785,-32.715,-30.273,0.000
1728632913.193,-24.902,-35.156,-34.668,-17.578,0.000
1728632913.197,-25.391,-47.363,-35.156,6.836,0.000
1728632913.201,-34.180,-44.922,-36.133,-22.949,0.000
1728632913.205,-26.855,-25.391,-38.086,-39.551,0.000
1728632913.209,-7.812,-17.090,-37.598,-12.695,0.000
1728632913.213,-35.156,-26.855,-43.457,-28.809,0.000
1728632913.217,0.000,-37.598,-44.922,-49.316,0.000
1728632913.221,0.000,-40.527,-41.016,-35.645,0.000
1728632913.225,0.000,-39.551,-41.504,-36.621,0.000
1728632913.228,0.000,-38.574,-36.133,-49.316,0.000
1728632913.232,0.000,-41.504,-35.645,-34.668,0.000
1728632913.236,0.000,-40.039,-36.133,-24.902,0.000
1728632913.240,0.000,-55.176,-34.668,-33.691,0.000
1728632913.244,0.000,-62.012,-31.738,-28.320,0.000
1728632913.248,0.000,-41.992,-24.902,-25.391,0.000
1728632913.252,0.000,-36.133,-30.762,-40.039,0.000
1728632913.256,0.000,-39.551,-34.668,-39.062,0.000
1728632913.260,0.000,-47.852,-34.180,-30.273,0.000
1728632913.264,-36.621,-46.875,-38.086,-28.320,0.000
1728632913.267,-4.883,-39.062,-44.922,-35.645,0.000
1728632913.271,-16.113,-39.551,-41.504,-18.555,0.000
1728632913.275,-28.320,-41.016,-34.668,5.859,0.000
1728632913.279,-12.695,-50.781,-35.645,2.930,0.000
1728632913.283,-19.531,-58.594,-42.969,-19.043,0.000
1728632913.287,-15.625,-42.969,-48.340,-35.156,0.000
1728632913.291,-7.812,-28.320,-48.828,-36.621,0.000
1728632913.295,-26.855,-18.555,-49.805,-24.902,0.000
1728632913.299,-47.852,-18.555,-58.105,-33.691,0.000
1728632913.303,-54.199,-17.578,-60.547,-32.227,0.000
1728632913.306,-35.156,-12.695,-60.547,-19.531,0.000
1728632913.311,-1.465,-19.531,-54.688,-10.742,0.000
1728632913.314,-16.113,-28.809,-41.016,2.441,0.000
1728632913.318,-59.082,-30.273,-40.527,-8.301,0.000
1728632913.322,-42.480,-23.926,-40.039,-28.809,0.000
1728632913.326,-1.465,-26.855,-38.574,-37.109,0.000
1728632913.330,13.672,-30.273,-35.156,-31.738,0.000
1728632913.334,-1.953,-28.809,-33.691,-15.137,0.000
1728632913.338,-31.738,-29.297,-33.203,-23.438,0.000
1728632913.342,-36.133,-41.992,-38.086,-34.180,0.000
1728632913.346,-28.809,-54.199,-43.457,-37.109,0.000
1728632913.350,-24.902,-51.758,-33.203,-28.320,0.000
1728632913.354,-29.297,-39.551,-22.461,0.977,0.000
1728632913.358,-33.203,-34.668,-16.113,9.766,0.000
1728632913.361,-47.363,-45.898,-11.230,-13.672,0.000
1728632913.365,-35.156,-43.945,-13.672,-12.695,0.000
1728632913.369,0.000,-38.574,-17.090,-0.488,0.000
1728632913.373,-42.480,-47.363,-20.996,-32.715,0.000
1728632913.377,-75.684,-61.035,-21.973,-40.527,0.000
1728632913.381,-52.734,-59.082,-26.855,-37.598,0.000
1728632913.385,-24.414,-52.734,-28.809,-39.551,0.000
1728632913.389,-31.250,-52.246,-31.738,-24.902,0.000
1728632913.393,-26.855,-45.898,-42.480,-29.297,0.000
1728632913.397,-40.039,-42.480,-46.387,-28.809,0.000
1728632913.401,-59.570,-41.992,-52.734,-15.137,0.000
1728632913.405,-41.504,-38.086,-65.430,-15.625,0.000
1728632913.408,-27.832,-31.738,-58.105,-20.508,0.000
1728632913.412,-13.184,-40.527,-44.434,-21.484,0.000
1728632913.416,-30.273,-50.293,-51.270,-22.949,0.000
1728632913.420,-57.617,-44.922,-57.129,-24.414,0.000
1728632913.424,-23.438,-33.203,-44.922,-35.645,0.000
1728632913.428,0.000,-28.809,-39.551,-33.203,0.000
1728632913.432,-19.043,-26.855,-43.457,-14.160,0.000
1728632913.436,-15.625,-25.391,-46.875,-12.207,0.000
1728632913.440,-36.133,-22.949,-38.574,-1.953,0.000
1728632913.444,-50.293,-11.230,-29.297,-18.066,0.000
1728632913.447,-13.672,-9.766,-31.250,-28.809,0.000
1728632913.451,5.371,-15.137,-35.156,-20.508,0.000
1728632913.455,-8.789,-25.879,-41.992,-17.578,0.000
1728632913.459,-50.781,-34.180,-42.969,-36.621,0.000
1728632913.463,-46.387,-32.227,-40.039,-62.500,0.000
1728632913.467,-6.348,-21.484,-35.156,-36.133,0.000
1728632913.471,-21.484,-15.625,-36.621,-3.906,0.000
1728632913.475,-40.527,-20.996,-38.086,-11.230,0.000
1728632913.479,-34.180,-21.484,-33.691,-18.066,0.000
1728632913.483,-12.207,-26.367,-32.227,-12.695,0.000
1728632913.487,-0.488,-25.391,-39.551,-24.902,0.000
1728632913.490,-23.438,-36.621,-47.363,-40.527,0.000
1728632913.494,-49.316,-56.641,-54.199,-27.344,0.000
1728632913.498,0.000,-51.270,-51.758,-29.297,0.000
1728632913.502,0.000,-38.086,-37.598,-48.828,0.000
1728632913.506,0.000,-33.203,-31.250,-38.574,0.000
1728632913.510,0.000,-28.809,-34.668,-23.438,0.000
1728632913.514,0.000,-26.855,-41.992,-35.645,0.000
1728632913.518,0.000,-30.762,-38.086,-28.809,0.000
1728632913.522,0.000,-39.551,-33.203,-30.762,0.000
1728632913.526,0.000,-43.457,-34.668,-19.531,0.000
1728632913.530,0.000,-42.969,-36.621,-8.789,0.000
1728632913.533,0.000,-32.227,-39.062,-18.066,0.000
1728632913.537,0.000,-20.996,-39.062,-14.648,0.000
1728632913.541,0.000,-15.137,-40.527,-26.367,0.000
1728632913.545,-3.418,-4.395,-42.480,-34.180,0.000
1728632913.549,17.578,-0.488,-39.551,-37.109,0.000
1728632913.553,-36.621,-11.230,-31.738,-3.906,0.000
1728632913.557,-59.082,-25.879,-34.668,7.324,0.000
1728632913.561,-23.438,-28.320,-44.922,-34.668,0.000
1728632913.565,-22.461,-24.902,-44.434,-38.086,0.000
1728632913.569,-32.715,-34.668,-43.457,-18.555,0.000
1728632913.572,-17.578,-39.062,-39.062,-10.254,0.000
1728632913.576,-22.461,-13.672,-33.691,-8.789,0.000
1728632913.580,-3.906,10.742,-33.203,-12.695,0.000
1728632913.584,12.695,0.488,-35.156,-8.789,0.000
1728632913.588,25.879,-7.324,-41.992,-23.438,0.000
1728632913.592,14.160,-5.371,-43.945,-22.949,0.000
1728632913.596,-37.598,-6.348,-39.551,-14.160,0.000
1728632913.600,-46.387,-8.789,-36.621,-35.156,0.000
1728632913.604,-22.949,-22.461,-41.504,-39.062,0.000
1728632913.608,-9.766,-26.367,-37.598,-23.926,0.000
1728632913.612,-3.418,-19.531,-24.902,-13.184,0.000
1728632913.616,0.000,-16.602,-25.391,-8.301,0.000
1728632913.620,-12.695,-21.973,-22.949,-15.625,0.000
1728632913.623,-13.184,-19.531,-6.348,-14.160,0.000
1728632913.627,-8.301,-38.086,-1.953,0.488,0.000
1728632913.631,-14.648,-63.477,-4.395,-9.766,0.000
1728632913.635,-38.574,-59.082,-13.672,-29.297,0.000
1728632913.639,-66.406,-43.945,-22.461,-41.016,0.000
1728632913.643,-42.480,-32.715,-21.484,-34.180,0.000
1728632913.647,-5.371,-25.391,-12.695,-20.020,0.000
1728632913.651,-24.902,-33.691,-12.695,-37.109,0.000
1728632913.655,-55.176,-44.434,-17.090,-42.969,0.000
1728632913.659,-52.734,-55.176,-17.090,-52.734,0.000
1728632913.662,-60.547,-62.500,-22.949,-65.430,0.000
1728632913.666,-42.969,-58.105,-24.902,-42.480,0.000
1728632913.670,-38.574,-62.012,-27.832,-38.086,0.000
1728632913.674,-45.898,-70.801,-36.133,-52.246,0.000
1728632913.678,-50.293,-76.660,-44.434,-36.621,0.000
1728632913.682,-56.152,-54.199,-41.992,-36.621,0.000
1728632913.686,-24.414,-32.715,-45.898,-45.898,0.000
1728632913.690,-15.137,-43.457,-59.570,-42.480,0.000
1728632913.694,-39.062,-49.805,-55.176,-25.391,0.000
1728632913.697,-50.293,-43.945,-45.410,-31.250,0.000
1728632913.701,-43.945,-38.574,-32.227,-43.945,0.000
1728632913.705,-16.113,-37.109,-28.320,-33.691,0.000
1728632913.709,-23.926,-35.645,-33.691,-32.715,0.000
1728632913.713,-33.203,-33.203,-34.668,-29.297,0.000
1728632913.717,-51.758,-38.574,-43.945,-27.832,0.000
1728632913.721,-46.875,-45.898,-52.246,-44.922,0.000
1728632913.725,6.836,-45.410,-56.641,-43.945,0.000
1728632913.729,0.488,-42.969,-53.223,-34.180,0.000
1728632913.733,-39.062,-51.270,-52.246,-40.039,0.000
1728632913.737,-44.434,-50.781,-55.176,-24.414,0.000
1728632913.741,-17.578,-35.156,-46.875,-7.812,0.000
1728632913.744,-10.742,-27.832,-41.992,-21.484,0.000
1728632913.748,-27.344,-39.062,-43.457,-17.090,0.000
1728632913.752,-16.602,-35.156,-43.457,-16.602,0.000
1728632913.756,-12.695,-25.879,-42.480,-21.484,0.000
1728632913.760,-21.484,-37.598,-39.551,-22.949,0.000
1728632913.764,-19.043,-42.969,-39.062,-15.625,0.000
1728632913.768,10.254,-37.109,-42.969,-16.113,0.000
1728632913.772,4.395,-30.273,-36.621,-25.391,0.000
1728632913.776,-41.992,-40.527,-22.461,-3.906,0.000
1728632913.780,-49.316,-49.316,-18.555,-8.789,0.000
1728632913.784,-27.344,-47.852,-17.090,-21.973,0.000
1728632913.787,1.953,-51.758,-20.996,-31.738,0.000
1728632913.791,-4.395,-50.781,-27.832,-34.180,0.000
1728632913.795,-55.176,-53.223,-30.762,-23.926,0.000
1728632913.799,-70.312,-57.129,-34.668,-51.270,0.000
1728632913.803,-39.551,-48.828,-26.855,-42.969,0.000
1728632913.807,-22.949,-40.039,-19.043,-31.250,0.000
1728632913.811,-35.645,-43.945,-31.250,-34.668,0.000
1728632913.815,-55.664,-45.410,-41.992,-30.273,0.000
1728632913.819,-66.406,-39.551,-41.016,-33.691,0.000
1728632913.823,-52.246,-42.480,-31.250,-39.551,0.000
1728632913.827,-22.461,-47.363,-21.484,-27.344,0.000
1728632913.830,-17.578,-39.551,-22.461,-18.066,0.000
1728632913.834,-40.039,-36.133,-24.902,-24.902,0.000
1728632913.838,-52.734,-49.316,-31.738,-31.250,0.000
1728632913.842,-33.691,-54.688,-34.668,-34.668,0.000
1728632913.846,2.930,-49.316,-29.785,-20.020,0.000
1728632913.850,-2.930,-33.691,-33.691,0.000,0.000
1728632913.854,-26.855,-20.996,-39.062,-7.812,0.000
1728632913.858,-24.902,-22.949,-43.945,-13.672,0.000
1728632913.862,-29.785,-30.762,-55.664,-12.695,0.000
1728632913.866,-31.738,-34.668,-56.152,-14.648,0.000
1728632913.870,-19.043,-26.367,-55.664,-24.414,0.000
1728632913.873,-20.020,-23.926,-55.664,-17.090,0.000
1728632913.877,-37.109,-28.320,-48.340,-24.902,0.000
1728632913.881,-37.598,-28.809,-43.945,-43.945,0.000
1728632913.885,-10.254,-28.809,-44.922,-29.297,0.000
1728632913.889,-12.207,-28.809,-43.457,-16.602,0.000
1728632913.893,-34.668,-29.785,-34.668,-14.648,0.000
1728632913.897,-39.551,-33.203,-35.156,-9.277,0.000
1728632913.901,-42.969,-28.320,-37.598,-23.438,0.000
1728632913.905,-7.812,-17.090,-29.297,-15.137,0.000
1728632913.909,5.859,-2.930,-31.738,-2.930,0.000
1728632913.912,1.465,-0.977,-44.434,-1.953,0.000
1728632913.916,-9.277,-5.859,-55.176,-8.301,0.000
1728632913.920,-40.039,-14.648,-52.246,-17.090,0.000
1728632913.924,-17.578,-13.184,-39.551,-12.695,0.000
1728632913.928,4.395,-5.859,-32.715,-5.859,0.000
1728632913.932,-31.250,-14.648,-36.621,-8.789,0.000
1728632913.936,-57.129,-27.832,-38.574,-14.160,0.000
1728632913.940,-45.898,-34.180,-36.133,-21.973,0.000
1728632913.944,-32.715,-32.227,-36.133,-50.781,0.000
1728632913.948,-16.113,-32.227,-30.762,-41.992,0.000
1728632913.951,-29.785,-42.969,-26.367,-21.484,0.000
1728632913.955,-39.551,-58.594,-27.832,-34.180,0.000
1728632913.959,-24.902,-62.500,-30.273,-56.641,0.000
1728632913.963,-44.434,-50.293,-32.227,-62.988,0.000
1728632913.967,-49.805,-37.109,-28.320,-51.758,0.000
1728632913.971,-29.297,-42.480,-22.461,-38.574,0.000
1728632913.975,-22.461,-56.641,-32.227,-27.344,0.000
1728632913.979,-60.547,-60.547,-42.480,-28.809,0.000
1728632913.983,-83.984,-58.105,-39.062,-41.016,0.000
1728632913.987,-46.875,-54.199,-34.180,-27.344,0.000
1728632913.990,-10.254,-52.246,-31.250,-1.953,0.000
1728632913.994,-18.066,-58.105,-35.156,-19.043,0.000
1728632913.998,-36.621,-53.223,-38.574,-36.621,0.000
1728632914.002,-38.574,-44.434,-35.156,-38.574,0.000
1728632914.006,-55.664,-46.875,-41.016,-60.059,0.000
1728632914.010,-72.754,-46.875,-46.387,-56.641,0.000
1728632914.014,-62.988,-53.711,-44.434,-42.969,0.000
1728632914.018,-64.453,-59.082,-45.410,-39.551,0.000
1728632914.022,-52.246,-58.105,-40.039,-34.180,0.000
1728632914.026,-15.137,-62.012,-37.109,-26.855,0.000
1728632914.029,-24.414,-55.664,-43.457,-21.973,0.000
1728632914.033,-42.969,-92.773,-53.223,-28.320,0.000
1728632914.037,-14.648,-115.234,-54.199,-7.324,0.000
1728632914.041,-14.648,-40.039,-42.969,-5.859,0.000
1728632914.045,-42.480,14.160,-63.965,-60.547,0.000
1728632914.049,-30.762,-7.812,-58.105,-73.242,0.000
1728632914.053,8.301,-119.629,-68.359,-28.320,0.000
1728632914.057,9.277,-83.008,-88.867,30.273,0.000
1728632914.061,-21.484,2.930,-53.711,25.391,0.000
1728632914.064,38.086,-72.754,-23.926,22.949,0.000
1728632914.068,70.312,-55.664,-40.039,72.754,0.000
1728632914.072,17.090,7.324,-67.383,26.855,0.000
1728632914.076,63.965,-73.242,-25.879,10.742,0.000
1728632914.080,98.145,-155.762,85.938,60.547,0.000
1728632914.084,-19.043,-146.484,32.227,-25.391,0.000
1728632914.088,78.613,-66.406,39.551,56.641,0.000
1728632914.092,132.812,-22.461,102.051,151.367,0.000
1728632914.096,-62.500,-66.406,-24.902,3.418,0.000
1728632914.100,158.691,-72.754,159.668,176.270,0.000
1728632914.103,223.145,126.465,188.965,190.430,0.000
1728632914.108,57.617,243.164,-137.695,20.020,0.000
1728632914.111,241.699,118.164,-117.676,237.793,0.000
1728632914.115,187.988,322.266,128.906,248.535,0.000
1728632914.119,-101.562,496.582,199.707,-41.992,0.000
1728632914.123,35.645,506.348,125.488,15.625,0.000
1728632914.127,178.223,484.375,89.355,120.117,0.000
1728632914.131,17.578,570.801,151.855,32.227,0.000
1728632914.135,10.254,703.613,190.918,28.809,0.000
1728632914.139,27.344,698.242,169.922,19.043,0.000
1728632914.143,68.848,733.398,149.414,55.664,0.000
1728632914.147,171.875,820.801,156.738,122.559,0.000
1728632914.150,221.680,876.465,159.180,158.203,0.000
1728632914.154,221.191,906.250,170.410,186.523,0.000
1728632914.158,221.680,940.430,185.547,180.664,0.000
1728632914.162,225.098,960.449,193.359,131.836,0.000
1728632914.166,227.051,966.797,196.777,135.254,0.000
1728632914.170,229.492,966.309,204.590,145.996,0.000
1728632914.174,220.215,966.309,234.375,139.160,0.000
1728632914.178,192.871,966.797,255.371,134.766,0.000
1728632914.182,189.453,966.797,251.465,102.539,0.000
1728632914.186,210.449,966.309,245.605,101.562,0.000
1728632914.190,184.082,966.797,249.023,108.398,0.000
1728632914.194,135.254,966.797,248.047,93.750,0.000
1728632914.197,127.441,966.797,232.910,76.172,0.000
1728632914.202,0.000,966.797,233.398,58.105,0.000
1728632914.206,0.000,966.797,231.445,52.246,0.000
1728632914.209,0.000,964.844,225.098,56.152,0.000
1728632914.213,0.000,967.773,216.309,65.918,0.000
1728632914.217,0.000,954.590,204.102,69.336,0.000
1728632914.221,0.000,904.785,196.289,50.781,0.000
1728632914.225,0.000,860.840,174.316,40.039,0.000
1728632914.229,0.000,811.035,139.648,54.199,0.000
1728632914.233,0.000,735.840,84.961,49.316,0.000
1728632914.237,0.000,640.625,7.324,27.832,0.000
1728632914.241,0.000,541.016,-59.570,19.531,0.000
1728632914.245,0.000,443.359,-119.141,13.184,0.000
1728632914.249,78.125,354.004,-173.340,1.953,0.000
1728632914.252,34.180,283.203,-214.355,-18.555,0.000
1728632914.256,6.836,209.473,-253.418,-33.203,0.000
1728632914.260,-5.859,123.535,-267.090,-50.293,0.000
1728632914.264,0.977,37.109,-264.648,-62.500,0.000
1728632914.268,-11.230,-37.598,-264.648,-67.871,0.000
1728632914.272,-53.711,-99.609,-283.203,-76.660,0.000
1728632914.276,-83.008,-152.832,-325.195,-67.871,0.000
1728632914.280,-104.492,-197.266,-333.984,-82.031,0.000
1728632914.284,-96.680,-250.488,-315.918,-76.172,0.000
1728632914.288,-59.082,-314.941,-304.199,-70.801,0.000
1728632914.292,-61.523,-377.441,-307.129,-90.332,0.000
1728632914.295,-112.305,-422.852,-308.594,-102.539,0.000
1728632914.299,-145.996,-477.051,-285.156,-105.957,0.000
1728632914.303,-123.535,-533.691,-252.930,-97.168,0.000
1728632914.307,-93.750,-559.570,-230.957,-84.473,0.000
1728632914.311,-105.957,-612.305,-233.887,-97.168,0.000
1728632914.315,-139.648,-674.805,-237.793,-97.656,0.000
1728632914.319,-125.488,-697.754,-227.539,-83.496,0.000
1728632914.323,-94.238,-709.473,-230.957,-103.027,0.000
1728632914.327,-101.074,-700.195,-232.910,-111.816,0.000
1728632914.331,-115.234,-711.426,-228.516,-91.309,0.000
1728632914.334,-140.625,-734.863,-238.281,-79.102,0.000
1728632914.338,-162.109,-703.125,-241.211,-94.238,0.000
1728632914.342,-139.648,-676.270,-211.426,-91.309,0.000
1728632914.346,-98.633,-660.645,-175.781,-72.754,0.000
1728632914.350,-101.562,-640.137,-169.434,-75.195,0.000
1728632914.354,-111.816,-623.535,-173.340,-80.566,0.000
1728632914.358,-116.211,-591.309,-172.852,-84.473,0.000
1728632914.362,-142.090,-563.965,-177.246,-98.633,0.000
1728632914.366,-133.789,-552.734,-173.340,-98.633,0.000
1728632914.369,-132.324,-546.387,-160.156,-88.867,0.000
1728632914.373,-145.020,-528.320,-153.320,-79.102,0.000
1728632914.377,-134.766,-521.973,-142.578,-89.844,0.000
1728632914.381,-130.859,-528.320,-124.023,-102.051,0.000
1728632914.385,-115.234,-506.348,-105.957,-75.684,0.000
1728632914.389,-100.098,-476.562,-79.590,-77.148,0.000
1728632914.393,-114.258,-470.215,-67.383,-85.449,0.000
1728632914.397,-132.812,-470.215,-75.684,-61.523,0.000
1728632914.401,-114.258,-460.938,-74.707,-69.336,0.000
1728632914.405,-67.871,-453.125,-73.242,-72.266,0.000
1728632914.408,-64.941,-455.566,-69.824,-49.316,0.000
1728632914.412,-113.281,-465.332,-62.012,-51.270,0.000
1728632914.416,-134.766,-454.590,-59.082,-63.477,0.000
1728632914.420,-125.977,-429.199,-63.965,-73.730,0.000
1728632914.424,-97.168,-409.180,-70.801,-67.871,0.000
1728632914.428,-80.078,-406.250,-79.102,-69.336,0.000
1728632914.432,-94.238,-405.762,-85.449,-68.848,0.000
1728632914.436,-97.168,-391.113,-77.148,-59.570,0.000
1728632914.440,-81.055,-362.305,-43.457,-52.734,0.000
1728632914.443,-71.289,-344.238,-33.203,-56.152,0.000
1728632914.447,-67.383,-354.980,-44.434,-52.734,0.000
1728632914.451,-62.988,-365.723,-46.387,-60.547,0.000
1728632914.455,-91.797,-358.887,-51.270,-63.965,0.000
1728632914.459,-124.512,-354.980,-58.594,-51.758,0.000
1728632914.463,-104.492,-347.656,-59.570,-82.520,0.000
1728632914.467,-64.453,-334.961,-50.781,-90.332,0.000
1728632914.471,-70.312,-322.266,-54.199,-72.754,0.000
1728632914.475,-90.332,-308.105,-57.617,-54.199,0.000
1728632914.479,-69.824,-305.176,-41.504,-52.246,0.000
1728632914.483,-45.898,-305.664,-22.949,-58.105,0.000
1728632914.487,-46.387,-302.734,-18.555,-54.199,0.000
1728632914.490,-61.035,-295.898,-31.250,-62.988,0.000
1728632914.494,-73.730,-284.668,-35.645,-54.688,0.000
1728632914.498,-91.309,-278.320,-26.855,-50.781,0.000
1728632914.502,-81.055,-279.785,-23.438,-53.223,0.000
1728632914.506,-36.133,-271.973,-20.020,-39.062,0.000
1728632914.510,-42.969,-259.277,-17.090,-50.781,0.000
1728632914.514,-76.660,-260.254,-22.461,-48.340,0.000
1728632914.518,-80.078,-268.066,-29.297,-36.621,0.000
1728632914.522,-73.242,-267.578,-22.949,-55.176,0.000
1728632914.526,-52.734,-264.160,-11.719,-49.805,0.000
1728632914.530,-49.316,-263.184,-6.348,-30.762,0.000
1728632914.533,-65.430,-246.094,4.883,-33.203,0.000
1728632914.537,-76.172,-237.793,8.789,-49.316,0.000
1728632914.541,-54.688,-230.957,0.000,-35.645,0.000
1728632914.545,-34.668,-213.379,-15.137,-19.043,0.000
1728632914.549,-41.016,-203.613,-22.461,-30.273,0.000
1728632914.553,-72.754,-193.359,-4.883,-41.504,0.000
1728632914.557,-80.566,-190.430,0.488,-48.340,0.000
1728632914.561,-62.012,-203.613,-7.812,-30.762,0.000
1728632914.565,-60.547,-191.895,-1.953,-21.973,0.000
1728632914.569,-39.062,-179.688,16.602,-34.180,0.000
1728632914.573,-53.223,-179.199,16.602,-25.391,0.000
1728632914.577,-81.055,-178.711,1.465,-21.973,0.000
1728632914.580,-51.758,-177.734,-3.906,-33.203,0.000
1728632914.584,-22.949,-166.992,5.859,-38.574,0.000
1728632914.588,-21.973,-154.785,11.719,-33.691,0.000
1728632914.592,-45.410,-145.996,1.953,-31.250,0.000
1728632914.596,-71.777,-147.461,-5.371,-39.551,0.000
1728632914.600,-64.941,-129.883,-2.441,-38.086,0.000
1728632914.604,-18.555,-115.723,-5.371,-44.922,0.000
1728632914.608,-9.277,-131.836,-12.695,-28.320,0.000
1728632914.612,-47.852,-125.977,-21.973,-19.043,0.000
1728632914.616,-76.660,-107.910,-33.203,-38.574,0.000
