,TP9,AF7,AF8,TP10
0,-10.66176847914984,-10.609798783626202,-11.735747228674,-11.579297845933516
1,-11.071370315088288,-10.910326493910706,-12.020516347541278,-11.936562830481595
2,-11.528852282763033,-11.195235951312373,-12.296806155309339,-12.329088281622735
3,-11.949180364801155,-11.470461438531512,-12.577458765345124,-12.690027690023653
4,-12.255956561370215,-11.752517504530344,-12.875617897764576,-12.959709398142891
5,-12.524726567575371,-12.04749430324782,-13.196592101879684,-13.219689909802657
6,-12.844184804921575,-12.354771923134026,-13.534385903819423,-13.563356165769997
7,-13.171572746603088,-12.662748009967288,-13.865106428284282,-13.949218051127149
8,-13.44575727738825,-12.957449649201333,-14.162346402110998,-14.314688145777785
9,-13.652877403008972,-13.234737887203416,-14.414962437507166,-14.661477032232723
10,-13.802724144363845,-13.49627428832454,-14.621561459334306,-15.000140640685133
11,-13.97889193064248,-13.744982060609752,-14.78912855794442,-15.353234275334868
12,-14.25537703989248,-13.983711633126719,-14.928529947212866,-15.733964316970075
13,-14.55652416270085,-14.216359314237529,-15.042127479005044,-16.06594117656562
14,-14.78324338500992,-14.435941840915875,-15.13275105730583,-16.277485484457436
15,-14.954002782128924,-14.633831545098612,-15.214311814118906,-16.42924610057933
16,-15.107980745320113,-14.794878295867393,-15.301492670117499,-16.600171032299325
17,-15.235551841976084,-14.905747719057912,-15.405378486559274,-16.777558263501817
18,-15.332362180494982,-14.989450218606764,-15.53122554518253,-16.933307311945146
19,-15.397435896971825,-15.101298531075406,-15.667773139936642,-17.058556224042217
20,-15.437931116407347,-15.269136180309925,-15.80291518981318,-17.148792283091034
21,-15.540073038718111,-15.477619494651648,-15.943797114066815,-17.252219603696126
22,-15.766390927000527,-15.69628299424756,-16.099511808456686,-17.406543708657427
23,-15.99942745381934,-15.884774986360659,-16.2695916699817,-17.519243448572524
24,-16.112957108653852,-16.016644085624595,-16.445868811257686,-17.501550248039006
25,-16.154299360618058,-16.09376932238462,-16.60127503179702,-17.42529173181124
26,-16.20678952468264,-16.145920011171786,-16.71007179225705,-17.38534938494651
27,-16.30058541449786,-16.198732111138902,-16.7788728060614,-17.38867079724871
28,-16.442656527779043,-16.27191902989277,-16.819514617210753,-17.417173694655496
29,-16.561034845091225,-16.364244673026366,-16.825874329776237,-17.421271620736416
30,-16.581554550456914,-16.459559587033,-16.79041069791979,-17.35984186708911
31,-16.579559927786967,-16.541773744229452,-16.696982884569984,-17.31486756118563
32,-16.637129781351554,-16.592511434049523,-16.54337136675116,-17.36797970888779
33,-16.674322263984113,-16.587677649843517,-16.391474586367814,-17.44080334510514
34,-16.59837802499845,-16.513332079838182,-16.29839458362765,-17.433022528900395
35,-16.423768165903468,-16.378806383228255,-16.238780930964364,-17.34449484417304
36,-16.19420723832721,-16.20500605217004,-16.16418569997915,-17.20036789108148
37,-15.969466611554852,-16.015634477298416,-16.043405265447202,-17.03020734530297
38,-15.800554473754714,-15.830656807602999,-15.861753217694469,-16.864317801929296
39,-15.633403604540588,-15.654738916127807,-15.65302146602984,-16.665118253387757
40,-15.405118488475203,-15.483543391746675,-15.46077615129857,-16.395991200292837
41,-15.184409048867677,-15.311932870784357,-15.279752734022546,-16.135242384830722
42,-15.043701201918827,-15.133208806047223,-15.090342296086142,-15.959418476588347
43,-14.934058518498677,-14.943052137217816,-14.88860267609857,-15.816161407666495
44,-14.786325143394658,-14.736695411726265,-14.67010561582387,-15.631744007135888
45,-14.57134307122278,-14.503129052879972,-14.429794068703153,-15.396597730215955
46,-14.278051810366469,-14.232203589544877,-14.163201794175762,-15.11570422153866
47,-13.95185565910657,-13.920394663422957,-13.859778809300536,-14.804365027890643
48,-13.643195162721833,-13.572827951993121,-13.5103532644206,-14.479606699600868
49,-13.299061891880397,-13.193766446525096,-13.109341303912139,-14.103620444899
50,-12.866954131944151,-12.798414709036093,-12.66185104792039,-13.64197344571136
51,-12.426028419436301,-12.40830790613029,-12.199322190561958,-13.150259257156238
52,-12.058493587435056,-12.032154033312645,-11.75230959258458,-12.688441058799233
53,-11.73849276839095,-11.671811241919208,-11.32000338771161,-12.235476383617502
54,-11.414898077011914,-11.319688415250312,-10.886657935065971,-11.756650194146681
55,-11.03316102765743,-10.962773710160727,-10.433659525226261,-11.236971519559944
56,-10.559801242399207,-10.587985135641436,-9.941360471926311,-10.670898433884718
57,-10.088519516499225,-10.183915043250446,-9.399360048994888,-10.113423762431344
58,-9.709532099537123,-9.747632945903748,-8.805428519892253,-9.603930764811416
59,-9.32368284445215,-9.295887478856873,-8.16001830862463,-9.032960897423559
60,-8.824176955033598,-8.869399598412667,-7.50100948202729,-8.296481386261226
61,-8.32374945897594,-8.515645317318729,-6.87517186724133,-7.561074670528031
62,-7.946918853955716,-8.249547596660646,-6.339482030929949,-6.997412504630083
63,-7.674937871133804,-8.053428261786868,-5.868723236644375,-6.576251817497598
64,-7.432597634452683,-7.901328941840431,-5.4112151471451035,-6.198711620796063
65,-7.14684363863946,-7.764445539875543,-4.977775526992833,-5.810838305857964
66,-6.768691693808059,-7.625715477473215,-4.591767221126403,-5.374918709861755
67,-6.358323739455093,-7.4838917258697215,-4.245149679786565,-4.914555001866788
68,-5.8398272300461445,-7.212476279605273,-3.9910513212864775,-4.303777730709308
69,-5.3141674411382045,-6.940928555763248,-3.749479547725719,-3.696928826221724
70,-4.69745028771803,-6.657426790408087,-3.510295481654322,-3.0436323299143857
71,-4.037191063933632,-6.365486389145244,-3.2843162489408995,-2.3979540759242894
72,-3.4149743894187887,-6.074572899657132,-3.0889494841424665,-1.828274290623521
73,-2.8550628321051756,-5.795005898758691,-2.935790031059831,-1.3270323180398906
74,-2.3597252910993385,-5.532352299565601,-2.826643598190087,-0.8669651960210288
75,-1.8969356945257425,-5.2857474133514115,-2.7437983563681874,-0.42988122823552793
76,-1.4238556626712136,-5.048953663906033,-2.6627297719437504,0.00035729959811037215
77,-0.9656593810580215,-4.816292274311083,-2.55970709415391,0.3971891262781825
78,-0.5633232060788838,-4.597678869638496,-2.4247875470519826,0.7293506100575856
79,-0.18496022379948743,-4.418532472115713,-2.2935627749896117,1.0499699126555349
80,0.2070564897070331,-4.272339409563819,-2.2031528328626835,1.4179584474801705
81,0.5762153202434475,-4.1122766035460385,-2.139191761123327,1.7844241717491918
82,0.87917496624062,-3.908862836636967,-2.0624396342715325,2.083411480288572
83,1.1195051096484725,-3.6665904570203653,-1.9137256576336248,2.3248883365084168
84,1.317100482589141,-3.399526110849226,-1.6506905379966337,2.5412866296124705
85,1.525684070110636,-3.1294332241178875,-1.3226191010495985,2.7740144688776938
86,1.7870975248127592,-2.8762729246347902,-1.0095872524790717,3.056664347976546
87,2.017071698825098,-2.649595870901799,-0.745352724036995,3.330450367509881
88,2.1203243539353824,-2.448015096950972,-0.5396803021611605,3.5277698943861613
89,2.1491490784986955,-2.256528692143117,-0.3737766068149987,3.7123284951196007
90,2.198997789977657,-2.060876127917218,-0.2177505742549628,3.9722641886559464
91,2.3231211717317266,-1.85738558313528,-0.09183183810563778,4.301236836578567
92,2.5452758289198703,-1.6535792504305225,-0.02095700437918542,4.662073019244431
93,2.7982395496769805,-1.453440986844052,0.0305865077316907,5.013047148577317
94,2.992164355554932,-1.248498509518149,0.11151813626834084,5.314109772629644
95,3.165192262038483,-1.0250135362432151,0.24643200812314503,5.598356377942398
96,3.3818101921046586,-0.7799752674274084,0.44046862752765936,5.913510154941953
97,3.5842905087095485,-0.5186369768605956,0.6567888539509241,6.204219762539529
98,3.7048114936674157,-0.25906924930839403,0.8439021543644001,6.40570132592063
99,3.7828699342225045,-0.023366161651829698,0.9910564575491972,6.568006478214755
100,3.8769600296676874,0.1676702309564505,1.1023335487816157,6.760518787487246
101,4.004684758339162,0.3214553986445032,1.1609953237146597,6.980490489872903
102,4.16750334579916,0.4721107873236646,1.1601232671501507,7.204730452232015
103,4.313964029791709,0.6332289904294081,1.1213990497025732,7.3999697758637115
104,4.390757313445276,0.7859857556946388,1.0799134804975126,7.534178975236236
105,4.472865252599229,0.9190211569682218,1.0885802403698486,7.657376881346811
106,4.647800583963987,1.0420149403164962,1.1873027742233488,7.824511240908505
107,4.839524536219912,1.1653321799072296,1.354936410028962,7.950606681794485
108,4.945863994147392,1.2876658195484678,1.5420176638540646,7.938148922391058
109,4.984160579136783,1.4003773568971662,1.7063658863222453,7.837305780447319
110,5.004579970695015,1.5028412520585142,1.8177149105491213,7.7361166903834375
111,5.057290935731974,1.6053669189236752,1.8787060845730128,7.672066455807051
112,5.177447731086831,1.7067819221961833,1.9109300576747534,7.659822296332133
113,5.279238117331145,1.7893339528079608,1.9288305303998599,7.647757167969002
114,5.259850888689933,1.8433652177625366,1.9417580261830818,7.571923530571941
115,5.184002487118337,1.8781012431943824,1.946332713811739,7.495524964862654
116,5.153476638903013,1.910664412336881,1.934809751069744,7.498724395921099
117,5.141836056991792,1.9496108320377543,1.9201212839187038,7.510128474899273
118,5.102152117689692,1.9970985369460001,1.916914427612421,7.43731304106289
119,5.058139485516589,2.047390038119046,1.9153952076786447,7.309379000639261
120,5.040112603623988,2.0900988944052115,1.90108617371386,7.182000310838393
121,5.073697722100643,2.115656682782894,1.8717886253089713,7.0801185838871055
122,5.171112650189336,2.122636007407849,1.8326653161000677,7.013396364429252
123,5.251390826512512,2.115921926242987,1.7975671617463531,6.917422928418698
124,5.228514710322514,2.112872274283783,1.7830198420037946,6.7241926195051605
125,5.167505122631732,2.1224898234154024,1.799633587909138,6.508133137227608
126,5.159912457833759,2.1478229507361553,1.8471299544973314,6.370126552815968
127,5.170091065100884,2.18021581890588,1.9052381112875125,6.281366996671543
128,0.03265612823254305,-9.639845813760555,-13.638480590100341,-2.90583600818446
129,0.5029068385893856,-9.77500404532657,-13.98668575182359,-2.5979858639972817
130,0.8561429386401858,-9.900874530274878,-14.290722118207421,-2.403548166571467
131,1.109780417122195,-10.034742677842106,-14.553229756729753,-2.2906659028246907
132,1.2859537480842411,-10.182993361901996,-14.828883232891158,-2.219520151701074
133,1.303403755291879,-10.343811214477105,-15.214337411419946,-2.2456240738476123
134,1.0853367205824431,-10.522232374862325,-15.730366579180647,-2.43087250523412
135,0.6559786662176434,-10.733413138180474,-16.292749000393286,-2.7680193303848233
136,0.06741165248919978,-11.000358061018202,-16.791945134953558,-3.2337843411001503
137,-0.6295483774891732,-11.346319108275354,-17.173666296583974,-3.8035894713679825
138,-1.3978995097720508,-11.779191394558897,-17.433687496253558,-4.453523011115175
139,-2.2867166719753445,-12.292101365118588,-17.577887901052886,-5.21443365069908
140,-3.349388187838018,-12.879689864404732,-17.60734308961437,-6.108261393514638
141,-4.5169588976013655,-13.537453581845252,-17.51726577930207,-7.039788220938214
142,-5.712202405859338,-14.247695046516876,-17.361723576025167,-7.915964479341548
143,-6.967037552296382,-14.98474795342626,-17.250633864595272,-8.779776697817686
144,-8.324861183027476,-15.731488785557927,-17.21088755966392,-9.695512671065128
145,-9.781603231511584,-16.48220408733906,-17.17009537753361,-10.660150345434365
146,-11.312141618014653,-17.232596846161233,-17.072616189225094,-11.650492559176275
147,-12.835577617126653,-17.97711946967951,-16.917982583500816,-12.61211443507347
148,-14.277411686236897,-18.71781870206679,-16.72875381454567,-13.49616963227358
149,-15.690367648953986,-19.473214496130588,-16.502432089655187,-14.357929086426077
150,-17.13995051290136,-20.262800072845373,-16.233168290343443,-15.25946279101803
151,-18.559542844610714,-21.086808713046086,-15.91041430139238,-16.136528779721548
152,-19.87940762723915,-21.92468975765458,-15.521898555717817,-16.91981507846696
153,-21.141102852957065,-22.747861168670987,-15.07888697747867,-17.65225855643274
154,-22.402748903741855,-23.534453081345877,-14.585308930216803,-18.392541954220516
155,-23.697308817491518,-24.271262893126842,-14.046518808761515,-19.156405272405777
156,-25.034050728633648,-24.958577730180078,-13.451433400669329,-19.942413336456237
157,-26.331198208272752,-25.602977753361166,-12.785815439957286,-20.701699514607338
158,-27.506918175150993,-26.216573519642125,-12.089737209311096,-21.383834130408044
159,-28.624274579158566,-26.809403784374172,-11.449591648081537,-22.03727440819174
160,-29.760948807098902,-27.381337203296656,-10.898294389642384,-22.712418866294637
161,-30.868095442727665,-27.92459218185946,-10.409426257021298,-23.333858635209968
162,-31.88235419995615,-28.44102480955674,-9.931189929747037,-23.82383268135219
163,-32.80327298425906,-28.940670074877104,-9.4532843837533,-24.22010057253009
164,-33.64635549208805,-29.435410152622392,-8.976388321243526,-24.57947793100993
165,-34.45351697235209,-29.926104544236203,-8.49467738142525,-24.92275948404993
166,-35.261044397502886,-30.408399332281668,-8.000917139023697,-25.25426179682954
167,-36.01277532634708,-30.867673833920854,-7.476015311160026,-25.516732609037895
168,-36.64626582171874,-31.29089141200286,-6.899790114637406,-25.657588337951232
169,-37.2107288658614,-31.671574605405187,-6.261758260065239,-25.75539634414795
170,-37.76011047096994,-31.999999314147377,-5.568490496086561,-25.893638758365494
171,-38.25271797138436,-32.26070138626541,-4.858081485200487,-26.008823174197673
172,-38.63668874345223,-32.44319108307446,-4.175949879837701,-26.02476587327877
173,-38.88919345577047,-32.55376445039018,-3.54474732793576,-25.962837326866783
174,-39.011594856470204,-32.60692154063811,-2.972157051600737,-25.865254058326503
175,-39.09341914395857,-32.62125484943663,-2.4557763792065255,-25.782472000597522
176,-39.21644845563026,-32.61056278764743,-1.9764912631909588,-25.745292781981984
177,-39.29777103027839,-32.57894948343039,-1.5082461479094775,-25.665282949582338
178,-39.239823811875596,-32.51910040505374,-1.0105910391466961,-25.44947807198466
179,-39.100729346171484,-32.42328847472035,-0.4492146750630863,-25.155251675531353
180,-38.955002086763876,-32.2904329681895,0.20331587308227742,-24.86017878328597
181,-38.7909082829761,-32.11047959562662,0.9585082664669066,-24.54855263708517
182,-38.58020141120646,-31.862870358662594,1.7565798822699827,-24.186403235009536
183,-38.26905316101341,-31.538240007247985,2.4806522350009312,-23.732579561262042
184,-37.82491770693913,-31.131842310479797,3.097152313901348,-23.165605390665288
185,-37.366657475877474,-30.63337364543244,3.648830787544814,-22.581804510151606
186,-37.01343941890745,-30.063138345891534,4.212498441434073,-22.081933536135825
187,-36.684450138877736,-29.471978477472803,4.836802363799095,-21.61677262542546
188,-36.266871857954975,-28.908454746894474,5.490582683573593,-21.10693021512295
189,-35.87553439579052,-28.409158062765478,6.064726860329114,-20.68859231070907
190,-35.621779169441645,-27.966576492812802,6.469695732460867,-20.47616704654974
191,-35.45084511331794,-27.53851459246071,6.75788078524406,-20.358493680418064
192,-35.27017144100394,-27.153740793795333,7.075965970168364,-20.25955313626171
193,-35.091434812627064,-26.910038897350624,7.506988345782471,-20.075469722097953
194,-34.798988670453745,-26.800231963766848,7.990184626341539,-19.858760116757804
195,-34.61126235405045,-26.707035703867398,8.364001432654712,-19.825217053024794
196,-33.36209593702191,-26.000043150280206,8.092294902030188,-18.967221161405988
197,-32.07503448028577,-25.286356482519857,7.787476195346284,-18.07685514248601
198,-30.679197448352234,-24.570896837625362,7.498071993139298,-17.07308278560143
199,-29.241982087965287,-23.852931807813796,7.278965865308709,-16.05001625622073
200,-27.85558412637247,-23.126240577447255,7.144230476403019,-15.126843701884765
201,-26.53740233443901,-22.378709478680637,7.063150951302235,-14.272942028452652
202,-25.27129912326094,-21.601723828841447,6.980552967277733,-13.416247946380398
203,-23.98585297879615,-20.80422005191339,6.868635977874435,-12.513458344486605
204,-22.606737434323414,-20.002285518657622,6.716551063716647,-11.539468168785618
205,-21.19036663728436,-19.20814269298839,6.5285030292744155,-10.555051243045686
206,-19.820956594092102,-18.42861437931836,6.313715846197208,-9.638400175003484
207,-18.45475259835294,-17.658288037072715,6.062140713020025,-8.749670785000419
208,-17.026141723488116,-16.888046513316088,5.757610919995096,-7.821299947215104
209,-15.555157037245982,-16.10330101712577,5.383168931894229,-6.867872364596551
210,-14.07869714122779,-15.299525165753977,4.938211965270891,-5.921880614407005
211,-12.622126397946358,-14.484647939767935,4.476082437518048,-4.99332770621686
212,-11.202828387599714,-13.662715242209693,4.061101415311075,-4.0886691426564985
213,-9.770177531971749,-12.828800378446447,3.71583519778704,-3.1856647520278387
214,-8.267659499693229,-11.981437228061802,3.433530573240238,-2.257440323814715
215,-6.759568202593329,-11.126321795425815,3.1785372549106876,-1.3421189292188205
216,-5.325458406863712,-10.267863642362054,2.9030949796352843,-0.48181694025051786
217,-3.916759820049605,-9.410712891184438,2.586544674841292,0.37147337391777224
218,-2.4623418876232765,-8.564386922538507,2.224812688942881,1.2772424100412234
219,-0.964618706393792,-7.736068716837283,1.8129101112264234,2.2215866731208385
220,0.549974469278778,-6.928324904353224,1.356711205939767,3.1698587995961707
221,2.023526887244123,-6.136356213237012,0.8716682728996334,4.087580506642164
222,3.4026077429525348,-5.34786894200206,0.3782566547982152,4.950404856188668
223,4.756026353938403,-4.538421139348157,-0.08388493961304522,5.818093393003499
224,6.17180691468228,-3.6864804735851053,-0.4932883846235924,6.759250752109312
225,7.584752906065802,-2.796280988516605,-0.8543913063722479,7.707145233709444
226,8.907231409919314,-1.883467141796566,-1.2079602408257917,8.576065179036744
227,10.18677407039124,-0.9635370002067627,-1.5872514203234247,9.418382640420713
228,11.496258516680774,-0.04973794642233664,-1.9869953702463392,10.30906490635085
229,12.847359703750321,0.8394684570885952,-2.380832330444593,11.237050292474143
230,14.232984061145888,1.6872693819647844,-2.7601758998325088,12.167324980190521
231,15.608385651320647,2.496627137542493,-3.1855658267512634,13.052828491455307
232,16.928666349192653,3.2950160328043747,-3.7474769896720663,13.855482744008931
233,18.25572302664927,4.11581237118537,-4.479595947783272,14.634690593913296
234,19.66643261805568,4.97124305481477,-5.315035964088869,15.470626847727953
235,21.1166081294551,5.847807052891851,-6.106355194529945,16.33392984537471
236,22.529992316170596,6.720157396566447,-6.708995066046191,17.169190936969535
237,23.889633181302035,7.557244834933117,-7.070512372285689,17.99742398589834
238,25.185946049408315,8.33372530077286,-7.25262356202783,18.838899815434996
239,26.40075681748193,9.047897972857186,-7.383302056191268,19.653584411646673
240,27.51374276650934,9.70778560767214,-7.558149316303784,20.38451752542372
241,28.4553488584121,10.306545120895997,-7.804307106647557,20.9587976655735
242,29.1601905603513,10.836869953941125,-8.090927917897828,21.32010791689358
243,29.670778763117234,11.30364696932351,-8.381925632323586,21.51529615823008
244,30.048421155270123,11.714224280057003,-8.641527222923596,21.614676251012735
245,30.256929577924133,12.079799242813444,-8.861794464587014,21.59567962838313
246,30.240755347855643,12.40436523625117,-9.057032093519673,21.41391780809243
247,29.990342342258327,12.67096705113277,-9.233443822620645,21.063337798196265
248,29.516965676292955,12.853741701402456,-9.407041765939363,20.554894606431223
249,28.875519890941522,12.941448074302999,-9.584911747660994,19.945465360542265
250,28.132309341813986,12.94072241123536,-9.773226294589435,19.29872006812713
251,27.272338799485176,12.863598868237869,-9.97272282287759,18.588999080133856
252,26.273007983773695,12.71297918545502,-10.127436975727417,17.77721703136227
253,25.220550197638605,12.48383149385938,-10.126181370150364,16.921274964831696
254,24.21123755806446,12.178152669020974,-9.92222305470305,16.096091088851807
255,23.24689054974696,11.80973194314152,-9.577164977614268,15.3135287506575
256,-19.64425437289367,118.87671050227382,147.30732388086597,-26.55144077034798
257,-21.806794815961087,124.49954314246284,156.6608474259444,-28.753695744010788
258,-24.035396504177843,129.95273766806048,165.8931540936378,-30.993959152346672
259,-26.227801913029694,135.21513909862807,175.0263476632603,-33.202119941905146
260,-28.278261998133594,140.2638498583285,183.96803885610663,-35.305107106109546
261,-30.221673677583734,145.08595588717571,192.64146984773245,-37.32754477819455
262,-32.1146170768018,149.6779054867516,200.97591794720057,-39.30365950920409
263,-33.94150824265511,154.0445955930668,208.99888460913115,-41.188562818238545
264,-35.676977640777885,158.19600581627455,216.76650243928685,-42.9394065617014
265,-37.28549852739784,162.15178466853985,224.28631163600218,-44.55996901813207
266,-38.74753815253921,165.91187172540407,231.53085746447232,-46.07898278902184
267,-40.1557963636059,169.46330047770024,238.41988385162173,-47.58598176483601
268,-41.597687334084895,172.76862767034666,244.85584588777726,-49.151054687028164
269,-42.99563134468886,175.7999633632136,250.79865273311248,-50.69678402399806
270,-44.25123678759055,178.58082311228088,256.22548093603035,-52.11936710500541
271,-45.3832804188105,181.1559259290857,261.06987076612774,-53.42176698535598
272,-46.43395326444008,183.54502516808782,265.2899702699819,-54.62960551939924
273,-47.427192618005506,185.72578096224302,268.93998157680204,-55.73810891544813
274,-48.37822097061526,187.67136770508765,272.0748141818727,-56.74526267080973
275,-49.23144750115271,189.3574708085753,274.7626088527453,-57.62896391935316
276,-49.93228375900253,190.79616974238715,277.00469227419234,-58.3693621228787
277,-50.55808017804357,192.00345950482506,278.7704340740607,-59.03214960135097
278,-51.18730435895357,192.95933529787584,280.07253269520874,-59.66897150534354
279,-51.74423470893737,193.63866574763304,280.9402296951923,-60.16847040072576
280,-52.14050613400837,194.03879417809307,281.30873890563373,-60.42338233733874
281,-52.3976627447665,194.1488191832878,281.0849034437616,-60.50847874779746
282,-52.55929506506513,193.93335530986946,280.1913905482087,-60.53086463930396
283,-52.65911070842057,193.3674975455629,278.6815978899366,-60.52510423314405
284,-52.717748597172445,192.43244681583565,276.65339389472024,-60.49146871054603
285,-52.67009658812913,191.1321411378938,274.16879195219934,-60.35108330605555
286,-52.4501146877841,189.48204511336,271.26509530847414,-60.02143601751561
287,-52.12760844708955,187.49877099978522,267.91525571071725,-59.569951595350666
288,-51.78110911480827,185.19136194667098,264.0695856705808,-59.07862316655192
289,-51.35900186140476,182.54303803251108,259.76136238282686,-58.4757189544261
290,-50.79726740737081,179.53079677510044,254.98938522138073,-57.68567675321049
291,-50.105909917081114,176.15284047546353,249.70671005818153,-56.75603722684104
292,-49.314790237740795,172.40580592038714,243.80489259371564,-55.75684963044412
293,-48.47720233601017,168.29944676796976,237.25515725429207,-54.740794038975196
294,-47.63787139427622,163.8266450458038,230.15718143828892,-53.736391625207084
295,-46.743581139936666,158.9701298148689,222.64538632643476,-52.670629712251944
296,-45.734455135859754,153.73827104800935,214.78235228140736,-51.461464035354425
297,-44.66520583799074,148.14768295833903,206.5636212336773,-50.161270661816914
298,-43.601166210001765,142.21920811871038,197.92951942031493,-48.83816007990338
299,-42.52455620288111,135.95490898688539,188.82599018553438,-47.450691655953
300,-41.40306401719327,129.35381108812348,179.22624093347667,-45.95409522527728
301,-40.21350665864975,122.42656439049826,169.1496566189039,-44.362836588810374
302,-38.94081502679023,115.19019397630449,158.64743054011066,-42.708633832049124
303,-37.639052702157294,107.6431720800733,147.81726665699935,-41.07250979284497
304,-36.352617769694696,99.7904909991347,136.69166912471172,-39.505635751888995
305,-34.98725695184277,91.6356275158894,125.215620766777,-37.88368648687624
306,-33.44523791912081,83.1596176189348,113.24497422087197,-36.067139500526196
307,-31.774358933592985,74.34814840049975,100.7002242594841,-34.08777456864821
308,-30.050520371097814,65.23374186821174,87.65196109482802,-32.020735749627605
309,-28.289927708780713,55.879807722504445,74.24779885883216,-29.879461249297265
310,-26.497791677340455,46.3297032916467,60.636497135319246,-27.677950411422614
311,-24.65401207454988,36.60217578823381,46.88868176912883,-25.439464797792123
312,-22.741699222690002,26.69232614845269,32.957171298424804,-23.17691546115637
313,-20.843588512637528,16.58273676925371,18.725714009499864,-20.9297734246795
314,-19.034189023826343,6.25658782021693,4.141481262173713,-18.719496720550467
315,-17.228766691116334,-4.279155812598923,-10.74647936449664,-16.457919043476572
316,-15.310757381881274,-15.077580687685263,-25.86297516475893,-14.032621568214784
317,-12.919457336811824,-26.339765227683635,-41.175209661299306,-11.27624422767325
318,-9.838427917587978,-38.253522075731375,-56.58928855165752,-7.817781999953104
319,-6.168909079970641,-50.62057740067451,-71.87537332646106,-3.7621165278547046
320,-2.2515805265076656,-62.89576955917181,-86.90665450586351,0.582130924879886
321,1.4963710286770997,-74.73817451700437,-101.94018886616331,4.8121570021488855
322,4.714295507908011,-86.10754946268928,-117.40186175981535,8.545170780250546
323,7.286002268705905,-97.02874447705146,-133.4023891890212,11.639120536197646
324,9.585757876797295,-109.32602233788329,-151.80233596608448,14.566867564600564
325,11.720137874889526,-121.40926961884428,-169.97559318529386,17.264374567911492
326,14.088894194551958,-133.58244911299738,-187.6063592638322,20.108084340307155
327,17.014675282344836,-145.7408246246151,-204.4105432437388,23.428890193117546
328,20.577474639431994,-157.34542975655404,-220.09051320524017,27.323519402967094
329,24.35174865336937,-168.1180263899855,-234.5106001072055,31.358335769492466
330,27.774619206129543,-178.22402877832272,-248.02049295270749,34.95959202170048
331,30.657349931090753,-187.78853839710908,-261.2722682664093,37.94473204863619
332,33.015186796965,-196.7223287404938,-274.4823843874256,40.34405995272429
333,34.921445466202265,-204.98939724267532,-287.2882568466512,42.259353354659225
334,36.527251300237204,-212.52938321549064,-299.5270040151946,43.873937329744685
335,37.935400926637826,-219.1179681526192,-311.4728102114869,45.299080530056244
336,39.19893562833976,-224.8559891902395,-323.01108673361955,46.58963026694338
337,40.39333341328167,-230.25850674646492,-333.4380376600066,47.84984224911438
338,41.56942444726495,-235.6723570735846,-342.3544752993159,49.15343404916768
339,42.68927096331991,-241.02167675592875,-349.9188513715657,50.438591922598604
340,43.70445234782993,-245.86944397375734,-356.45133046808036,51.622068838758096
341,44.6798069838343,-249.72526447963787,-362.2578622032386,52.75574801277292
342,45.6833999216374,-252.45104406247157,-367.4820043964372,53.90973225924022
343,46.61837865007448,-254.18270270187384,-372.0537760472032,55.00676381024526
344,47.35992226594755,-255.07499214134197,-375.71882718460176,55.94624495974018
345,47.935931442872224,-255.35596165663142,-378.410652847947,56.77377822810332
346,48.397003924933315,-255.3427232331551,-380.41678086803034,57.537893669982886
347,48.67444985952675,-255.21065562053852,-382.09881463947113,58.107053138282325
348,48.698110076878294,-254.89690810920277,-383.49706763051654,58.34399866695427
349,48.479053609090975,-254.2292973991418,-384.27427016756343,58.28562205719671
350,48.06855458666551,-253.09358257752874,-383.9833377099652,58.03017083883627
351,47.59106302450206,-251.477828813554,-382.33708269501483,57.67888641326928
352,47.16050310818834,-249.40075692252245,-379.45083981515427,57.31198635270268
353,46.71147582155137,-246.89724781868324,-375.7121962858725,56.86175422331274
354,46.127224513025304,-244.03433116492744,-371.5721425239861,56.22401451367504
355,45.41368991621985,-240.86157147829735,-367.27809436261896,55.45449604119854
356,44.60815759374606,-237.3720113605326,-362.7532936180363,54.6409985446695
357,43.71219682613783,-233.54052091344315,-357.67506982536236,53.76605511299261
358,42.729345602869834,-229.40996438807986,-351.7723873801157,52.79237230088949
359,41.633552744877335,-225.15328271431883,-344.940969918254,51.68516014388296
360,40.402592803750615,-220.93655978242012,-337.29098133909287,50.42469513014119
361,39.127611786940136,-216.77350968927865,-329.20588962496697,49.12312713637874
362,37.90414100224843,-212.56897745147958,-321.08162309744273,47.898669568178185
363,36.66439249538609,-208.26062850634688,-313.0008733608738,46.64780390318211
364,35.31205330032093,-203.87884535761188,-304.8517459179196,45.233693343152076
365,33.867754739016,-199.47120192513344,-296.57162448518625,43.71894721662009
366,32.3873933911956,-195.0582182962108,-288.20156510346646,42.21492780512938
367,30.936833989363123,-190.66795592957004,-279.78465098921316,40.77455427390614
368,29.567899323144246,-186.30773076082102,-271.38707193125884,39.41737521914818
369,28.198411222481784,-181.92145201500895,-262.96533665924625,38.05172120813779
370,26.72826439237876,-177.42245409460014,-254.44243263334593,36.56826458354053
371,25.232973523937083,-172.7645065074039,-245.80261790301526,35.028998280239335
372,23.82828722431044,-167.9659953128083,-237.06639105537957,33.54189334972935
373,22.51719423992866,-163.06872308022784,-228.32616230336814,32.10029949452492
374,21.27523510969025,-158.09552352897734,-219.6823564363342,30.675277388132123
375,20.09134189033358,-153.0478246563253,-211.0923936360501,29.280848769920308
376,18.95409929451155,-147.93700010790053,-202.51334261667387,27.932970936449525
377,17.913992088678516,-142.7749183228698,-193.93997943967355,26.662523998677226
378,17.020507734332494,-137.5734188340504,-185.4621106410526,25.49460309801015
379,16.188930159854127,-132.32689665941683,-177.15538005008088,24.374719986089648
380,15.314359697064727,-127.02521027745665,-168.97892255669237,23.234223610435443
381,14.426319769104365,-121.66586270369164,-160.89664584052247,22.098209329050903
382,13.583370480948927,-116.25484346378998,-152.86851455122334,21.00640845478761
383,12.775509886646201,-110.80717302585037,-144.95088966035783,19.918858391587634
384,-8.959300220388352,-52.11034875686254,-63.22535678747948,-7.435329639839345
385,-9.1322666008313,-53.389895434391065,-64.65342821537388,-7.629529690419519
386,-9.3892328216122,-54.634252528595255,-65.8897439201149,-7.896086707094289
387,-9.658505157524818,-55.839011668976916,-66.95244148023765,-8.172663115548843
388,-9.8499594749624,-56.992795098018824,-67.89041780674252,-8.386668414696008
389,-10.015227346032708,-58.08438745771894,-68.77785932541144,-8.572693962825644
390,-10.216835019056473,-59.10355507740437,-69.67174995374123,-8.779813037806573
391,-10.43207756709147,-60.04215804009865,-70.55334798979071,-8.987854168553662
392,-10.624377215785863,-60.89718325956624,-71.34754419817683,-9.171583920395634
393,-10.746511649760349,-61.6740754649575,-72.02090309618475,-9.324940090554103
394,-10.770311400702028,-62.37933731066719,-72.59934303926784,-9.449727313779526
395,-10.790438337638909,-63.01742381729858,-73.10566688579597,-9.601020088502148
396,-10.902543882057156,-63.58882795490366,-73.5341168471742,-9.821541778714451
397,-11.03229094438899,-64.09131130206231,-73.86785699945032,-10.022706455082705
398,-11.090711621698047,-64.52625445173074,-74.11737119631128,-10.117870394664706
399,-11.12538167638998,-64.89841299903284,-74.32118745596843,-10.174687183615925
400,-11.204576320897926,-65.20288782392598,-74.47626653794214,-10.280709160408335
401,-11.355788469970676,-65.4235438282478,-74.53009850283995,-10.442913224230923
402,-11.5791268014136,-65.54978079751989,-74.47529407111622,-10.631154413622435
403,-11.791424644110135,-65.59246477729741,-74.36491922422682,-10.75374856041156
404,-11.900340386117266,-65.57882964547177,-74.24848972890061,-10.72103779727202
405,-11.931891732390488,-65.52414541329294,-74.10639387420275,-10.576052596139418
406,-11.932890375121564,-65.42064526574022,-73.87480597189835,-10.391231346293901
407,-11.855959922805665,-65.25116842136998,-73.48715545251602,-10.126997144801559
408,-11.665329414158656,-65.00129986598655,-72.91010723917053,-9.755836426766082
409,-11.418049598746485,-64.66689309744716,-72.15199915553198,-9.380435179059486
410,-11.190487569265652,-64.25238212295258,-71.25124162077046,-9.107908432486218
411,-11.05454523568396,-63.76185869192582,-70.23440912111391,-8.966943911155685
412,-11.053122482267632,-63.19448686888289,-69.13190263413402,-8.944598023159326
413,-11.119282170518428,-62.54615676451523,-67.97318129125158,-8.95582463387445
414,-11.169271273472397,-61.81387660499911,-66.78534089186287,-8.918500098377482
415,-11.23556156013431,-61.00095806602296,-65.56146790436956,-8.897596521865097
416,-11.36320824960904,-60.11499579487713,-64.27590754137506,-8.973685722590066
417,-11.507150684913018,-59.15834248467749,-62.87199064400225,-9.07950988774638
418,-11.61757261592506,-58.12583391561491,-61.31495407876906,-9.13639888797143
419,-11.688219655285247,-57.01201753869977,-59.62044946216521,-9.169540929795371
420,-11.727877552423463,-55.8163493328567,-57.8508871606419,-9.21846733243923
421,-11.783539806299837,-54.54511632833656,-56.05572389869286,-9.30605429133233
422,-11.89516849561289,-53.20528816975809,-54.24754868116095,-9.438700304492626
423,-12.000542802559627,-51.79094222341505,-52.4207193567039,-9.537501490169642
424,-12.031750650939545,-50.28576866309206,-50.55384090681493,-9.529981905818486
425,-12.041258390383437,-48.68139683254873,-48.6109589031278,-9.489160783837496
426,-12.088562243459457,-46.98636888045855,-46.54912887673864,-9.504868047909515
427,-12.134619780943625,-45.21652477750785,-44.33722739541963,-9.551608041493537
428,-12.129885297087334,-43.37050157317458,-41.976896847800326,-9.580337976916812
429,-12.054263472451606,-41.42905708361349,-39.49201523499118,-9.572178712000435
430,-11.908290527117165,-39.38978442072631,-36.906967239269065,-9.514053522232773
431,-11.777397586297816,-37.27250221939689,-34.25425194548511,-9.434200948456207
432,-11.735113704331372,-35.085025972012126,-31.58203326008115,-9.363243340738036
433,-11.680568520812404,-32.81600721555556,-28.91745238554353,-9.238226043960312
434,-11.503334591313035,-30.455419555653357,-26.263047084708866,-9.00697378929861
435,-11.268512016693101,-28.002066190673492,-23.575948770769006,-8.763028897811331
436,-11.065978981634922,-25.458014780113047,-20.801124152060098,-8.606728681500105
437,-10.900279458053745,-22.826822474126246,-17.878097220513418,-8.518685994488457
438,-10.749711443314187,-20.112118802668743,-14.78291291486851,-8.447704308619688
439,-10.546793282238111,-17.32210080720369,-11.533980761875153,-8.341029665721493
440,-10.231131411593134,-14.468639681978091,-8.153872453528562,-8.163331314470046
441,-9.878506589300338,-11.552671405310356,-4.654514973917542,-7.9949802982518445
442,-9.57769189810135,-8.563348635752506,-1.0236108089197922,-7.920176388809699
443,-9.266065530639878,-5.492587887798315,2.7661821647392264,-7.856663754932247
444,-8.863796416842074,-2.4864359733547587,6.480474493689833,-7.70826937425579
445,-8.488486046978505,0.14777264963997455,9.595861628810328,-7.604179802040779
446,-8.245256754374061,2.2763312533402984,11.870307540771115,-7.662139361814309
447,-8.141900877982234,4.001627327433538,13.511198140179964,-7.828826179198742
448,-8.136140713834447,5.472082611777726,14.846317111046526,-7.99707211136534
449,-8.112410617871005,6.829146032692064,16.075235891326663,-8.08113302078369
450,-7.965369315931161,8.18702544413546,17.226665630572153,-8.03303473425309
451,-7.768282209588376,9.582946942022458,18.284636593950246,-7.9390019652264305
452,-7.561298969875178,11.338016032739048,19.77061533295537,-7.836338552938511
453,-7.364270920975708,13.019533496787803,21.252094930765256,-7.781155726438479
454,-7.094921681078876,14.640190049277116,22.72769879837999,-7.706578201605161
455,-6.7747224104514645,16.237561226049742,24.166659017666984,-7.638590014646411
456,-6.453705567147835,17.82722185359913,25.54173405540977,-7.615242833010202
457,-6.187519827516609,19.395031365601934,26.841347235690492,-7.636750507202203
458,-6.0195135037936245,20.922967096127977,28.054668363218052,-7.687697724098567
459,-5.87558297285162,22.40067360921146,29.162312721181518,-7.691852075915788
460,-5.661622673307469,23.83053118898705,30.138059361518756,-7.577159025853016
461,-5.445241193390081,25.224358962815288,30.982160114578885,-7.41963528772123
462,-5.317106268935936,26.57859104081719,31.73434542241055,-7.3209341176769485
463,-5.207639278993597,27.859040647244125,32.423860612566166,-7.227777907854795
464,-5.026279169198709,29.025005107482574,33.0751401420714,-7.061814488337182
465,-4.789214026348784,30.05300463559984,33.69612918302706,-6.85573467983747
466,-4.5442587629018725,30.94486558499923,34.27435008544592,-6.665901051655142
467,-4.3597231085803765,31.72429017395442,34.77031805146139,-6.532079977488478
468,-4.29462255993042,32.420362643806826,35.15671092762599,-6.478179135559676
469,-4.27180807222506,33.05255218068771,35.41948852230683,-6.4362303427051915
470,-4.191485204211081,33.61934258107252,35.58936913998175,-6.324766694352223
471,-4.134924998629818,34.10450113338814,35.731699128801296,-6.20027960383598
472,-4.206304760724147,34.49890188711276,35.87647427105789,-6.144358795342087
473,-4.33321088291301,34.806606749175906,36.01918805360728,-6.113479188772806
474,-4.414150350243288,35.02824062456005,36.14186410968903,-6.044401945701953
475,-4.440260802825758,35.15569806536176,36.2473951660396,-5.948213975044857
476,-4.435968590664591,35.18533536975778,36.35723070537745,-5.852132735156111
477,-4.483177942461773,35.12326520716985,36.491798893837775,-5.794861343505081
478,-4.657425396496502,34.983164342852945,36.64079609904886,-5.806373600528183
479,-4.860375006000842,34.78627904705245,36.77423418955582,-5.8092337477822715
480,-4.957942734094978,34.55264218334933,36.84527509334904,-5.716926907004343
481,-4.99140648564197,34.29358415182347,36.801988619977756,-5.606146925391819
482,-5.03965350534776,34.011041940738515,36.614617477506194,-5.579686738039942
483,-5.069306519260438,33.700646008480234,36.29284332109741,-5.593687369130796
484,-5.0363124457704105,33.36214138271077,35.88165198703849,-5.5737482970545695
485,-4.945617574314655,32.99725054470826,35.42148426187263,-5.510806142139114
486,-4.816657933843199,32.60066285523846,34.93535449319272,-5.413514807921786
487,-4.719259691343979,32.16726737492643,34.4330293746164,-5.326884659550111
488,-4.715515233334832,31.711636895309887,33.929132206160574,-5.295943936245792
489,-4.727175025913425,31.26736410132361,33.447376194776695,-5.248841996373602
490,-4.650444362300483,30.857274687828042,32.987408827151384,-5.100294031739054
491,-4.519273946328946,30.47599281935187,32.50892540142713,-4.913292547569799
492,-4.399344040291915,30.101984436137297,31.974872278155566,-4.7789261066390925
493,-4.285369821257439,29.71437034745867,31.379447334885896,-4.682738576788779
494,-4.157766358080983,29.298788072283777,30.749916795774954,-4.583255479586409
495,-3.9902553477740716,28.85528825368287,30.089172781511756,-4.460311289259207
496,-3.759083180938239,28.396221528780526,29.360241231886555,-4.298326923798842
497,-3.5185371586369514,27.92810296747115,28.547430831952607,-4.121818901232112
498,-3.330502971168406,27.44655022549397,27.694176609431853,-3.9661456117394307
499,-3.139456392190223,26.945332673859983,26.88726894540569,-3.800924408855812
500,-2.8751197626296165,26.419264532307288,26.200412616690883,-3.58983376978543
501,-2.570861690711879,25.863784977603228,25.637100488088066,-3.3746738685543045
502,-2.286200893664681,25.27668231354996,25.159391226678522,-3.2061204239759746
503,-2.067171972689737,24.660138922932013,24.7185568191522,-3.0820081104847787
504,-1.9383527484256033,24.02445318114613,24.268865917168846,-2.978275271377791
505,-1.816159076671208,23.386530461039957,23.757742091017263,-2.8396049612756453
506,-1.6024731917465902,22.75793440057963,23.13338360836521,-2.617308571643217
507,-1.3594316285667967,22.140072692975057,22.398251041940046,-2.365120468486232
508,-1.1808339808181318,21.526488850128075,21.589987980860162,-2.158011837456512
509,-1.022382349241153,20.90931743089177,20.7812237106954,-1.9672822151465719
510,-0.8195815369696163,20.280061338648476,20.03862913829198,-1.7429811368216155
511,-0.5895204154319856,19.630828455719055,19.357279778144605,-1.501807718243029
512,0.01622674168208016,-19.4395791576516,-21.97743434375522,0.2272944000365469
513,-0.14561261817115143,-19.88808911684858,-22.671953034765504,0.3015782467832911
514,-0.4075291261992511,-20.325383269320227,-23.264903474704948,0.25006364110066814
515,-0.7027026372919853,-20.75488174910019,-23.74756710587067,0.14937970427981107
516,-0.9511192973372292,-21.17871452983272,-24.145254783150513,0.09153073276489151
517,-1.204445947420283,-21.599967110536348,-24.496914989054822,0.01266535538154634
518,-1.5206218620828678,-22.02003854434584,-24.875555197070902,-0.16505139583195233
519,-1.8708251153712168,-22.43620323488515,-25.302965636655,-0.41818658980037104
520,-2.2129246644828915,-22.841750814243547,-25.77419708636898,-0.7060826945932595
521,-2.501704204602174,-23.22947008249432,-26.24929517546362,-0.9918611157106669
522,-2.712565793580362,-23.589097281370517,-26.679995612340388,-1.2494765161913186
523,-2.9379576002371315,-23.89953045841819,-27.057087676832637,-1.5443005601040753
524,-3.267249878551574,-24.149464842143114,-27.385220661661727,-1.935392425551198
525,-3.6165159549379347,-24.345378069265987,-27.655506813807655,-2.3254509342779457
526,-3.8832399409119014,-24.510739023792144,-27.865228981160428,-2.6078333818372896
527,-4.102182656208151,-24.671199957238432,-28.018702304545357,-2.8210404173135037
528,-4.3316804268724285,-24.83740008744819,-28.12977679427294,-3.0306224204447307
529,-4.587824715950027,-24.992203302498464,-28.242979594636072,-3.2512125373119782
530,-4.876819639627995,-25.105477928020708,-28.396121036759336,-3.485400934016483
531,-5.155162118420987,-25.18025822084602,-28.57818992380405,-3.6941093741904396
532,-5.38460718054983,-25.257927983195355,-28.761321696294562,-3.8439995079140177
533,-5.647725557276398,-25.36457799347911,-28.920599089241104,-4.015384955869202
534,-6.025063785404791,-25.49288268851764,-29.043049745162893,-4.289933831717699
535,-6.450720680705544,-25.620227638654786,-29.154017977063194,-4.612784059456937
536,-6.835197876382896,-25.723608595772422,-29.285325459539163,-4.908354376674738
537,-7.164681748831888,-25.789009690617537,-29.440184738931045,-5.1820440834049615
538,-7.44613592032327,-25.813816986575887,-29.60042307639431,-5.45142490895935
539,-7.71386205146707,-25.804097375354065,-29.727116118154413,-5.728304068271733
540,-8.004723033201326,-25.76768136732341,-29.780295512235703,-6.023855381056777
541,-8.258105389568726,-25.701947693860898,-29.734099717249688,-6.281897260009393
542,-8.42701873107001,-25.600798986382312,-29.591938438736875,-6.468162239537941
543,-8.633383029514329,-25.462225138887877,-29.420484608643047,-6.711960272549446
544,-8.99903082769593,-25.285792630023398,-29.285162475237648,-7.13848692633656
545,-9.495596904939825,-25.073576568284103,-29.171665582730494,-7.704754889130004
546,-10.039842755600722,-24.829398223391355,-29.036909547563138,-8.308011656877838
547,-10.516631545488945,-24.554758344842792,-28.850753570404155,-8.837642896688871
548,-10.838789831880453,-24.250643778691344,-28.588102063569142,-9.209888986326796
549,-11.088532241260568,-23.921113098471725,-28.247174724423985,-9.473024019525605
550,-11.385491277287503,-23.56775136989397,-27.83762197005019,-9.71903275827059
551,-11.71271871222314,-23.18332908910926,-27.35135312620984,-9.956565637103504
552,-12.026845136308063,-22.759951554228323,-26.783239275491308,-10.178742846917393
553,-12.358175535663852,-22.284964372106284,-26.148396583699405,-10.428715491008077
554,-12.723361913504968,-21.75295977149497,-25.46694686884171,-10.731773404490662
555,-13.07622673196672,-21.161629763332986,-24.760362598766218,-11.041705827044042
556,-13.367828517077877,-20.50504964539958,-24.040464316629574,-11.311631837924972
557,-13.556913669873428,-19.783157454351674,-23.293152952494616,-11.542347134196131
558,-13.628016675259095,-19.009189004664304,-22.494897993821333,-11.74738821062873
559,-13.670186912178426,-18.201619292345114,-21.62451569659985,-11.973055404927592
560,-13.764790706403508,-17.366678377974107,-20.674971186772236,-12.23922217603792
561,-13.821592871011191,-16.492942938333716,-19.673927006232052,-12.406111856321658
562,-13.735896460413596,-15.564839056447216,-18.659175878380108,-12.345401604946177
563,-13.552808343385855,-14.58455153032578,-17.651938157155882,-12.154527828830672
564,-13.343894942971176,-13.559642817803205,-16.660883601723242,-11.969146894955305
565,-13.130732610702713,-12.501678046972485,-15.676304291940522,-11.799660643297281
566,-12.919022705269631,-11.416699687353356,-14.682265893292573,-11.622626526903892
567,-12.656505076655971,-10.311569828826084,-13.678051475878052,-11.38807048282309
568,-12.293900509122647,-9.188819701326402,-12.65602545252119,-11.053909315699427
569,-11.913667180305788,-8.046491914528673,-11.641210241248151,-10.714357358120875
570,-11.600868618977351,-6.881217336718193,-10.62353810557085,-10.47017295544623
571,-11.283941752740098,-5.691539156422963,-9.5509340043809,-10.24381718401214
572,-10.879644417957246,-4.529309360065417,-8.470952801032073,-9.935142266435196
573,-10.474473146011631,-3.5069310636959017,-7.535759194831924,-9.690512721230377
574,-10.15827773471624,-2.6777247180736645,-6.831143615137931,-9.640590225446138
575,-9.936835002480237,-1.999721501687466,-6.304249842415131,-9.745982782409053
576,-9.775825583887476,-1.4050220374133142,-5.857903560513749,-9.913876640949097
577,-9.588287499132164,-0.8355964871279319,-5.404151392899967,-10.076788030097932
578,-9.294818996258757,-0.2712197224319711,-4.910929603347737,-10.185133400291276
579,-8.972939063216682,0.27386423438729196,-4.369171855367531,-10.29522348486146
580,-8.795528798192915,0.9607602262670965,-3.725407481712129,-10.421533056678369
581,-8.578070174859498,1.6373524344705404,-3.1045955616662546,-10.49073468858208
582,-8.202200083050677,2.3084735158824485,-2.4989921148064522,-10.357773885896968
583,-7.748616880904276,2.9639765965119445,-1.920198088082509,-10.129506833900788
584,-7.342116914189314,3.5832941152207622,-1.3774832271547697,-9.966810077018495
585,-7.022457089063981,4.148788184128559,-0.8441863189599901,-9.890607146617722
586,-6.786227089188536,4.646052205432166,-0.2961544200174543,-9.865258245883899
587,-6.545340212930523,5.073539879954603,0.23974883817223516,-9.797700475463275
588,-6.191953529026113,5.450869499223731,0.7245971367244677,-9.585163655238274
589,-5.755997782661897,5.80851379723918,1.1426996200679698,-9.270918356002172
590,-5.3044395666551,6.163244285108476,1.4926101075577483,-8.940288304481228
591,-4.791736052736166,6.509585931483154,1.797424362193028,-8.55479975163765
592,-4.164492427694671,6.831741362501035,2.082540106408227,-8.060822890392739
593,-3.4626895412528165,7.125970014325583,2.3421228802027665,-7.4928626627055355
594,-2.7457434016050724,7.410805921454548,2.5561887298968613,-6.901399190736924
595,-2.0547541307636705,7.7083623388653635,2.6918861543467747,-6.333637454724508
596,-1.4215921171617545,8.02548469513505,2.73759588620042,-5.8231059063468535
597,-0.8150388789372831,8.348139733762228,2.761872435903615,-5.298152940008162
598,-0.1996190169686371,8.64453561712592,2.8594423722365465,-4.682169101759552
599,0.33659812000333184,8.88521716466034,3.0918762625670038,-4.073125117774393
600,0.7017668183272547,9.061036922185945,3.481866790164228,-3.5972521344804895
601,0.953985107349259,9.19057964488666,3.9864952719183164,-3.2258383751980437
602,1.1960477193164347,9.303328285740072,4.526997557571829,-2.887633021039943
603,1.4954854447630657,9.426915849725757,5.040433916170869,-2.557538212515958
604,1.8923829664799354,9.569246315853029,5.482944860626795,-2.219890692003576
605,2.329158235688139,9.72455040881934,5.839242579269254,-1.899241808768573
606,2.7251730796244327,9.884507250796384,6.119242034398514,-1.6291909884208513
607,3.1361663489158946,10.036731506542486,6.337455884257515,-1.3461963823249308
608,3.639658920289349,10.164583632166279,6.5103140120834615,-0.9783941428054729
609,4.178108524121616,10.259517461288361,6.65870999939994,-0.5920199120042497
610,4.672048290476441,10.320476924138374,6.794388909884217,-0.27117997584414444
611,5.122665007123884,10.35860575635484,6.900657088635476,0.028904467939401185
612,5.549366433778747,10.38769957573858,6.955993755769544,0.37473672244953593
613,5.980651731682933,10.421841272569162,6.967050701822255,0.7679934679222105
614,6.435245204979826,10.463778523922896,6.948327335307379,1.1871662391986728
615,6.829572453221061,10.504282575478076,6.905766259030907,1.5620836069714985
616,7.0718608735543045,10.534394838469094,6.8431998666652,1.8295016530156802
617,7.214124983547134,10.547814357577328,6.747784811704067,2.070349669310813
618,7.345119066962058,10.539098850017071,6.612358607120962,2.3908574107625986
619,7.468481056531936,10.510215873707516,6.478837894978465,2.752574600180659
620,7.565624813781267,10.47075309656916,6.394267606594237,3.0784556766946074
621,7.630249285454817,10.424816469036145,6.364325237709635,3.3556896028797643
622,7.6508035220735655,10.361812536374485,6.367960227580563,3.5853511691869566
623,7.641389925365141,10.264988962837682,6.35501281145609,3.776335533692799
624,7.621957902433405,10.134935352433365,6.275540267342862,3.9472058719411627
625,7.550738214325085,9.991614891444918,6.128842010321795,4.0729002912478105
626,7.390892482033186,9.849609020802308,5.947592199286756,4.126970857783237
627,7.21292900589437,9.711618497158328,5.777563881059964,4.168838233967044
628,7.100419333452306,9.570545151049004,5.66638295125711,4.259434779574439
629,7.049894848691244,9.41703534966234,5.644198323235659,4.356452769507306
630,7.024305507398395,9.241730359918426,5.711960308093169,4.393406899914575
631,6.964552142428644,9.042200364865305,5.829188697239814,4.3359757471331495
632,6.820740909226811,8.821421921504758,5.936622425879369,4.177161331508181
633,6.661147726808933,8.58418068242988,5.994255947401236,4.002662021617339
634,6.575854418682196,8.336742933881139,5.978255124100124,3.907330802222718
635,6.508481913925503,8.084065480138158,5.866899105151926,3.826240450896612
636,6.3776345442666065,7.830451844705037,5.672824312707915,3.6655130899859856
637,6.2310475580669396,7.581821078087876,5.42682267354029,3.48458416617211
638,6.131953641425955,7.343055517545717,5.202813216051116,3.368878012830471
639,6.059847460128072,7.115108918318562,5.031861329833347,3.3080022036834915
640,-6.8025635696925395,-14.597928589319894,-15.616691422323154,-6.9902533585501
641,-7.155453904690356,-15.0248693156263,-16.027140702161027,-7.2295716283870455
642,-7.630074637285225,-15.477879701728472,-16.432403830931257,-7.546732925177052
643,-8.137877947769338,-15.947431994672154,-16.837123870008377,-7.8550920917516285
644,-8.575789398917498,-16.417853160888072,-17.22710140839616,-8.070756332201075
645,-8.96371749900042,-16.86742409409435,-17.570828184605755,-8.255941042298417
646,-9.349827791885556,-17.285455091021557,-17.8389897765401,-8.496819027758225
647,-9.76667010802231,-17.671164346971683,-18.011058701950976,-8.807620330669575
648,-10.236219032623717,-18.043887214967935,-18.10160837226365,-9.17670957465702
649,-10.708531632159362,-18.420111032803604,-18.192814990632332,-9.55127760375801
650,-11.128943132550868,-18.79248784974699,-18.37555018135682,-9.878845757983152
651,-11.552208280638995,-19.149685836688917,-18.70259668075125,-10.212957928764625
652,-12.037464010156889,-19.477789357174625,-19.17421269485408,-10.615550997596975
653,-12.536594686718267,-19.78397051651088,-19.698776156910668,-11.020504386002154
654,-12.987651021256083,-20.078510516463854,-20.16373610099663,-11.358035198519282
655,-13.377754114513499,-20.35184239260702,-20.52841087170122,-11.681261129824815
656,-13.712480821190617,-20.591260169655353,-20.794407560857216,-12.049880049845068
657,-14.035918845756292,-20.794078229873662,-20.971988850879313,-12.450029119804237
658,-14.390895268305245,-20.960173089008038,-21.100440745223427,-12.845847388101078
659,-14.730501943806397,-21.090001029139458,-21.25965700719979,-13.166316149357904
660,-15.00168771081187,-21.186093267496357,-21.51017593573568,-13.359308093817862
661,-15.253999757066108,-21.251446892265392,-21.83964363613514,-13.511153202415809
662,-15.542079813448767,-21.288043632210115,-22.195720066271395,-13.719481632882793
663,-15.834267417857891,-21.295807737150604,-22.51154632299075,-13.933226803699316
664,-16.086199571293875,-21.27420550839606,-22.724625159290415,-14.078780184675589
665,-16.28470303845457,-21.22438251103004,-22.811928397472624,-14.171248422885501
666,-16.426537542185702,-21.14874264388713,-22.78363417844213,-14.237640860270721
667,-16.54054922137888,-21.050647451641563,-22.663831619678465,-14.29040653259402
668,-16.657531887818678,-20.93529364576786,-22.491036623632628,-14.33902699620164
669,-16.735642372443692,-20.808712828966417,-22.321642209604413,-14.341124044028838
670,-16.73876311119382,-20.677688603558156,-22.195310252112378,-14.263920072246806
671,-16.73945650213625,-20.551665803007097,-22.09612729703028,-14.190750539577918
672,-16.811885174823992,-20.435780677631033,-21.989367315080777,-14.205702189005487
673,-16.93583228095052,-20.323999975079232,-21.85760641027357,-14.268394124161572
674,-17.06378153305591,-20.204341654738034,-21.686874653111207,-14.3138306207355
675,-17.14121715804956,-20.06206412044452,-21.476384895555476,-14.319217235179933
676,-17.12854877726108,-19.884194577116357,-21.22669081889193,-14.279656204851879
677,-17.087719659689952,-19.6675795581964,-20.894536934638975,-14.244273766821687
678,-17.086848191309283,-19.413459962668785,-20.455182934751353,-14.25833094488632
679,-17.055928813967,-19.12051295960032,-19.97687102843393,-14.25346204868187
680,-16.918175478666697,-18.788538322853935,-19.54234262880441,-14.15003483487074
681,-16.72728273688366,-18.419782671618428,-19.187333077355213,-13.978917975718346
682,-16.55001744525216,-18.018169307031023,-18.909458236864364,-13.787468361867127
683,-16.38863210161996,-17.590329521839216,-18.64488717701409,-13.559046842672183
684,-16.224196840448045,-17.14300321019585,-18.314120738799527,-13.277419441797031
685,-15.993042246096667,-16.68083625286808,-17.895012476799284,-12.95310508566976
686,-15.644544208132322,-16.20462126983415,-17.391607178451554,-12.604223624666513
687,-15.262185894918868,-15.70982034065502,-16.79834193277429,-12.286152629618512
688,-14.942643099622924,-15.190092880290601,-16.127079099701113,-12.038768643157054
689,-14.643567140768244,-14.638051320606076,-15.42067187476525,-11.790575869504675
690,-14.306151044440355,-14.051232081349749,-14.721108743613694,-11.463904377515389
691,-13.96285653404938,-13.441886969149252,-14.050590569542411,-11.098086254035236
692,-13.652172131805292,-12.823340461807822,-13.41086843830125,-10.749869989252623
693,-13.384277168795848,-12.195274517565712,-12.7731239820884,-10.417031785164417
694,-13.149711109346846,-11.550821339763445,-12.10010585443046,-10.083127433349992
695,-12.869747316910487,-10.880427002075914,-11.375215168718585,-9.706094723355594
696,-12.46995339453615,-10.174029451152142,-10.593992961707338,-9.254310262527913
697,-11.996377365490865,-9.428598336806107,-9.757611084825987,-8.801201603362236
698,-11.516385144326915,-8.645496237906121,-8.872432755352685,-8.421913548193107
699,-11.006949782485037,-7.8242564799341086,-7.944644331229179,-8.057155973671222
700,-10.427632736035637,-6.998467762418908,-7.009627379511039,-7.6157011707374584
701,-9.879660525563002,-6.2473513241043666,-6.121409996325593,-7.189761275610134
702,-9.43971645582016,-5.618150626492563,-5.343778713256257,-6.850139835289184
703,-9.138712867277361,-5.099775168492033,-4.657545632700215,-6.580417223010475
704,-8.956569147174628,-4.670376159292517,-4.021196042003947,-6.323953659006845
705,-8.75925696339215,-4.279310675879097,-3.477340696058135,-5.973489933053518
706,-8.421502208815369,-3.9031152717164854,-3.060657570889942,-5.448722988456698
707,-8.00859181389265,-3.5452521724013573,-2.718915610694227,-4.8430142557224345
708,-7.616100879802479,-3.155586859291826,-2.251179215723781,-4.40416056426529
709,-7.217577644158995,-2.8050251820000986,-1.7944492558796885,-4.012552870415589
710,-6.756228940737016,-2.475025284465589,-1.3387654251602732,-3.6321617433941453
711,-6.253067903912137,-2.153175340196718,-0.8991495377963099,-3.2724067828781647
712,-5.7446945717899025,-1.8276123385319418,-0.49595380341573153,-2.942072426876547
713,-5.261571399877968,-1.4967148174356737,-0.15020010763711666,-2.6429991681551543
714,-4.822394775059069,-1.1658144361211549,0.12484123050309404,-2.3763530567809874
715,-4.350576809680025,-0.837448153536235,0.35216379045811413,-2.091939566872957
716,-3.7702365682411307,-0.5148172970128224,0.5627171803196833,-1.7465053753621624
717,-3.187784782763252,-0.20633304294688515,0.7532486731393372,-1.4259928012091807
718,-2.7345259386363407,0.08128779288318123,0.911463572768472,-1.2253231070520785
719,-2.361408953003421,0.3491771773606749,1.0358081892980546,-1.079281181096197
720,-1.9751724664842203,0.6026684467834159,1.1292261188843606,-0.8877884616992094
721,-1.554312200218463,0.8479537922486827,1.2192949134983933,-0.642732826413571
722,-1.1017272180501496,1.0913800869466115,1.3345613116437378,-0.366963593783412
723,-0.6754730801505573,1.3369873293982508,1.4441076462973736,-0.10634506608773389
724,-0.3422998529305857,1.5848865186942933,1.5152957796076385,0.09036512920033385
725,-0.038041598930986735,1.8324058172200033,1.6005915981400387,0.2683661736020968
726,0.3223066670799393,2.0730628770466812,1.7655387548024697,0.4889513526374895
727,0.6676679178255991,2.2921782155701163,2.0085874942217714,0.6930060981068875
728,0.907542362301919,2.475896972563118,2.30005505287115,0.8045141453359222
729,1.0878359267049649,2.6252242467618956,2.612769216738944,0.8538690813089622
730,1.2792816593862741,2.7458802611097775,2.9143889506798404,0.8917448130830524
731,1.5014996986150362,2.836464667806732,3.1661670172946756,0.9266933716542634
732,1.7499131002762405,2.8958722810034843,3.350182800082143,0.9554191416214339
733,1.9425930173777202,2.9246564439787437,3.506876409143817,0.9299889184568253
734,1.9979227329722826,2.928806039956178,3.688694862335428,0.809901976866213
735,2.002738565246426,2.9322531547129236,3.8971030226157084,0.6942907534667173
736,2.0793439750824296,2.961536540976026,4.111346096391523,0.6997068497585364
737,2.197147838862332,3.0248055009062695,4.316679862187655,0.7763761618762962
738,2.2989519572192196,3.1202400014215383,4.492182002712698,0.8413563175405283
739,2.413752316647858,3.242353804386286,4.618281830302173,0.917143048991816
740,2.584197795264327,3.3808599620436466,4.680205215394808,1.0472946023625898
741,2.8720379757573253,3.529733203234471,4.651084097007915,1.2722182801940725
742,3.3105088047174642,3.681674851337154,4.519195526418063,1.608771343179947
743,3.752391092324845,3.8135994627384417,4.324646537062391,1.9373673620901941
744,4.026942679403086,3.9082483253077154,4.1250223144636875,2.118527153385217
745,4.178252366951252,3.953398765539465,3.96245506872398,2.190832472077964
746,4.310646464735934,3.9587676116597352,3.8571352713429787,2.2411244829227486
747,4.422586202259344,3.9499147008929,3.7924958541639358,2.23949302574711
748,4.493241442061581,3.936847567986138,3.730042054550586,2.1506998852231227
749,4.506261293607714,3.9207229267995474,3.625305735986476,2.023496521924978
750,4.444637041810919,3.8947734709645943,3.454221948469068,1.9191915366758328
751,4.378645973387445,3.866445254058423,3.250654420658266,1.898953401763931
752,4.38077291635423,3.842040801527476,3.0747398683943685,1.9958883421772635
753,4.3574430719561486,3.8046442617356138,2.9786202255961896,2.1139533761695946
754,4.195148798496964,3.7340208665604204,2.99047403172418,2.1334837713341894
755,3.954899817277861,3.6264462530655037,3.081339304282795,2.077651319770145
756,3.736288371158506,3.4825301077850885,3.1928468662969607,2.0104803748416593
757,3.5497508536203535,3.3241718858424116,3.279266537300731,1.9219861601137658
758,3.382502316814705,3.1622876427909787,3.3106413346177344,1.7948765679808276
759,3.1993710226216754,3.0035379025980626,3.2832082224066017,1.632986087020873
760,2.965629306568109,2.850807609375836,3.2150081520693683,1.4423562283706766
761,2.7581234403267296,2.718022796258023,3.129034059667423,1.2747515425085223
762,2.6626583454871047,2.6168332414283864,3.0440377070123983,1.1746429302365093
763,2.6050200298121875,2.5440986647923234,2.9667939589750367,1.061769378395702
764,2.4810739743922627,2.4889093364253974,2.8846074515102202,0.8443802566744907
765,2.3023650996874947,2.431477556450047,2.763647243795263,0.5743034069143874
766,2.1139147472494875,2.360397332668676,2.56680648107701,0.33937141551875594
767,1.951904915586626,2.273113623136984,2.260785794980796,0.16439534844064033
768,-5.9837843944671825,-10.523655119864646,-13.499072325666692,-5.736835528566348
769,-6.309943035904178,-10.743420635633075,-13.876811836835076,-5.999511287407539
770,-6.720594745098754,-10.974623946436031,-14.143837802375522,-6.342457599532315
771,-7.105801723260477,-11.191872540207548,-14.416792248370106,-6.672102717870286
772,-7.356410171854962,-11.3713581313241,-14.797896643645515,-6.89066788594586
773,-7.537750945282663,-11.516983965937065,-15.270504288676955,-7.050859769862769
774,-7.7460164748012,-11.658757159569967,-15.755399545887679,-7.2286134478158734
775,-8.000070173970022,-11.820972309706523,-16.151686629658176,-7.415464480460114
776,-8.291229052769456,-12.005396388474983,-16.3879038820186,-7.589594238629905
777,-8.556697912183058,-12.200014194156331,-16.514514977000122,-7.721275963604875
778,-8.738593678210998,-12.395599804886578,-16.62875229033135,-7.795131175429229
779,-8.912571199130204,-12.590748771762206,-16.78221498440296,-7.909272897957483
780,-9.16702493423907,-12.790339105358317,-16.997439726882778,-8.151958015322514
781,-9.457042796044144,-12.997943370570049,-17.27825608048792,-8.430369298524278
782,-9.71860109836114,-13.215384219143266,-17.591890334647207,-8.628626319045745
783,-9.959135979193897,-13.439544972084292,-17.848891775231507,-8.762438457873742
784,-10.195719619964263,-13.663325987850937,-17.982472188013407,-8.874641157107106
785,-10.44764257414065,-13.877755669306044,-18.037273250979247,-8.983871001017175
786,-10.725116752050926,-14.074018243180499,-18.09403087711422,-9.102220334223396
787,-10.960206996146209,-14.247142187297786,-18.20328412619607,-9.178586041066529
788,-11.089366586158716,-14.396630028426106,-18.38742570088803,-9.166569521781105
789,-11.175599171470527,-14.513527105345963,-18.61630589553724,-9.150270751731489
790,-11.296613785328836,-14.598363127595466,-18.830460551597582,-9.218711777878676
791,-11.42405676932287,-14.662800137947652,-18.985641892129014,-9.319858122000923
792,-11.522069217700636,-14.715398151419432,-19.056166428784366,-9.385660129162082
793,-11.614777212629537,-14.757900114919314,-19.029239590401076,-9.434005042735956
794,-11.734959787761264,-14.794647191219363,-18.9253889752989,-9.498564037199765
795,-11.934692935725813,-14.83465546226336,-18.823034378104126,-9.618200568269257
796,-12.240132729807707,-14.878920283849867,-18.794287592236998,-9.819539468872081
797,-12.544147598645637,-14.926049737277399,-18.84261531395562,-10.027116985775258
798,-12.736720182574613,-14.97247843220364,-18.931319012432834,-10.169494584003592
799,-12.865600234469671,-15.018966056823436,-18.995101416933277,-10.334635869680199
800,-13.010918181152961,-15.064702040223361,-18.971703875437903,-10.616422161616683
801,-13.178842261650841,-15.09963947191213,-18.858659348954887,-10.963434465528618
802,-13.360251969225136,-15.11355023122495,-18.682497052295332,-11.290114547130704
803,-13.53132923424327,-15.103443206444112,-18.45671803819268,-11.538556680345328
804,-13.665890526125404,-15.070083115077693,-18.199339987929765,-11.671777955291462
805,-13.814740501320108,-15.018383257891827,-17.94619227453786,-11.736952578037338
806,-14.024063682191677,-14.95231642117825,-17.722674993936685,-11.800937991955493
807,-14.201787959001436,-14.86731365377961,-17.517785561272603,-11.823772798905303
808,-14.259201549282253,-14.75603061472511,-17.31484907102617,-11.766390418959979
809,-14.272085651852935,-14.612831661084455,-17.11988713050582,-11.726852697217597
810,-14.328887811428089,-14.435957131817052,-16.944257695868792,-11.791902089414993
811,-14.4109880555667,-14.233212732655932,-16.794566128468308,-11.907632725049929
812,-14.469462872818577,-14.01633271860576,-16.666630840969855,-11.987787433856338
813,-14.421779679133621,-13.790690803554726,-16.544208827351248,-11.954311991746971
814,-14.212063870076294,-13.55971107279883,-16.39495985259375,-11.767789728139228
815,-13.958988894036812,-13.334260295777392,-16.144490256943044,-11.552743558171427
816,-13.79539732575732,-13.11589174916604,-15.741215448743493,-11.440032491706946
817,-13.662473729174845,-12.891029247229703,-15.241040451954168,-11.341414268891041
818,-13.472310654842943,-12.636861170276179,-14.7229946117669,-11.142347596447147
819,-13.249453837631611,-12.343945693253989,-14.211139841955157,-10.889410801765958
820,-13.034659745650547,-12.019563691093643,-13.705907474027882,-10.657324691438482
821,-12.858597738324118,-11.67217271817647,-13.177892941870331,-10.483424592311396
822,-12.740016731540258,-11.305436871502083,-12.597853366523037,-10.3857249127284
823,-12.6059681482388,-10.916153322771985,-12.003571949252482,-10.300349698028327
824,-12.386646805893086,-10.504852232049098,-11.440400723009668,-10.156118943731736
825,-12.158394192961493,-10.073480458972078,-10.897064634210158,-10.000294537350719
826,-12.007070619923583,-9.634305663103897,-10.342743714371004,-9.894161609196916
827,-11.895900798437577,-9.204161464350491,-9.74676601873945,-9.804158609119062
828,-11.761013054305826,-8.807527103295815,-9.128701213868585,-9.68503126695295
829,-11.594081145965367,-8.482268745945428,-8.575552940467096,-9.585740428756587
830,-11.397945075168327,-8.254185982727964,-8.124562661984008,-9.546264332320884
831,-11.22614926611627,-8.121243881784476,-7.799850877498877,-9.556298205839548
832,-11.129601482992916,-8.065177024499006,-7.5437116802813655,-9.581340285458754
833,-11.065745429014019,-8.047646688745045,-7.315677858199968,-9.571716372612103
834,-10.975988888741215,-8.026384279045043,-7.040323546159786,-9.49463438051584
835,-10.89712196627764,-7.967827640159565,-6.659763427648103,-9.405856696239917
836,-10.716379604658938,-7.806387118274959,-6.089704824067642,-9.397061388467526
837,-10.522042148329879,-7.6302359798638415,-5.515714843706737,-9.40307201463121
838,-10.228166527153041,-7.428101332352408,-4.973052063916193,-9.358846247681182
839,-9.848645408438859,-7.185153469208079,-4.463598690421886,-9.281234819790038
840,-9.432952701677285,-6.906839723930183,-3.9748290323553936,-9.203433034074422
841,-9.046214642286886,-6.614332560560574,-3.503963113161959,-9.12934867805495
842,-8.739916442654184,-6.330636618289107,-3.0493337365226414,-9.05534014871932
843,-8.437035420118294,-6.05902684792464,-2.6031326300136945,-8.936212600685426
844,-8.037469111527612,-5.789124789815874,-2.1620041339273834,-8.730865297774551
845,-7.607205287113657,-5.516429511606615,-1.7422494121083034,-8.520973475043858
846,-7.240286890301694,-5.2491204544236,-1.3601388010066373,-8.398175279878288
847,-6.878817148382966,-4.98953187857154,-0.999820102487189,-8.289596453038737
848,-6.447966776221483,-4.741589262183742,-0.6420929854728171,-8.095511931720623
849,-5.9769129864765045,-4.508412479852905,-0.29839910798389224,-7.842948765851906
850,-5.519399225528637,-4.289396792370534,0.014383895429757931,-7.590502318329101
851,-5.139570000051993,-4.0770882577742045,0.28399825359161923,-7.3812194824320745
852,-4.880626102367466,-3.86376495007292,0.5106109315369756,-7.242366517540404
853,-4.638615642653499,-3.6507720955686964,0.7445685389634786,-7.089906372084856
854,-4.28836859890966,-3.442638177620493,1.0358723194872694,-6.83011436491438
855,-3.8886213625095145,-3.241223158565671,1.3627431795815392,-6.5568684315423225
856,-3.5388202224746506,-3.046882907078457,1.6766380980542248,-6.392028413977216
857,-3.219977051610642,-2.855913124072154,1.9386675525587767,-6.281033923868303
858,-2.8859699105408008,-2.66420143325471,2.1279162609404056,-6.1312469793122135
859,-2.502780513322858,-2.472561128509664,2.2769721316135128,-5.918417813538561
860,-2.047835407227258,-2.2834126535267973,2.437379537340401,-5.64704458764853
861,-1.5914594648955316,-2.1022584192551843,2.6323996512468244,-5.403523481632759
862,-1.2185902148764125,-1.9274976293326085,2.855396285462354,-5.277720116034217
863,-0.8814963166547474,-1.7517470253749485,3.0609072733189504,-5.18183112754887
864,-0.507088563522744,-1.5582189980556058,3.1899355906238718,-4.994640033071926
865,-0.1330610809497663,-1.3369304092198457,3.196027834663531,-4.763416526680375
866,0.1818079911138026,-1.1003515866854496,3.074843067369818,-4.573114061778415
867,0.4339691398176694,-0.8753197930819495,2.9079468158748423,-4.4253532337555015
868,0.6312934921991726,-0.6769655111998047,2.8055437900429983,-4.303754483875924
869,0.7912083774872569,-0.5108829439331969,2.8446118186197675,-4.179342627138769
870,0.9348946237796147,-0.3858933133185207,3.0493706030660452,-4.0218867732963695
871,1.0259113902005006,-0.2968820395738935,3.351785676147552,-3.887516035036388
872,1.0285039633412496,-0.2220285765709782,3.644753358813769,-3.841660996763401
873,1.0178099263952818,-0.14451422567613073,3.843117853193367,-3.8166864715896134
874,1.0793670069910697,-0.060226728497233234,3.9069046480515013,-3.727568378416845
875,1.1815849708463504,0.030330183867574217,3.9041261762938553,-3.622061903157022
876,1.2646635308806164,0.13567619254328994,3.930497401596697,-3.569162994847894
877,1.311661687955125,0.2651010024322814,3.986394391200088,-3.5590693729048
878,1.3265773363094597,0.4262709173476873,4.029675662539205,-3.5569032816503054
879,1.3718119651495644,0.6055520433803626,4.021037976753305,-3.502009357345647
880,1.5130118813206728,0.7891272593009673,3.929128285060307,-3.341402043771175
881,1.6978916378930269,0.965867801303903,3.77216486497457,-3.1346837153745497
882,1.8459034571439497,1.140565507818057,3.6052558324852146,-2.9675862044936454
883,1.9751234094529542,1.329546530353473,3.477136096092591,-2.8114453154680326
884,2.1230546490620874,1.5328097043636295,3.429701303367423,-2.6156746812565452
885,2.2704002534511054,1.7204579022145634,3.5263401936744176,-2.414118779749116
886,2.395926225203061,1.8622889287941686,3.784740830885549,-2.247051749150035
887,2.494541913422574,1.9556503255181343,4.074728359345722,-2.109762688511808
888,2.5687291224499633,2.022829345146899,4.244386563646388,-1.9834597388941395
889,2.6825637772432214,2.0902826603033065,4.259863657174466,-1.8095344879117399
890,2.8895090755650656,2.165750208235172,4.161630490621813,-1.540747940245388
891,3.086515837186401,2.2244749545703253,4.0588179271175235,-1.2631477271210172
892,3.1528743296082413,2.2390935796012483,4.0645477792042435,-1.0829727425127058
893,3.137562613010361,2.207951049763455,4.181484424918655,-0.9606234523904447
894,3.1330786502758614,2.1580044540166172,4.34306683045524,-0.8232048424272214
895,3.164316419039721,2.1150014394019587,4.446477612235492,-0.6765918417206344
896,-16.30989874361297,-11.428639416771597,-10.25472940098773,-15.6959836005216
897,-18.085642284472275,-12.087615796967423,-10.452991745325646,-17.229789696510572
898,-18.95876638913448,-13.19923834747867,-11.049313011417157,-17.913950018322833
899,-18.704484805608438,-14.6584622158935,-12.019783161771015,-17.546325158328496
900,-17.700396365214303,-16.189915807437167,-13.53842120674822,-16.458497480560244
901,-16.388454310614154,-17.668659632987836,-15.921890688454742,-15.054989726925998
902,-15.021977528641903,-19.27441933011603,-19.10457385321047,-13.577128685308754
903,-13.739992577774016,-21.235887839759105,-22.455892997047876,-12.152469672419112
904,-12.725594089495177,-23.392492212351936,-25.216374931376816,-10.93344494104472
905,-12.08715605094619,-25.275112680184513,-27.307258681591613,-10.040507605406372
906,-11.738942169592956,-26.821864579571223,-29.319440710008458,-9.508246600995982
907,-11.328039343017231,-28.466504284494246,-31.46729309077373,-9.040123298417413
908,-10.37685062888942,-30.37877064593739,-33.37298685516161,-8.06118326589524
909,-8.859416908365901,-32.30328146632575,-34.87196787108229,-6.479577222785099
910,-7.212347791467153,-34.01717409215103,-36.302586124881266,-4.764706392134797
911,-5.582733119998155,-35.71170105937765,-38.00337518670392,-3.1018424786803536
912,-3.68101970812506,-37.836953372353435,-39.88596854586109,-1.2102752631404459
913,-1.3890990830837284,-40.32020140751587,-41.58486443058656,1.0312872194259723
914,1.0703863837129002,-42.518510857675714,-42.918808204368084,3.4189639433505143
915,3.361913622758781,-43.95524046049086,-43.98238270972717,5.602627230276049
916,5.177257022105879,-44.55595993891685,-44.83872536338505,7.266069786536811
917,6.33666703836059,-44.449869458909156,-45.51675459379037,8.237390137620128
918,7.007310782871442,-43.80655675564972,-46.18971838295518,8.715255124702672
919,7.6045380899333175,-42.88494519284234,-47.01185588814364,9.1377473652167
920,8.255731051414687,-42.0363376981624,-47.893744807984774,9.627789994001215
921,8.714415209509491,-41.41490454097025,-48.48779537386861,9.916022558976582
922,8.791118565818406,-40.881729687118785,-48.464677460975864,9.775178542842715
923,8.542551287506022,-40.202927790028646,-47.721458326709225,9.308691883576184
924,8.202422171910548,-39.24368844891425,-46.42477753311111,8.695012746396221
925,7.996193672398696,-38.00064314796368,-44.81281482429657,8.178074769106125
926,7.929083201884762,-36.398845544698354,-43.01262991960864,7.790069679257216
927,7.834268258849769,-34.21235477694663,-41.05976466046168,7.375290673084682
928,7.576559683215079,-31.302101873867436,-38.999103538279854,6.8193088321504085
929,7.085994250667357,-27.742954144027625,-36.82713903129257,6.084446950495986
930,6.359510611564217,-23.689539643843304,-34.424189275978534,5.179804047052528
931,5.424405509649075,-19.250866210304785,-31.605809751662775,4.059595699362817
932,4.297534428559483,-14.488355099535461,-28.202362254342084,2.6930797042093513
933,2.989478364544332,-9.392793300658088,-24.12050803717367,1.103683482728052
934,1.4629724760917358,-3.9039666435675686,-19.367988532911532,-0.6659937513754832
935,-0.25831718336390574,1.9599907613190097,-13.943344474504384,-2.552411146948134
936,-2.073040886755957,8.118222086689107,-7.813093602311087,-4.499926550003812
937,-3.9258827156403067,14.545540623477404,-1.0252974492568816,-6.5272147278188655
938,-5.846041037778867,21.27160906830501,6.297645501294794,-8.665698354153172
939,-7.874121906804108,28.268004915418235,14.07979543386418,-10.871107575026478
940,-9.98540258925587,35.42534114570658,22.342847761759867,-13.132762129651354
941,-12.184758093875628,42.635402469457105,31.157049585715313,-15.409453601799244
942,-14.468424607410805,49.81868522145937,40.60217833550834,-17.757653381517382
943,-16.881767898136605,56.90151093662153,50.7383363604904,-20.29521434217324
944,-19.45551068971406,63.834195551600246,61.51856697012041,-23.000135855640195
945,-22.101597590656795,70.57915172337428,72.83991606927667,-25.763388675321547
946,-24.722522734834158,77.10499208306044,84.57712242873453,-28.452958903702104
947,-27.328436558406814,83.3683034389757,96.51506312408445,-31.071685397533493
948,-29.932918673723528,89.34541288549403,108.42581865686739,-33.66871452668305
949,-32.593054649217734,95.05279338753448,120.2209934728479,-36.26201769973561
950,-35.27871522962718,100.53134637402322,131.94370094607777,-38.87018634509103
951,-37.93915097983385,105.80621497373527,143.66076615103873,-41.48502979672736
952,-40.523792663191,110.87825816135262,155.40202984512473,-44.09447366568706
953,-43.09392338023783,115.74885572630323,167.16348415687713,-46.769859396014866
954,-45.712791094921116,120.42953005246379,178.88007286043916,-49.55837366743149
955,-48.321091058076085,124.93191949044692,190.44028028220455,-52.341725414943674
956,-50.8234201482451,129.22732770518897,201.71855697306648,-54.97226559427525
957,-53.23642612254562,133.25271245733006,212.55020206904405,-57.50213538969072
958,-55.56822382550591,136.99672402029657,222.91418708525353,-59.99725481012218
959,-57.81962229236945,140.49948086445374,232.91943948542647,-62.48957448358852
960,-59.97368212235515,143.81569816566895,242.64261562026417,-64.98204462762601
961,-61.93794035432468,146.98549967288665,251.99384796203609,-67.38039447341754
962,-63.63454542591579,150.01059446181253,260.7570672834517,-69.58148227736598
963,-65.14962482138625,152.85156645178955,268.75122322347613,-71.63625028960357
964,-65.57714199815032,154.10756512394016,271.61036130299766,-72.48256294322844
965,-65.97806844767709,155.19779771100983,274.27242183139737,-73.29852183734214
966,-66.30060523073725,156.11758249788974,276.8173141704415,-74.00142020859441
967,-66.50554916958116,156.88599389752025,279.2173329527333,-74.59732382911801
968,-66.6570679481718,157.52659696814882,281.39028750405714,-75.1210382764513
969,-66.78458265343697,158.04887383218778,283.2594174649228,-75.62594250401511
970,-66.91801275278898,158.4467828116231,284.76766142178053,-76.1630607508588
971,-67.0196213749285,158.70953849546987,285.921879267844,-76.6836554051518
972,-67.03802678163967,158.83014189266987,286.77137030800435,-77.1209138533513
973,-67.02379058912452,158.79934277657017,287.365165103822,-77.53708102244101
974,-67.04510496961551,158.60054767225162,287.7468464460625,-78.00710757637931
975,-67.0737379005212,158.22454894798136,287.9357730044172,-78.4775083380054
976,-67.08688822572094,157.67655452108585,287.92810639173007,-78.86813602888142
977,-67.04235164044391,156.9684201938701,287.7196645403462,-79.14912958544845
978,-66.98343625090136,156.1137043132956,287.29542597760553,-79.31319627519119
979,-66.93687032307872,155.12655573342445,286.610212046836,-79.41616606383776
980,-66.92366366660221,154.0224681237698,285.6250865017351,-79.52065368678592
981,-66.8626455355124,152.8135420008096,284.34397266486656,-79.5500296467935
982,-66.65849498066632,151.49112018685105,282.79405558456233,-79.40896816021912
983,-66.36286039757611,150.02822432494023,281.0187143831724,-79.1773273680007
984,-66.02650136556238,148.40980488724705,279.05385867628,-78.92515635554797
985,-65.66978129016923,146.64046323670576,276.8816567394632,-78.6938558213355
986,-65.22526519488889,144.7234740456865,274.4653397341142,-78.40586082731588
987,-64.6166792315126,142.65412485543243,271.788636279444,-77.97190976326138
988,-63.88797867848213,140.4307988725568,268.85056327067025,-77.43497829944569
989,-63.123226895892536,138.06176017574805,265.6841935824457,-76.8429755857001
990,-62.42046811498682,135.56165826369892,262.3238458852881,-76.25241810031021
991,-61.71629600197299,132.94522724797451,258.74857496675435,-75.57067000409226
992,-60.93884172841915,130.20725927720653,254.91548759582508,-74.68119560229573
993,-60.07956623960456,127.32271948010094,250.792285242341,-73.63152573656424
994,-59.22735821484303,124.2841940749748,246.37276566275517,-72.51995126533036
995,-58.46602408148425,121.11074013329308,241.6299954633379,-71.3890780878531
996,-57.763173341841586,117.81704581259487,236.58374615815245,-70.26232393789532
997,-57.06913033294953,114.40302026190564,231.30906878059636,-69.13069765245913
998,-56.30542238072841,110.86808821530076,225.8218919708504,-67.96288703341494
999,-55.46118010634337,107.21693649881054,220.025695039424,-66.75908527907244
1000,-54.55688249621415,103.43186798462727,213.8582722757214,-65.53229013979639
1001,-53.57613249363205,99.45471582580888,207.38754885696193,-64.26613210273099
1002,-52.505203892673194,95.23358971862343,200.79051106052322,-62.9472773805724
1003,-51.37407654247829,90.78548577658042,194.15490364612086,-61.617832703509364
1004,-50.206417050573144,86.18040981557643,187.38065945969907,-60.304846860222696
1005,-48.98236891986769,81.46719412615279,180.28945505132987,-58.94131465535144
1006,-47.662796010198086,76.64410969742916,172.78560941339282,-57.43304837156347
1007,-46.17445905758468,71.70178819854338,164.91903223493014,-55.688180642660264
1008,-44.45507118777094,66.66247285855998,156.78577111199147,-53.65231228967225
1009,-42.55961425137404,61.5475127756124,148.4310800673441,-51.43255485873633
1010,-40.52081874539664,56.34677077891431,139.81138719185077,-49.14698069178322
1011,-38.32530377241215,51.032344027112785,130.88343105137255,-46.683821899878815
1012,-35.83426771110703,45.466949087351935,121.68623009541304,-43.89600521693415
1013,-32.85649392348085,39.407265327030004,112.31288209670711,-40.591796028317745
1014,-29.323121738871304,32.879545971508044,102.70152299952815,-36.73128369233062
1015,-25.214039906467445,26.23701065263718,92.60864341344568,-32.33943479328115
1016,-20.484159428893122,19.72297905647903,82.05180325690414,-27.40502383368738
1017,-15.497000234969917,13.450782174811868,71.39907822218515,-22.261047891421534
1018,-11.041674678766105,7.564793646725414,60.889444470950664,-17.61746810014287
1019,-7.493041437307823,2.037451902505029,50.567124599974306,-13.818400386403821
1020,-4.623564948782819,-3.355642536955621,40.693183900791645,-10.675518113212503
1021,-2.0831757494664194,-8.719075586236956,31.721365917921577,-7.876006830024308
1022,0.3421284985605144,-13.846520910296872,23.75648798513361,-5.221932214285603
1023,2.7829210645784945,-18.445196008723798,16.292081845537034,-2.600626835118229
1024,4.46461146249329,-35.915984407812985,-72.0676184489966,8.17821788807014
1025,4.596330700783614,-37.607914540556656,-74.51230697392262,8.34306443728051
1026,4.541573065078143,-39.33617856434339,-76.94019682180765,8.360300749313106
1027,4.375608271763006,-41.08577158765109,-79.3775752246626,8.293821664084106
1028,4.207824204462549,-42.834500114971675,-81.82635836802628,8.228305620023473
1029,4.034263482216725,-44.577072999498185,-84.2563808459164,8.117062049817447
1030,3.8305268837404802,-46.31188220818078,-86.64472838150427,7.905459724148345
1031,3.5913634022933114,-48.027864614209456,-89.04929924050846,7.616214617860049
1032,3.312301925648952,-49.71816272350893,-91.51976364856095,7.283109596801597
1033,3.0348893131241845,-51.38739993618285,-93.99638849205104,6.9477389112154
1034,2.8008200590546073,-53.04290393651881,-96.39614439830929,6.641700567777296
1035,2.5575931879948017,-54.69382218614726,-98.66727974943144,6.294873139136323
1036,2.253322645510525,-56.342038336176415,-100.78802253373817,5.847213527277408
1037,1.9552285843338346,-57.967637056504934,-102.81781550849003,5.418923066156239
1038,1.733745016222103,-59.54597529529165,-104.82037053533429,5.132470312881547
1039,1.5572520550501816,-61.063136165388066,-106.75426962685744,4.9246262637429234
1040,1.3746937861247772,-62.51319381058348,-108.54969045694706,4.6972671593636095
1041,1.1521749004841089,-63.90524739692803,-110.17734536388751,4.420969169542694
1042,0.8762989874386563,-65.24840723354501,-111.62289488863243,4.093788843727796
1043,0.6193763600280084,-66.52743533005874,-112.890573271108,3.778633474317331
1044,0.45520120967404354,-67.72323037009207,-114.00004368183596,3.541863299721254
1045,0.32770337661630555,-68.83262710562049,-114.96777011906684,3.3276188742538606
1046,0.1639356253408361,-69.85764087567976,-115.81028591331497,3.0649977447627847
1047,-0.004464886734437207,-70.80311570819865,-116.53093947221677,2.7926898174788186
1048,-0.13943107489403678,-71.67176296615294,-117.14078309657717,2.559233566376096
1049,-0.2581416800012197,-72.45408783865558,-117.70540680410119,2.350911738064225
1050,-0.3897455092489971,-73.13666639220548,-118.27295827441218,2.139481221545232
1051,-0.5968441211777504,-73.70682259168993,-118.79556002770002,1.880270607899192
1052,-0.918473538566772,-74.16065998072364,-119.18994825677572,1.5369841079759046
1053,-1.2521370085131718,-74.51776762164913,-119.38994432429917,1.1561741387675535
1054,-1.4882437013642293,-74.80242011770831,-119.34682806730153,0.7916546815906498
1055,-1.6706035901673428,-75.02339454838729,-119.04106540682336,0.3975920463046674
1056,-1.8739862525440993,-75.18086152250618,-118.49737778246295,-0.07505792607275347
1057,-2.10750068052496,-75.26620700072758,-117.78942234380547,-0.5819426892860912
1058,-2.367934290713454,-75.26903110496647,-116.99783526862215,-1.0673746460154974
1059,-2.625103130361165,-75.19198054772237,-116.17493467369005,-1.5177342063878467
1060,-2.8516455460534686,-75.03877333097661,-115.33036620371051,-1.9330049584360511
1061,-3.1297481666221127,-74.80450641145642,-114.40589198600014,-2.3470409382339756
1062,-3.530574614406382,-74.47923757575234,-113.31903607842821,-2.792297448110085
1063,-3.9405590699454494,-74.04167205510086,-112.02178089777473,-3.2096374214255556
1064,-4.237199073557937,-73.47582963764826,-110.48967394609066,-3.545622095526822
1065,-4.472830596366091,-72.79501302591738,-108.71032348088103,-3.8851299218543436
1066,-4.726268399095623,-72.0206425082644,-106.70113329491069,-4.316060617709331
1067,-5.003711322386783,-71.1620798088073,-104.51116610414233,-4.8017174742065105
1068,-5.291598810638924,-70.22339367875666,-102.19495070365292,-5.2784445411006224
1069,-5.518941500359872,-69.20128578223053,-99.80416341861914,-5.699024741322023
1070,-5.632575700184123,-68.08964817323847,-97.35934463501812,-6.041270011133606
1071,-5.755595449204681,-66.89448858601179,-94.80559852149722,-6.3930071683836065
1072,-6.018795366921413,-65.62283840646037,-92.07434483954297,-6.844930452298633
1073,-6.361101852154517,-64.26610059815286,-89.14510120887267,-7.32880834503132
1074,-6.687801270016946,-62.81826621172196,-86.01886603301811,-7.757876281344408
1075,-6.994829448081001,-61.29160917341988,-82.73503022098254,-8.16930661258052
1076,-7.301105568852487,-59.70063070142362,-79.32870467546995,-8.619592991117493
1077,-7.65472701753113,-58.05754455778866,-75.71582403516612,-9.12424010529702
1078,-8.100453761440761,-56.36334355291943,-71.83397403109987,-9.686297106948926
1079,-8.577344328446243,-54.58487527331321,-67.82397479450921,-10.262864577893039
1080,-9.013862284192356,-52.6919906822471,-63.843094855918665,-10.81078271106736
1081,-9.457797054709852,-50.67195150702635,-59.896718468433086,-11.383023497554003
1082,-9.962235172426384,-48.54288040609027,-55.91989254962583,-12.033938965377402
1083,-10.481205583582652,-46.31036191367246,-51.811801164962084,-12.705228351658237
1084,-10.939347688999485,-43.95090494497487,-47.49500359145949,-13.316327772778672
1085,-11.315670858994505,-41.394430020834044,-43.05317367912159,-13.88912796052493
1086,-11.582152635408532,-38.611014709139134,-38.64593874944723,-14.434461765248258
1087,-11.77607640829888,-35.650591988046514,-34.44383239343809,-14.92374323741452
1088,-11.923450503064293,-32.587043013543784,-30.574226290879594,-15.309916725370696
1089,-11.868100992589577,-29.483445665236363,-27.08520784664215,-15.476117304658775
1090,-11.484403212893643,-26.426588151234355,-23.921172955614963,-15.35237424209112
1091,-10.960651080232406,-23.50521823634462,-20.882746224067255,-15.119088859762826
1092,-10.696057508841632,-20.23045431208383,-16.699623459044307,-15.045464790919535
1093,-10.54814940411338,-17.14573767274621,-12.533169790986246,-15.077404073372449
1094,-10.476638135986693,-14.25276795953872,-8.452162875670519,-15.138111226954921
1095,-10.470750382684187,-11.53241000641982,-4.516684479287621,-15.205894992367266
1096,-10.509971409250273,-8.987575469816898,-0.7683481987631855,-15.260670505927719
1097,-10.608994667860319,-6.638781322145724,2.8348072653550744,-15.3041383780162
1098,-10.778739555033887,-4.467784938120571,6.349211734074569,-15.345216350530082
1099,-10.896782422276004,-2.4377027549212245,9.72474450874873,-15.299708957037403
1100,-10.840785584166294,-0.4981964140661138,12.889642102407631,-15.087469604334169
1101,-10.682053923254836,1.3869616893959729,15.821898825607146,-14.793141874847695
1102,-10.541945550777713,3.2386855331188755,18.54132674590162,-14.53363665025015
1103,-10.439338097391959,5.058967703091779,21.161714504318034,-14.295291760761542
1104,-10.362078103209582,6.837272385829782,23.807364968613317,-14.035296934009441
1105,-10.283242768679841,8.563387040596204,26.470302496913337,-13.75959587859381
1106,-10.167616640772138,10.231387448525354,29.077603584777517,-13.480071935993402
1107,-10.0657322429371,11.842464187038457,31.58424234192563,-13.243398571400933
1108,-10.03170935074772,13.403958229263688,33.93066727315911,-13.082058910123866
1109,-9.973888762630825,14.92642890298155,36.02390607319998,-12.888211019824771
1110,-9.784839669786564,16.407989883485023,37.808203199611356,-12.538649843524624
1111,-9.491420087337287,17.8524211746905,39.26718131946535,-12.06301953969474
1112,-9.169043285354041,19.231022343868393,40.46395253130911,-11.549108678547563
1113,-8.883737796552076,20.490960535472645,41.68378436653276,-11.054730170763495
1114,-8.693120000480826,21.58611590771493,43.19811217826188,-10.630326494009832
1115,-8.588622254147117,22.535540536317058,44.927656541097114,-10.298291708845573
1116,-8.525727092975782,23.387190656724314,46.65460776107021,-10.045252595224232
1117,-8.510097687647109,24.174257089235525,48.245579802885175,-9.859165430484797
1118,-8.541614406531606,24.9238298809417,49.60244509871251,-9.711928488370479
1119,-8.527258221930207,25.652267819745123,50.72174722786106,-9.509919696243745
1120,-8.379392202422812,26.362492623769686,51.653948552297436,-9.173329337016403
1121,-8.12309073567126,27.057069764513624,52.349495261208915,-8.74535992387568
1122,-7.826191326711865,27.732517943243664,52.762302961207865,-8.309576201784292
1123,-7.55017083653867,28.37215908543847,52.973573338001515,-7.895585735628682
1124,-7.343060957053756,28.962867005248736,53.09908482454015,-7.515706486503699
1125,-7.17611647486395,29.468963028182245,53.252139196027414,-7.171583804787812
1126,-6.995240386783954,29.88387129403841,53.502064263383524,-6.853574810351046
1127,-6.82994007981743,30.224355614906134,53.74675731734054,-6.590084102596931
1128,-6.717611664445202,30.512103444653526,53.84482785731094,-6.404788015583596
1129,-6.604765696958566,30.72202571338637,53.799789993567494,-6.238590965170644
1130,-6.429478015062515,30.831091598915705,53.67314224660313,-6.022757145204175
1131,-6.186928328992916,30.83905760537672,53.529051502064206,-5.756463792672772
1132,-5.896448135873442,30.78034729263292,53.40832676959086,-5.463718449361914
1133,-5.625744469513498,30.699415930694542,53.24654858700367,-5.193091169692133
1134,-5.436278200425267,30.613331484387693,52.93980272367706,-4.984686094281312
1135,-5.243397949422755,30.513035999171393,52.39163754256058,-4.750058869527165
1136,-4.944939892830837,30.36947602892466,51.57481296302996,-4.39432702988916
1137,-4.622931991294736,30.15890797724187,50.68780780905839,-4.028192640534896
1138,-4.395319986719102,29.865744838708657,49.96287939765908,-3.794821129433552
1139,-4.242377213167961,29.496015858574523,49.396189417211744,-3.6512485641335695
1140,-4.116994469696365,29.064659826223703,48.87476363265799,-3.5131062568651252
1141,-4.02250571499282,28.56797981335108,48.28819704062671,-3.3752961960028722
1142,-3.966224575783226,28.006638596909468,47.52985492906228,-3.2515198187350927
1143,-3.989059728524886,27.380243485205437,46.57237150875885,-3.194879466729724
1144,-4.118436845632794,26.713653967466733,45.45340870024209,-3.254217264331002
1145,-4.233148539448935,26.028231888487877,44.22452426504355,-3.3348362863098022
1146,-4.198517856267016,25.342865927788043,42.9408202580493,-3.318282877801347
1147,-4.067677496497685,24.652847984032093,41.639110075719486,-3.2534893755742234
1148,-3.9419682462022285,23.944052949382062,40.33534802627919,-3.2217203312712357
1149,-3.817825561728844,23.217668590395817,39.01229691170428,-3.1758167004803606
1150,-3.6687874079375296,22.478618034618105,37.65658731534686,-3.0517722568693566
1151,-3.4847614189616243,21.721914949812696,36.33962549450542,-2.859293624556573
1152,-9.282136703516548,-24.02904693055133,-35.78676968789661,-4.736674357635831
1153,-9.251805689117345,-24.577296657661677,-36.5731101139379,-4.678238583747268
1154,-9.378551179079109,-25.085417146303985,-37.33498465744825,-4.776959295147166
1155,-9.572224322700581,-25.56004425950222,-38.09945003701544,-4.91518469845114
1156,-9.72431179393221,-26.019567791855536,-38.89354888621748,-4.959654898603795
1157,-9.872655624900508,-26.479589335017856,-39.72295777653234,-4.972604893582976
1158,-10.080030245687023,-26.943510025987,-40.571308122918175,-5.049418650413995
1159,-10.37893780250149,-27.405272395429645,-41.365522045261464,-5.22048055063471
1160,-10.777475033559213,-27.854965430382823,-42.05745325749039,-5.490964939620247
1161,-11.18142098262588,-28.28043846495609,-42.65067417237408,-5.783989264923889
1162,-11.49192118327236,-28.670085657720225,-43.20675474405619,-6.02177613252007
1163,-11.765911860959735,-29.027984703823165,-43.732280669307244,-6.290812359584785
1164,-12.08015605477541,-29.372916958888794,-44.15916719668131,-6.686747987225252
1165,-12.378083645467592,-29.703829976533815,-44.48813160104354,-7.1208416022354015
1166,-12.601597008236498,-29.995758507536294,-44.812008872493934,-7.4924328184124
1167,-12.78753401721183,-30.244275953924966,-45.158109615459374,-7.844388399484263
1168,-12.990584304577032,-30.474854921519565,-45.4590876934117,-8.23785894250583
1169,-13.275965874040333,-30.704831171968085,-45.690161223000004,-8.691075168968123
1170,-13.678540811642641,-30.920049439385572,-45.924245474710155,-9.19910869409419
1171,-14.089669271208294,-31.089446041810312,-46.238538534519584,-9.669607518097274
1172,-14.389820612813859,-31.196281607045872,-46.607176549556854,-10.019736189778294
1173,-14.621866030418913,-31.25299871306674,-46.92435866932919,-10.33421565649933
1174,-14.856505174313794,-31.2804967311104,-47.11557775394751,-10.716153544438702
1175,-15.07265525697623,-31.292528976040153,-47.17729885981818,-11.13352801956695
1176,-15.237709292941007,-31.287414629019484,-47.14953752088,-11.523063231184599
1177,-15.329625085137089,-31.262477208953793,-47.06946768926193,-11.844762557984577
1178,-15.337849334881634,-31.220666259351734,-46.96656609817684,-12.07286233870002
1179,-15.329446936096456,-31.158454933224338,-46.8250124058632,-12.256954350233151
1180,-15.372220260173528,-31.057652612750616,-46.624258194671334,-12.458312865174586
1181,-15.40808315784205,-30.89634022765027,-46.35245890648698,-12.62785285294052
1182,-15.370001152958514,-30.675148442961646,-46.02191575555908,-12.715124626043869
1183,-15.319454678095653,-30.419168995487382,-45.63824688098523,-12.802564489238947
1184,-15.318917252625916,-30.150453321223615,-45.171243411819646,-12.968002267595878
1185,-15.326883213976398,-29.864315251627932,-44.57281971706076,-13.166057025975144
1186,-15.283794623665688,-29.534237283299678,-43.85644042125875,-13.32392363879343
1187,-15.135743830777315,-29.135486568254105,-43.079181329903925,-13.376265391936041
1188,-14.859165456782122,-28.66562541914679,-42.30334355526096,-13.288223008686174
1189,-14.562575031411257,-28.13857084947135,-41.5201399956201,-13.159864535651455
1190,-14.358291719857583,-27.568088857988705,-40.68947006377553,-13.098378141238683
1191,-14.1794408123415,-26.956973790787693,-39.77039795280771,-13.030045002763387
1192,-13.93583407882886,-26.305309532099947,-38.728276623962735,-12.860881712397541
1193,-13.669884959324671,-25.61210106685758,-37.564822427391924,-12.642510164040802
1194,-13.439111013553976,-24.883629157283362,-36.30393052603934,-12.443075181979804
1195,-13.251590905760414,-24.13062319250857,-34.9600830119892,-12.264637173090291
1196,-13.097590718490203,-23.35603221793252,-33.55270210336547,-12.095914057431703
1197,-12.907204508326721,-22.55859494820859,-32.12585868525661,-11.892493246312105
1198,-12.61541133393446,-21.730776222499973,-30.711169768013765,-11.618227514265586
1199,-12.29229491287341,-20.862238485232538,-29.288281879480873,-11.358727024512682
1200,-12.017138590913756,-19.94306060228426,-27.823581183919227,-11.19750287744419
1201,-11.72041009527136,-18.96363055224398,-26.308288684788767,-11.046543052955567
1202,-11.327521608054695,-17.924897321451176,-24.738203133692224,-10.806754811688448
1203,-10.88388225737494,-16.838070040559007,-23.1051549351516,-10.527171636785704
1204,-10.456051140687624,-15.72607649550311,-21.403434667031956,-10.27918280701739
1205,-10.093914614362697,-14.599205313801939,-19.622613849769625,-10.079140393815692
1206,-9.818211897897834,-13.457967829168982,-17.758963398932007,-9.922501612809262
1207,-9.535756826424013,-12.285744883067338,-15.82713884885084,-9.745985078162333
1208,-9.143973422141329,-11.063814037329022,-13.851017138347695,-9.487248506158869
1209,-8.684118865793502,-9.781021147924076,-11.86308869079645,-9.206018108241015
1210,-8.219887893260495,-8.441940635878895,-9.87323798267515,-8.97132537456741
1211,-7.716272321983709,-7.055870910501818,-7.897861600849861,-8.724536544468831
1212,-7.125581864848173,-5.705964105889506,-6.0032611952696815,-8.388553555766142
1213,-6.5236656352588405,-4.546321803718664,-4.328352104238966,-8.057044084425668
1214,-5.9769078696606135,-3.642780005745301,-2.962419483270441,-7.813411748862264
1215,-5.561775762769651,-2.9301013996528877,-1.9011144011168353,-7.6726172643026915
1216,-5.3116742696011,-2.3168574488536096,-1.0697522535331296,-7.6096139357034716
1217,-5.086839877565108,-1.7488797077470637,-0.3646202298930301,-7.532955846475042
1218,-4.744264857368537,-1.2051619950966619,0.2768717968881604,-7.359734485343461
1219,-4.381392220598449,-0.6748704058590933,0.8638932466762349,-7.166138534315777
1220,-4.106892956370954,0.05997629886323316,1.7741139770052698,-7.04617283394648
1221,-3.9177759060279858,0.7572032979825412,2.7221626098197804,-6.960766308453409
1222,-3.736328228379614,1.3909344194243018,3.7023892992962057,-6.827997543692027
1223,-3.5425975015203504,1.9590640545899523,4.679543894228031,-6.662279469094779
1224,-3.3362329567049773,2.4708557602631576,5.614053450953931,-6.502752782489184
1225,-3.175098621623856,2.9388681570606265,6.499793512203747,-6.402485675789188
1226,-3.1224601481271796,3.3741423235394135,7.355641915757219,-6.40197860319805
1227,-3.10417264636136,3.793607173759223,8.225074784403146,-6.4043816676006875
1228,-3.024456805811693,4.220121188797153,9.144014822438802,-6.2967360737139515
1229,-2.945659231442433,4.664686869272852,10.088317547994627,-6.164956039821019
1230,-2.951860394996776,5.119021482684066,11.002382843706819,-6.126897355526939
1231,-2.9975509568023355,5.566790644161555,11.834833946157477,-6.119242456197806
1232,-3.0116181349252766,5.996308801811448,12.546087370393158,-6.048396187239664
1233,-2.9639878913294675,6.398409897299107,13.12147422461484,-5.918557834986857
1234,-2.847277294020433,6.770138640256578,13.578553914147282,-5.763967605266753
1235,-2.7295739501547063,7.110027710773927,13.97656235204123,-5.657014476508767
1236,-2.6882495952484144,7.420283122091319,14.375257065184538,-5.66166091437725
1237,-2.6754426351456706,7.705806128441977,14.789906289088213,-5.700100770134828
1238,-2.6136106096244034,7.9739089713181315,15.206606743647892,-5.659015480235897
1239,-2.521215910220701,8.238216401220201,15.570815269977153,-5.549940610691651
1240,-2.4371650418515065,8.504621310882468,15.851833441458979,-5.416326034354031
1241,-2.3595656910119813,8.770661213930788,16.073582871754123,-5.239054149220816
1242,-2.2818739912544004,9.014566912667869,16.31534145152091,-4.998895684323942
1243,-2.1874334526914967,9.201410675374335,16.626901395731785,-4.703258151979117
1244,-2.0572017570429,9.304761774082738,16.96955300814062,-4.366055904591693
1245,-1.9302938179991092,9.328713737711848,17.250855977692183,-4.0361185582637376
1246,-1.8422997313836105,9.304353720473507,17.44630382925581,-3.7553374034001905
1247,-1.715418792030828,9.272733276652758,17.590697320127678,-3.468062622826858
1248,-1.4607650417881073,9.26125463555306,17.755435053242916,-3.1045225386789825
1249,-1.1021709247536915,9.280862853361542,17.96246576953901,-2.6947146421699486
1250,-0.6994475932629575,9.328769386007338,18.201293464941504,-2.294914300268339
1251,-0.29493337346333337,9.385549809319707,18.438025870737285,-1.9204653844599568
1252,0.08243552553387448,9.426518626729134,18.620836978904883,-1.5716142838591112
1253,0.4718184461099338,9.432395433869118,18.711448504792926,-1.223701222822211
1254,0.9268786594671944,9.396774344931293,18.691412896144886,-0.8420802195390661
1255,1.4076895984690732,9.335353059781635,18.547156621167808,-0.43612715678605113
1256,1.8549874377711533,9.28078068063972,18.295265602701566,-0.02474202102144522
1257,2.282627388079984,9.246460302299084,18.02478541529703,0.41750233744901755
1258,2.7170717210663153,9.20863421603455,17.83114127212288,0.914487731426655
1259,3.155963454273217,9.130456002883715,17.732262460625357,1.448871136813253
1260,3.5871006693953493,9.00321242599761,17.705576995611583,1.9831393090166272
1261,3.9642358172341745,8.85587469797626,17.72288686010155,2.454518757516434
1262,4.238904665988569,8.724431572052952,17.74464669334214,2.802820881088851
1263,4.448548454614514,8.625221467005424,17.74103013370269,3.0427252937610767
1264,4.642109070048852,8.551661445955979,17.69029454717244,3.2118074245106087
1265,4.751216157737775,8.486354424071271,17.558011375837584,3.2680890894660286
1266,4.701726825416667,8.413820323763739,17.320235288025017,3.175742854455841
1267,4.556485610661868,8.331115753940033,16.986597182090687,3.0256239496586583
1268,4.403897371163915,8.239535198215147,16.584255172659397,2.920151232549803
1269,4.258834191562792,8.138933313183173,16.150560076698664,2.85651986557614
1270,4.1105356068311325,8.020368594261027,15.717660471008717,2.7945898813709094
1271,3.9049262818697144,7.874999861779688,15.285743922734785,2.670851112855971
1272,3.5931474109674055,7.7016246579679795,14.840784612228394,2.434914415844135
1273,3.2764850041926556,7.49948653544112,14.372170932515093,2.191207283801179
1274,3.0740904632141293,7.264033912581187,13.880120231815322,2.059960940022741
1275,2.913046091591852,6.999545256193496,13.395563247475533,1.9376375066001037
1276,2.6863603834568743,6.724050977438502,12.954492654278187,1.684575321476048
1277,2.4274450221879014,6.455744772420826,12.575180988088787,1.3499535415803465
1278,2.2030690976217535,6.202521359921951,12.254026955331797,1.0287602027974974
1279,2.0584167923206014,5.9629945160192905,11.924042453700006,0.761976207137137
1280,4.239452221551674,-12.407289887587913,-16.02618602931561,3.1127646307718977
1281,4.2398814999877095,-12.8672535911453,-16.369727465501963,3.236389786205335
1282,4.168044508366385,-13.31184665802185,-16.920464125658366,3.2462706585472745
1283,4.067601295048015,-13.740489388637645,-17.614160308458295,3.2268940475135968
1284,3.997620243276443,-14.156150027444907,-18.329501061259624,3.273352795190669
1285,3.9492087525782935,-14.561601581852644,-18.99762924936882,3.3350977387389733
1286,3.8998239165760507,-14.958708492749253,-19.577371174227174,3.3480306495007097
1287,3.8172117028422416,-15.346511423463214,-20.07180098893399,3.3190561083495336
1288,3.676726263454068,-15.721175347184005,-20.509337002699514,3.2731671072515978
1289,3.5303591892426005,-16.074329205550946,-20.890769878447603,3.2784043330729107
1290,3.431102865453154,-16.40059172280842,-21.209947566627317,3.3801099989066703
1291,3.327133705573157,-16.707335163940034,-21.472423989676976,3.466880396843151
1292,3.1556682247009085,-17.00623753815921,-21.685005859896584,3.415823648676936
1293,2.9350700222343544,-17.304865312241482,-21.859174841586928,3.2610573883810523
1294,2.6960317224353267,-17.608979727067133,-22.005805770960936,3.0758416472836374
1295,2.4449337991907756,-17.92078307609145,-22.13185445840474,2.8832675111105783
1296,2.183258240349421,-18.239561173357455,-22.242368382296423,2.699537338667465
1297,1.8767428068521925,-18.567074592716178,-22.319100734620765,2.5194486635774194
1298,1.501536306351765,-18.90048663826338,-22.362152274203748,2.329995568734993
1299,1.1376037532272258,-19.224521875878875,-22.455143851556375,2.1769115352736645
1300,0.8652455884874339,-19.51988045320554,-22.6751082899851,2.099618659497515
1301,0.6371835470437845,-19.770653342291638,-23.00426968849167,2.0350064462723156
1302,0.39066668796977166,-19.965295712891404,-23.37890657318904,1.9189362160263328
1303,0.14463077446610495,-20.09941461389169,-23.71503003410642,1.7906936126210518
1304,-0.07073530011567677,-20.176756038451316,-23.936958918564827,1.7007646150750197
1305,-0.22723923542203667,-20.20625094595031,-24.024935932503254,1.6547478300644431
1306,-0.315924726421849,-20.200413122399972,-24.000844656595632,1.6344552926273441
1307,-0.4388100791120813,-20.17876234291704,-23.923587895848204,1.5524972749376662
1308,-0.6889116224848157,-20.155308175179428,-23.845843120215562,1.336720909294019
1309,-0.9757280839819554,-20.11970235346289,-23.747628075965636,1.0766744184139334
1310,-1.1892103105994087,-20.05874832256462,-23.6042555741204,0.8794312780162516
1311,-1.369480744302474,-19.981592323169224,-23.369595974205435,0.7048158348311871
1312,-1.5806699197439986,-19.900862800133137,-23.063918530163036,0.4920902623961717
1313,-1.830893729493992,-19.816745049217165,-22.769959919444386,0.2516539516087409
1314,-2.112462546850164,-19.725400506712628,-22.528261220198544,0.009606449237975143
1315,-2.373439617784366,-19.622649910114284,-22.337450347884072,-0.1793089827312395
1316,-2.5637190335210227,-19.501298922834195,-22.16059274769617,-0.27136387327682304
1317,-2.7359579143251143,-19.349839512588847,-21.963827395681836,-0.34101014760502435
1318,-2.953044756371451,-19.16019631301246,-21.715042320607562,-0.4722693446578661
1319,-3.1726031172941798,-18.936913047475635,-21.374431815924883,-0.6047009060063369
1320,-3.3423670174721796,-18.686904467428718,-20.93198362663537,-0.6706881341170452
1321,-3.4877795041660975,-18.40993880189425,-20.45499205715039,-0.7420505093119272
1322,-3.6405131548146916,-18.103511066631345,-20.015602678718924,-0.8940155331385548
1323,-3.799790940097817,-17.76284780501717,-19.616800066148667,-1.1040272632752235
1324,-3.962485461073611,-17.386621147345252,-19.229416777493,-1.3284262581631854
1325,-4.098807171530894,-16.98580388184411,-18.81091300882698,-1.504883296012125
1326,-4.196245316982073,-16.574962425764625,-18.317999240205392,-1.5969228547024734
1327,-4.362651891387281,-16.16593196132566,-17.747521673327,-1.7289216347936758
1328,-4.693338506032817,-15.763792628970807,-17.114334152231425,-2.02526581582786
1329,-5.104224814044627,-15.35737360803257,-16.414502403275954,-2.3826748703429885
1330,-5.481769914024676,-14.930916249137233,-15.651832780769213,-2.6758120830094745
1331,-5.819421129170922,-14.47928816958072,-14.861703040794605,-2.9694174926854164
1332,-6.137652277280321,-14.000539545790362,-14.08263265482249,-3.3477558825375113
1333,-6.463180471506492,-13.491742679353223,-13.330255909522037,-3.803696694934733
1334,-6.821501973661218,-12.951762070990915,-12.612597043112135,-4.304834341279121
1335,-7.158187310230004,-12.376874808812863,-11.944080806095956,-4.766737933795717
1336,-7.421064065678478,-11.767825167759442,-11.324020822525204,-5.121498182697717
1337,-7.686222222007123,-11.139578643236682,-10.727126516235682,-5.462598497133203
1338,-8.03736121256793,-10.509127719734824,-10.115286579536503,-5.89941266860985
1339,-8.442725142685097,-9.886776421343988,-9.430779221170999,-6.389588063315008
1340,-8.835247725281086,-9.299005354269223,-8.667600986538401,-6.840433896867708
1341,-9.260400624465992,-8.786613337537151,-7.905445615741868,-7.297466410449478
1342,-9.749120834630293,-8.35729105888762,-7.259256624961037,-7.793222458199189
1343,-10.376998383623109,-7.994655991209659,-6.757765072995457,-8.408253047902528
1344,-11.181742770730725,-7.66034264063319,-6.38482849756382,-9.193977640558257
1345,-11.97447633748032,-7.34489421841133,-6.131668220802367,-9.986401755222394
1346,-12.554557572190006,-7.041777842912274,-5.973010522709935,-10.605967689965036
1347,-12.999396766402029,-6.756907944273612,-5.849817509269844,-11.133541758799385
1348,-13.64680246746482,-6.482149727049412,-5.59981489136679,-11.942296050786224
1349,-14.252939355478283,-6.214673103487652,-5.3389198255356405,-12.726525438751203
1350,-14.758687001639238,-5.953754667820069,-5.083457677581887,-13.407549656289707
1351,-15.134118908046963,-5.699795027097938,-4.843162035029891,-13.939583362131197
1352,-15.360763165384851,-5.449554792554825,-4.627023258864663,-14.293827833537858
1353,-15.495296594675168,-5.194791125512447,-4.430342118422794,-14.535053915318297
1354,-15.607746288858952,-4.926335826074849,-4.241468089909432,-14.747124075593605
1355,-15.638945644395648,-4.633788081768244,-4.077891396446817,-14.854542251480389
1356,-15.516423997336341,-4.313426443504842,-3.9398226773516263,-14.77243289191189
1357,-15.323322662158128,-3.9803712620614204,-3.804648733169551,-14.633353970433436
1358,-15.167279146925638,-3.6565561314272257,-3.615931994860387,-14.596080810580712
1359,-15.037357309475283,-3.357535083372484,-3.3614890665053183,-14.633865207068878
1360,-14.895114175122394,-3.0922509235470157,-3.0902305914584303,-14.666596483394816
1361,-14.732687364873271,-2.8571065502053816,-2.8382104979854,-14.644371759861022
1362,-14.548983705797642,-2.6427324083037536,-2.591455430244119,-14.534737937286383
1363,-14.394587227655917,-2.44840290398493,-2.356994642670852,-14.410010075265681
1364,-14.321484368102286,-2.275772451839219,-2.129130250098308,-14.364635202557624
1365,-14.254341571021186,-2.120100003557619,-1.9085471634198,-14.333515134600141
1366,-14.105941747973354,-1.9765202098121595,-1.703993678489858,-14.226446315155927
1367,-13.94847788025321,-1.8463243526768414,-1.4926211749959843,-14.11665816184311
1368,-13.878457702240496,-1.7307455287897677,-1.2614906586436905,-14.097229609929204
1369,-13.878933854862026,-1.6246168463625528,-1.1025230060117,-14.138202020653125
1370,-13.897285811030468,-1.5231822100118162,-1.0718745517720984,-14.178390018688363
1371,-13.863170695448073,-1.4260811862422234,-1.1528168134421155,-14.172031755919845
1372,-13.721561258746323,-1.3371150668828122,-1.2169394879347069,-14.088559198396721
1373,-13.558317891390432,-1.2711237813186707,-1.120071255924087,-13.978241071031672
1374,-13.486234692860227,-1.2418447289849914,-0.8455011721668995,-13.911799626962143
1375,-13.460432545483622,-1.2410277950825999,-0.4909768846616578,-13.870784629430807
1376,-13.39933093943131,-1.2535417735672674,-0.14231009067357364,-13.813625101189272
1377,-13.315211407610276,-1.2769169431826972,0.15847720600799048,-13.745395308997692
1378,-13.23744479707266,-1.3108491051892095,0.4124730535221799,-13.677158702715904
1379,-13.183202057435803,-1.3499885783909364,0.6225522562315605,-13.625361678945255
1380,-13.163154091053677,-1.388269763985436,0.7983298855179337,-13.59977590970764
1381,-13.110927326794492,-1.4166328234173207,0.9405310396674622,-13.526294212794603
1382,-12.954473285810234,-1.4266592152471749,1.0423507931879046,-13.329461197003463
1383,-12.768751031486754,-1.420912460811069,1.1019767252180577,-13.086479675809954
1384,-12.64630750830674,-1.4063534184891293,1.1238051689415993,-12.895565511852569
1385,-12.507535882150718,-1.3807844644421639,1.1137798848990095,-12.695285027942065
1386,-12.253540074010365,-1.3449407244068368,1.0862417951775587,-12.399313651812866
1387,-11.927655227949625,-1.3179021365523655,1.08463334869799,-12.026717756037959
1388,-11.611615272976389,-1.3194061166042041,1.130904839260572,-11.626496718482837
1389,-11.376356895405587,-1.3562822630001623,1.2316591812713393,-11.266849196218933
1390,-11.269602231088161,-1.4228074633766956,1.339478087208617,-11.006158769572545
1391,-11.20438579226071,-1.4906910532743645,1.3866105303871001,-10.76108300872281
1392,-11.067407037716983,-1.5294686454991253,1.3638857992994673,-10.430402551956936
1393,-10.922323845482515,-1.5357255601425424,1.3030075613010523,-10.114449979807825
1394,-10.862137562110787,-1.5214077720464239,1.255531752484231,-9.94045764582457
1395,-10.820864684830484,-1.5053545859053132,1.2392580225653602,-9.845073440243613
1396,-10.707528033462557,-1.5056215022902593,1.2391887719706287,-9.723184822844978
1397,-10.516033169915701,-1.5201603079264385,1.1934570595820397,-9.550439439658135
1398,-10.269272080973543,-1.5371451509501164,1.056388078157715,-9.328061208890668
1399,-10.031084453518766,-1.5495938004813201,0.7934405972305286,-9.108449266678235
1400,-9.865447180582473,-1.5540228329449672,0.4699455252424941,-8.951232633748475
1401,-9.71771301851623,-1.5553881403074437,0.22117645070902814,-8.782940084823812
1402,-9.50856899588251,-1.5620341955761687,0.1769348839041814,-8.511097208209614
1403,-9.274982986222511,-1.574850409000442,0.3054519171392093,-8.209870184050978
1404,-9.077648261557856,-1.5909773953320472,0.5045676161802057,-7.978721638781458
1405,-8.913766918968804,-1.6072411264107622,0.7096816089469357,-7.775695984321512
1406,-8.764646689729489,-1.620918464665101,0.874643375775991,-7.536030348791748
1407,-8.597408944094758,-1.6319382480985807,0.9937734794675717,-7.260896508630891
1408,-7.514976474513394,-12.196717376507754,-18.322014204839313,-7.74419831369077
1409,-7.521360146111532,-12.434575937902755,-18.779808127142157,-7.768319097165787
1410,-7.58177793561169,-12.65420450011252,-19.266004530449724,-7.910801193148874
1411,-7.649485419950472,-12.857519746374109,-19.758222668527576,-8.07495230231993
1412,-7.663075635692353,-13.0359815857035,-20.227553872290663,-8.150086943113662
1413,-7.633432032379013,-13.18634424584953,-20.63623531123368,-8.17563378734631
1414,-7.586674984810457,-13.321056968340697,-20.964771025409892,-8.217871268092049
1415,-7.559079609039157,-13.454785036585946,-21.245990660151204,-8.295290920938864
1416,-7.581060182997838,-13.602989499637157,-21.52139742742772,-8.414088322463966
1417,-7.608357479317659,-13.767399079356611,-21.795257899029025,-8.529780687688977
1418,-7.5936561711155575,-13.94347842635482,-22.05790197489391,-8.603644329061806
1419,-7.5895725431866055,-14.13146006441993,-22.292284841116853,-8.718144594428196
1420,-7.652510790358939,-14.329230612773113,-22.479941903230657,-8.959042149758243
1421,-7.751024927400933,-14.526240053075117,-22.640217440892034,-9.27764518870438
1422,-7.8375849257180255,-14.712155790397425,-22.790382656793764,-9.5965957236426
1423,-7.881113011296568,-14.882058561379326,-22.880627543329236,-9.899999553881253
1424,-7.865655286110001,-15.032202002397693,-22.875623026267043,-10.176515668075524
1425,-7.848984618192077,-15.16504198890757,-22.8246206606808,-10.406052233107522
1426,-7.886631024204735,-15.28035583168713,-22.806119843617285,-10.578156935245772
1427,-7.903129698643501,-15.352804034231855,-22.917909591112576,-10.65333685790298
1428,-7.821644393458783,-15.369849740775106,-23.216379151327825,-10.62032084448916
1429,-7.709126857320613,-15.346341760252885,-23.607510464207415,-10.597663620351723
1430,-7.652472290444073,-15.322780857355225,-23.959453683813436,-10.70138067172649
1431,-7.662100246849526,-15.328926431233059,-24.23575129589004,-10.899310109845475
1432,-7.724181167166932,-15.363655725811675,-24.433307267259913,-11.114630983526549
1433,-7.795244026631145,-15.407958389132062,-24.53745770384079,-11.30092300488597
1434,-7.82472144306853,-15.436158564901916,-24.555160292094627,-11.418819304607082
1435,-7.845718397226441,-15.429668914746886,-24.52023569450824,-11.474977048346984
1436,-7.885940336327265,-15.390142935995847,-24.4633881853591,-11.483707358748369
1437,-7.830522384427254,-15.334355977420627,-24.39230065192247,-11.373764205400654
1438,-7.574185354049395,-15.272107066823274,-24.30183248403385,-11.086677989874909
1439,-7.1802170456450645,-15.20111552001512,-24.182561292143138,-10.691023350097446
1440,-6.747456272068848,-15.124646449318265,-24.017275387988537,-10.276799719356356
1441,-6.3189493178573,-15.05542765123777,-23.78993387383456,-9.87559278018455
1442,-5.919069984098286,-14.992065287751041,-23.4878172800966,-9.498799934511705
1443,-5.504708626499923,-14.924896570557038,-23.084737183725885,-9.110320714159421
1444,-5.038891801169882,-14.84089215811836,-22.579125008564354,-8.680339594039038
1445,-4.655840984174834,-14.736613738061049,-22.039503693549495,-8.321544052565196
1446,-4.482481121888158,-14.611364458683296,-21.54501697111732,-8.138271684344868
1447,-4.410698204498916,-14.460973491664703,-21.133873149530658,-8.016884896391874
1448,-4.308302417517041,-14.283212157800842,-20.804092431291515,-7.831054057573353
1449,-4.214648720640682,-14.078950774302305,-20.504985260670487,-7.651859949788046
1450,-4.200128237846855,-13.852667045489572,-20.163577250192844,-7.575549633436144
1451,-4.298182823891211,-13.615973575875467,-19.708168743980035,-7.608765092347526
1452,-4.519794927575126,-13.380082730686187,-19.106632232067806,-7.726786285442434
1453,-4.7786155168371325,-13.14984258903345,-18.41610090834266,-7.838490784283577
1454,-4.9816055618376955,-12.924443499906682,-17.719853432609284,-7.860610692894417
1455,-5.179797502914664,-12.691506281144813,-17.071180495123045,-7.873638169745875
1456,-5.442326012564953,-12.442396069556398,-16.487787245942727,-7.976200545393854
1457,-5.722398520111978,-12.178473846612517,-15.909565560704689,-8.106717369003896
1458,-5.9633132887508635,-11.9106182565337,-15.26948725010473,-8.186595280642262
1459,-6.166545614995028,-11.63848382847012,-14.590067128254029,-8.238130434858972
1460,-6.348561535072441,-11.344286271296292,-13.915750681613503,-8.297079367776792
1461,-6.556585987054335,-11.022674902091662,-13.26736215816295,-8.389493541242063
1462,-6.828327848381647,-10.669602936014021,-12.640877077080676,-8.526273630449005
1463,-7.096796683011146,-10.290471972256068,-11.963370795189745,-8.625323141541177
1464,-7.287989618857874,-9.891393591139542,-11.15951670217107,-8.60905722371126
1465,-7.449223716427663,-9.460340932238367,-10.2356281412614,-8.552811380023906
1466,-7.638551660724039,-8.98816778048492,-9.23533614586756,-8.546786019029202
1467,-7.821310477342994,-8.475948593971282,-8.210485259609902,-8.549491676815439
1468,-7.954537862092473,-7.972802832316656,-7.258960190841211,-8.501684688473453
1469,-8.07192327343554,-7.569460204639056,-6.460862613282982,-8.448374002635747
1470,-8.207710663542873,-7.3066472361598676,-5.882095353891489,-8.43408929211356
1471,-8.447174087034815,-7.153564638544094,-5.497382573781465,-8.508568259225772
1472,-8.834569955582305,-7.068283063326494,-5.22180196044776,-8.691464487826925
1473,-9.182298005421675,-7.016586507635041,-4.9623913660805234,-8.851702305513369
1474,-9.312614099835464,-6.972740730943494,-4.635419495894679,-8.864201712664157
1475,-9.365255275662637,-6.919104043641046,-4.204623675690894,-8.843634580473639
1476,-9.54057993394843,-6.712657193664035,-3.5350507267045708,-8.797355518494177
1477,-9.811796329094443,-6.514581128072104,-2.836454691149427,-8.81144524052018
1478,-10.107322683745355,-6.3245134890646195,-2.1688708815270936,-8.775943858275632
1479,-10.366171139507925,-6.123880157605897,-1.6220978494134677,-8.657669367592343
1480,-10.540581918059003,-5.901777758722447,-1.2453894065306683,-8.45829484092456
1481,-10.66786336144509,-5.667926128880646,-0.9617498128100741,-8.241714633251192
1482,-10.81640982954237,-5.455838020078984,-0.6525654370176794,-8.089561081570158
1483,-10.971584131408113,-5.2873959469882506,-0.2469538316681817,-7.969885403467008
