,TP9,AF7,AF8,TP10
0,-8.30179374101404,-11.063496210141203,-10.784004618246364,-8.11770558946467
1,-8.55774161978909,-11.398106988606187,-11.197970741738844,-8.458516449218598
2,-8.791745685212266,-11.70106653113063,-11.638726185212223,-8.783246086991845
3,-9.050812651151617,-11.97433157234313,-12.077842603152709,-9.11060882644425
4,-9.373361017896345,-12.227156778195686,-12.494583895986642,-9.45759177753051
5,-9.673287007399889,-12.46231646495358,-12.886972878017826,-9.779357069601607
6,-9.862928149723556,-12.680476875698306,-13.27370368169803,-10.036494278771215
7,-9.984695249456337,-12.879149942379279,-13.668960103743723,-10.286066512081
8,-10.106379491369493,-13.056796935819259,-14.068456809681905,-10.58803173140384
9,-10.24858109516635,-13.221103137199686,-14.465132642973076,-10.917912598465195
10,-10.416014902899816,-13.38167598298374,-14.845367099897224,-11.233568606890827
11,-10.567985743178054,-13.545070872854263,-15.199137131532787,-11.497870528296959
12,-10.663363213957288,-13.712142300726,-15.521450080550487,-11.692443089761026
13,-10.767964076917156,-13.871652473588213,-15.812473634652378,-11.899019953496536
14,-10.94813138912508,-14.010853550022572,-16.077684223644678,-12.194544638047171
15,-11.127546172510657,-14.124982893373733,-16.324089585710773,-12.49050845950023
16,-11.22728870695431,-14.217171910254262,-16.559176177031127,-12.6869293027891
17,-11.300885709324842,-14.303677768912744,-16.795400712599896,-12.838169495934723
18,-11.42255629162064,-14.399768723567831,-17.034827117304594,-13.020773793755597
19,-11.620039563136668,-14.50290827979546,-17.27017838745074,-13.238145169172057
20,-11.893749452448958,-14.601358063244863,-17.47973481920055,-13.475912028718481
21,-12.173566801566594,-14.679328895222717,-17.652291476465926,-13.691292666839177
22,-12.381894137744418,-14.72393337147762,-17.793299777547126,-13.842689502107053
23,-12.547418117879618,-14.737472693007645,-17.904723136374766,-13.985968151695616
24,-12.714046179931874,-14.730617712132688,-17.976234849780464,-14.17545139936643
25,-12.835776171827781,-14.714365314304155,-18.000181443684326,-14.32717829359509
26,-12.868222292702747,-14.698864598272312,-17.988629911954522,-14.353642607944977
27,-12.833171350367351,-14.689303975204087,-17.954877722841204,-14.290666514447693
28,-12.769029944946604,-14.68631030604886,-17.913347212578106,-14.203242616447975
29,-12.734015291395766,-14.687847598936813,-17.86323828220568,-14.141208267110647
30,-12.768394003597978,-14.690903196811346,-17.798543625829552,-14.138679565241507
31,-12.797425273622832,-14.693201755343807,-17.719335435691672,-14.140786821052696
32,-12.741653858052521,-14.692366406378708,-17.627004442083322,-14.088495368479757
33,-12.665099236858454,-14.687658351170926,-17.525260425230584,-14.06199842564569
34,-12.64429664890128,-14.674151782644254,-17.4170117862013,-14.141362670751521
35,-12.648816455200263,-14.635725399411148,-17.29499452606184,-14.257410354087204
36,-12.630203021259762,-14.5562577077401,-17.152484354127164,-14.319645832191362
37,-12.549892752140025,-14.426196227817702,-16.99375609291701,-14.303830588675696
38,-12.3910272868591,-14.247237121474546,-16.825584241288848,-14.217497548255484
39,-12.251301014214242,-14.04574871090002,-16.655367311627263,-14.129274545926382
40,-12.222740371045338,-13.851977521620233,-16.482781610021014,-14.110824193631087
41,-12.213537704837671,-13.668696274848685,-16.286217246329116,-14.127217174175593
42,-12.11495465686654,-13.492117482359427,-16.03982548177235,-14.122796127617672
43,-11.965345813087515,-13.336734043422377,-15.730083226530269,-14.116761760340749
44,-11.830167953738698,-13.207450494903632,-15.356409879153206,-14.131818946984598
45,-11.747858115085155,-13.081038483087593,-14.935473266431405,-14.155387789965967
46,-11.727820341586664,-12.922782129484785,-14.493483620321543,-14.161349035870762
47,-11.661549103384644,-12.689285011023575,-14.055186143419586,-14.0849365429045
48,-11.43765086606476,-12.350667547397192,-13.638445271212184,-13.872303436005573
49,-11.116238412415374,-11.920829499172493,-13.24637008022915,-13.569690049410948
50,-10.788217163880095,-11.433626501869695,-12.870342247210077,-13.242496974832832
51,-10.425974237825692,-10.923063925443737,-12.49913918086947,-12.871114282614775
52,-9.993815479625342,-10.415546338254146,-12.11530723115406,-12.434083336674572
53,-9.5246569408622,-9.906270765209792,-11.690419639329722,-11.99022572980151
54,-9.055947123849798,-9.38235846050781,-11.20070021816109,-11.595304449487204
55,-8.61480771507782,-8.856320452275824,-10.639933205250607,-11.241843029187764
56,-8.219383246210032,-8.34294513033588,-10.014431544400503,-10.905494072939986
57,-7.828632482585451,-7.841204675181815,-9.341866102108659,-10.547209688857928
58,-7.401147927925205,-7.342990395499236,-8.641846974067931,-10.136655546074802
59,-7.002142056350817,-6.832796983629151,-7.92272145251986,-9.738933596143227
60,-6.692057596515925,-6.332610352450807,-7.206108809074643,-9.41371873044972
61,-6.397453418677556,-5.916474370067781,-6.537510755774238,-9.06380684479104
62,-6.038704459050759,-5.611888026202814,-5.950476769026141,-8.595388049745361
63,-5.665213224661297,-5.395664821702671,-5.445654728248355,-8.12344209517139
64,-5.348590876146256,-5.2042701344278015,-5.006962343514,-7.783165218595399
65,-5.1089773272032275,-5.01987356003906,-4.629349839303359,-7.544730594157421
66,-4.941401671409417,-4.84286324652739,-4.29255733737231,-7.332310228340513
67,-4.787904824036049,-4.661238599543129,-3.97683078652464,-7.101080803379082
68,-4.518151760543484,-4.448067324781536,-3.6366452015426693,-6.646656946931896
69,-4.2682504233222875,-4.230200822707088,-3.3136929188886453,-6.170121103056021
70,-4.1128411025624825,-4.010024368742739,-2.9944561351575385,-5.713114261023237
71,-4.000829282127453,-3.7987691437093196,-2.6747131006281917,-5.252001028210611
72,-3.8557641170552093,-3.6042974294961927,-2.3530952349532863,-4.755632738541793
73,-3.683275426861928,-3.4116410813383196,-2.0198060730924823,-4.272263416715998
74,-3.511657016961747,-3.203564983505205,-1.6664427675090996,-3.85385758958904
75,-3.384806684975651,-2.9853240379076857,-1.2976844134989363,-3.4883815736667163
76,-3.3366305724481244,-2.770090535307685,-0.9233465766280442,-3.1410866231044796
77,-3.275329567037737,-2.5712225138410565,-0.5507039700092293,-2.7445535383687814
78,-3.0987746163425016,-2.399847835940166,-0.18821894469252942,-2.251664581982308
79,-2.895011587554495,-2.2427155873175164,0.1544324285149481,-1.7662773001914889
80,-2.784171381000592,-2.083810555175722,0.4684861985915924,-1.4158308235383306
81,-2.7213587564867936,-1.9482173160094165,0.743135535844578,-1.1660932126493124
82,-2.6269355785325663,-1.861637009077937,0.9734038734445306,-0.9348947652932279
83,-2.491193396952513,-1.7994632088179776,1.1708886916330814,-0.7029759174226837
84,-2.3235033648697607,-1.7229174699002718,1.35540235799796,-0.46369029420151986
85,-2.1772883019686144,-1.6090562636018317,1.5450581614674477,-0.23159853861756252
86,-2.106969641653761,-1.4476587151924267,1.7539689205840592,-0.028441388923190807
87,-2.036870469846519,-1.2546337645357686,1.9901757098915591,0.20595618010241015
88,-1.8747847249886387,-1.0591360078983967,2.2511835271609977,0.5344147234389023
89,-1.6854782782541056,-0.8781279029185514,2.517991240135103,0.8812086591882795
90,-1.5641075031175131,-0.7201955566148387,2.7678474167976996,1.151442123207992
91,-1.5002771024477348,-0.5863592451975383,2.9914613598489623,1.384960303204992
92,-1.455236259802454,-0.4700218861290331,3.1877725053645665,1.6467082662241503
93,-1.4013502503543784,-0.36725958692445093,3.3570018822926424,1.927910166235535
94,-1.3122350127574682,-0.27093240187052325,3.502920832812733,2.201986862362782
95,-1.2161588984974825,-0.16246606759748544,3.633847229718636,2.419020411739099
96,-1.1540503710848198,-0.022816690132597503,3.754705352960428,2.5378350359716597
97,-1.0730256988359057,0.16156111085758648,3.860057335478662,2.6490815729669865
98,-0.9170780945085161,0.3906210484301656,3.940858267779425,2.855476648691332
99,-0.7654975296592926,0.6396323600603772,3.9875089344302124,3.0709050543101033
100,-0.7105325378536868,0.8739055807528351,3.9982169364606204,3.180082614753556
101,-0.7205666159349641,1.057781270561378,3.9940637121780043,3.2260624948135046
102,-0.7287936904218325,1.172380839622766,4.003496173027619,3.2898047368277203
103,-0.6874727270082766,1.249715639920949,4.043237484183308,3.413527367159949
104,-0.5666647447818979,1.3374087143852598,4.118863159809058,3.6145045515343357
105,-0.4287709899097395,1.4486204849411841,4.222960775652504,3.8083606943816277
106,-0.35176969119225343,1.5788072735645178,4.341765199543092,3.8951187967059115
107,-0.2775343003884523,1.7217107886609628,4.443639921523286,3.930074378388756
108,-0.1251523953865177,1.862117372893441,4.513152480817914,4.004220661757712
109,0.0632103176295465,1.9765658996473183,4.551572395001333,4.0892072330912805
110,0.21969776331243784,2.0470914256133192,4.567280094847063,4.134308833385699
111,0.33104623027506475,2.074604639277667,4.54942433393859,4.144910252542306
112,0.39957800374254937,2.0699528816780233,4.484493882564804,4.136260319648289
113,0.45444584765933727,2.043786193430163,4.376796436713235,4.134119989647129
114,0.5291897748051931,2.0079169099510663,4.235824945643478,4.163519086034135
115,0.5824981508152868,1.9691558232688728,4.0656150989895,4.187586368553533
116,0.5642360890976623,1.9338798881793242,3.8721968939486486,4.161130106346557
117,0.5180987253479621,1.921868873008666,3.6661278675808298,4.12025522828052
118,0.5056527242646468,1.9500821065475005,3.45992837081318,4.115411642515139
119,0.5273181858116125,2.013780727911223,3.2685975395284586,4.1329257293182415
120,0.5674715219140929,2.0972812937153975,3.104120477244681,4.144798630944281
121,0.6062174663732659,2.1801696942685846,2.9730992020309213,4.143650098788533
122,0.625174659424082,2.24391364410156,2.873193368949669,4.125996676771002
123,0.6727924922998259,2.287580076985449,2.780473367114424,4.110814290087466
124,0.7964992755915321,2.3182671635454253,2.6748296868899195,4.118496777707211
125,0.9158430530235903,2.337463955392434,2.553001219464688,4.105502684740268
126,0.9341963303756302,2.344753754966332,2.433750687431017,4.0265203839345185
127,0.880300875770521,2.3363296323644756,2.3342051423575145,3.9337542043395515
128,-18.228441088068493,-15.431112314367809,-8.302668928584742,-14.18065485165498
129,-19.2488061533991,-16.242904329387745,-8.105652550812167,-15.102479302632448
130,-20.1803857023213,-17.04271777513015,-7.8592861243724705,-15.962488652428037
131,-21.074636390873987,-17.833322044588737,-7.609704786692899,-16.789681120664564
132,-21.99397133495877,-18.62230743826293,-7.392802806520508,-17.617094456215693
133,-22.898875238990566,-19.41214530981788,-7.222130769159803,-18.381817522988985
134,-23.743027289564722,-20.199529257167868,-7.073205559027588,-19.027688302471553
135,-24.568556463624237,-20.964155551203632,-6.9318748710695415,-19.620089273028576
136,-25.419553158132334,-21.691879310993443,-6.7862133834733,-20.23610282174659
137,-26.284480167459723,-22.372558980496205,-6.635567559436219,-20.876323476410427
138,-27.13597655332197,-23.01792976664275,-6.490850681948629,-21.519398522336708
139,-27.92125009531127,-23.6476819206029,-6.371960057580353,-22.12007915888497
140,-28.599194024717974,-24.25359116300942,-6.288636946893626,-22.640784994683948
141,-29.234274527519784,-24.818190278474184,-6.231958417455339,-23.157212600349542
142,-29.893637188802714,-25.324630563480596,-6.170368289977875,-23.739026423946576
143,-30.504840225338484,-25.793412683495177,-6.06958427137007,-24.276123116949496
144,-30.9891131295781,-26.252293812058312,-5.901865563869568,-24.651154015083254
145,-31.393147077229226,-26.702255391774717,-5.714852172427529,-24.919245679710365
146,-31.78306750436879,-27.13792698322636,-5.618955242174666,-25.16488568441694
147,-32.18065307800293,-27.559895747050717,-5.660704559255915,-25.401269759641192
148,-32.58836895562123,-27.96721003663606,-5.798070580012457,-25.62333526608519
149,-32.95049528110674,-28.361317476251365,-5.941172073739601,-25.787279250505357
150,-33.21043504681504,-28.74073418136978,-6.006889609210032,-25.849453095699054
151,-33.42447505566173,-29.09151122564919,-5.976747849683103,-25.875997933996615
152,-33.65216832231925,-29.39661717047609,-5.904927787772117,-25.932277421572433
153,-33.827739988592306,-29.64164797244314,-5.858853468172338,-25.9373672815278
154,-33.87401086267111,-29.8193187809738,-5.847408025106211,-25.802708385847964
155,-33.790479633004736,-29.94000305017583,-5.8241254131463425,-25.556003802909505
156,-33.60343842985137,-30.01755713827349,-5.7603960483134635,-25.254089517000875
157,-33.36890937567076,-30.05365882392028,-5.682638077927693,-24.95109036975127
158,-33.13885875206588,-30.04508256697825,-5.644140901299174,-24.68469308548446
159,-32.87450349143661,-29.985283886500056,-5.635155506682464,-24.394746634559848
160,-32.52541044507447,-29.871551522850492,-5.577331910346475,-24.01267970163804
161,-32.13371532705375,-29.717241019545746,-5.468433662562225,-23.592827789029418
162,-31.746052750282438,-29.54097384554653,-5.402209776499698,-23.201603099325272
163,-31.342154742006183,-29.356705047512964,-5.427625378532163,-22.813652983182227
164,-30.890450167181996,-29.17039385140779,-5.486792204412039,-22.3886279597026
165,-30.354212630803122,-28.973280771515572,-5.479845998939326,-21.901140644063542
166,-29.717074254846626,-28.748324146816497,-5.402813677596916,-21.341723187452097
167,-29.067781538931257,-28.47842790483739,-5.354281350965486,-20.77769310054741
168,-28.49428591282267,-28.150722858440805,-5.365415777115134,-20.276907881920852
169,-27.93759659134897,-27.762006731695216,-5.364622350999091,-19.785355657185363
170,-27.319646116211963,-27.31714300729174,-5.289414188263628,-19.23868454386349
171,-26.66874755412105,-26.827900329059293,-5.119502054739283,-18.68709797855732
172,-26.028789812727574,-26.303858980939236,-4.871455921175345,-18.191296928805418
173,-25.412119262506423,-25.761087327876076,-4.600775888203076,-17.73822374181008
174,-24.819190193341925,-25.20227265359289,-4.363130880930538,-17.30200254411987
175,-24.1973319870995,-24.629871308199455,-4.184094790007575,-16.86258395406194
176,-23.49463354965644,-24.055627013024406,-4.048794521881016,-16.400080036664573
177,-22.76818324484485,-23.46878410472235,-3.9362898228773684,-15.944491500643649
178,-22.07769448931399,-22.83393747695699,-3.83751546237366,-15.516598085989889
179,-21.34930634654994,-22.13220341216049,-3.752696543233982,-15.01971693742696
180,-20.50499379940027,-21.373519486220182,-3.682578044158669,-14.366360751140702
181,-19.585763308610172,-20.560927229102578,-3.6369395214226783,-13.624120103521909
182,-18.65090679467019,-19.703540431830916,-3.6355331943331906,-12.887900828288661
183,-17.7189071303983,-18.805524945167296,-3.6700896694497045,-12.176010900150636
184,-16.79186492529379,-17.86821191044663,-3.6976839230277254,-11.485214845463432
185,-15.814594899290697,-16.8968187069412,-3.6847759721432367,-10.777006447566666
186,-14.73455776498158,-15.896504645776965,-3.6078366999980336,-10.012249969145682
187,-13.625222448403957,-14.871085839300932,-3.4712639103419476,-9.273423118283878
188,-12.56066773446779,-13.853369921108136,-3.3327172780172005,-8.627024203071683
189,-11.466500237520181,-12.905011946492436,-3.299249670931205,-7.913346694033395
190,-10.262415269675985,-12.04712154496419,-3.426589267571824,-6.979893059296911
191,-9.01281566265244,-11.2409493058024,-3.6885612342079517,-5.930925936765542
192,-7.808946740530002,-10.438608958541199,-4.012232921120663,-4.930540030591193
193,-6.684034577537033,-9.627615556272229,-4.345593719325412,-4.0325074167378
194,-5.638256040743919,-8.806883569345358,-4.6335497800221646,-3.2319670611669373
195,-4.609686339718151,-7.976598616285121,-4.775253929279863,-2.4462570217893513
196,-3.252446057951528,-6.86759323681729,-4.971719578817635,-1.4704974129975334
197,-1.9084919605712796,-5.777955244968292,-5.123985422719004,-0.47716939665678243
198,-0.6358016063206728,-4.719756851253783,-5.255987273138139,0.4553816072996396
199,0.6246531279736784,-3.693476767862773,-5.392853714196649,1.377994769160981
200,1.9494247427892621,-2.690729335729491,-5.559022974305072,2.363302276595904
201,3.3188891497805035,-1.7035995180861119,-5.768146300978652,3.3717393467658754
202,4.688824678543051,-0.7221654800400852,-6.0211381961582635,4.341929302992769
203,6.023014330864333,0.2692380039875477,-6.308954873896944,5.251519968842881
204,7.303534256285758,1.2827054769673478,-6.620209155736677,6.101215840967178
205,8.611619618349822,2.3174958828554386,-6.94516408001725,6.963517085453079
206,10.041412556528357,3.3640111214247277,-7.285611663892284,7.921595852339851
207,11.547772532250828,4.4095772942011475,-7.643412442104917,8.935251350219827
208,13.04529845312042,5.438698569393595,-8.027060452226387,9.934898672935834
209,14.538258573926049,6.43214113337471,-8.416070766699914,10.965112421492442
210,16.032515090119915,7.3769347014034645,-8.753144439477722,12.069455821674323
211,17.46165000560038,8.276188223694675,-9.007062484327324,13.172434062800008
212,18.75050531806573,9.14025060438116,-9.203356642069062,14.170671918758275
213,19.832984985887062,9.982344491928854,-9.393646592423927,14.97960696126633
214,20.67082381808715,10.808155930408985,-9.601357978805497,15.548821828535761
215,21.336369492819767,11.594015281528138,-9.823270297687873,15.956682052958978
216,21.92093944029337,12.306930252943896,-10.04810062044123,16.307375657320716
217,22.381671006317074,12.935255895779733,-10.293394758640297,16.553706204693356
218,22.644555369599253,13.474288318523703,-10.57764383184502,16.61074137069662
219,22.730416928090293,13.912434987062657,-10.853457988445037,16.492438125350635
220,22.675546882759143,14.241791907420893,-10.996617897300546,16.233200368136682
221,22.48403897816755,14.461166773691414,-10.923518771530599,15.840807566088017
222,22.159808138845545,14.576478677678859,-10.65210635207554,15.330869809662614
223,21.66457951318718,14.606223669153309,-10.251834582196592,14.698364739479493
224,20.98302376702826,14.575411413528284,-9.792557753957663,13.951023065516223
225,20.275496245154592,14.507818256848388,-9.343013315184068,13.216658067255949
226,19.71883294303503,14.424447362737515,-8.938457469489009,12.621905098396372
227,19.28424562241315,14.338714791964494,-8.608583095653076,12.107389236203522
228,18.8787021150322,14.25881305755716,-8.352430893341522,11.569211857853285
229,18.483013300299444,14.194678676922134,-8.144130638892628,11.017525039753467
230,18.09284237407978,14.151816803805962,-7.973926985519526,10.492115374649325
231,17.732570512524553,14.125382375466021,-7.856118193673078,10.028001539737687
232,17.432247628148623,14.103987020613152,-7.75518730116124,9.650293748170458
233,17.114962035232853,14.070826328993707,-7.569457478818673,9.285947297131731
234,16.696122771459375,14.009149409367637,-7.202674912049809,8.846772743892231
235,16.24363347970574,13.912013236812996,-6.678515633252321,8.378994046920296
236,15.854766005559094,13.779467690242425,-6.0841216916149765,7.959543809522438
237,15.515900421346911,13.611086663213745,-5.518233304329893,7.567511719920034
238,15.18653302395723,13.41094778269995,-5.062028815878282,7.167030637068085
239,14.851182142548847,13.194663278051602,-4.757677369671372,6.771168391114522
240,14.499386640997749,12.976633470331661,-4.568690511846693,6.398650393738469
241,14.172609598098003,12.7580621909691,-4.405479238372102,6.079932899993532
242,13.913458543703586,12.532438382241583,-4.171549818907258,5.834790494541386
243,13.645874800813393,12.28430364136357,-3.8508705098737597,5.5896989079604005
244,13.281647050568361,12.001220173524162,-3.47409428174989,5.265244439782543
245,12.867803002594085,11.695708522574614,-3.0708600698281803,4.909708532523717
246,12.481523101918388,11.383512695124002,-2.678508225155337,4.603276522724107
247,12.131588710560813,11.086481460145883,-2.331428063567211,4.356036593893565
248,11.803377503749529,10.80195564788445,-2.048276648762559,4.154683085707042
249,11.453032466321643,10.522000758714254,-1.8391864818784223,3.97036961143795
250,11.035246932820625,10.235064095925974,-1.6980269912056414,3.76764144098637
251,10.59676020572028,9.946233144632268,-1.5850961058999071,3.5741452183491194
252,10.20475098930357,9.666532992709504,-1.4643028907478368,3.426799050195654
253,9.826862693354313,9.403052657202906,-1.3175266057662078,3.2642645788373263
254,9.417072947939188,9.157435272573041,-1.1651811317620475,3.021689003916672
255,9.017448610538125,8.912700614000897,-1.0203077931916922,2.7557720740982568
256,-19.43425003192953,-16.482167753939276,-11.301187481387974,-15.321376156182202
257,-18.001587012999792,-18.393813089755323,-13.275657698210736,-13.803645915607406
258,-16.66447222737176,-20.336915802128836,-14.696527823128168,-12.338657403349192
259,-15.847825029275743,-22.82421075358249,-15.71630779717249,-11.32582181737556
260,-15.695939398332765,-25.965917867520837,-16.936351576424236,-10.841896339560483
261,-15.562125074723062,-29.346142152887232,-19.01996041487461,-10.451135562890965
262,-14.851335285543833,-32.55814005349977,-22.08423777505088,-9.471268360307768
263,-13.259816341449106,-35.406194730574,-25.739257013176903,-7.649568348944511
264,-11.208027780275303,-37.85500919659517,-29.46084578412044,-5.336741692213877
265,-9.149116650809415,-39.880651485162275,-32.766595943988726,-3.108289933658609
266,-7.533290780357583,-41.59006379343035,-35.30491149913068,-1.2883421257548415
267,-6.294150738214812,-43.22602180600868,-36.97704173018329,0.06568315274771885
268,-5.145622546375564,-44.99886071959542,-37.99079796122822,1.1340393439439662
269,-3.958423191966519,-46.85701035496925,-38.76255601042588,2.069640620920537
270,-2.6725032802433044,-48.51102440905651,-39.79769668035576,2.992395297454544
271,-1.3316065150523004,-49.69594936996158,-41.397342241440796,3.9220400212061812
272,-0.05655852586829879,-50.330956206950034,-43.45007319892761,4.798609504028917
273,1.1201491027831252,-50.58230907043419,-45.568881091135935,5.570309913499435
274,2.1994615859809756,-50.75071335203646,-47.28371747457173,6.203545635098688
275,3.0753604825744403,-50.91799284248268,-48.3464318702063,6.654560439539656
276,3.7181914874517696,-50.90796109856002,-48.723953168674164,6.951223581452904
277,4.412546916823666,-50.58453651452759,-48.44953952771112,7.311822726685692
278,5.415235108041176,-49.94089574143166,-47.60763624092223,7.922817767686771
279,6.6337653623251995,-48.931287620390705,-46.303958172106576,8.725018082980093
280,7.84645208167745,-47.431171400246534,-44.59932894440073,9.543985514461934
281,8.777675678833216,-45.403518992425994,-42.65937749763931,10.125271741096906
282,9.22414116341369,-42.923639184353384,-40.75982047075832,10.267521676049228
283,9.397171679556287,-40.066807990719894,-38.896324875858774,10.09538767440274
284,9.56314289373064,-36.8543264114598,-36.76737837308522,9.809597004547749
285,9.543986516497585,-33.22705779226622,-34.0990018924104,9.352173893326363
286,9.116652018112335,-29.130941787065762,-30.76695569857367,8.63963597696628
287,8.394754077177588,-24.573309187640568,-26.82808454218794,7.780677194266618
288,7.539308910124119,-19.622253136159284,-22.36174386996291,6.87828626643981
289,6.584156033498503,-14.341797548995775,-17.379699940376927,5.8976955596322185
290,5.542140826762287,-8.681374523082964,-11.738934970444776,4.782527323416522
291,4.383610804261528,-2.511717417121056,-5.303694234375451,3.496286315265098
292,3.064751840050681,4.138736550745473,1.8425226245408393,2.0188336874654436
293,1.6517682477331215,11.07789331920107,9.459731926110774,0.42080561774405445
294,0.20701175500240554,18.20188749473925,17.41956599221978,-1.2285766339418716
295,-1.3673392719452537,25.56144490112865,25.812558690908816,-3.0145619229787632
296,-3.1786664878173534,33.20955113964195,34.78756346256741,-5.034798349994349
297,-5.195745503692703,41.156858433976204,44.43379860781065,-7.231530910607759
298,-7.3573250318196735,49.40947172137889,54.6988550590783,-9.529004261583928
299,-9.649187679682864,57.93795698904449,65.45091722185191,-11.962327556228045
300,-12.054390055636897,66.65670191254264,76.54230304155011,-14.56361470028737
301,-14.553261712358806,75.47459953119873,87.98457232665415,-17.286145872943003
302,-17.12700610940047,84.33695350058548,99.81853608148042,-20.070720328377284
303,-19.71079928585753,93.18008214478704,112.05748938216807,-22.851584497736606
304,-22.253379010440536,101.95238421538969,124.62844336332867,-25.583937427163434
305,-24.816807705220395,110.60074913532029,137.41050937762094,-28.342457294180154
306,-27.46613785079523,119.07555641367979,150.27051284353956,-31.19936088297784
307,-30.13840602470819,127.34389323527769,163.168297421848,-34.048873903454336
308,-32.75755187922207,135.38485232822657,176.1031426035584,-36.77366367712492
309,-35.33287787756901,143.1767477297371,189.0519286650841,-39.41501857270113
310,-37.88759840053687,150.71710611358327,201.99565970552564,-42.041977121983834
311,-40.44239171460833,158.04426649122604,214.93316986968316,-44.67210600803319
312,-43.00023066618274,165.20069953055489,227.85025105638036,-47.30680039423118
313,-45.461913111885394,172.20959551879437,240.67949078951136,-49.88012859529454
314,-47.73075653660332,179.07056199772597,253.34144072182343,-52.33109371557895
315,-49.87110349726747,185.72813005086988,265.8304593513436,-54.76038733020431
316,-51.980289126322,192.1031217753778,278.09206937315975,-57.27835469697993
317,-53.994880090183145,198.1303296849944,290.00379189830574,-59.77864413122523
318,-55.856231155895905,203.82740435969825,301.41056517163855,-62.145744212027
319,-57.61538258053086,209.22414289104586,312.2097357008291,-64.43606223199107
320,-59.33211798004302,214.34544790632467,322.37611466455184,-66.72449163639804
321,-61.01606880675453,219.191923644277,331.9649427744839,-68.99657135168603
322,-62.65025211240096,223.77496674989965,340.9464667732959,-71.20823625825362
323,-64.15946803461492,228.1101848998123,349.26329042347794,-73.28413289651726
324,-64.14830397407495,229.91957016267477,351.2508422616293,-73.73992343805982
325,-64.136077715611,231.52874292808406,352.9780255436706,-74.16523068408287
326,-64.21988818048959,232.9540955846047,354.44299262685985,-74.63463029060335
327,-64.3547048455432,234.18597798004959,355.5990727352653,-75.11457454171655
328,-64.45935721055395,235.2057764645178,356.4150918539726,-75.54720096953241
329,-64.51942871815926,236.00218603260748,356.85216843550535,-75.93928283490158
330,-64.54059865242111,236.57030949779906,356.84188750141897,-76.3090788262774
331,-64.57365655202615,236.91456823675728,356.40625033485503,-76.68987760555173
332,-64.66091524042886,237.04697230380643,355.6746914842051,-77.09538657196212
333,-64.68408622894376,236.9896988320017,354.703001906181,-77.39361474284634
334,-64.50992830517596,236.75771781788674,353.4272411361818,-77.45015517917865
335,-64.20573504977176,236.32603185997624,351.8339532193663,-77.3473606390432
336,-63.89361221507001,235.6668876804965,350.0179655301928,-77.22942144848777
337,-63.59505205636213,234.75693644922004,348.05051563002814,-77.1302285008937
338,-63.307728043213515,233.60071325596294,345.9076532070553,-77.04906805608874
339,-63.035857283013534,232.2012654543115,343.5100068086216,-76.97593719420331
340,-62.77205509388161,230.53461035628197,340.7835401230056,-76.8803623578184
341,-62.544292269984986,228.59594407298562,337.6784462431657,-76.77931416756645
342,-62.38017047614342,226.38327350393837,334.1662023330518,-76.69119049240123
343,-62.213621744913155,223.91312774161904,330.2974940255559,-76.5189508782265
344,-61.96885736911855,221.20819958701372,326.2056484371667,-76.16362543487996
345,-61.692999596829125,218.26669702840147,321.98613522806033,-75.69621970126273
346,-61.44409051968436,215.09343492267553,317.63923708020224,-75.21419409757745
347,-61.15795607831086,211.69595504511244,313.09854713875944,-74.66911558120944
348,-60.75002250140853,208.10783807796878,308.2528029282829,-73.98414195011013
349,-60.186851938345214,204.3719665640355,303.048742857566,-73.1458182248521
350,-59.47215104069891,200.49322013423162,297.45904075154243,-72.16782944256353
351,-58.708272366230624,196.46903713567212,291.49356847984575,-71.1250380662655
352,-58.00669549114247,192.27906177769418,285.1693291973517,-70.10172028780676
353,-57.31800270177805,187.894788317112,278.54853123381935,-69.05994567619898
354,-56.551495288489754,183.29526220182194,271.75005256055715,-67.93702832354249
355,-55.72378242502154,178.45086662581832,264.8293165972708,-66.79135431993713
356,-54.873244289553845,173.35481705449232,257.78362659427756,-65.69072126930267
357,-54.02015729502409,168.01157042066077,250.49315317384125,-64.6092652567677
358,-53.17285855627255,162.41163604016788,242.80668792953347,-63.490433085103405
359,-52.23896102406867,156.54256666478727,234.65739922635711,-62.247942876615916
360,-51.12410118412556,150.41868245212,226.05814443199452,-60.81410628821753
361,-49.92280359378759,144.088811922683,217.07995175568286,-59.26785909374396
362,-48.74411242823214,137.56706976478915,207.83264074354878,-57.70821585775343
363,-47.5068052977451,130.79467368348222,198.3925047609155,-56.09027391067122
364,-46.06090980177134,123.66353534619253,188.75253244253665,-54.30308166937631
365,-44.247593254426725,116.19021988081084,178.67140999476132,-52.210911865836685
366,-41.93795090309965,108.53853195616946,167.7373969047392,-49.684232323543974
367,-39.197474367977414,100.72008609363975,156.0209718907194,-46.727663594195526
368,-36.13721636866384,92.52582478604417,144.15733698556807,-43.3946479442273
369,-32.703050837262985,83.89856012402042,132.42129031086412,-39.64244712881976
370,-28.831880703162124,75.0675066358801,120.48650524527636,-35.55542108937363
371,-24.4935490399995,66.25442569883108,108.14226686996676,-30.95308925585125
372,-19.790344136963462,57.49599366089007,95.73637994801109,-26.020861112390946
373,-15.270826601314745,48.82181123115624,83.83290187895841,-21.425381906192435
374,-11.508514682879493,40.3905951630894,72.61170543515361,-17.505275358446738
375,-8.506482985034346,32.308252626365324,61.84316998590635,-14.275314284233634
376,-5.971584050208307,24.455637038760614,51.162623452387884,-11.468062009333968
377,-3.670613802209577,16.585451127917565,40.20205504916609,-8.885252320977106
378,-1.3397038740312164,8.829302714645564,28.728487422295785,-6.327796388523847
379,1.488587967344621,1.7761975486039456,16.839214141745813,-3.365769927263156
380,5.054365668816587,-4.327093615705922,5.140721246015589,0.1523059064582113
381,8.771385929996372,-9.77530868022942,-5.588574165855901,3.8407594982031665
382,12.00226209560795,-14.915875181827053,-15.039166575019584,6.974556966202036
383,14.319048597270793,-19.933358479359907,-23.416400692939213,9.17327312011038
384,13.298694067215793,-46.51349022295889,-88.04522709902054,18.064832478156553
385,13.627447564298171,-49.01011128640725,-91.34179580309826,18.32164525288643
386,13.999560864535022,-51.47375417629255,-94.56023632919204,18.583555951923714
387,14.309053026581108,-53.92110493372184,-97.68895298156944,18.749686636389626
388,14.442245978042843,-56.36153166679446,-100.72790337812444,18.73394145570183
389,14.495377629148944,-58.78922221375037,-103.73360957234276,18.68173707112497
390,14.58849910114967,-61.17462497433274,-106.80183617418916,18.75354425891387
391,14.716802986032013,-63.51022587218658,-109.94353344766284,18.91291684932585
392,14.84291966212107,-65.82635800895133,-113.06236995098195,19.074178835320524
393,14.912856055380367,-68.13028058723071,-116.05158884779694,19.19064302123644
394,14.882095389950711,-70.4234390033909,-118.8788859694934,19.226655101972096
395,14.811283757828928,-72.69774176951714,-121.58240922507301,19.210593729315285
396,14.779079793482003,-74.92692295995543,-124.20510983378666,19.18696535559165
397,14.762739218759787,-77.05457213447038,-126.78117672481028,19.10814868218351
398,14.721276830963218,-79.03542995914022,-129.33989348088318,18.92695032710089
399,14.67219347407493,-80.88026285066373,-131.8782216836671,18.71101309721279
400,14.62606239761895,-82.62364292481526,-134.340179465599,18.530283612443274
401,14.55703256316739,-84.29849295799588,-136.64173843537642,18.354663417921234
402,14.434912946894464,-85.92876780509324,-138.73030732784378,18.13715740429138
403,14.20297236052599,-87.50861870201425,-140.57596839093728,17.860681602698758
404,13.836150854573102,-89.01693637891262,-142.17576279989908,17.52240305121093
405,13.452133799417817,-90.43627491853444,-143.5358054450849,17.170581838908323
406,13.172946949509877,-91.7573802491839,-144.66556137281256,16.85240530752676
407,12.961520841435068,-92.9900795540363,-145.60131606684527,16.516465639430535
408,12.743598610522138,-94.15300935049508,-146.36949878946268,16.10595103638831
409,12.505353377600537,-95.25915312554227,-146.98414687734115,15.665255060463458
410,12.24264970313048,-96.31454320493802,-147.4887481743971,15.24689564790178
411,11.97809815058917,-97.31312283066288,-147.94643103183316,14.847747954939226
412,11.73424645047792,-98.23983621711984,-148.39527739560344,14.444695862308846
413,11.429582712332914,-99.08107116615544,-148.7799988563229,13.969708851844135
414,10.995888588753118,-99.82130497538668,-149.01209550201108,13.370898901519528
415,10.54961809515364,-100.43561254373927,-149.02293207275932,12.735826341199145
416,10.212768879882487,-100.90696500253642,-148.76732793552628,12.161129766323837
417,9.924290275364873,-101.24298418921776,-148.2487387981763,11.592740379663844
418,9.593850890843653,-101.46003521394093,-147.49771026390175,10.956997100885276
419,9.208146979256732,-101.57288050372648,-146.53537468094967,10.268054794468465
420,8.778167160851137,-101.59047687573559,-145.37737392001338,9.55634550128789
421,8.374233982694868,-101.50059626373557,-144.0336946641003,8.864277728371222
422,8.05671983854667,-101.28745848494269,-142.50725569180915,8.21985447323075
423,7.725732493977185,-100.95762775272685,-140.79801551828632,7.53223278021637
424,7.272379098861376,-100.51915588430418,-138.9124308322684,6.714070762137263
425,6.762122347609629,-99.9642470394479,-136.8700420448606,5.856122453911076
426,6.284082053203356,-99.28065612725824,-134.69563332923198,5.06372895320791
427,5.826635058785002,-98.45295207190651,-132.41173612427843,4.291000803298113
428,5.355811138161424,-97.47143874352281,-130.01442871030966,3.4668397902119623
429,4.830274961990131,-96.34762739441342,-127.50461016438366,2.5741661610994746
430,4.212872971544503,-95.10140916013513,-124.82507176951636,1.6109056262493038
431,3.551452567911716,-93.74837823674866,-121.86949128674158,0.6242376816090842
432,2.8990918764486544,-92.29834443041958,-118.55645018731124,-0.33855398062809744
433,2.1859532986918513,-90.7495968981456,-114.91725973677465,-1.3478539412292998
434,1.3446826682080926,-89.0931020940216,-111.04114069613419,-2.4718928413165533
435,0.44609038067633,-87.31965101918088,-107.04719889555554,-3.620548033531903
436,-0.4246474054494416,-85.42217822534296,-103.01308941250294,-4.694926915908277
437,-1.259600305868272,-83.3975194599599,-98.92096714248346,-5.728413649450502
438,-2.075797809500796,-81.24647243295153,-94.66486975225787,-6.7806462528494
439,-2.9280617993583107,-78.97734368665832,-90.13144490821527,-7.879499950582586
440,-3.8607640716483194,-76.59484270983648,-85.25695384254254,-9.03791486219384
441,-4.792475858287994,-74.08335980150771,-80.02511092203324,-10.206902453127777
442,-5.637148011411565,-71.42618330756243,-74.47381908330078,-11.334903454151796
443,-6.456075692134197,-68.62492201441752,-68.66852993460226,-12.472680167176167
444,-7.332983208365807,-65.64481585765564,-62.78130677335226,-13.65872641877682
445,-8.267080853652024,-62.406188538806475,-57.142354498376385,-14.770801884982339
446,-9.23926127990179,-58.88942635430308,-51.904995533856386,-15.685293406080948
447,-10.227889501319927,-55.16187674869211,-46.96260708065776,-16.433385659386275
448,-11.213544074905814,-51.32013418457602,-42.203579502665164,-17.100485923767753
449,-12.230619374981465,-47.44550922168026,-37.607855403909426,-17.731567424426334
450,-13.315619565427745,-43.59470043578824,-33.20824724240593,-18.34609060237962
451,-14.435070822901338,-39.803250886323895,-28.964665999753652,-18.89012248737169
452,-15.585626519335412,-35.2967278147102,-23.526678305197372,-19.453284206086337
453,-16.734029817046704,-30.94842190570807,-18.25571003970135,-19.93747870933587
454,-17.88501629882999,-26.76331299021001,-13.097834795861896,-20.43886400591338
455,-19.00418240576383,-22.777124591553967,-7.990844111209489,-20.94660936951755
456,-20.03205535778903,-18.989751748032717,-2.905848371686917,-21.419931617181657
457,-20.865270724342157,-15.385455814968465,2.115349241303271,-21.857023552700625
458,-21.421032841635803,-11.936415015544688,6.983613171244927,-22.25627143185062
459,-21.75663961459143,-8.633949643065638,11.610837917198305,-22.613799214228393
460,-21.98038281657722,-5.472600776535963,15.930177982397588,-22.930477615769753
461,-22.10449949305444,-2.425037481699688,19.952089179405412,-23.17040109133604
462,-22.13081356001422,0.5331389085920559,23.786619222601644,-23.30495551413529
463,-22.174298866092748,3.395124643939195,27.580213802056193,-23.410615360228064
464,-22.33163969495672,6.143196427855688,31.39062293040947,-23.566299535911135
465,-22.53139111702564,8.769048583052859,35.171691913641475,-23.70986591717078
466,-22.66246434112185,11.266588784767984,38.86862034885964,-23.749429555335258
467,-22.689428801611612,13.625653509715388,42.42554977360392,-23.670796991470695
468,-22.61639483780135,15.840390902590316,45.78128334879656,-23.495392763081366
469,-22.517771570147538,17.92150259857556,48.85804914627385,-23.297143843231943
470,-22.478101502593965,19.87016971659081,51.59495031929749,-23.15639056822122
471,-22.443328980701903,21.694210317269256,54.050701196600706,-23.027032553873347
472,-22.327569853840412,23.37278823633558,56.39272259826706,-22.834935353569378
473,-22.17305436817622,24.88527027615158,58.68562947530577,-22.650818163329383
474,-22.04246376881987,26.24845188091183,60.829872953199484,-22.555667787893878
475,-21.910162582651235,27.46285493707049,62.72173548548169,-22.467209581978523
476,-21.737028389780875,28.53805765556313,64.39528419717502,-22.286990998626585
477,-21.510032278878224,29.492824670673105,65.9921299020672,-22.03696681161945
478,-21.227146024657994,30.35109542584468,67.59107350454508,-21.775600760776435
479,-20.935225503126418,31.142520402538004,69.15629092899071,-21.58437350036601
480,-20.682613676495052,31.89797662224054,70.60917620261064,-21.518076104024736
481,-20.42301856006349,32.647162538803045,71.89649452597438,-21.450313197537326
482,-20.092519916467108,33.406719239730904,72.96974751061478,-21.22200088828301
483,-19.704547421206485,34.16614836355712,73.81154526728052,-20.865000290478623
484,-19.294586647951725,34.90002704650703,74.41274092281107,-20.469615830805463
485,-18.891940286043155,35.57601373171378,74.79686083270654,-20.056561552176184
486,-18.518377078164495,36.16714737913568,75.03976687716673,-19.634056353532117
487,-18.12556658350238,36.68069285203909,75.22708744113646,-19.182794845818552
488,-17.659778439199528,37.13301241748822,75.3844589067227,-18.677263317595436
489,-17.191057177853413,37.507574635113215,75.49172699953048,-18.191495891194318
490,-16.8045152569648,37.782829464373634,75.48779831061957,-17.804916971113435
491,-16.455971603744633,37.962384168077065,75.31679064824974,-17.4524176897268
492,-16.074069195891713,38.056599537040015,74.94101180460004,-17.04287407835375
493,-15.651305379895273,38.07390809566461,74.33812610721748,-16.585586911847773
494,-15.200599202629965,38.02190592033953,73.53101240559046,-16.119262598222107
495,-14.769952116299141,37.8951235729514,72.63173589232018,-15.691339601293732
496,-14.41106747878314,37.68629449625942,71.75621504751034,-15.340987162952441
497,-14.061750388191982,37.40748192977037,70.9701269166063,-14.99022476573159
498,-13.651279427154495,37.076581095706096,70.25207815830885,-14.550021947637457
499,-13.284206421150271,36.699788833036855,69.54891925554075,-14.114672894052505
500,-13.079386242563546,36.28133827022262,68.78228246744845,-13.803817292594726
501,-12.975509713286062,35.83286183556207,67.89310644565536,-13.561423291401482
502,-12.864910410949076,35.362629372624774,66.85231603610961,-13.291654898989748
503,-12.691469342508267,34.86841875270292,65.67241491399005,-12.9735820219462
504,-12.427611477248183,34.34372606830287,64.38123238426134,-12.6050201687397
505,-12.152388011899024,33.774400238454916,62.98792149997642,-12.228263252140563
506,-11.958552884512105,33.14947298892512,61.48691500123097,-11.888909522217936
507,-11.744348330174603,32.49022628181933,59.868094616266504,-11.48407439116995
508,-11.381517128241288,31.8134157899419,58.132176028847645,-10.909172742252457
509,-10.948879167782275,31.121684988866786,56.34157708468566,-10.294651103641783
510,-10.56632260219589,30.39170372293605,54.61186135823766,-9.811288074883379
511,-10.238849401509462,29.61959403353644,52.984899972560086,-9.444598174927616
512,-3.91030759987723,-28.337340134149354,-36.8836706148173,-4.532865939830998
513,-4.054818598072234,-28.907243505734986,-37.62815173383308,-4.577149025077325
514,-4.108437987671376,-29.466892970505615,-38.25650907729504,-4.552915317490511
515,-4.179593999756279,-30.012483150513354,-38.78403161349863,-4.551268187917144
516,-4.382368307754297,-30.54395171940362,-39.20509057360607,-4.661876681636823
517,-4.652053879934859,-31.057763885850335,-39.53181721482707,-4.7958611876197965
518,-4.890247001828253,-31.53540610613855,-39.830401679315436,-4.8468050651919246
519,-5.053578843202226,-31.94966860222857,-40.20477964218035,-4.829546909195277
520,-5.1265740222790415,-32.29332597266623,-40.71897074812154,-4.788031789513275
521,-5.176849910519751,-32.577619945247086,-41.33721828100078,-4.763781247432003
522,-5.281327214881742,-32.82199114737394,-41.94927189574787,-4.788345398102646
523,-5.38499031789704,-33.03010773044544,-42.44150425496602,-4.808456082316694
524,-5.420801865270106,-33.20312824823781,-42.79265433154987,-4.761413579184332
525,-5.452841942387983,-33.34207971045429,-43.06702053062173,-4.692807761699387
526,-5.55007444478931,-33.45164816015064,-43.318689730026456,-4.658384164194683
527,-5.681697080169493,-33.53331960547389,-43.56761217945183,-4.619919167403701
528,-5.799929652558449,-33.5848900099127,-43.828788808066264,-4.534651884588522
529,-5.872365302152119,-33.60823629462498,-44.06423025972063,-4.421061843006977
530,-5.881988171083473,-33.620520698041204,-44.219411268969075,-4.308057978088522
531,-5.888767425690631,-33.64902721646249,-44.24556889560737,-4.227181725618083
532,-5.95423491311656,-33.702354342760145,-44.119679629965084,-4.200190048181287
533,-6.01673113222989,-33.7688127659672,-43.85815454380499,-4.175220680627804
534,-6.0080225786864005,-33.82653711907479,-43.508581262422815,-4.103725226810754
535,-5.98438242086611,-33.859640802009096,-43.16370006653783,-4.0560899381312385
536,-6.013326380301152,-33.858924856052035,-42.87633137124431,-4.106027210881744
537,-6.0860478911279055,-33.83055882661066,-42.6251851756315,-4.211738069829782
538,-6.176146586331856,-33.78065832272201,-42.32156416192284,-4.3093403636799685
539,-6.244468071997993,-33.704395007442834,-41.907487233639635,-4.370109168934185
540,-6.261168831065343,-33.58496837208967,-41.40419551938375,-4.382093653812208
541,-6.287885959376076,-33.40990365026562,-40.874723121799754,-4.391172417943717
542,-6.3875437009659475,-33.17333126979642,-40.355074909136825,-4.444516812845908
543,-6.492531159785946,-32.86338973002195,-39.851363043502296,-4.480669963198125
544,-6.525269269161303,-32.46566334123389,-39.3393434445041,-4.435371794173469
545,-6.526415930982669,-31.985958139089465,-38.78749019247735,-4.366426991737148
546,-6.5476980483431335,-31.44768729887431,-38.16565257798279,-4.341501804727541
547,-6.575150443293589,-30.870343485413116,-37.47415607172872,-4.353084032675026
548,-6.584785523585937,-30.257435408946023,-36.712320211774184,-4.373265096914435
549,-6.5389523003033565,-29.60426131191232,-35.880926808462334,-4.343582119968179
550,-6.41847116214058,-28.90213005594143,-34.96234168379686,-4.2244885757214625
551,-6.318524844830183,-28.15700758408111,-33.964418701739,-4.118979282702642
552,-6.3338515294931526,-27.38026781684152,-32.93389267566265,-4.134440673430784
553,-6.4022625631221874,-26.576527988054593,-31.906478883338192,-4.194719478151735
554,-6.439820365110639,-25.75131520142909,-30.870839015453395,-4.200980700232127
555,-6.476635134542286,-24.90723020007103,-29.797518021475877,-4.1989902409485005
556,-6.552912513459468,-24.046193292790466,-28.655470260442762,-4.242971866552176
557,-6.658138143106459,-23.159368030237786,-27.46789181321124,-4.298229883829185
558,-6.770692079769854,-22.22845408764307,-26.269422318480505,-4.323437050195923
559,-6.834362226228433,-21.24743772253436,-25.069088001938077,-4.282938457427299
560,-6.810409880936039,-20.233678791650018,-23.85090679531028,-4.167179722872865
561,-6.778428643029733,-19.210564024574964,-22.561034257073306,-4.088271639604589
562,-6.8299910790153096,-18.178183556907253,-21.140854410178914,-4.1529080307906465
563,-6.949647038123108,-17.114638407096287,-19.5507087135377,-4.284595755532205
564,-7.093655497582361,-16.002605640256757,-17.793582963142974,-4.378696201166134
565,-7.241295477865477,-14.835854944762529,-15.968174507344093,-4.458953052304621
566,-7.374809660645443,-13.616767888367729,-14.168475877469955,-4.567185216143194
567,-7.509499425692525,-12.352843177904052,-12.430927591936987,-4.70057738969814
568,-7.662397904633114,-11.046940780677177,-10.716741431008863,-4.847693380333755
569,-7.776168867932514,-9.69779474237103,-8.98302185465787,-4.960239628093837
570,-7.797511251027211,-8.294907206233674,-7.2218595115233635,-4.997431916585026
571,-7.780993567385232,-6.830801818468853,-5.417305509868046,-5.01658427636549
572,-7.803996289084379,-5.4058419149329815,-3.6667470096358765,-5.089646519507208
573,-7.830167010287559,-4.228899540203644,-2.160467509997928,-5.176771640482781
574,-7.832637173456247,-3.38958935094582,-0.9712654616210166,-5.23769882303873
575,-7.839425106184381,-2.817509637016392,-0.03218450451634053,-5.309471038778461
576,-7.891161184002514,-2.4202438642476753,0.7414575951627267,-5.444759022013723
577,-8.065967104237053,-2.1153591878063573,1.4195906831031793,-5.684030402788026
578,-8.407830061010664,-1.8534917087463705,2.0327477706628536,-6.0387137922187595
579,-8.778682558221096,-1.602822660237281,2.606007067229895,-6.421370341165074
580,-8.928695892414254,-1.1062701130573116,3.3388345453754384,-6.613339549500368
581,-9.030999565086441,-0.6236914450688613,4.021680349476212,-6.770514093878241
582,-9.204473242466156,-0.160523312504124,4.657702750286279,-6.956670506790362
583,-9.442010281667915,0.2723841936201441,5.240995336246484,-7.148854258720065
584,-9.702048490594436,0.6647620924656379,5.775428685437623,-7.317979231470212
585,-9.972557265794684,1.0127856332058442,6.298484365557204,-7.502550835596126
586,-10.238711019956753,1.3171448926720315,6.850331605302016,-7.746401556374139
587,-10.514624353836327,1.5795833654365998,7.440493111122085,-8.084021180135263
588,-10.814085885657223,1.8054176951573877,8.056708884909046,-8.51953237999505
589,-11.058914301476502,2.0052430461393023,8.667258510177819,-8.931598057063734
590,-11.167478126365967,2.190745844606346,9.234507611888072,-9.190036553173366
591,-11.185145485642543,2.3724381952179168,9.736287675672573,-9.343504363324003
592,-11.190363186677851,2.556629978640331,10.167708036987953,-9.491025371359015
593,-11.187894769316813,2.7412363377205593,10.547774697403879,-9.629535145720457
594,-11.16860713975791,2.9209654271324337,10.900039343426561,-9.735103646736906
595,-11.144062709955099,3.091718399798869,11.222622816785693,-9.80645933649927
596,-11.119807719449737,3.2576942019541333,11.499187689277644,-9.839648761539394
597,-11.124099572083948,3.4235390860672092,11.7110719598057,-9.8739495081878
598,-11.171092019070196,3.604271243806919,11.841684219375896,-9.946877449865818
599,-11.15937578948183,3.8247878541735774,11.889565217557655,-9.970956104789295
600,-10.986621191123877,4.087936767586726,11.873643605098923,-9.853651608379632
601,-10.71430149504506,4.369147378077895,11.818311268942544,-9.686468677500123
602,-10.450653831321624,4.6401808509527935,11.758872399680829,-9.590684348587976
603,-10.22753275944863,4.8811169643957735,11.785223814431307,-9.529916588188069
604,-10.05116698384112,5.076589114478728,11.94800425040501,-9.433789034346889
605,-9.903448636819155,5.216338100503036,12.20204891246656,-9.297360034258633
606,-9.751804621397282,5.308149768657442,12.433067511033148,-9.134872797487647
607,-9.632421143603997,5.375277763778193,12.587278948827265,-8.999052242159236
608,-9.582182821138293,5.4348059674855005,12.709415672802702,-8.943013983396165
609,-9.518478645230939,5.494603976944277,12.855229501354755,-8.918148835086857
610,-9.35036248618349,5.552215067428823,13.043570108441829,-8.849883316742073
611,-9.095045609211065,5.5996748145316,13.232077854768468,-8.741208439814676
612,-8.811417939407336,5.628417859850481,13.358490814383117,-8.615435137721478
613,-8.58599849079884,5.632539523958254,13.372218561640912,-8.478984750329953
614,-8.486629615199156,5.616522496667447,13.288488739254577,-8.337090880086517
615,-8.423514603060829,5.592491398973417,13.139352255619833,-8.156442640261334
616,-8.27396454029112,5.578586037501908,12.96886907863283,-7.908739314319906
617,-8.083778283481239,5.576470167244578,12.746223924670897,-7.669456969675956
618,-7.935914092916493,5.565578401741684,12.456649867324048,-7.523103511035044
619,-7.805410071762053,5.527171434060448,12.132250362749044,-7.439128908989103
620,-7.6520198403073545,5.468121011033548,11.86698010910633,-7.351921060939091
621,-7.464388025002658,5.4188015671286305,11.71504074058708,-7.224754506073294
622,-7.241639121085688,5.401425341282945,11.631135028811965,-7.035164275789553
623,-7.0597696948605995,5.41665807167015,11.517203939022751,-6.821721403075773
624,-6.990222026919769,5.452705785812964,11.348802859256068,-6.635727091856567
625,-6.926873968010526,5.497820914525351,11.199639611240794,-6.416439674288793
626,-6.740695913928213,5.543068602044723,11.109137296331632,-6.095584462808739
627,-6.494458359758089,5.580250196114075,11.04271119529042,-5.757506595002755
628,-6.293511471872223,5.596528077182996,10.972615127345312,-5.506639787541753
629,-6.142297571895211,5.577847992383764,10.920931283155163,-5.3194872688866255
630,-6.01737791998662,5.524985742110466,10.904372446197018,-5.138472121937953
631,-5.867766850195352,5.45327943030445,10.906988973730002,-4.9305779108234455
632,-5.641640284209923,5.382023540162933,10.872852654442006,-4.673523368357271
633,-5.417154253863694,5.321983780275034,10.754752270294194,-4.421251799940053
634,-5.2845112990989715,5.273998269354436,10.550232267499148,-4.235509636878832
635,-5.1419035479370985,5.237497087685626,10.263027142333488,-4.029317663362597
636,-4.863068072511454,5.215605590082082,9.875807913429568,-3.7017528754413145
637,-4.495161167833776,5.207943637825672,9.388589702596123,-3.3293863610206276
638,-4.131694005854861,5.197508114077138,8.86125440281608,-3.0222413614673638
639,-3.8230537008284013,5.154752540051691,8.405730802278564,-2.7773640492941247
640,-10.031301010538185,-19.112982762530557,-18.545627400752867,-8.835297228551987
641,-10.531315201340599,-19.578825415757464,-19.076366269603685,-9.172483131956175
642,-10.91819906901126,-20.01295083977945,-19.620983673862685,-9.430254728064453
643,-11.212931688007819,-20.41345274360232,-20.159486991305467,-9.67208454273316
644,-11.467532247759468,-20.783560505314348,-20.669059117796564,-9.97095731277609
645,-11.681298225637391,-21.13450453934468,-21.12821458606315,-10.266154577403807
646,-11.855589910178931,-21.479301029960578,-21.521950183362797,-10.487312879174805
647,-12.006009073538353,-21.822394226641666,-21.840778648560523,-10.653885830522524
648,-12.145148328536639,-22.166232340232035,-22.098314875776996,-10.803552099981756
649,-12.312772438209828,-22.52031804211255,-22.337526281621734,-10.976812388792005
650,-12.532767082050626,-22.88666592126368,-22.618837390074802,-11.19920238324025
651,-12.729719284236067,-23.258738964843225,-23.031410119329564,-11.40368686663845
652,-12.829876237360137,-23.616352829410975,-23.62698726183722,-11.521207358479106
653,-12.884031408643454,-23.937545126720323,-24.338578440989664,-11.601826130818377
654,-12.959370978137589,-24.20699896731494,-25.057066266963066,-11.714320762471889
655,-13.043988930723767,-24.43270118318405,-25.69921981584593,-11.859432796238439
656,-13.107547432613472,-24.62996586989616,-26.20620502544104,-12.016963980575676
657,-13.116041820375806,-24.816616733963958,-26.58540186999806,-12.149125673880624
658,-13.041398025158923,-24.99513516398437,-26.85893313645561,-12.217250496372547
659,-12.927893321787126,-25.15403962708526,-27.03003459762032,-12.247542786061512
660,-12.821309821231813,-25.272866563354377,-27.087862935975572,-12.273841000558111
661,-12.657583741183078,-25.334851121640185,-27.082093286504445,-12.246042870351797
662,-12.372199251378747,-25.32896007582083,-27.12206259063817,-12.12088727672137
663,-12.018357172195588,-25.252383105437225,-27.266792532375046,-11.961596702495736
664,-11.668099441181601,-25.111995471847926,-27.490169267285495,-11.839637078980308
665,-11.33540216062272,-24.92465490738647,-27.760467878547082,-11.756801497211441
666,-11.023421724326308,-24.71053486487674,-28.022408110006875,-11.694710149676308
667,-10.724261384142862,-24.483220310451017,-28.238734538258498,-11.612820174023202
668,-10.429041613831847,-24.25527707069838,-28.38850759787429,-11.479291971600421
669,-10.194201627401672,-24.03288179897899,-28.45885225988438,-11.369914134195776
670,-10.060513664369141,-23.822270454648248,-28.447594031228896,-11.354604428780625
671,-9.935635996767777,-23.619649422859943,-28.35176946542442,-11.332865933583472
672,-9.718857108319959,-23.407254293984934,-28.1803628468282,-11.19395016682596
673,-9.424883222169713,-23.16250682853037,-27.969400733854567,-10.98692351924115
674,-9.099550295224631,-22.866718370323106,-27.755590508495057,-10.784222311049978
675,-8.77812110114365,-22.521365629813197,-27.567967133237502,-10.582514892504543
676,-8.48862741405907,-22.139499354483473,-27.407537372921357,-10.367868033012641
677,-8.186164279430407,-21.734302304340876,-27.203921143606305,-10.104802341485309
678,-7.827012105884391,-21.319348142969197,-26.885436341245047,-9.769584118294638
679,-7.499896494818322,-20.908805840542993,-26.45859059296616,-9.469381387927672
680,-7.29049216099986,-20.50584980510047,-25.963178696042533,-9.29702340115032
681,-7.131073835916251,-20.101174655373395,-25.44077573039797,-9.131196049600018
682,-6.930350240015626,-19.6745768883422,-24.92988569317976,-8.833054911050032
683,-6.671171899043456,-19.208374995409923,-24.436675857740227,-8.436842030416079
684,-6.361141610078336,-18.694977957219887,-23.946286553139874,-8.019694085053606
685,-6.047094638743219,-18.134854630847023,-23.447611181526,-7.634209333862821
686,-5.772987116131536,-17.524419643157273,-22.924508366306,-7.316504887324266
687,-5.4763318523379585,-16.856276510698905,-22.349916793390065,-7.013291159007719
688,-5.086933800590095,-16.126722394763355,-21.70416645643914,-6.655441015858192
689,-4.652901108086454,-15.349999516150202,-20.98780274612184,-6.285095849064564
690,-4.23611099357125,-14.543287904958838,-20.21546453894954,-5.953549860829643
691,-3.821311013363267,-13.727151464401093,-19.405063534996128,-5.612307984174708
692,-3.3833083833969004,-12.906964196452595,-18.575430297137505,-5.208076737419378
693,-2.9092902862670718,-12.077713614708196,-17.760363636672835,-4.748085132117716
694,-2.3949895654607145,-11.227255310007669,-16.9611585207122,-4.255305889877294
695,-1.9002042433712496,-10.350753793807582,-16.144438975116884,-3.772159305593985
696,-1.4757387437079335,-9.444644483137424,-15.241666905098237,-3.330679949143372
697,-1.03870639244842,-8.496120038170925,-14.237690002657688,-2.8733884438755757
698,-0.5023456089872315,-7.500034027296448,-13.181986914541987,-2.3381544600025954
699,0.07232988722585072,-6.46387464604307,-12.09910166125729,-1.7704841549528694
700,0.5784230333660326,-5.453487879141084,-11.022215863211844,-1.2477541081315435
701,1.016369996860589,-4.57903330028858,-10.088914692667997,-0.7559098863605808
702,1.387253681034364,-3.881818401592587,-9.434951256301492,-0.2837444092083813
703,1.7295186287424529,-3.3244078117777605,-9.06608086061577,0.19082086726951836
704,2.085239189947752,-2.8591832600821068,-8.895577914216279,0.6835826440489703
705,2.3766677463500474,-2.453003838020154,-8.782941738101973,1.1132836645025306
706,2.5220933635021714,-2.099295336158626,-8.612262006503867,1.4023913349643902
707,2.6057267349489717,-1.7947111138371576,-8.295853044114851,1.640544144326106
708,2.6364546156829114,-1.4789545910346586,-7.643810458255123,1.8816830607592085
709,2.683832541522125,-1.1865719531706451,-6.9394516920042415,2.0910111248450436
710,2.6910107484938552,-0.9061923783718869,-6.248995257541721,2.1608764897603305
711,2.6807701824489776,-0.6244001911482594,-5.622772783529607,2.152042335058399
712,2.694967311870289,-0.3318091699726903,-5.087137298068455,2.1648939882845046
713,2.7758490235016025,-0.03201427570330363,-4.632905160737564,2.2280285782019686
714,2.9465683572715675,0.26674389663620074,-4.229659777696337,2.339748432949462
715,3.123707520176737,0.5492823676837642,-3.8507214180702016,2.4325774694400066
716,3.205286992407611,0.8097232899111387,-3.475618071846992,2.431440447410781
717,3.2183041150460365,1.0462097417633527,-3.1010610716399465,2.406969661226682
718,3.223356558428171,1.2608315234262528,-2.73205622905483,2.4561846249633903
719,3.1976635223632166,1.449997505417342,-2.356660413260925,2.518610707646235
720,3.112115097541901,1.6103213868852317,-1.9648512977671861,2.5097465833537664
721,2.9882368299747113,1.7469926219903984,-1.5775724783689111,2.4677083514214235
722,2.855614195631374,1.8668937656954123,-1.226721020732913,2.452880823204494
723,2.7553686275041853,1.9719481908060994,-0.9182678461548488,2.480777979083188
724,2.7182982862207195,2.0619420371543784,-0.6722094813394317,2.551641816951126
725,2.6802063913370926,2.135151412019255,-0.4928394278209172,2.615417469533116
726,2.5681923424398443,2.188413690774812,-0.39943746064417107,2.618675269615835
727,2.4477240209394244,2.219844684158442,-0.3732977995539722,2.61950531899088
728,2.401917956909972,2.2266113778563676,-0.3019053922892694,2.6886245483689613
729,2.3886990218035056,2.2044098268622525,-0.05189007029761164,2.777345753123485
730,2.333611280741452,2.146909896497462,0.39729216832828235,2.8073898548059457
731,2.189156659543789,2.0490191525644423,0.972978146866061,2.7413094177204056
732,1.9311562431879439,1.9098284227824647,1.546537016162795,2.57063081035178
733,1.6268858189604782,1.7432342358968156,2.049902511554345,2.358800859416913
734,1.3659158230226132,1.5807858999611235,2.4595585296994384,2.1897858954990874
735,1.11893313962521,1.4529384150145412,2.7886739937602623,2.0628070694445086
736,0.8337406751064538,1.3694204854757288,3.0765803836325456,1.9480511564868692
737,0.565171927838195,1.3200552466370128,3.348881387803902,1.8652426530194168
738,0.3747741928495812,1.2924180513430645,3.6162003440193424,1.828401198072002
739,0.24534465610224615,1.2792360322308403,3.8742886336768025,1.7992170012037842
740,0.13265345958934027,1.2753860291266,4.111163932482926,1.7353031348781875
741,-0.03537665951217486,1.2663163048707369,4.327656949374081,1.6082024549218004
742,-0.319540020271262,1.2385607472324427,4.530754355980067,1.4097989299432752
743,-0.6567069850453406,1.18628250504584,4.724604640132515,1.2165534781530731
744,-0.9570586446256907,1.1103212807347889,4.91113093609668,1.106706609070648
745,-1.2586219736941031,1.0236952324481112,5.089793287768718,1.004082802527862
746,-1.619197573382617,0.9375172939952394,5.256703224317049,0.812276079620937
747,-2.0067860623907787,0.8573917929122824,5.39149734001281,0.5882314588631762
748,-2.3687156443513886,0.7737263268540358,5.480200687515531,0.4217634506764816
749,-2.644394110492179,0.6709801233142921,5.559613743667552,0.347947907422108
750,-2.792571982017749,0.5438107320720871,5.657818472475561,0.3675432855454197
751,-2.90708136423485,0.4103271993290039,5.788272753938661,0.3719033468295406
752,-3.1013578874193755,0.30697858009243845,5.899032513764968,0.24350000916721776
753,-3.3097306528662775,0.25977569291766506,5.968318437862816,0.06685246489153364
754,-3.4319500674191787,0.2643426006195174,5.977828447647463,-0.03206545954576599
755,-3.5143151462432702,0.29093849826831564,5.923191824137463,-0.11473556217401376
756,-3.624451226326956,0.3035900724817595,5.81763060286574,-0.2721137797679146
757,-3.7525480854454436,0.2881684134009089,5.6821365405426025,-0.4663261750550387
758,-3.867209157262516,0.2533546613471622,5.540003907255268,-0.6358961874470977
759,-3.9013252418359214,0.20964064524117526,5.411469922899184,-0.7485467283883736
760,-3.799951601024151,0.15823286981581947,5.308572877935846,-0.7870651267159021
761,-3.6453797625021402,0.09341401607013686,5.2314905006332015,-0.8133582653012619
762,-3.551343573365942,0.012079267489477352,5.169841778406529,-0.9009539295441297
763,-3.509183627490731,-0.08984148094757913,5.107188531804191,-0.9919534630744805
764,-3.4739678635408153,-0.21133845727369727,5.020888380552862,-1.0075724955514695
765,-3.449672856409843,-0.342316453465279,4.885827092142158,-1.0011707053477088
766,-3.4384663307220467,-0.4688635360127793,4.679923035365074,-1.0465284027561574
767,-3.427128302887713,-0.5840233649278183,4.383914160884953,-1.1323476633326321
768,-15.914261220230005,-15.92693351887388,-17.584119518148317,-13.17011773642419
769,-16.418856093388534,-16.273288645528545,-18.089149812705124,-13.6774820830414
770,-16.83888090558025,-16.616012083278324,-18.53344272818062,-14.068611241646938
771,-17.224253892431157,-16.955923523370835,-18.94474210959179,-14.410692859409245
772,-17.630384707204744,-17.290859792432013,-19.346475375311506,-14.780635727699368
773,-18.008829437483907,-17.619188083290297,-19.750230009571062,-15.141295122396533
774,-18.299970089725257,-17.93907059014208,-20.15762173971193,-15.443495377443773
775,-18.491853031944526,-18.247185100453475,-20.55879195496517,-15.701909808751084
776,-18.59038107382106,-18.540688126635068,-20.94417086301011,-15.94142965657545
777,-18.64186140300001,-18.82028412257269,-21.326536585432883,-16.198131331872546
778,-18.693695608035604,-19.0826524208197,-21.71826721579243,-16.49019170413228
779,-18.700271575941404,-19.327120548446132,-22.10172461577649,-16.734629806571345
780,-18.617912082957297,-19.545113729680086,-22.45447685974389,-16.84617763863028
781,-18.530505885362913,-19.720448162220798,-22.777873475014992,-16.86436006333533
782,-18.52286601833639,-19.852016686036464,-23.078674013861836,-16.855434123918172
783,-18.568603037803886,-19.955625047604887,-23.34172634551629,-16.822237875477704
784,-18.612721636132306,-20.042636676062024,-23.56249867286755,-16.76281170555031
785,-18.594926676182773,-20.11420594602253,-23.79238527893022,-16.688586981112422
786,-18.47797324939517,-20.1760787283643,-24.07511965986959,-16.6091705857011
787,-18.35386465151354,-20.24175707478177,-24.376122778759697,-16.57064273315794
788,-18.316958160156616,-20.31333335378888,-24.640712176690677,-16.60013848217007
789,-18.2856504705378,-20.38484578048459,-24.84796984951366,-16.605115183388016
790,-18.15482617888647,-20.44254852821493,-24.984698560945233,-16.489905959673923
791,-17.946766380212036,-20.477177161595513,-25.034929946425578,-16.294884132715257
792,-17.705725480771797,-20.478354848018373,-24.996112107810067,-16.081786874685143
793,-17.436438817772764,-20.438655528835035,-24.878422107475345,-15.835868452842737
794,-17.142028414483907,-20.36384637309819,-24.700652164186263,-15.533767800383707
795,-16.80204180302913,-20.2686895912033,-24.493226976623713,-15.153446612444393
796,-16.39797469110853,-20.16007109830063,-24.280545276649157,-14.687612323951774
797,-15.991946634974465,-20.033914701838256,-24.067359527059487,-14.230363651196702
798,-15.638988656513932,-19.878969952419787,-23.84443992921229,-13.866401233011723
799,-15.269166522246664,-19.69080525000167,-23.580457163641327,-13.50497815941797
800,-14.80644363299428,-19.46231087011367,-23.253752449591758,-13.043071653604272
801,-14.280961630650394,-19.17952013994185,-22.899094545906532,-12.538471570340098
802,-13.746781333600355,-18.83419279145919,-22.561698079475843,-12.074007144551338
803,-13.244777155794093,-18.4353435051424,-22.25065701341067,-11.661944632047083
804,-12.797601407275621,-18.013895582685947,-21.96075587524913,-11.292337045370655
805,-12.341698661964305,-17.611588280553892,-21.676844868631633,-10.916333859989505
806,-11.807732198377836,-17.249456111675478,-21.381314008008403,-10.480027607145805
807,-11.247700938807444,-16.919459781807355,-21.082670540147067,-10.015212292760536
808,-10.723095819583452,-16.598977764791925,-20.792157120207545,-9.560719826477728
809,-10.186696832340242,-16.265576685756304,-20.486213172425703,-9.058373382592334
810,-9.579694454201508,-15.908460338027702,-20.13549572006703,-8.449794320954688
811,-8.89539211751371,-15.520925081164247,-19.74838762009201,-7.760509717719909
812,-8.142085862668305,-15.103538266908881,-19.326628423397445,-7.0324506434821386
813,-7.365582851360481,-14.662428050382518,-18.80863845349022,-6.301286266323619
814,-6.605863890408878,-14.199118305738686,-18.14716416537927,-5.586110918925432
815,-5.792904107932582,-13.709730922787454,-17.37805522609571,-4.821375650912583
816,-4.866114803644193,-13.184097715211864,-16.566412264565585,-3.949053178236334
817,-3.9218398877044893,-12.623322269613057,-15.784704809557004,-3.0498560761432416
818,-3.08028212427568,-12.043327896596518,-15.076864082055165,-2.228925845942234
819,-2.369680284464697,-11.460843318782402,-14.391706276804095,-1.5000103401421674
820,-1.7868588445299962,-10.890554962251537,-13.649642825769414,-0.8594784218637019
821,-1.3048058986470628,-10.333100119347025,-12.811496981454681,-0.32347211710794105
822,-0.8849883444017044,-9.782063034338137,-11.872014296270967,0.10051702208616192
823,-0.5540232268298309,-9.227770901220996,-10.875202484288806,0.38520165257509875
824,-0.3337487155378796,-8.665818651230826,-9.880516326887218,0.5254793121110584
825,-0.12749391924178158,-8.104967119144277,-8.916518016567315,0.6272932404885162
826,0.1574903858615317,-7.557407862099032,-7.980035472329102,0.7970388286514387
827,0.4784539879737412,-7.015642152566926,-7.02728056040857,1.0098167072262778
828,0.7248031367335734,-6.504022845120274,-6.085238358346165,1.1691061661550848
829,0.8691437926587967,-6.110036328672619,-5.206950797751254,1.2562115598481254
830,0.8774206306329992,-5.865979261355963,-4.5041313050354415,1.2332983248626221
831,0.8202368625850862,-5.7258571162256295,-4.00446880713311,1.1040916626803454
832,0.782896413060935,-5.626046316142551,-3.6690784388328628,0.8960891481679931
833,0.6715220198005785,-5.529331711152409,-3.4343101277705648,0.5683843909733435
834,0.3840305614430318,-5.415165398343218,-3.221055665564277,0.09548493790370835
835,0.026588015912896418,-5.265571130393713,-2.9518314337463654,-0.39957204509780153
836,-0.08558175753348297,-5.070639067500102,-2.481427087366783,-0.4565066305535265
837,-0.2073278300358043,-4.868038663871779,-1.9369766034273384,-0.5072450826879911
838,-0.4064583730731801,-4.675109226012492,-1.3612491405457865,-0.6473642765631171
839,-0.6363352676451931,-4.505300342904165,-0.7741795548712165,-0.8191980798394564
840,-0.8280364486966975,-4.361940839569639,-0.18741063391149237,-0.9341204705468321
841,-0.960923326769684,-4.23256591518505,0.3784309110559465,-0.9833229087632305
842,-1.0427502170434695,-4.099605035202468,0.9078257022400709,-0.9887832099170502
843,-1.15077659683439,-3.9494238235111996,1.393801637290718,-1.0221071242869204
844,-1.3673228789483458,-3.7805820792851135,1.8365075741426775,-1.155197885313058
845,-1.6519941551570065,-3.610668469151155,2.249029178699074,-1.3255805320196863
846,-1.9276877004458473,-3.4674376787112506,2.6468784307631146,-1.4410359066268423
847,-2.1911108512271102,-3.3638508563911564,3.0361263294451932,-1.5407299103760939
848,-2.4526386841750383,-3.2941906041218196,3.4147380240985576,-1.6842715541870301
849,-2.703203137861036,-3.2477928171872006,3.7679930367185213,-1.8381023004305692
850,-2.9315611582213594,-3.2125934391909223,4.079876173160296,-1.9508736877087052
851,-3.0885877951328786,-3.173441632815432,4.354910168606319,-1.9874644700121342
852,-3.1328113694252853,-3.1186243010454104,4.604063884272994,-1.9297913816104626
853,-3.126788883700011,-3.0497160590945795,4.826300481183516,-1.8383350440254853
854,-3.154817316176115,-2.9861895431080483,5.0194479501106795,-1.789397026184589
855,-3.2094187548465856,-2.956893198093732,5.1843141661994165,-1.7594985947115138
856,-3.2643624980497865,-2.9781723567218052,5.3233967605899775,-1.703679586893697
857,-3.3398333403973504,-3.040998276110037,5.456491751059645,-1.6529039541749346
858,-3.462313433483347,-3.122619369920111,5.603543923474652,-1.649339918935326
859,-3.672246382199255,-3.2100033108115644,5.740488131425724,-1.7007844163407944
860,-3.996813057690579,-3.2939500896022302,5.842343670365842,-1.8052774761047914
861,-4.354920725441368,-3.3660124664508038,5.9558246441622735,-1.9303795031178763
862,-4.653498151562236,-3.4224177277541146,6.131591534484865,-2.0450009832617013
863,-4.947324105912123,-3.4625594434406257,6.342910453622289,-2.2072139415850622
864,-5.318689694690009,-3.4887705211582514,6.54140507298423,-2.481285613437764
865,-5.725637951727659,-3.505979094738302,6.699103411752876,-2.810024411183181
866,-6.104272084826763,-3.5221025672089867,6.806833971804097,-3.1109470633605434
867,-6.456536244330237,-3.547694525807725,6.898153559401299,-3.38612333719744
868,-6.796312290329097,-3.5904467985496114,7.019495258373271,-3.657507852356504
869,-7.1470819074340834,-3.6572787470007775,7.197761875513508,-3.928465253819486
870,-7.526745665534761,-3.741277247928139,7.428395906529901,-4.203421591658612
871,-7.862704652043612,-3.810999658085102,7.630639685903227,-4.448197599187758
872,-8.07659852798502,-3.8280978521653393,7.717798008121944,-4.633498320761131
873,-8.235583154564287,-3.7774930612728324,7.7024230611607765,-4.851503791866487
874,-8.432512110014832,-3.676266816101887,7.637763169262957,-5.198033303629372
875,-8.626661740351587,-3.55787570097571,7.560936568863744,-5.593650796294714
876,-8.75768504384648,-3.4482842049833917,7.493727372523847,-5.927298844343315
877,-8.849893400309723,-3.3607502983809856,7.417513103429763,-6.209997518189162
878,-8.943656571956717,-3.3013258448565286,7.289482802701939,-6.485665194461135
879,-9.088018680179355,-3.258788148292871,7.068326575006755,-6.80835865693202
880,-9.31080287996089,-3.20725823154868,6.739778671109345,-7.209628015370217
881,-9.500836057847522,-3.1324645913472753,6.350526832405041,-7.553656667350485
882,-9.53347826152729,-3.0403367499823415,5.978330567047354,-7.686703631787164
883,-9.465611833179674,-2.9400387444809253,5.707404026643416,-7.6780801968268175
884,-9.40151076055173,-2.8461952657002816,5.590842920238542,-7.656385476570198
885,-9.352084499525194,-2.7677802136133325,5.582722326891496,-7.626703231765928
886,-9.298850178529316,-2.706974652989733,5.595162440272149,-7.5661357694934095
887,-9.1991720061285,-2.660879781680624,5.579806137246934,-7.464160858983165
888,-9.00655880898936,-2.6224004498116247,5.510687104718202,-7.309665789639361
889,-8.771146331278484,-2.5828113808478146,5.376563701045663,-7.1599596368110845
890,-8.562369046304722,-2.5346588031410624,5.188815790362332,-7.078455736169599
891,-8.3346908795638,-2.4751608871654915,4.970365297516006,-7.007079502798845
892,-8.02835457160336,-2.4044488025812223,4.743871514806203,-6.866332236588107
893,-7.686523692269763,-2.322263526498591,4.523156767490703,-6.687120763711944
894,-7.37252779032456,-2.228677852083532,4.313436523129263,-6.519385922021741
895,-7.108628449507693,-2.1255362173131647,4.108066163559232,-6.352326268333083
896,-12.53395218235708,-14.539919422006983,-14.65080964262117,-9.527148829388684
897,-12.889783562539987,-14.960016951789298,-15.044944380377808,-9.829574659798498
898,-13.162130980759942,-15.378771640784846,-15.33151428960298,-10.075404004442444
899,-13.378208998626732,-15.79220899516914,-15.592131828194718,-10.296346901375765
900,-13.581824721337226,-16.192536462853333,-15.921130064243409,-10.529746849458245
901,-13.756242384386226,-16.561303980744636,-16.34411188717827,-10.724892477882033
902,-13.88631154339818,-16.880964606716027,-16.84362523024314,-10.836399335756413
903,-13.995434235597441,-17.146610292709177,-17.33376352881551,-10.91199553734162
904,-14.102799297871279,-17.3609855200014,-17.730513854936746,-11.003581211978991
905,-14.221408028742566,-17.53121073810186,-18.065103772114554,-11.11768048421923
906,-14.343323326272262,-17.668080936593757,-18.39471733057999,-11.232315714066106
907,-14.377285010909565,-17.789572906029818,-18.720993283745457,-11.248040072111353
908,-14.247753963081056,-17.909127646498767,-19.02381876325133,-11.087972452227874
909,-14.026433288760423,-18.03961974158441,-19.248788152903565,-10.851949884843549
910,-13.812569747159838,-18.19256982071255,-19.352507982815304,-10.667559391251181
911,-13.621319141060075,-18.356930687525036,-19.378089950960405,-10.53943868269633
912,-13.445805802149387,-18.502662873577943,-19.39405883835402,-10.436644047540021
913,-13.263530582907208,-18.62061744626111,-19.449406747327245,-10.323707576007536
914,-13.055290049612688,-18.728387651194893,-19.565177027989073,-10.17121447100027
915,-12.898822578163166,-18.833128490296108,-19.681041956870324,-10.043357416145053
916,-12.863797820724086,-18.922666749881717,-19.731149556900117,-10.010257859143563
917,-12.854851325392868,-18.988816633901592,-19.74929214157125,-10.006247781828392
918,-12.770251628378153,-19.034243043228972,-19.7913053882204,-9.960430878775174
919,-12.662140499115516,-19.07191351686991,-19.869137360773603,-9.93498780791784
920,-12.608767647779867,-19.11569135490535,-19.976310838422485,-9.99786988514522
921,-12.639430572985225,-19.164330200315298,-20.08156852920153,-10.14006692278515
922,-12.752370019558189,-19.204399456687902,-20.146942418625922,-10.31938119266696
923,-12.853905511511046,-19.206778210287723,-20.164472212244124,-10.425351374925556
924,-12.847655282741927,-19.145917354965306,-20.143682207903012,-10.368740273354787
925,-12.785729293811714,-19.02394076920305,-20.102280157132505,-10.247494221583107
926,-12.744165873605285,-18.85823244305206,-20.058238834610762,-10.186389530718749
927,-12.682445812140992,-18.671436977455265,-20.010289727845546,-10.14071957756651
928,-12.554792489465155,-18.48517215891961,-19.94661861157262,-10.046977131794208
929,-12.389736598939008,-18.306496597641882,-19.859159183197512,-9.95112405564234
930,-12.226345755308596,-18.133644755574956,-19.73708436912108,-9.906722744385126
931,-12.105259837238984,-17.955649748376988,-19.56410591021503,-9.93213216714524
932,-12.046369239416428,-17.763499217423185,-19.3295053845879,-10.026913628755619
933,-11.977557182818359,-17.54972516862491,-19.03133452696447,-10.12480964298042
934,-11.81775664836877,-17.304957757326612,-18.679898341437,-10.157022265676952
935,-11.584712644824343,-17.025217955239096,-18.30852754181409,-10.16700468135747
936,-11.320024585834542,-16.70991088839884,-17.951803475676023,-10.207239465724602
937,-11.022329177031319,-16.36451190608649,-17.616714591693746,-10.212219442302606
938,-10.692150829955828,-15.995752333380201,-17.29979776128885,-10.11662256722338
939,-10.339409694438757,-15.603007260194227,-17.007467931580617,-9.958689867021276
940,-9.973506557243203,-15.186857374577311,-16.739868691478414,-9.794807314768734
941,-9.644680453343193,-14.748351930577128,-16.476209197692885,-9.660488761667754
942,-9.381517266641133,-14.29249335878127,-16.194443786375366,-9.570600850970637
943,-9.082485580245121,-13.820464348749402,-15.888655565264767,-9.460006634987371
944,-8.647397729855577,-13.321952149556425,-15.554095890507034,-9.260863348979226
945,-8.129717027452696,-12.784191253168897,-15.178833978705965,-9.026680913446421
946,-7.614484786156702,-12.198064146225027,-14.746758764351428,-8.824715849911275
947,-7.1156444284716365,-11.567853807538874,-14.230462241217662,-8.618531732949517
948,-6.63336916923062,-10.909734859774687,-13.606629539199098,-8.365587488397273
949,-6.154707188218686,-10.245728258744851,-12.885687696191328,-8.079163921693809
950,-5.6624367142623,-9.596368622858265,-12.092506892733264,-7.7853592567126935
951,-5.211891779363074,-8.961274772516752,-11.22220946641193,-7.547232833386386
952,-4.844683656209721,-8.319221289545702,-10.288122477682801,-7.401573303724499
953,-4.45565768601051,-7.649390850551123,-9.391284746280784,-7.230797803687117
954,-3.9404595674453415,-6.934301294106009,-8.616480135648281,-6.911266185921382
955,-3.346965059988499,-6.1755382565700465,-7.933280792316177,-6.487917686312287
956,-2.801037062009194,-5.432791184469429,-7.34437922964827,-6.068135455696251
957,-2.357976719983316,-4.813888264605189,-6.821746082384057,-5.675556650515142
958,-2.0761825478395477,-4.373776728595679,-6.387801393792211,-5.3405524838927745
959,-1.8823874897885593,-4.085329639271789,-5.999756907195677,-5.046327478689232
960,-1.6735731218077858,-3.895795170302575,-5.595794097136154,-4.766085214857676
961,-1.52215785939354,-3.7419061481321076,-5.196370511712405,-4.595641995495439
962,-1.5137814773121556,-3.5708702098530036,-4.8489035811191945,-4.615669762460148
963,-1.5287772302364968,-3.3505992144341836,-4.5725940270693135,-4.674568888294007
964,-1.275667003381464,-2.980819323181672,-4.1754498804131215,-4.53647450171104
965,-0.9737577492176297,-2.6095154431084038,-3.8130316980066064,-4.374115890764152
966,-0.7106339703487666,-2.2614167176710445,-3.422980425357869,-4.328377197996417
967,-0.4862559488446174,-1.9451708141741542,-2.9993187512114963,-4.340835467889966
968,-0.27856319776014693,-1.6503806456581007,-2.571194728671992,-4.309179210605679
969,-0.052683960905233404,-1.3665918767065715,-2.1853465275230346,-4.211928252024444
970,0.21902814079623784,-1.0850302969682577,-1.8861730913173418,-4.056852067580186
971,0.46223206230792735,-0.8164785584276688,-1.6940112155654916,-3.9201638405018713
972,0.5852125309139198,-0.5751333014027973,-1.5862980680104628,-3.8862266267043553
973,0.6159712953766818,-0.3673104986034948,-1.450436110566573,-3.890418040416289
974,0.6147333725090067,-0.18619919582530461,-1.1738682836526684,-3.8370234579251647
975,0.5756816352001355,-0.02461306931831813,-0.7708932780325543,-3.770246597602131
976,0.4893467134163801,0.11843234011007084,-0.3171083058764703,-3.7557197356677925
977,0.3721245414039756,0.24793725438315506,0.1212460958321965,-3.775089314463508
978,0.2455281573247264,0.37019512754212863,0.4860627299275118,-3.787629138342073
979,0.17911251340822987,0.5029815962030102,0.750103210288664,-3.723942618605524
980,0.22773004220851537,0.6617440258525732,0.9294799292582675,-3.5294119283816054
981,0.29292522296045703,0.8533157799585974,1.0816665863679218,-3.297993605154782
982,0.25956315318215384,1.0698976325930105,1.2694437934765446,-3.1470871531819316
983,0.18641810467801556,1.2983400586175746,1.5306532102250159,-3.0270238746412295
984,0.17384590111537057,1.5287802718816899,1.8655611164510908,-2.8517667766322896
985,0.240012555518271,1.7606552957283705,2.194919258831426,-2.6273416245465495
986,0.3707158583194871,1.991812486688203,2.4356593375363875,-2.387720239427295
987,0.49784596785170676,2.212132371188796,2.613960389314123,-2.198924348014545
988,0.5466830637523149,2.401615037506689,2.8004183870911468,-2.12066311913102
989,0.5709322740124705,2.5518681535709833,3.0399437609028808,-2.0765365486503216
990,0.6506261732822368,2.671067745276846,3.3564777106311356,-1.9648729785507042
991,0.7366637661320092,2.7665261169981235,3.7413268946304075,-1.8367890721300335
992,0.759207888388908,2.838112437278201,4.149602047874303,-1.7731711019683332
993,0.7360580162915015,2.8890889687622607,4.493052467497645,-1.7460124804816761
994,0.7048744557619138,2.9298636790799337,4.6999006140339725,-1.709195436130693
995,0.6988762578860143,2.9675739454354084,4.798299239272934,-1.6541219146060833
996,0.7432992803951003,3.000508878372189,4.855966660654097,-1.5821662714629305
997,0.7835465946148849,3.0225045978450473,4.922822257445258,-1.5450616684577096
998,0.7556216523815078,3.0379914704359803,5.0218205777220914,-1.5910789178028133
999,0.7245684854694412,3.0652469814467604,5.095341632416549,-1.6347037879602537
1000,0.7720021433968693,3.1217808950365775,5.066152276905406,-1.57365111648268
1001,0.8441285607238387,3.2092407005551093,4.939406068824136,-1.4630265617960416
1002,0.8640502037093015,3.313345234251132,4.75791457729742,-1.39060441904123
1003,0.8378063051363398,3.410097502021874,4.554719987688361,-1.3381408476533139
1004,0.7945321840182173,3.483203127961259,4.367126418654745,-1.2681652405261197
1005,0.7789192746342045,3.5302780548960704,4.229178049089367,-1.1752299777593267
1006,0.8304059629570177,3.550805270080758,4.1567773074223044,-1.0598805642602653
1007,0.8838770653179633,3.5420503993276125,4.14985759784295,-0.9723716625682194
1008,0.8623454452262734,3.5026147350105075,4.193372204246608,-0.9580783014492475
1009,0.8382578635250861,3.4387731505500834,4.2471291434685075,-0.9253915425277525
1010,0.9073376083690905,3.3601693840686786,4.274606848231165,-0.7690871642537996
1011,1.0357391956425963,3.278406099986726,4.287998391676074,-0.548520879393195
1012,1.1608797223483025,3.2027479475467664,4.31473348695204,-0.3593910158222413
1013,1.2662530501380809,3.1418620323461846,4.349597993498805,-0.20016810124805154
1014,1.3517710856456602,3.0971207728051713,4.3756312898742,-0.04211875481720179
1015,1.4664821616030632,3.067695664700235,4.398352091504417,0.1445749028129557
1016,1.662604082385917,3.058888479948318,4.417027502166605,0.38909339611636146
1017,1.8860996370957301,3.0697306195591003,4.370550496614772,0.6564970540516875
1018,2.059661386660534,3.097847325119023,4.213142796348251,0.894595174793152
1019,2.2024383219735726,3.1422390677047174,4.0166262683964735,1.1311123148002031
1020,2.355626244957414,3.197318900337854,3.8800310854767526,1.4050491395572324
1021,2.5019901095597032,3.2447447402176914,3.8445291041940477,1.6663181800127074
1022,2.623051993724268,3.2639496821748226,3.910315280034532,1.8618442998707776
1023,2.7393059847690697,3.2447873245264054,4.0016709230750385,2.0311950236585026
1024,17.378382681645608,-39.786051581274045,-32.23350797436074,15.441591845037568
1025,18.19384100230419,-39.924042544243754,-32.434045689680595,16.133501486739238
1026,18.6212796808644,-39.74674331977852,-32.59031986846343,16.488292690263627
1027,18.891946554427303,-38.72629564845894,-32.97328831994262,16.687671886083763
1028,19.196007170539175,-36.79954170539271,-33.68227585606701,16.871611925302446
1029,19.543273344353555,-34.39781477027621,-34.51668706625398,17.064667802385184
1030,19.838631283857964,-31.983839769616942,-35.17032445309934,17.18757219573031
1031,19.86285147603631,-29.7483232136612,-35.33228785361688,17.058508192220174
1032,19.47942127753771,-27.60350183538113,-34.79487032324349,16.510813866071352
1033,18.665386743130007,-25.346471540377113,-33.7045434231746,15.53876357013657
1034,17.475003646282296,-22.78087456407195,-32.48147420513938,14.208769199593386
1035,15.961825079654782,-19.714379274610703,-31.346185621507992,12.592960751165185
1036,14.163227181120732,-16.04112711571692,-30.228552359286542,10.737117921772121
1037,12.053529200972307,-11.843842005796109,-28.964500193217802,8.567302607245912
1038,9.583202870406407,-7.381499546339554,-27.36907318862329,5.986572155498594
1039,6.7280508009538655,-2.9755690614291543,-25.291240569784602,2.9946940551347807
1040,3.492845849157519,1.2056817519417835,-22.641056401407354,-0.36025907028781434
1041,-0.05621094040146235,5.239138697967386,-19.410058080579596,-3.998170803736408
1042,-3.8321601991123195,9.364609901669494,-15.604137334458745,-7.8247690804938985
1043,-7.813841225484264,13.820613750282018,-11.292422151921063,-11.806418244611686
1044,-11.967636794617375,18.72008471661582,-6.597314463918044,-15.927531440872462
1045,-16.223064134691633,24.093741305856977,-1.568721894128887,-20.101560666641127
1046,-20.500975440121927,29.862781192959048,3.8500272529669832,-24.295311732763643
1047,-24.789723061032056,35.87592215271212,9.730991062485689,-28.530349803946546
1048,-29.184007739940544,41.99029278395793,16.132626907627046,-32.90870218759834
1049,-33.771074745764714,48.11356365414822,23.0405019139181,-37.494482615685854
1050,-38.505377535185566,54.21905944540627,30.351789052652617,-42.22092059288892
1051,-43.25751365308224,60.27189965033587,37.9976870195203,-46.95523890096991
1052,-47.94516177058606,66.20694456964505,45.90435885120111,-51.62668168325184
1053,-52.603186962017816,71.96874693418705,53.96900803643,-56.2528468823767
1054,-57.2800602724714,77.54165925080895,62.12372812031306,-60.88410171149798
1055,-61.952806131540704,82.94129568993829,70.4018701148356,-65.46153627810922
1056,-66.54224337553497,88.16561121465759,78.85059812594544,-69.93825711957379
1057,-71.0091442007305,93.2013546102916,87.43073149942131,-74.28955717197594
1058,-75.38555395469186,98.03004453286152,96.07328578172766,-78.55220892316753
1059,-79.69681223018107,102.65174873795694,104.7508993322931,-82.73320781949178
1060,-83.88554559862972,107.07429915976651,113.40686178609204,-86.76606280637715
1061,-87.89109497149808,111.31175574022527,121.91622403805874,-90.56592036160602
1062,-91.65806652759373,115.37542274345006,130.15620922789296,-94.13748360140654
1063,-95.23919529338608,119.25531784828216,138.12412668606717,-97.56086617723938
1064,-98.70588922659272,122.94501643017198,145.8888826543868,-100.9316189802658
1065,-102.03935348179196,126.42936573916813,153.4512608332603,-104.22658297387929
1066,-105.21636121116808,129.7251366479092,160.7431539059015,-107.39067177853262
1067,-108.19063071041717,132.8553975321751,167.70265291807777,-110.4136690691994
1068,-110.97448138580765,135.83944967564665,174.3038831335119,-113.29241783609277
1069,-113.60506115688818,138.65062907073482,180.52669009249368,-116.04639019322359
1070,-116.11340220773985,141.26771447071724,186.37643106634826,-118.6900119989264
1071,-118.40536760054073,143.68069378488184,191.87369256000053,-121.14520661047263
1072,-120.4184613927056,145.91803902956042,197.02822910681198,-123.34189262948644
1073,-122.15184241236358,148.002391856787,201.80514106969096,-125.35154747723664
1074,-123.71129382647395,149.91935710878224,206.15496247024205,-127.24191474719228
1075,-125.19166243481288,151.646702712561,210.04692893141362,-129.0489123486302
1076,-126.56739935657221,153.15237243518902,213.4507826412158,-130.72008107697548
1077,-127.73420582639459,154.41272275442054,216.34010655353276,-132.17914735235271
1078,-128.66056698650678,155.41912971399438,218.68787682787666,-133.41150156991148
1079,-129.36926447976214,156.1909971891291,220.43098923970365,-134.4101682180404
1080,-129.90577163062312,156.75057840827526,221.54261700206192,-135.18064797656925
1081,-130.19729878378268,157.09167956528182,222.06202665270283,-135.64610536351745
1082,-130.19977625419085,157.20049758699685,222.08503328440688,-135.76527782587644
1083,-129.93477648496437,157.06779048266148,221.71854475399212,-135.5836029605789
1084,-129.53717049436568,156.65223648545353,220.98492403111274,-135.23113946012919
1085,-129.12186849572663,155.89468211190857,219.75222693445636,-134.752518465045
1086,-128.62527246211758,154.7906443225319,217.8978058278738,-134.12874093495867
1087,-127.86159476474317,153.36365731024898,215.44255976684084,-133.25346831957182
1088,-126.7904356445628,151.66960227269138,212.52466628946263,-132.14817109984358
1089,-125.56805291239219,149.71224274941906,209.26499906288524,-130.95986641718275
1090,-124.26937558166941,147.4953438124231,205.702901055465,-129.70444805765342
1091,-122.81531265869647,144.99579580500918,201.7675202819344,-128.21727902637517
1092,-118.84805473002736,140.0625599476724,193.9472183091612,-124.0039930278663
1093,-114.82417220848048,135.03395058468814,186.04499685131117,-119.74401518458457
1094,-110.79184988496168,129.8949621427349,178.06575779965644,-115.51298575102673
1095,-106.80876498356113,124.64190080568476,170.01033981279565,-111.34140530082891
1096,-102.85491040475229,119.28345440109798,161.86494067717823,-107.17215068295422
1097,-98.90341412124957,113.85013658441294,153.66358503369074,-102.94395577551822
1098,-94.90983032690443,108.35425355495693,145.49787443577924,-98.67112085899221
1099,-90.87584301590567,102.80645983756737,137.39361496132793,-94.37242991443732
1100,-86.81489295182898,97.18022969569266,129.2826498448485,-90.07623118468291
1101,-82.6839543847192,91.42562814206401,121.08899541602061,-85.71550871299584
1102,-78.44266375581405,85.5606835612815,112.76981787428555,-81.2138165563461
1103,-74.12172100801432,79.68178809772982,104.31955961213981,-76.6218693738595
1104,-69.75287782354303,73.83330991084871,95.77358142610831,-72.0027714263282
1105,-65.4218521239474,67.97428590272881,87.15975783619396,-67.4296614756348
1106,-61.145523335245606,62.05551610204857,78.50903342513561,-62.90321497181287
1107,-56.854945055888074,56.04018425485631,69.87213279459603,-58.368593508489624
1108,-52.50811103929103,49.90097141950619,61.2811517320891,-53.825339119870414
1109,-48.136244688370496,43.59297276797017,52.71861841937661,-49.30331713147482
1110,-43.750239216890556,37.096570357812716,44.13913657659519,-44.8197807862208
1111,-39.27682281175746,30.446291347003857,35.444134460199464,-40.19147845210353
1112,-34.584506045835155,23.70065954827535,26.564204569992842,-35.25981744360627
1113,-29.66782527746607,16.95364539087717,17.480844343871546,-30.02925350645407
1114,-24.669836034625504,10.232530367322788,8.216218783050671,-24.676770629382233
1115,-19.655281427872772,3.512195309939684,-1.088386128521675,-19.2713453322253
1116,-14.540145117467183,-3.3257545497772214,-10.193603513043925,-13.807278543969296
1117,-9.162674079227115,-10.466137570017676,-19.07841418187593,-8.147228241199878
1118,-3.348672756513978,-17.885454467653695,-28.059521319110576,-2.106157121834248
1119,2.869215143131453,-25.317630717658275,-37.46250072951058,4.30111963316989
1120,9.239305200108591,-32.62202352844389,-47.04787534944231,10.837962233433247
1121,15.581899294777887,-39.88398169917009,-56.05261443006819,17.32853200980654
1122,21.876445243514073,-47.14287662622354,-64.20282788032242,23.742293525736958
1123,28.113083693946024,-54.2723570356892,-72.14247739018609,30.09052045328681
1124,34.060073976059584,-61.16749155799963,-80.7138939041459,36.1871775599857
1125,39.34800240153439,-67.83826205473122,-90.13908974562497,41.663294466041236
1126,44.109880419402344,-74.32077986974623,-99.90041794658997,46.61969190225582
1127,49.02033534377118,-80.66371135780011,-109.16656855902802,51.707128042369625
1128,54.42886584174787,-86.90491124751208,-117.3273842126838,57.24613388722778
1129,60.09359581714712,-92.86023989713476,-124.3220137964613,62.98812402693165
1130,65.68368017758804,-98.02674423384391,-130.47108023095745,68.65169904208695
1131,71.05655180187316,-101.91637657959885,-136.1561236826079,74.14262497486769
1132,76.21806176625898,-104.41506873317262,-141.6394528819894,79.42572726158627
1133,81.18950405854468,-105.8895056884992,-146.99877000090288,84.46718862474971
1134,86.01395395557952,-106.98558847432894,-152.18825144874526,89.2859797155221
1135,90.48075603258373,-108.17295663911405,-157.26442841879071,93.68636159876782
1136,94.07040525396873,-109.5573032233275,-162.43614211864107,97.18476602314635
1137,96.72798025908824,-111.03488749977016,-167.62191763010043,99.7612581684751
1138,99.01636077785044,-112.44134998894705,-172.36870187199494,102.00216147916508
1139,101.15130394544727,-113.56265244392404,-176.48766494669022,104.13740899646172
1140,102.73981144589116,-114.1824924027964,-180.21441630036034,105.78459767750978
1141,103.55864785200772,-114.31032301550309,-183.78663438199112,106.7083361205798
1142,103.81148712351633,-114.18207621585972,-187.16940087184818,107.10303515652431
1143,103.8009447110024,-113.79929828674845,-190.14363635985129,107.26599053538784
1144,103.75874531181589,-112.82451460479004,-192.62261696918904,107.34944803323586
1145,103.74655448167265,-111.11941467895421,-194.68279104708662,107.40124417338771
1146,103.63347185511432,-109.06676854663118,-196.2397479385387,107.29730990167435
1147,103.1985556921494,-107.24673491526143,-196.9669211059864,106.86195894211157
1148,102.22696516882176,-105.83162826403708,-196.67325583043691,105.93456778445832
1149,100.66547396720534,-104.47754020248793,-195.46947652127216,104.45463108708414
1150,98.57027237079814,-102.73971432174378,-193.6093078300144,102.46794446383345
1151,96.14651209783545,-100.39080814135846,-191.40148939294173,100.14353327262391
1152,21.778944853822146,-53.423529152027264,-72.00222869846552,20.321820652133013
1153,21.95625329548866,-55.00646537160052,-73.54299104815934,20.581638305732074
1154,22.095616287396087,-56.50355370401369,-75.12389777691372,20.875447847877492
1155,22.204422816570514,-57.89046826932088,-76.763599596265,21.146125518154086
1156,22.280780510997992,-59.17661993703628,-78.41193007965266,21.327075140683288
1157,22.327707271347045,-60.394918718923755,-80.00284262119818,21.41918874648054
1158,22.340343994484442,-61.57042990261182,-81.48165467646628,21.435176533157225
1159,22.31598265166578,-62.710180838017756,-82.80027633562781,21.388332574217483
1160,22.255433130345086,-63.81121026274143,-83.90546459010602,21.29269623449977
1161,22.156745276509294,-64.87864483001711,-84.76996895738904,21.102010909541697
1162,22.018585934903207,-65.91565823428714,-85.43796589844149,20.787031232382706
1163,21.84753711993932,-66.92052264424747,-86.0086292175222,20.467605450343846
1164,21.645875422621465,-67.88548536413872,-86.56408717346882,20.25800390224575
1165,21.397333431486924,-68.78952412082332,-87.14125070212599,20.09361811031747
1166,21.08743706248766,-69.60814299124188,-87.74379227712151,19.875494302054133
1167,20.714387458950497,-70.32660240538438,-88.30862521184032,19.58222175290504
1168,20.28794044810406,-70.93669336193248,-88.72632489647697,19.218354420065182
1169,19.853270596133967,-71.43187711753632,-88.95571961458047,18.83529449425956
1170,19.44646012126739,-71.8156720593311,-89.06309986929362,18.486661350335154
1171,19.019089424256148,-72.10833066579954,-89.1397656630015,18.109918584423667
1172,18.518645424236922,-72.3343999773796,-89.20983549173208,17.637775625040078
1173,17.983846485675674,-72.51151773492248,-89.22919424643479,17.1479785631046
1174,17.461885592308022,-72.64912478077659,-89.12286819708417,16.72292036796103
1175,16.94453490006535,-72.74604558401916,-88.82786371345597,16.3173284307819
1176,16.408428202959136,-72.7910577011009,-88.33143918060324,15.864260730306473
1177,15.807811466448166,-72.76653395908896,-87.64884753459704,15.334857510479734
1178,15.11019418779387,-72.65431420426631,-86.7907695847095,14.718441694568853
1179,14.3852663280659,-72.4391622421566,-85.78601086485757,14.069655147337176
1180,13.708047672050668,-72.11415236825478,-84.69722859573868,13.44512117205913
1181,13.028498473577915,-71.68902298771377,-83.58030030168139,12.779182455445781
1182,12.284615836109156,-71.1767923031798,-82.43924187109597,12.003662754172106
1183,11.510480289901379,-70.57860255927211,-81.23866950328905,11.194262001174925
1184,10.74912965721908,-69.89243639254467,-79.93743998016248,10.434970853881271
1185,10.011784183762268,-69.11372867592972,-78.49217028408154,9.702733394130167
1186,9.292771878521581,-68.23981585726523,-76.85585701889856,8.951359585892327
1187,8.515997055607247,-67.28978025743952,-74.97826809049565,8.138988061529398
1188,7.621104772861904,-66.27148849628435,-72.84622622947798,7.245000985568977
1189,6.7069369989631635,-65.16854631811157,-70.52402842644217,6.3473868403590705
1190,5.885923185978647,-63.94328358633645,-68.17411671912315,5.5335340944338425
1191,5.121174950965631,-62.57735229998394,-65.96587521001737,4.779915218321801
1192,4.3471423782166205,-61.08395381253569,-63.91024025440308,4.035678629498039
1193,3.559046260001575,-59.479892203019865,-61.87013942562676,3.2963784245109666
1194,2.759947192309912,-57.79060459543676,-59.70214824877656,2.5587752305308236
1195,1.9691433620320133,-56.034695484379846,-57.343551821369644,1.8140720138511366
1196,1.2022155250258535,-54.222639767854936,-54.776778056716445,1.054862096395861
1197,0.38937479380264906,-52.35801833245499,-51.99833158082788,0.23566807596245204
1198,-0.537436970266284,-50.43888309635415,-49.01619430950993,-0.6781078158730445
1199,-1.5108139631856319,-48.46166628483643,-45.85654215368682,-1.6171683426693835
1200,-2.458207293975153,-46.420509771323005,-42.576220525656,-2.515305384539974
1201,-3.4492935803258096,-44.30793519952261,-39.23458705403172,-3.442227625999089
1202,-4.5534466480457585,-42.109674933025495,-35.876390823433354,-4.471813538632508
1203,-5.733505505274066,-39.82147315197119,-32.50088959188311,-5.57114424825656
1204,-6.922325500820674,-37.429043572605956,-29.07874638028508,-6.676371920702574
1205,-8.013310700842956,-34.90849804135732,-25.56236991323756,-7.7011255237345635
1206,-8.941595638676581,-32.26061346778815,-21.914621331084263,-8.59009803865152
1207,-9.860373356862464,-29.51276830647294,-18.14229095459218,-9.452189432381818
1208,-10.943893719254334,-26.683667849857613,-14.272410516144038,-10.419558601649108
1209,-12.136544814633053,-23.78645573506059,-10.342413056379291,-11.453681693765283
1210,-13.34397723326757,-20.846366571468298,-6.355257321430337,-12.495229263278343
1211,-14.602538663152243,-17.876920233525674,-2.2844425469586933,-13.612942115988574
1212,-15.918350373681802,-14.964217083716287,1.7586013546404897,-14.82567982128662
1213,-17.163533626147977,-12.298657401223048,5.48574684433814,-15.963203055463048
1214,-18.194407355196798,-9.964547958202616,8.694395959366418,-16.835381473817087
1215,-18.88536050316103,-7.879620368024912,11.271787519997767,-17.356629731246038
1216,-19.201073050754115,-5.914491964294603,13.192770933261901,-17.550970625748224
1217,-19.30845005364273,-3.9919008911227456,14.594594256437125,-17.596171031842836
1218,-19.40998497707458,-2.1098938478761426,15.742694342807663,-17.6826082252223
1219,-19.535122278436642,-0.3019641852404238,16.913665942516392,-17.80698976831548
1220,-19.861055222560278,1.9947352080225338,19.21900408806563,-18.038154379875884
1221,-20.21435004670657,4.20514751406568,21.52034838699656,-18.262452502733716
1222,-20.619152634420676,6.350838489700643,23.731236618448772,-18.51234876992881
1223,-21.03199205607106,8.396658375946064,25.79522723941492,-18.760437444353723
1224,-21.39284706144004,10.310890715074304,27.678941163463175,-18.96907062109882
1225,-21.6411410425395,12.108921484355886,29.36584894286619,-19.107377553416715
1226,-21.743591445238746,13.851804838063812,30.8742309432111,-19.15919030145047
1227,-21.777609741513018,15.569046767610809,32.260683737380575,-19.174516902885692
1228,-21.83989452207143,17.233820210086208,33.58592138174341,-19.212505179785754
1229,-21.9051981413669,18.80450329237297,34.88590431346033,-19.246930988352126
1230,-21.911953091748845,20.251757663490658,36.16329752604386,-19.228908732338986
1231,-21.852591699184753,21.57713832543085,37.37058631324411,-19.159177648239428
1232,-21.730239709927982,22.807763847868507,38.446635813583164,-19.05062770340757
1233,-21.560923892872854,23.975622818572994,39.360876660036475,-18.912329853778687
1234,-21.36942529502447,25.10561679743481,40.12371708754989,-18.758512196692852
1235,-21.112258341861047,26.19293122680293,40.77357536983459,-18.575571258974758
1236,-20.75483912752293,27.217408518442472,41.38058124711221,-18.350451558933276
1237,-20.41969782633174,28.15897219928097,42.00253257819524,-18.149928093069256
1238,-20.23490206878653,29.01024872437336,42.63989638888596,-18.033180082797212
1239,-20.14871661623201,29.784069910778797,43.27258295551279,-17.924224560776818
1240,-20.050161468765985,30.507574744258168,43.853910906152734,-17.722627545357458
1241,-19.855975007352377,31.195090443073802,44.33586176324241,-17.41422454717166
1242,-19.51663243864025,31.8279699222812,44.6848969727897,-17.0275557830622
1243,-19.113295745899855,32.36913471433995,44.88354398757224,-16.64692526184248
1244,-18.767217365266838,32.786433446646775,44.944602512211105,-16.360324099823497
1245,-18.460052083313492,33.0920747436806,44.9378597904297,-16.117861280864407
1246,-18.140248343772885,33.326112024539476,44.937288490017814,-15.83800196423274
1247,-17.865181660525675,33.514171692575836,44.95311664496828,-15.583611901876662
1248,-17.68962887772741,33.65682887435695,44.95736495379247,-15.430405099807665
1249,-17.570120856704047,33.75796081693824,44.91182361071701,-15.315953808545165
1250,-17.43785989021097,33.8345499571287,44.77162057738898,-15.152715719413205
1251,-17.224391625218814,33.89388915916458,44.500543216867804,-14.913367420030934
1252,-16.88477545291478,33.93114778139563,44.09091406991381,-14.596095572441932
1253,-16.488798896330454,33.95066678191214,43.576218896637954,-14.255268109979692
1254,-16.132742009876026,33.96484882532542,43.01381595681225,-13.953179780344025
1255,-15.791554804841642,33.96303498717394,42.47089483951218,-13.632875192844072
1256,-15.410651250421186,33.90866606439788,41.99693126683982,-13.2207300494683
1257,-15.015418634994983,33.776254374421846,41.583806285751315,-12.783382471722563
1258,-14.641513463169186,33.57101903333689,41.192761876574096,-12.412124733795215
1259,-14.28372875079239,33.31745078706418,40.78136031203958,-12.095264553545832
1260,-13.934171713052349,33.03456291843121,40.311601944134836,-11.79924328895705
1261,-13.584256984594893,32.72550460714381,39.79437476843496,-11.518269620821595
1262,-13.226522434189073,32.3879546309863,39.236474472042886,-11.247608793656156
1263,-12.908527025111914,32.026488928398116,38.61092105293666,-11.025022572576427
1264,-12.671081377337334,31.651924861416333,37.8638501456869,-10.877835714946853
1265,-12.427464001874355,31.25739034357393,36.9932181003761,-10.693444778127603
1266,-12.082835655947507,30.816710204443936,36.07445753055603,-10.352945720456063
1267,-11.687047712087368,30.32195588891062,35.1968645884983,-9.910695391940624
1268,-11.329924560701562,29.793490506736624,34.41605725641436,-9.47542360365015
1269,-11.059263853929936,29.253524432379407,33.68935076718633,-9.106589813746771
1270,-10.890330370016324,28.72629439502838,32.89777430887746,-8.837028754661299
1271,-10.746856542551196,28.22279567674633,31.97881612032134,-8.622845264112607
1272,-10.532240124435392,27.732186954657035,30.961805613037704,-8.397029775879863
1273,-10.262403749267262,27.231027052837696,29.93063435538349,-8.200376303286296
1274,-9.99215399325574,26.683738488664076,28.98708066478938,-8.091432830816448
1275,-9.729089350571734,26.061549906629462,28.17402891962241,-8.021383883136926
1276,-9.47196059071094,25.367750941954625,27.464869167640458,-7.921815659523624
1277,-9.224519220201794,24.632292697127475,26.80897931572887,-7.785841817040424
1278,-8.982479141928891,23.88208368936316,26.157847670997317,-7.618819806942682
1279,-8.743032253588197,23.128961674535702,25.461049031309194,-7.428242200302222
1280,-2.3323534157461485,-19.20796446818587,-22.91549964223428,-1.4008526710890414
1281,-2.6622568872645367,-19.836157052906557,-23.52717925375821,-1.6105366383073114
1282,-2.887258375862262,-20.433526718342595,-24.143815464824964,-1.7394054653967475
1283,-3.060199195949008,-20.99798583213602,-24.721019032481244,-1.8380245941168312
1284,-3.2637304579424558,-21.534909428979795,-25.219354651026375,-1.978677093601677
1285,-3.5038797894901554,-22.04544121286007,-25.65111383569718,-2.1642121522144073
1286,-3.7707336986467284,-22.53531861853164,-26.03731500212052,-2.3833141209707946
1287,-4.022603608945284,-23.015480403509233,-26.334764637273395,-2.6165435247697704
1288,-4.218899603377207,-23.48591241869798,-26.515658731231404,-2.8401609938712253
1289,-4.428456781559603,-23.934524979048437,-26.653872060641948,-3.091179341502138
1290,-4.717127971688822,-24.356648821862997,-26.83763965577295,-3.3965690891802507
1291,-4.991948179749392,-24.766769046827054,-27.096774341525354,-3.6542282748959836
1292,-5.155544571709166,-25.181019435166228,-27.42796601244336,-3.7723911759498416
1293,-5.253972872396913,-25.61073167535335,-27.801611724326893,-3.8192983240174923
1294,-5.363570075648207,-26.050160307587973,-28.166467282362436,-3.8953417527300367
1295,-5.531661268788166,-26.486365254078333,-28.46565070283084,-4.043213555062249
1296,-5.782875880392183,-26.90370393053245,-28.665788513589884,-4.273997129875421
1297,-6.0487023512108715,-27.296048911301707,-28.78221606394559,-4.5214309926327925
1298,-6.253891078092671,-27.6639686270945,-28.85484075419932,-4.712735647543351
1299,-6.461231944483959,-28.014987802617043,-28.937614014060546,-4.9058457806327755
1300,-6.7414311689125075,-28.353414750843317,-29.06691506529437,-5.1717668014660045
1301,-7.036650458050932,-28.673096646265606,-29.19899390730351,-5.4505706597056935
1302,-7.271657319024942,-28.95791555371822,-29.27919866416073,-5.677018880801597
1303,-7.422196088283223,-29.199298961850033,-29.334644200636088,-5.885724238700102
1304,-7.4894766333126555,-29.392228963058088,-29.40263511794533,-6.122744836024791
1305,-7.538408689976701,-29.539238448170593,-29.462257488803143,-6.414053053328305
1306,-7.635727777441623,-29.643074927917823,-29.484950324084988,-6.7614557603736545
1307,-7.736077487792175,-29.704661508648943,-29.464333193023094,-7.06741709178771
1308,-7.782095564008518,-29.716641343755008,-29.392800988415747,-7.242004850536045
1309,-7.815304500608875,-29.668490031996225,-29.265458405119112,-7.360512124051001
1310,-7.886436703232824,-29.553837332533355,-29.07499694308359,-7.520831688660752
1311,-7.999098527378779,-29.38745281731189,-28.783122970447582,-7.701268250297731
1312,-8.13460732868398,-29.187230456791976,-28.36397328179336,-7.856949537833811
1313,-8.22862558549611,-28.965224010034827,-27.859884673434383,-7.9639101305694435
1314,-8.221929441495844,-28.72435669937486,-27.3357819074972,-8.010921412132289
1315,-8.146906677332224,-28.46986239277445,-26.82113438109178,-8.06421998976063
1316,-8.063659460461002,-28.212123810172574,-26.339337882251634,-8.190444627434124
1317,-7.979710370950189,-27.947805328913653,-25.95240162166279,-8.321215464334315
1318,-7.90113572240621,-27.658628403072374,-25.683213023045433,-8.381910699213122
1319,-7.882980328840114,-27.33672635118668,-25.436693323848928,-8.441698175017002
1320,-7.95920788386817,-26.989456714436567,-25.099191417853156,-8.578999840918902
1321,-8.090424499012528,-26.618997518825832,-24.613774054965695,-8.769376024072656
1322,-8.219965291658054,-26.21537551202442,-23.97812442533624,-8.965785468551909
1323,-8.289325177393295,-25.767053216184152,-23.281833618523613,-9.12497080444806
1324,-8.272887565196557,-25.268429001150743,-22.63007619977124,-9.216182519374845
1325,-8.26941287711528,-24.71932606681097,-22.044213731016328,-9.291214809754697
1326,-8.379667136830749,-24.1168666675613,-21.49600238414581,-9.408462757554103
1327,-8.545622567387756,-23.453867587556232,-20.92831683072394,-9.514571832483028
1328,-8.677184751205882,-22.73214452142378,-20.275783413221372,-9.54769187052184
1329,-8.770728468092791,-21.96263910850792,-19.511806050854343,-9.54903550542917
1330,-8.838577740873168,-21.159374907644253,-18.639312218357755,-9.56782017535847
1331,-8.884756872952645,-20.33400437309963,-17.67604795323606,-9.592009560488076
1332,-8.919893726875303,-19.489186515525205,-16.649837322336356,-9.60069865666071
1333,-8.920042397205975,-18.62049259074224,-15.582101630837213,-9.563628926541028
1334,-8.867272096490945,-17.71708777615447,-14.485217752318327,-9.465612641877668
1335,-8.836379950649812,-16.76638495540927,-13.364712176616266,-9.39534107008128
1336,-8.894630141248303,-15.77694359250112,-12.215659137360134,-9.43527557223979
1337,-8.97301534992988,-14.78029486678023,-11.027127020949852,-9.498087161446797
1338,-8.990443274478965,-13.794075009503953,-9.786605263149076,-9.482142969328338
1339,-8.97687532819727,-12.806484555342209,-8.471309248341559,-9.444834524046383
1340,-8.983498186402029,-11.84333051224119,-7.138865892087609,-9.464178367200072
1341,-8.992065871945965,-10.98294981195335,-5.976500418133005,-9.460955925507117
1342,-8.991753987736855,-10.255374874814915,-5.097101368164279,-9.368376178577922
1343,-8.94018002815711,-9.634966511769168,-4.505904529218264,-9.152354056699119
1344,-8.824310403136934,-9.10047864988331,-4.116506730040406,-8.83445028103992
1345,-8.809688103644923,-8.629640430203123,-3.853183263954631,-8.622771628539864
1346,-9.029565129854044,-8.19026937824194,-3.6544009955111196,-8.684025955103868
1347,-9.316552726806583,-7.749682621840088,-3.489402124825299,-8.829308912935728
1348,-9.361767187948375,-7.113035483659971,-3.0336811475870014,-8.724847235246216
1349,-9.247324926494917,-6.48181186741752,-2.6795820163923816,-8.46503276941304
1350,-9.021502848419466,-5.847687970153417,-2.4437235311229677,-8.129816525367835
1351,-8.767043893733433,-5.208654103015609,-2.2178163471619032,-7.776923796036705
1352,-8.567664639509056,-4.573217295954846,-1.8745298848700127,-7.46185744939667
1353,-8.38476536524065,-3.947555327254807,-1.4194701381741324,-7.193036504546172
1354,-8.152121792963994,-3.3387858295015063,-0.9091190118999563,-6.953166612201332
1355,-7.9417253817592295,-2.7467525685259284,-0.3795000700222172,-6.784872989052761
1356,-7.842103044137671,-2.1742806300576834,0.1368736379342108,-6.722729802830989
1357,-7.8231058683982395,-1.628713726814488,0.6512658650114168,-6.6918365334691075
1358,-7.823619300254419,-1.124741382113789,1.1850090671726388,-6.60186329757834
1359,-7.805133839523892,-0.6699421273355018,1.6858434575076908,-6.447535591380371
1360,-7.738928945301262,-0.25359005942497426,2.0907456935719626,-6.253898007918498
1361,-7.658019265881252,0.1455309352296662,2.4056129682180183,-6.051932603130358
1362,-7.608325921178718,0.5398428531326064,2.6606051877871626,-5.873304586034102
1363,-7.529652625129564,0.9286063864190197,2.8701625013467615,-5.678738142596082
1364,-7.353349800988932,1.3146111046108357,3.0526155944508964,-5.424249686110429
1365,-7.1490627084525835,1.709608868440116,3.237470099077738,-5.194766588817532
1366,-7.005932188084591,2.118002632582769,3.444602249134231,-5.084781267823093
1367,-6.899283287574047,2.532888240126744,3.6745261522221004,-5.043674764352252
1368,-6.778654950323658,2.952131131061255,3.9168785697123543,-4.984091012611412
1369,-6.627401446973491,3.3830912607819723,4.146301899441548,-4.876175348574112
1370,-6.441033401211511,3.8233294512345615,4.346328892938698,-4.710328765335342
1371,-6.272004781299232,4.253148843614143,4.545994278196686,-4.525759426917527
1372,-6.1762572825753255,4.652757435008932,4.785621562690226,-4.3691515600048225
1373,-6.081698696573011,5.018253363429217,5.087819502013621,-4.165948613007496
1374,-5.9021753555730205,5.359658851831506,5.449609296331193,-3.8338215396048545
1375,-5.706422338461245,5.691086323267856,5.806507535807471,-3.462738648817613
1376,-5.587465889147871,6.017675570171244,6.08295312298632,-3.171939969339835
1377,-5.528153913713457,6.331061692696497,6.270649296702871,-2.9455819857130865
1378,-5.480301347494134,6.614643354234135,6.391884140485595,-2.734397562639009
1379,-5.389463555468053,6.858393341039881,6.462515929924582,-2.5236339908534777
1380,-5.215020275035663,7.059062735552,6.5012593962243415,-2.306710239720882
1381,-5.037746891390356,7.215648711439051,6.5171195743944335,-2.1327045339621327
1382,-4.956512685479087,7.337226490960469,6.513235400576509,-2.05097683360863
1383,-4.9136995134222845,7.451246701482713,6.5032787302181525,-1.9825464811311024
1384,-4.819033542700181,7.582402929605202,6.501826747479828,-1.8298744324965293
1385,-4.688245861501457,7.7244046474571,6.52274801137563,-1.6248832348527391
1386,-4.562980903664,7.84529950680352,6.57238813663651,-1.434024661762189
1387,-4.475146186170606,7.923235216701755,6.623918582632794,-1.274107159696359
1388,-4.4486065319865995,7.955536182336728,6.647922246801207,-1.1494016127294095
1389,-4.4248455294557,7.946820127357695,6.661706054979178,-1.0369123440336792
1390,-4.33426877644982,7.9042534684006585,6.693672390259922,-0.906518887006233
1391,-4.240714868595804,7.836113737031997,6.738283123898668,-0.8061947648956947
1392,-4.226747206596388,7.752118681764882,6.78010593600484,-0.7883029228061333
1393,-4.235544558677823,7.6611533900547215,6.81900479251525,-0.7840874769730027
1394,-4.188909669856588,7.565906363302635,6.85096587903167,-0.7102681792136054
1395,-4.102428987697925,7.468210698986353,6.849805714395804,-0.5975547206965064
1396,-4.012251768777806,7.375028530491427,6.794768341095593,-0.5029366346512237
1397,-3.9562749611535413,7.291245947726086,6.694927871014173,-0.4439050813808073
1398,-3.9592520859173908,7.219671430220986,6.576698810020799,-0.42209521237824427
1399,-3.9265625328289153,7.156574126713862,6.479342397672413,-0.38410589614446644
1400,-3.7580961098503782,7.093120661748809,6.436585618180373,-0.2756171779577367
1401,-3.5517226670330597,7.016554422059817,6.449441869651247,-0.1669822783009502
1402,-3.4398403404555635,6.9151294148615134,6.496039792198672,-0.1472622992301308
1403,-3.382178566092961,6.784805881678514,6.534551812746893,-0.17596450549210935
1404,-3.2979481613609787,6.629154351103913,6.521032877224647,-0.1810332536074805
1405,-3.175410095600364,6.447957949730236,6.460511848149515,-0.15329286743187975
1406,-3.0185887341633233,6.246109519692561,6.369017386878508,-0.09788439622260096
1407,-2.867246318999892,6.035116656539525,6.19602122215715,-0.030184052474931597
1408,-7.775281853653374,-15.482290052026238,-16.891799073251168,-7.812620933258391
1409,-8.093409202175385,-15.894905586888317,-17.439555284563205,-8.097515199260975
1410,-8.376758908989862,-16.294499322055053,-17.93433280205946,-8.278864174096649
1411,-8.651666839401798,-16.66210013128156,-18.404058422923136,-8.435243061630725
1412,-8.955836312044369,-16.992955697620676,-18.879450957193054,-8.661404716689209
1413,-9.286629053255556,-17.29813761633482,-19.36210511047492,-8.94873938772711
1414,-9.634057149637227,-17.59235665239058,-19.844370424691178,-9.265666772339156
1415,-9.954723031497725,-17.88898233744217,-20.315077947400283,-9.568424096043373
1416,-10.211073856565333,-18.197378105113092,-20.761755222942465,-9.819470045191416
1417,-10.461729611433276,-18.513255776719085,-21.182051225969534,-10.086629800008604
1418,-10.766203169139922,-18.819764239817918,-21.581404949102797,-10.433306869414997
1419,-11.062503592522898,-19.108917461110988,-21.968306191191232,-10.752596587074775
1420,-11.280626549659969,-19.378807730067173,-22.352472661331767,-10.93553405017412
1421,-11.445831710494264,-19.637536131593507,-22.7388414171831,-11.040391428324456
1422,-11.601916234128337,-19.89632146597958,-23.124826388110996,-11.158331257424452
1423,-11.780262472569868,-20.170566883781934,-23.508272945180792,-11.336229624600879
1424,-11.997237141920095,-20.46101300298196,-23.876643643733697,-11.591625409333563
1425,-12.190879686552847,-20.751779566361794,-24.184162958427528,-11.839911241092851
1426,-12.299464286262555,-21.020418583421783,-24.39522110219742,-11.99445821573619
1427,-12.384768184048768,-21.25104884026793,-24.532247777149895,-12.13472919656335
1428,-12.518029228969732,-21.43526884192842,-24.63761075620416,-12.35677124104357
1429,-12.662665566467199,-21.57781340074648,-24.74204891633806,-12.613062048337241
1430,-12.766903511935535,-21.68742189140158,-24.865058425192387,-12.833310663535412
1431,-12.814516900717745,-21.764597375331977,-25.00121572117625,-13.003323014841811
1432,-12.808254086650704,-21.807066769472396,-25.126747294635308,-13.123607465456313
1433,-12.819424555680355,-21.810124918956994,-25.22095560595044,-13.23341149763589
1434,-12.911710076004638,-21.77208771977231,-25.264232519724917,-13.372986536717887
1435,-13.007577602800104,-21.708439119612716,-25.2270123056691,-13.486902165396872
1436,-13.017818264855062,-21.633104514455635,-25.1018392536443,-13.520257269261087
1437,-12.991407318114462,-21.550742384850654,-24.934669497555156,-13.5451230051212
1438,-12.994142739572295,-21.454193588227174,-24.78494860969469,-13.642224773405987
1439,-13.013637075137103,-21.34161903468911,-24.690925827123788,-13.788113828657902
1440,-13.02415167909241,-21.22108662124181,-24.659303890689383,-13.941072368466733
1441,-12.99219486803528,-21.097605370969273,-24.66091218143473,-14.089456941391925
1442,-12.895606336585596,-20.969526689470346,-24.63741282532664,-14.2297823578656
1443,-12.806010790594906,-20.83396041646164,-24.48519233404821,-14.397356709921167
1444,-12.792805759897925,-20.687571613959072,-24.141936566356872,-14.619286818789575
1445,-12.78605758570252,-20.52109464759735,-23.690804792942327,-14.82803092525989
1446,-12.699165136053153,-20.321048886464435,-23.254867965078667,-14.944795621531824
1447,-12.560946749498113,-20.082838233720086,-22.908682918339412,-14.977999712409273
1448,-12.415420330551065,-19.81259372310684,-22.67407612632875,-14.954701916290531
1449,-12.24117905738712,-19.516355820633716,-22.470912885036938,-14.860810109858955
1450,-12.022668331853655,-19.200305378958152,-22.19237632902393,-14.696035866936027
1451,-11.777273861206389,-18.865614465697796,-21.803536713380474,-14.491661395689443
1452,-11.533264522319971,-18.509641868927993,-21.310381301879833,-14.28821479589095
1453,-11.363765325238274,-18.12479320573912,-20.75445514919142,-14.171716089145253
1454,-11.315127935823948,-17.708514099507394,-20.178887146246424,-14.19020617024391
1455,-11.2908325667039,-17.266953298557922,-19.56462458545947,-14.213482609232933
1456,-11.179090454293226,-16.81322510178647,-18.87682432777183,-14.098839614695953
1457,-10.987492333683512,-16.355073051357685,-18.095785821323187,-13.881081440211204
1458,-10.757878278758621,-15.886197328874132,-17.23153620469277,-13.636717217371267
1459,-10.525844228946992,-15.391262495920387,-16.378288360757608,-13.379474456568683
1460,-10.320499958281882,-14.854100223252509,-15.628388777939746,-13.11473814148417
1461,-10.087794316061771,-14.274594092795368,-14.969600937357939,-12.819429625098524
1462,-9.776248023899647,-13.659902294790044,-14.346337048834888,-12.468318103406544
1463,-9.485842491571743,-13.0182186054608,-13.69752574426228,-12.1400311180885
1464,-9.31522083431863,-12.35576448389594,-12.969577525363754,-11.900530572005499
1465,-9.189110381387055,-11.673167392699302,-12.174334095355341,-11.632087629687808
1466,-9.007924856324225,-10.967559093392802,-11.341593105100872,-11.21492755662056
1467,-8.76888975656444,-10.243559404151029,-10.445739673618899,-10.717253325716669
1468,-8.516264299922033,-9.553341333431957,-9.5247597607787,-10.246934454751818
1469,-8.299533992593423,-8.982556313291122,-8.729881378417659,-9.815420670929536
1470,-8.175303908028434,-8.555493952929684,-8.135191922053124,-9.418741222371818
1471,-8.057308230685212,-8.231947453459476,-7.763727801008918,-9.006939298370366
1472,-7.846282963993012,-7.9677610590841015,-7.550290362290964,-8.532942504124366
1473,-7.635768661990143,-7.738213071386637,-7.391169877474712,-8.086216637024558
1474,-7.5342204100107955,-7.526824667596523,-7.195184075541675,-7.754728003592229
1475,-7.476083858768553,-7.330919579218434,-6.934201033252932,-7.424535071516748
1476,-7.1802885146197,-6.955370002885436,-6.50770640452752,-6.9281049055130985
1477,-6.851559471515889,-6.5744866465755445,-5.986860578487081,-6.344781921398622
1478,-6.501744413988191,-6.201856593690398,-5.36006355708937,-5.764776090089654
1479,-6.140164545884849,-5.843653322406546,-4.677833082784908,-5.212858805847263
1480,-5.775993067356038,-5.4961978080583656,-4.013103762205605,-4.692025649301916
1481,-5.368288887357808,-5.153646896300794,-3.4151260198147364,-4.154074204696247
1482,-4.8831098013067455,-4.818322769394348,-2.9070913816057833,-3.5484569981717753
1483,-4.42045007038259,-4.499059598498043,-2.471471302223598,-2.969015242120074
1484,-4.086955530119555,-4.206917999489938,-2.068129973259471,-2.524965029098807
