,TP9,AF7,AF8,TP10
0,-7.532360586692667,-5.874491673718029,-21.679774488368164,-10.753530924574642
1,-7.797108443881058,-5.960951946420836,-22.225649988543026,-11.13551255925405
2,-8.06775983348117,-6.091188321781191,-22.75559743178005,-11.520187382647038
3,-8.357516389448534,-6.294373222647792,-23.256394015815086,-11.904125408911462
4,-8.671489033078833,-6.558233282601462,-23.71685633518487,-12.27820806944464
5,-8.966086389048378,-6.841894454687956,-24.12722740059846,-12.632079709992134
6,-9.201583490676574,-7.11121612918617,-24.489622574627806,-12.95749251834629
7,-9.432043986556524,-7.353258829156384,-24.826954906256507,-13.256453910184932
8,-9.712999771078485,-7.570657672909177,-25.171128266911637,-13.53592849932856
9,-9.998982722967488,-7.771829700068403,-25.554732888537295,-13.79917875299468
10,-10.230313516526484,-7.956813594395773,-25.999079155855355,-14.047674409262056
11,-10.396241717700532,-8.115729183309018,-26.49737150029941,-14.285270757698186
12,-10.504371155479392,-8.250819621259836,-27.025815558608656,-14.504993509625107
13,-10.595935867756927,-8.379765690291576,-27.560305046947683,-14.69959013679589
14,-10.711129369510473,-8.515304595622576,-28.074420753567797,-14.84831912801462
15,-10.808330526989048,-8.660990829661147,-28.53746113995061,-14.92927788178856
16,-10.839610688722095,-8.813690218382614,-28.930627479767903,-14.947152077855973
17,-10.853620574894139,-8.969578486817106,-29.257903266167464,-14.92554344298964
18,-10.903351139428695,-9.123402664316826,-29.53522248184318,-14.893590167298381
19,-10.9542979302436,-9.268556432630643,-29.788027678051602,-14.86051361263666
20,-10.968623093819142,-9.402357166302455,-30.02953483884182,-14.826968076553053
21,-10.956098327546496,-9.5297456978995,-30.25858405293576,-14.784355417228358
22,-10.942174716148525,-9.65744933863698,-30.454481851025772,-14.727249947780027
23,-10.994019979877812,-9.791933860204718,-30.59765303920746,-14.688239970586235
24,-11.153958699157652,-9.930736268289689,-30.702390510139608,-14.685588779964613
25,-11.320958039884069,-10.06371200072903,-30.80922218534043,-14.704787948999254
26,-11.379871809573899,-10.171682803659829,-30.95460430991468,-14.696771240967841
27,-11.34723025277182,-10.240481279199516,-31.111124131089696,-14.623002191759564
28,-11.277518120557312,-10.274697181236036,-31.238976380942322,-14.492366589588759
29,-11.193360329430568,-10.292154938589563,-31.30812531354238,-14.334964312738723
30,-11.118750780088346,-10.309152920171597,-31.318588000704104,-14.194598609612443
31,-11.068346982448993,-10.337014226568492,-31.27439573224794,-14.092659736448145
32,-11.045205121428285,-10.37819968446117,-31.185229208128103,-14.03212728501109
33,-11.074263522940566,-10.433762209392041,-31.04007139838448,-14.001776262970056
34,-11.169135950893493,-10.495281778098848,-30.825221066261992,-13.98208458015888
35,-11.27841553932169,-10.555248313050217,-30.54499703275918,-13.953784020760002
36,-11.349463033148739,-10.606267827610793,-30.20860950797858,-13.904653479038263
37,-11.401692379143688,-10.643819879872199,-29.82752766693508,-13.844622046400286
38,-11.463034677041177,-10.66589373035762,-29.407936077938913,-13.779374233229767
39,-11.516732577713318,-10.66875798245926,-28.933793735400467,-13.695421378431458
40,-11.538627387236472,-10.651574413414457,-28.394283991825663,-13.567027026917723
41,-11.502456372407435,-10.624263694776715,-27.766594496404867,-13.377789433313241
42,-11.394033342232866,-10.594853835251763,-27.064618084555992,-13.137285335370454
43,-11.264055765772758,-10.564304437575322,-26.336871366089184,-12.869917913607992
44,-11.16701246824958,-10.525625494733163,-25.607476015870038,-12.581413503337052
45,-11.07266469071287,-10.477975240409735,-24.874230988086776,-12.254302482421236
46,-10.946106501030139,-10.424006217531508,-24.113415536512164,-11.893153866036776
47,-10.827587436258984,-10.371754282691464,-23.296505035729798,-11.528955107508027
48,-10.766249342725756,-10.32632602051776,-22.40572162147705,-11.194596833568236
49,-10.778868765081722,-10.280972030326021,-21.418517060185973,-10.891435861317364
50,-10.861603999860076,-10.212217588662774,-20.3555384619155,-10.605322623968975
51,-10.973430995135262,-10.096305996686308,-19.257961505280164,-10.307074803959337
52,-11.062511322417205,-9.935513055312036,-18.17161908759403,-9.979273071484736
53,-11.108732993678315,-9.754707235683185,-17.111152557656034,-9.631663721091762
54,-11.107631611253687,-9.57697534912342,-16.07522383097805,-9.300150690277961
55,-11.05392927215612,-9.411305661245404,-15.064725972231857,-9.003230588489863
56,-10.94973732060461,-9.250358796076494,-14.069914317092127,-8.731305860597612
57,-10.80411426756538,-9.078190421006118,-13.070083502000156,-8.47267976772257
58,-10.618681003125996,-8.890028732652162,-12.041983839544189,-8.203671623164784
59,-10.387804198606833,-8.700502977076384,-10.950429554155683,-7.897789595946076
60,-10.083532113870902,-8.532205705424468,-9.838997634387804,-7.558921624540053
61,-9.646378039483496,-8.414047293737644,-8.85140152540711,-7.231037870683982
62,-9.03744389581602,-8.354264930714287,-8.102440397574593,-6.949883302859488
63,-8.374218489061619,-8.324847625132833,-7.571276775194799,-6.724535060734099
64,-7.799319709876742,-8.295172863505208,-7.177634933368151,-6.558755367475782
65,-7.306405504052427,-8.259982503437174,-6.813126194596062,-6.457911076609996
66,-6.843075666447555,-8.234438073988057,-6.387892089318438,-6.399696006753682
67,-6.408121895739336,-8.232800370655212,-5.889798893391893,-6.374038005460792
68,-5.937353970588128,-8.291941427664522,-5.204085182121303,-6.081754788545017
69,-5.5042832905315615,-8.361614706667847,-4.516681008710372,-5.7821073764788276
70,-5.1123104948159535,-8.456668329334246,-3.813656680192312,-5.481213256536587
71,-4.7228428543144885,-8.577682867264482,-3.0998555236941647,-5.191151070129453
72,-4.296791955080574,-8.701479922931169,-2.411798589598633,-4.925835862049755
73,-3.8704814122073814,-8.798768434596681,-1.7816851963587288,-4.702775502952565
74,-3.4956158885613178,-8.85352203758949,-1.2188967487630222,-4.532473465051458
75,-3.166436769896154,-8.863720321704962,-0.7259667712658641,-4.402760852263079
76,-2.8612267210814037,-8.829856291831302,-0.2907659252227218,-4.292367790216121
77,-2.568569174191394,-8.755568611321449,0.10514370759367164,-4.185915134047765
78,-2.2801954736937167,-8.651606796510041,0.47876795204232364,-4.072787949953464
79,-2.017915899503239,-8.538300596323484,0.8362514393082036,-3.9541780808022264
80,-1.8084094128888022,-8.442888129090544,1.1787072601137827,-3.8362601249142094
81,-1.6203234368339139,-8.384318033551216,1.5086995776827683,-3.709805432985378
82,-1.4154154147854563,-8.364954461079531,1.8299630564332017,-3.57009199021194
83,-1.2293826931081804,-8.378152466668897,2.1547265740276758,-3.4168003519003762
84,-1.101888421163494,-8.412873309131752,2.493078582219626,-3.2642529506004503
85,-0.9977589843556531,-8.457209158418689,2.8333920954040774,-3.1144488675569333
86,-0.8649887375758174,-8.503034126691562,3.158307525196895,-2.9463134084365263
87,-0.6715235836106336,-8.57249626056476,3.463498777960802,-2.7516369110099546
88,-0.40641348887760537,-8.719000946424675,3.749239351525627,-2.5302010589299653
89,-0.1256389123814407,-8.934225398655006,4.017107723572141,-2.307466634654578
90,0.1024497970255739,-9.1211168075825,4.2677568710110485,-2.11658328552191
91,0.293170233203418,-9.20038502387449,4.493357895919292,-1.974074949316769
92,0.48616584981269556,-9.171071054671293,4.683841579218905,-1.8789001462961556
93,0.6778999118183093,-9.07683368265508,4.8302001022566055,-1.8055995883908866
94,0.8572828485432116,-8.954150315318337,4.932441322391026,-1.7179748862940052
95,1.0139853262232592,-8.812906704022652,5.015679730882742,-1.5932456928399286
96,1.1405045508177676,-8.65080926461057,5.110413575969964,-1.4229135479409687
97,1.2743261148214418,-8.468951975954884,5.229319198062513,-1.2080217765766712
98,1.4551526193186657,-8.275757864069494,5.371178782327297,-0.9652171238176991
99,1.6493390972817699,-8.083178280733177,5.518951678978921,-0.7351534812420365
100,1.8091170232908524,-7.898781162478176,5.657265021436073,-0.5493048761260182
101,1.9458119741617055,-7.727102288979666,5.75877118372247,-0.42885952619039985
102,2.0859044563725258,-7.5684573515805695,5.824191863303792,-0.35683549084425736
103,2.235713105701028,-7.427620133477308,5.888327556763802,-0.28605346278847754
104,2.399573669791459,-7.303938107347999,5.965037448390137,-0.1864859505318613
105,2.5713708973690363,-7.1854256932494485,6.050940527222092,-0.0712776858095987
106,2.7401660199900357,-7.053228910937668,6.132477632836197,0.02567675946082998
107,2.932496277150322,-6.897125643915859,6.217052387825593,0.09006258549521362
108,3.1687868034357223,-6.719439128831101,6.315414318367113,0.11790548566792516
109,3.382797279359139,-6.525792336598406,6.421565494689536,0.11608840102266682
110,3.501873039831788,-6.327076811386802,6.525168455049441,0.09861691841803266
111,3.5503933162321295,-6.134626999286951,6.621997545069024,0.07162440463502795
112,3.581356639371296,-5.956308014263243,6.7060787768981704,0.037855740517463266
113,3.6160238821670596,-5.795571146760708,6.765293479736912,-0.003696218482995006
114,3.66496594128358,-5.649807687479262,6.788377709321387,-0.05120589451969387
115,3.7080591984985505,-5.51377137211422,6.767892983852759,-0.07861962228673336
116,3.719197623528713,-5.381949545541382,6.703101557544343,-0.06422540033389657
117,3.74010848133722,-5.255458172449505,6.606433709911587,-0.00693167720901583
118,3.81989321149508,-5.148295062671715,6.494942175007896,0.06770347259648585
119,3.922602325169933,-5.076594697592821,6.378869252246194,0.15072387270017962
120,3.9978878413844243,-5.041400104490873,6.261879228916437,0.23765461919332082
121,4.056609257583207,-5.020369832565939,6.140651826061809,0.3348215893444914
122,4.1237483682673455,-4.970006445975283,6.004354306708077,0.45307768275873517
123,4.216081436473438,-4.852027091110488,5.8389838250264905,0.5920836296295747
124,4.344203497441416,-4.667296691826072,5.630427752466371,0.7449836011675829
125,4.467138423823599,-4.448887977491323,5.363969380641191,0.9021794918490622
126,4.540757405705026,-4.2289728663295225,5.035720465798812,1.0546196054371453
127,4.615585497094477,-4.022436548887349,4.6643041653827675,1.2028860699590138
128,-28.774796606865014,-29.23664845095104,-0.6355409209062454,-19.22367118575025
129,-29.178065085834408,-29.816536418644503,-0.7129949176276805,-19.548560131874176
130,-29.52129632867576,-30.37151329474271,-0.7888571547017497,-19.833210272916187
131,-29.812001670253995,-30.88873801091395,-0.8712751696669495,-20.06560271107133
132,-30.051935891443673,-31.352812333137862,-0.963470746096227,-20.236199180305107
133,-30.230344461362275,-31.752556967021995,-1.0609793180658589,-20.344786378387504
134,-30.336787974014047,-32.07975793497315,-1.156307502802291,-20.395722806256863
135,-30.40572041973157,-32.323371435995945,-1.243286938676174,-20.38693297715547
136,-30.4692579473587,-32.48087851341396,-1.3201447910032231,-20.317992624731822
137,-30.484477289930098,-32.570633704165914,-1.3938921114394482,-20.201927710896612
138,-30.407096119013325,-32.614791905686666,-1.4743785950275332,-20.04963407297831
139,-30.27541473770576,-32.62734371148654,-1.5692528061217839,-19.854191454291353
140,-30.12997207893796,-32.613380424134604,-1.6818594083551845,-19.60666997899166
141,-29.94981614300613,-32.557188798537226,-1.8051197577002345,-19.306797528475048
142,-29.697541258741047,-32.446803149941516,-1.9312214907527199,-18.96134985402533
143,-29.325719498187034,-32.2842439145574,-2.0641913993008933,-18.59192079876122
144,-28.80637541539345,-32.08933846945057,-2.212442938739663,-18.221300640080948
145,-28.196896488280803,-31.876095464043214,-2.3808196029417337,-17.850098169574544
146,-27.571559679664016,-31.6408788570929,-2.5728374793275317,-17.47423870675864
147,-26.938959822567035,-31.37025074088553,-2.793626188480229,-17.106806415064053
148,-26.286442520689288,-31.069457055193826,-3.0410966971107376,-16.756946853080077
149,-25.613263610668557,-30.75329342135125,-3.297967742281397,-16.412210922262457
150,-24.9104735298102,-30.437706491858513,-3.545782063054211,-16.05455143781254
151,-24.16462435621767,-30.11660639210856,-3.773426550598389,-15.668894026237949
152,-23.367876160835152,-29.77364047043927,-3.982203469676794,-15.244323351231994
153,-22.504162745071458,-29.392450198710282,-4.1979901159133775,-14.783116817800481
154,-21.57125197445581,-28.957474463245866,-4.448784902541041,-14.290701614941765
155,-20.629220246070627,-28.461483619621397,-4.7399022863928115,-13.76625132069459
156,-19.736100482518403,-27.906101043326537,-5.061978257125435,-13.209011149516602
157,-18.853718656000936,-27.293361887028627,-5.393653753444509,-12.607950084621793
158,-17.939039887037765,-26.637184766577665,-5.710363617794484,-11.964707507354905
159,-17.047516977776127,-25.95821381666333,-6.0016159675788625,-11.338167094220957
160,-16.233863935623674,-25.28126945779238,-6.2656098901152,-10.783214764094087
161,-15.478352966366225,-24.620952352171027,-6.501522787939427,-10.280663506603924
162,-14.733879499779166,-23.9605697972419,-6.714712583382839,-9.791338796076062
163,-13.920051555242111,-23.262242007650194,-6.917108461006936,-9.295918150151682
164,-12.974497544521393,-22.52117731077235,-7.122765199113239,-8.783416168822715
165,-11.95784638293171,-21.77154607441401,-7.34766581035568,-8.271699262645198
166,-10.951339060056661,-21.03043285913274,-7.602914559528529,-7.7791661504166925
167,-9.932740183232799,-20.284333777152476,-7.884237886672687,-7.271161190779445
168,-8.868151616807301,-19.514781048228055,-8.18022110232846,-6.710758699135191
169,-7.771692548340441,-18.719733569172927,-8.486587877659673,-6.109348064003548
170,-6.6691025296005835,-17.911534869569827,-8.79559158441855,-5.491874215055244
171,-5.6267975292643735,-17.09225655040712,-9.080889820237637,-4.882246743745574
172,-4.685723076249408,-16.246749931691426,-9.320780735398792,-4.294542485585322
173,-3.7421332506827687,-15.367967881477139,-9.522176186061822,-3.7019299373134666
174,-2.6774191573220905,-14.448606815145652,-9.700048344768048,-3.0682593971546575
175,-1.4986854754611523,-13.489761842637364,-9.862112365752852,-2.389464099542059
176,-0.2525313510402506,-12.496567341754613,-10.013242722044842,-1.6723047906440733
177,1.0278910143462263,-11.468733125846558,-10.14883121128152,-0.9193461347850113
178,2.3124408346897853,-10.408239634346144,-10.265931198240478,-0.13817042890076073
179,3.6140139923864543,-9.308735829675072,-10.381100128151774,0.6635433578200866
180,4.960103941661818,-8.170874116016439,-10.514559798517112,1.4770584828467932
181,6.325223229017362,-7.004367590281383,-10.676057192165189,2.2790615148272666
182,7.681600035176639,-5.80372434118278,-10.865660909718562,3.050591174986646
183,9.077086641030615,-4.552617758067186,-11.070251461964707,3.8072206514708404
184,10.545903044489767,-3.24051735283376,-11.26768951275774,4.567941949538772
185,12.003669667188507,-1.8953881279582296,-11.434665445769584,5.315672262623354
186,13.368048440460035,-0.5440606096786528,-11.551368055095947,6.035751659724423
187,14.665424447871347,0.7972206942302671,-11.607467012097386,6.7503671307114494
188,15.974852543820115,2.10384410864745,-11.626851949363571,7.495233341037152
189,17.30336531012528,3.3219201477586005,-11.664795907993238,8.272829052135453
190,18.653586843188535,4.421965990652569,-11.758793018612934,9.071886598908154
191,19.862954968225036,5.4286810270941706,-11.939813396882363,9.779350353872438
192,20.783957810049614,6.359652427495764,-12.239185453772242,10.287545126443668
193,21.566322593449534,7.217167469559816,-12.637735616980017,10.670602644725065
194,22.397559711500463,7.982383085737902,-13.092059331781675,11.009265149788645
195,23.222247175558458,8.633661728534676,-13.524438316511585,11.33862694232866
196,23.928325803493145,9.297207013753193,-13.803164679237986,11.612140821529167
197,24.518734607704918,9.860095275576564,-13.935290303028102,11.811080694559394
198,24.990620084193132,10.316192483383695,-13.941046954817159,11.928621009380581
199,25.3533393388304,10.669290481758905,-13.857668676609677,11.985668578674318
200,25.616206362222975,10.928580907754423,-13.734177749607738,12.004533230499725
201,25.73621386700588,11.109674215253643,-13.575307145783412,11.964834615989812
202,25.66873396493051,11.226393652092883,-13.364382789686841,11.838392056198245
203,25.44354554098508,11.269113483272982,-13.101666951559741,11.631839486003715
204,25.11285282994167,11.231638866714368,-12.794841540412678,11.360629009766974
205,24.69127150099837,11.124630065541742,-12.453398258217312,11.02267272769895
206,24.191275465101945,10.978313206269581,-12.097352619804413,10.620468407838166
207,23.643644918131926,10.811233144822602,-11.764029335346775,10.176894940687303
208,23.079531737919503,10.621523022361751,-11.482704114510739,9.722441517149125
209,22.54397673376056,10.407394910967598,-11.247669005269369,9.29077328158479
210,22.06988680822602,10.177107082584731,-11.030310493386127,8.912421443090874
211,21.616914392768,9.937018779076556,-10.785653963976635,8.59578761546331
212,21.135567781440404,9.690440300606106,-10.471406840894119,8.337480088332955
213,20.651338786409983,9.451161737998259,-10.080416115943946,8.148194974605333
214,20.211534545620097,9.238558071575765,-9.628184244473978,8.029690847738042
215,19.847498568222058,9.057080231783813,-9.13512741094077,7.941060240025056
216,19.57107721264906,8.887597271604738,-8.617870857942263,7.834202645073915
217,19.328189274458033,8.707912337196358,-8.123650333263525,7.695295149085449
218,19.048312576223395,8.497977229817737,-7.673598157230518,7.525167012797697
219,18.733163968996728,8.265744379595887,-7.251853830017207,7.3218813260598745
220,18.408686585394516,8.03030910290879,-6.869860791288554,7.090084680687322
221,18.062095151127135,7.798814463314833,-6.562622251188063,6.839158861629938
222,17.68104049433136,7.571632301467056,-6.354245523829598,6.578547298886843
223,17.28983780576613,7.340278307724984,-6.176199630855333,6.324113306409416
224,16.908288860984396,7.093002912500839,-5.951359313156505,6.0860415730140325
225,16.52152631845431,6.83061307271895,-5.623379916816339,5.848494813082395
226,16.103574646930333,6.559846148193421,-5.205730276163958,5.590138453425536
227,15.615665889804191,6.283155748635849,-4.762345829591094,5.30872964404774
228,15.035716241929224,6.004916042087385,-4.346562154200412,5.0115601830685055
229,14.426702473680965,5.734794456109034,-3.978535428328727,4.710383281910035
230,13.868314612845182,5.482649184444065,-3.651521451147819,4.418621508562472
231,13.358911822910377,5.257943234575472,-3.379203593477607,4.1411222577784175
232,12.87009280970489,5.0648747266827865,-3.1570251674995644,3.8778496027755636
233,12.396342060758478,4.894814011293892,-2.963855464750251,3.625817511869645
234,11.933403492577531,4.734752417546124,-2.757021913018689,3.3825545895588487
235,11.492697610715686,4.573563300231018,-2.5144423135817178,3.1631099063071066
236,11.085967172556746,4.406793267581033,-2.262852821167774,2.981335349138964
237,10.670759946229937,4.249865047357718,-2.0537476689248635,2.8147812271729538
238,10.20328026304732,4.121737867414287,-1.9012501153942107,2.6376880468822375
239,9.714398683813231,4.020313160828719,-1.781065632343752,2.4626097880829736
240,9.256073374071589,3.934446731601391,-1.6447507122285907,2.3134272382970162
241,8.846764068099429,3.856888192339915,-1.4657224550555035,2.20278255252304
242,8.493762841910055,3.78067812640945,-1.2344951701868874,2.13664855059605
243,8.193138624989006,3.699973925113701,-0.9607241085986755,2.1066036368116468
244,7.932194770771053,3.6144829229063093,-0.6680568852523978,2.097722358878547
245,7.725107957108802,3.530945562341351,-0.37554507879491894,2.103275175574235
246,7.583361999202144,3.4600350763724417,-0.09732353101903861,2.123504019738445
247,7.459037600086761,3.41276689234428,0.1554076845515741,2.1688586647568475
248,7.299338625017235,3.3979476977208893,0.3790329869115333,2.2505820389918676
249,7.115892016842443,3.4196045100573302,0.5785776443927698,2.364176817791214
250,6.938719443684022,3.4754485529450894,0.7623895773795437,2.4969655953662633
251,6.774637264135071,3.5554172337861587,0.9377693460338205,2.635790563429919
252,6.625358068055902,3.6446191104773757,1.1080477320782234,2.7679273923624446
253,6.479207073322227,3.730056249972619,1.268811849516812,2.88878237015839
254,6.322811672457844,3.799795562994468,1.4116262717277703,2.9982496657463424
255,6.189438457459097,3.837025641717126,1.5281537691748852,3.089542852228805
256,-3.21610254231462,-17.323474353750516,-2.5564587743726035,-3.8571837999539094
257,-3.1283106036115242,-17.838802636089024,-2.723024696079554,-3.784073311293352
258,-3.086392454533582,-18.36987594932077,-2.897974058395404,-3.719203021112994
259,-3.071233133404136,-18.898224485234355,-3.0950440853808656,-3.6621768460133195
260,-3.0522596217760514,-19.39878222496203,-3.3238493472819695,-3.607167900446121
261,-3.0248718706760718,-19.863845915220516,-3.58518106174214,-3.556300134989464
262,-2.9929667746250006,-20.29668101027293,-3.8720962138303197,-3.515916329537113
263,-2.981021473799886,-20.716014072237886,-4.174384310972256,-3.4975897804097364
264,-3.014563808749387,-21.14312492999217,-4.4804126607810115,-3.5155832556026296
265,-3.0748975506712752,-21.579805234778075,-4.781377613036904,-3.585572847067857
266,-3.1390747160482206,-22.015960081274308,-5.070244332462625,-3.7115924224680836
267,-3.2309953309907757,-22.446026608940596,-5.337625666240906,-3.871209682163427
268,-3.3736043641314324,-22.859546759902955,-5.577811510711671,-4.033030759070246
269,-3.5488842511544303,-23.21869194573914,-5.79583616470127,-4.172668818505181
270,-3.729487359623373,-23.513583142599536,-6.0002848331204985,-4.278056829981054
271,-3.8870446860532755,-23.757478270955573,-6.196069510682679,-4.357835535506451
272,-4.002540168565529,-24.011664319185165,-6.38924759231629,-4.4342500213989196
273,-4.106347491277827,-24.305961142562115,-6.58587130505597,-4.531928128555073
274,-4.230134146141348,-24.61006737500382,-6.791447641905848,-4.667302594803068
275,-4.335811879522829,-24.904529199974338,-7.023091465286604,-4.841328765764995
276,-4.377001071340521,-25.161167390497017,-7.286552530539091,-5.031988933989222
277,-4.3721729280894435,-25.365912637817054,-7.546471435579426,-5.193971319333992
278,-4.346128573666707,-25.52187884123107,-7.766032882956012,-5.281836243711947
279,-4.273308816081125,-25.636697189878134,-7.93709213543849,-5.251411046107647
280,-4.143646571384854,-25.723410260630153,-8.076714675187663,-5.104958177485524
281,-3.99135551115402,-25.814492110179955,-8.238810410834962,-4.946385486211655
282,-3.864955345368075,-25.924727524083252,-8.473613014283352,-4.880303969330952
283,-3.876551651636074,-26.001983193898386,-8.784228005802655,-4.9993897177623925
284,-4.075743006970517,-25.987655987905207,-9.133992897820892,-5.274928673819775
285,-4.2507040373460745,-25.878376797410628,-9.446113040073065,-5.546700249695017
286,-4.1760442443487324,-25.695695985748447,-9.641576698061034,-5.6360220002554
287,-3.8656130015365524,-25.467955610040672,-9.683611306681117,-5.503711249281892
288,-3.4339874687569374,-25.227453010041586,-9.580009047129854,-5.196311413912741
289,-3.0274335615835666,-24.99312357003824,-9.38788989236531,-4.813043565614194
290,-2.7804742656689823,-24.765690837849224,-9.184515828458718,-4.470708632651924
291,-2.6899835713838764,-24.52909927194036,-9.032609894906862,-4.230768086100791
292,-2.6854172437895643,-24.258016875808384,-8.967875175002638,-4.104468630411538
293,-2.7237161405242216,-23.925358123528216,-8.977862924178723,-4.064925611543887
294,-2.769986832509113,-23.51505646395937,-9.02795146646796,-4.0633491037516904
295,-2.8046121108741406,-23.035472736594738,-9.102372467543033,-4.063087129894456
296,-2.829180003271914,-22.507546672543597,-9.18922276926447,-4.042143379488449
297,-2.8574924040120675,-21.953772092429105,-9.264769919480642,-3.995614266385871
298,-2.898134798159579,-21.390742865805294,-9.31488523901819,-3.9355043793662654
299,-2.9279846387918536,-20.815589260578104,-9.34778549615104,-3.8729065803569074
300,-2.9255310675170145,-20.215643078999072,-9.377739849605444,-3.8392400624537104
301,-2.9006038617782526,-19.582086511988386,-9.418721575623422,-3.85476213768405
302,-2.8775870434801236,-18.90538002365306,-9.477185882114863,-3.962081753439201
303,-2.9057631843739022,-18.175826795780686,-9.533189665663887,-4.18231789163813
304,-3.014911172591581,-17.385515276871352,-9.566019672650077,-4.4729638706681145
305,-3.1464454294938142,-16.522176151108432,-9.585251966751436,-4.777932323960747
306,-3.2289694271451648,-15.579956748230897,-9.60969171020336,-5.040542141019506
307,-3.247862496480453,-14.574211303919977,-9.651234451639894,-5.254350538567
308,-3.220781152572685,-13.524322681229025,-9.715235800479675,-5.438514920518761
309,-3.208361241356825,-12.435664795058567,-9.79607178438137,-5.6056422982559
310,-3.2680297972839014,-11.306755108814688,-9.87968951746398,-5.766408206439793
311,-3.372620533303122,-10.134781253966878,-9.941378298101636,-5.930777011969409
312,-3.4696295945754603,-8.910609090781856,-9.966317792656533,-6.092205616636764
313,-3.5503811801714367,-7.6188688896568335,-9.9797268138046,-6.2144259690802075
314,-3.611214826634884,-6.245765599735135,-10.01289874585342,-6.2613323405126655
315,-3.6290203851369216,-4.781272817032868,-10.068024690844839,-6.224268443315503
316,-3.576418263174123,-3.2608614252941286,-10.164694718145583,-6.124062196657702
317,-3.4708901519610293,-1.7887444596082864,-10.307810790622773,-6.0078949143935185
318,-3.337355841354787,-0.44401629143344495,-10.515134803824331,-5.932478426618419
319,-3.272560002374479,0.754359135411763,-10.7680732037052,-5.954307327832559
320,-3.365015535978977,1.838366054723268,-11.03358226957115,-6.086617212448503
321,-3.5671025747327425,2.837101049254837,-11.31503595919038,-6.29689910376869
322,-3.792010148600576,3.774654388043074,-11.614955599668198,-6.515713063199857
323,-4.021673052772204,4.662273358046492,-11.885957618448062,-6.674800680262719
324,-4.581147665982561,5.457212659126911,-11.815242560705144,-7.112164227080887
325,-5.0929055879856415,6.2206803616672115,-11.697635532519387,-7.500978262202056
326,-5.55765963480206,6.959796716725364,-11.554599378677475,-7.864490151473869
327,-6.002124674227351,7.668096783937206,-11.401250422222594,-8.211955103772798
328,-6.459844417234888,8.332643070620882,-11.250078265639903,-8.54777631261559
329,-6.980654617948637,8.942527650813979,-11.107432474272455,-8.890264196689406
330,-7.586247791279776,9.493937232407276,-10.97178300267232,-9.245997127951464
331,-8.180667464027868,9.992264771278036,-10.838951432473088,-9.578299211217336
332,-8.654125136499909,10.45574485513415,-10.701213319121274,-9.846852228529857
333,-9.018249012493852,10.924225662605721,-10.543458032028536,-10.043960462777154
334,-9.331466114124803,11.434372835967709,-10.35277610397561,-10.187347619737531
335,-9.64978738473015,11.989843222251785,-10.128613678647417,-10.332639847835047
336,-10.01416835046545,12.571682130218383,-9.875612867022015,-10.536400696277903
337,-10.366086040660322,13.146475981458078,-9.60318922971262,-10.794960410261755
338,-10.624766223856986,13.678251831052489,-9.318333186219673,-11.072638860839708
339,-10.824067847933353,14.149563286437363,-9.002179692328651,-11.339597389270551
340,-11.026856312341584,14.560551478681326,-8.638942023946896,-11.567024725319056
341,-11.226205156129886,14.926009465788853,-8.257737627504921,-11.725197143621145
342,-11.400932224354102,15.26813188569033,-7.901159402018197,-11.807843262087722
343,-11.550402183045598,15.60323435169716,-7.593281398984611,-11.855786850469233
344,-11.668865550873617,15.940842407892472,-7.342235818715172,-11.920017243364216
345,-11.753993294630744,16.28183063064143,-7.136493504618915,-12.03082001444532
346,-11.804869817731705,16.622084706375528,-6.94729436212428,-12.189940446855596
347,-11.779442455192653,16.963275959733394,-6.732416992152841,-12.335565426144552
348,-11.647697623503653,17.306536917374228,-6.459506506302193,-12.396856085891802
349,-11.486935564042621,17.642310855113056,-6.13800932489074,-12.380967258069864
350,-11.389756587023347,17.958247697512903,-5.799042257068704,-12.327935793846041
351,-11.345497333734418,18.24861108915536,-5.470848832005506,-12.25906581723765
352,-11.312690247616018,18.508030715659253,-5.177884556743894,-12.195139271970604
353,-11.27840917023201,18.725151042126928,-4.9277827037472886,-12.153973787240371
354,-11.237457287987286,18.889941428242363,-4.715809871748436,-12.14263983909033
355,-11.22112910606837,18.999717489845303,-4.545606196573285,-12.171177464715099
356,-11.262433393063924,19.058202640375836,-4.415263676713553,-12.239936413984934
357,-11.308688015525714,19.074077687974864,-4.295241616571851,-12.316447059980295
358,-11.292694381516798,19.059573217233325,-4.155000249672243,-12.361641438057015
359,-11.235616881605097,19.03211282990448,-3.9921793169330098,-12.362737204364109
360,-11.17943290306679,19.00257645442333,-3.8172302331211254,-12.321029354163729
361,-11.113258911030538,18.95882968247557,-3.641795682787379,-12.23513916185876
362,-11.022067788799816,18.879700574258276,-3.4769280869651373,-12.11216557157297
363,-10.919012523829462,18.750896018546026,-3.323782971706218,-11.98204352818132
364,-10.818603185575437,18.563762375838188,-3.1770752546898557,-11.869219714912933
365,-10.74119063474422,18.320734940570063,-3.0276807797100593,-11.76005024606696
366,-10.695988549102191,18.03091044190504,-2.870533882019852,-11.625079243805478
367,-10.627783534723743,17.69615799550393,-2.722437139149719,-11.440797845037666
368,-10.477544043884917,17.320325602463512,-2.6031994727663816,-11.193138883316808
369,-10.268551050425732,16.919971625274812,-2.5100213349803715,-10.887818233681923
370,-10.051272243416143,16.51381943574583,-2.4297570989281523,-10.54727906715462
371,-9.852834334204347,16.118528429570286,-2.34931559159338,-10.207323696628197
372,-9.689569833027305,15.742078551625227,-2.257457311188058,-9.901424401045452
373,-9.542972414056875,15.368772394547781,-2.150228453905271,-9.631164003635844
374,-9.384833224477122,14.976765787442101,-2.033257609214461,-9.385639947102206
375,-9.247118377653281,14.557654101166428,-1.926792721713707,-9.176018542666668
376,-9.167233513626108,14.113079636060526,-1.8496519391725998,-9.012428707674163
377,-9.1032985717619,13.662410905505165,-1.7962878665299757,-8.874887308978655
378,-9.002787727686567,13.224671984536618,-1.7491872706955678,-8.740253095116085
379,-8.879951353789119,12.786066956333002,-1.692851076569902,-8.609206212507274
380,-8.76436228480024,12.322835890751124,-1.6136789241622906,-8.488378661913211
381,-8.662560511895247,11.825855018665322,-1.505607589894229,-8.376797744873427
382,-8.57278586930675,11.296470274436029,-1.370356871851775,-8.268588716664125
383,-8.470381388855662,10.753246350137939,-1.2139308968205222,-8.151081711679236
384,-38.84941947442454,-30.319576541820197,-235.54038541888391,-43.44611686411252
385,-39.784755546245066,-31.13933804755651,-248.96584558328527,-44.586877176691644
386,-40.684286236642805,-31.92979060783174,-262.71123792690787,-45.60372759589551
387,-41.55889958566837,-32.652615269776355,-276.86874429291134,-46.60027232394747
388,-42.40634974216019,-33.28612584605513,-291.4860745894987,-47.59541148126702
389,-43.21769596126905,-33.81573850616151,-306.5757422492506,-48.52375608004786
390,-43.989820930163305,-34.245722729680374,-322.06118064096745,-49.3662756734892
391,-44.76982171855445,-34.59433860079556,-337.7745234193832,-50.178933592857874
392,-45.60395951656682,-34.884713957843516,-353.4897699885792,-50.97907798213627
393,-46.47074653652544,-35.15394443678753,-368.98440846052955,-51.796088301776685
394,-47.32567906626249,-35.41494944944677,-384.15164038424433,-52.62734746849457
395,-48.14956077347197,-35.65538758057955,-398.9978551861185,-53.41025463567157
396,-48.91577679767345,-35.83181422669979,-413.46606100743645,-54.07146380284723
397,-49.56215280713915,-35.93761794959687,-427.3994249008135,-54.5756873686118
398,-50.03999080860147,-36.014106457651934,-440.6274074689377,-54.91658033540862
399,-50.35530944477579,-36.07588774069124,-453.1420765958637,-55.1212132504874
400,-50.5382022772066,-36.08823641352706,-464.9533414694068,-55.227622845557214
401,-50.62402098080485,-36.039406722978185,-475.9415652140641,-55.260852132774595
402,-50.65051272838226,-35.91656664989001,-485.9733025289466,-55.23202615340646
403,-50.62806528278696,-35.72687226342673,-494.99551018525904,-55.106416859406174
404,-50.560967219891,-35.48840323787031,-502.97909906963554,-54.883969740825606
405,-50.498674806323315,-35.215664571481234,-509.8408411109674,-54.59340463524949
406,-50.47039896986118,-34.91659527237712,-515.5492149855893,-54.33283435228008
407,-50.41002415393894,-34.57837034375841,-520.1639248670825,-54.131274684814386
408,-50.23781381255399,-34.18614572786277,-523.735486288887,-53.920374014940144
409,-49.9266960577355,-33.75515565584315,-526.2627890803551,-53.65230227164753
410,-49.48227239580307,-33.30145252409402,-527.7420032735494,-53.34627010545086
411,-48.95466500531327,-32.80914829390991,-528.1684886250713,-52.989488309316556
412,-48.401883423730794,-32.2585347421449,-527.5003598913388,-52.578273887872925
413,-47.82579691776928,-31.649986378477852,-525.6761206683422,-52.119355590120456
414,-47.2071173610048,-30.989981711280112,-522.6836128627979,-51.5761408528867
415,-46.54271089295119,-30.28104747187215,-518.5657984380697,-50.88220187561497
416,-45.826268265479634,-29.530310916901236,-513.3541112292587,-49.94806153897017
417,-45.0473148458115,-28.756893310614533,-507.0557591224454,-48.77768155408006
418,-44.1989722015702,-27.973491374712452,-499.669259634417,-47.49219270945048
419,-43.262199277254865,-27.17081838608711,-491.2245510835425,-46.18768733884125
420,-42.22643474105551,-26.331605658665925,-481.7395558501938,-44.94035410063517
421,-41.13597483130982,-25.435934935464275,-471.23251298268497,-43.731587224819314
422,-40.029982918937044,-24.47388694815298,-459.69386622048916,-42.49459922795177
423,-38.8614253497034,-23.468920514877578,-447.1067344527352,-41.18377411519729
424,-37.58170605098824,-22.451656445552715,-433.50484853707155,-39.770820540890114
425,-36.22110842479545,-21.429348056644653,-418.9544283041674,-38.24832417400923
426,-34.828074221875994,-20.398693166905094,-403.5198307696076,-36.635776981346815
427,-33.44308968725338,-19.3543789051568,-387.2327236530098,-34.9804881925416
428,-32.08541416531222,-18.286423794922047,-370.1379210974509,-33.31703195258726
429,-30.69595541998794,-17.184673691992288,-352.3729051197329,-31.62348029199351
430,-29.20433545433923,-16.045142695060882,-334.1974585567614,-29.85454303226466
431,-27.623339933346074,-14.870431112850342,-315.843464790402,-27.966623513179627
432,-25.98390251639731,-13.670786442125799,-297.33737821860103,-25.933336323676137
433,-24.27053507166893,-12.469660157687885,-278.53948997749956,-23.777119300540882
434,-22.469522844663885,-11.284964037651935,-259.227399786239,-21.539960995567995
435,-20.597591218661467,-10.109531204399298,-239.26161120461083,-19.25072573795934
436,-18.670744494790917,-8.924878722188796,-218.5933127142581,-16.923405631209437
437,-16.69911215274135,-7.709477307766266,-197.24311379504547,-14.544680528158372
438,-14.68421932771099,-6.449033267519631,-175.28305722585813,-12.092592829863994
439,-12.585324717795851,-5.1525290078632064,-152.74320817546868,-9.556389002890587
440,-10.367361437507853,-3.8378082446858426,-129.54106630219636,-6.938140313865962
441,-8.079608238970524,-2.5220861033506043,-105.55715971889722,-4.273128749369841
442,-5.772505537116204,-1.2119550262396463,-80.77433912572873,-1.5905388749865303
443,-3.4006565961278237,0.12123090626854088,-55.28740244299722,1.1441205359210882
444,-0.9965968117377566,1.4506367741555592,-29.12072977723578,3.8772942822766088
445,1.3448392540106393,2.6482081903923094,-2.1636333751270787,6.407330025660373
446,3.4812131115249287,3.646561619686323,25.71519451391752,8.649536477890024
447,5.393621610155525,4.486570374921184,54.563231965649464,10.629903661297051
448,7.143189092469993,5.222462394785466,84.27732132149602,12.484409125864975
449,8.847373576934029,5.93621714855556,114.64301880162976,14.324932050815807
450,10.602488081775343,6.661766515568613,145.55799044421525,16.202573255088165
451,12.354578892668965,7.3698240716655015,177.2529754264608,18.038465126338284
452,14.52018960608692,8.370944984906581,217.88807178227052,20.29754653892483
453,16.50567393437757,9.208539891427407,258.17308485128177,22.359000401679264
454,18.318964325790382,9.899708729387658,297.9509225882247,24.281509596803698
455,20.007152207551385,10.496403002033322,337.09870679705267,26.110494002553402
456,21.629361456825393,11.06526582264128,375.49154083749943,27.88104936745282
457,23.208276723081436,11.67042534317938,412.6633260390845,29.62778968251026
458,24.74094703638303,12.333962464394277,447.83978658587904,31.325950813793053
459,26.173878999698378,12.95961062460065,480.45345075158997,32.898806458822285
460,27.462656430860765,13.45194545958752,510.3416748776735,34.24434116409252
461,28.699731446713,13.761027312299383,537.4773273205521,35.40388239818121
462,29.98304825079255,13.943067779817804,561.9549092303416,36.57307991671616
463,31.26369537201979,14.11979278182231,584.1667820239946,37.83516442369722
464,32.43259633961367,14.351544192280139,604.6328648331687,39.0897082461089
465,33.34660257747961,14.609233746322525,623.7480117833637,40.20466765547111
466,33.91448414020351,14.83341365140049,641.7282636598836,41.112011861288046
467,34.27124874673224,15.01267308053133,658.649128503446,41.827984035897785
468,34.63550627021703,15.196163031307684,674.5092163591681,42.43862707057366
469,35.14226914448152,15.376997399173773,689.2768109448436,42.99526010588168
470,35.85057892934356,15.53335503728179,702.92448702427,43.52946410635709
471,36.674756466273834,15.621613040814216,715.4304776484424,44.051527467258374
472,37.472699193089994,15.605950666294769,726.7878363498747,44.55044672839805
473,38.222458606288214,15.421374391116993,736.9945787776244,45.0214855833171
474,38.935183017672514,15.090068259001532,746.0524474760356,45.4543175775376
475,39.585354765691406,14.709458155053962,753.9645523237566,45.83669513573425
476,40.13694039605375,14.396642230342518,760.7332426370857,46.14795311710367
477,40.45942653578039,14.17829021550611,766.3605118315324,46.30779055881121
478,40.45853833624931,14.031956159283517,770.8477651984267,46.28059758387894
479,40.31269019319604,13.927946315230088,774.1963058155557,46.09334464821011
480,40.26026811618166,13.826234321159367,776.4074076049837,45.89350771826198
481,40.35974546770748,13.702387092131808,777.4823079049627,45.752836572768686
482,40.5717450117403,13.547967221086312,777.4218588934453,45.70006252190988
483,40.771691624508186,13.353773423989761,776.2283954449025,45.65891542738097
484,40.81442527278896,13.11916537912144,773.9055299350241,45.51873009838236
485,40.692420702687784,12.859619591893281,770.4498209490982,45.256957287906275
486,40.47429379847608,12.597517608495947,765.868033473168,44.897473739409065
487,40.21629896753906,12.347731297055716,760.1822124623321,44.48157304002164
488,39.967287033590296,12.121968524818207,753.4377848616996,44.05174820488335
489,39.75084960998237,11.950691926300411,745.6601289022959,43.58781557952217
490,39.54567121315059,11.837789216051085,736.8794290866924,43.04735907693556
491,39.27072217510057,11.765040039897569,727.2332189088728,42.42374960980171
492,38.848707138713465,11.669373045739148,716.9816500533016,41.730206180627086
493,38.276201930088895,11.520118045409179,706.3224919954163,41.000194446605164
494,37.59818157680439,11.343594502176225,695.233985546754,40.26713732233525
495,36.92101415571666,11.15726934720684,683.5655057545162,39.54403289701514
496,36.34113209434076,10.945251157266634,671.1728598350096,38.820581542183675
497,35.786690888942246,10.707965560207809,657.9446632545588,38.01373673293787
498,35.15028661151473,10.47648261128145,643.8221393781339,37.08288165788202
499,34.49044761098655,10.246510027219403,628.7491848174911,36.08714427893513
500,33.89444390639572,9.964243650930344,612.6997119582669,35.17681245230223
501,33.33968566222848,9.614551727167918,595.6815567999045,34.45297587900585
502,32.77333804703941,9.263801108922529,577.7473809297018,33.87625126045512
503,32.143558370895335,8.99725300730256,559.0232078567407,33.31913080760208
504,31.40616421218162,8.841953501321974,539.6866759026763,32.641668642691656
505,30.58617060989823,8.781512546995492,519.9321559444013,31.804577565222306
506,29.735605894375105,8.759892448421391,499.972203783267,30.872637536533162
507,28.868382525909276,8.74046028253079,480.02737538585035,29.947994822587713
508,27.98629111383405,8.698070966744329,460.29718703195886,29.058580381533236
509,27.08379803907637,8.611157697339328,440.96428288447584,28.14473475209809
510,26.160428396827296,8.475442743810685,422.1310957129869,27.186263580222096
511,25.26995738658698,8.301805915157548,403.80246040901727,26.24102316326656
512,5.491652067803912,1.6185769518021482,61.25258001642166,2.841807565089122
513,5.414865524377986,1.6537343308290018,60.606954860615765,2.696487162961448
514,5.281943721759314,1.6808925770659147,59.79047275545156,2.5354183784609003
515,5.1281651214852255,1.6991148846315005,58.79036749004763,2.3592963785356256
516,4.989140393043297,1.706304075678113,57.65087111722314,2.1715546065388702
517,4.840905781553405,1.7117724449147458,56.43593940396099,1.9714623648541083
518,4.652756133769947,1.715801569398266,55.20163628306681,1.756902076730933
519,4.421633844582311,1.7230344445273649,53.993382002697636,1.5374977663454574
520,4.155997565021423,1.7109140520102966,52.836310534127165,1.3080031605879556
521,3.888490918135989,1.6545544432867352,51.7109945957644,1.0530836540097046
522,3.6473381818493817,1.5367364873952742,50.550516887808264,0.7424274302676434
523,3.4009715079032175,1.3809545048480911,49.27607842714072,0.38405441898162873
524,3.10513008535943,1.2180480603265458,47.85770570020938,0.029516245909296607
525,2.7705622179560168,1.0520852280303927,46.32293766044249,-0.2958092410460521
526,2.409585773548352,0.8777673873269478,44.733850056480286,-0.6068641223298746
527,1.9729433066143973,0.6816346600116441,43.15329100722225,-0.9584974249600164
528,1.428926606688666,0.46208261623011393,41.58899393278674,-1.3913549346387193
529,0.827910454565124,0.24013857450853046,39.99466420672556,-1.8965941585241666
530,0.24085030391319953,0.0565235214959356,38.30970659648623,-2.407947475039927
531,-0.25861041015339525,-0.06501165040563209,36.479303413114025,-2.8749918472678795
532,-0.634058685949525,-0.13507058776741696,34.47845920174607,-3.2959640899326397
533,-0.9811235110263673,-0.1683232614337759,32.338142375907466,-3.710430914493707
534,-1.4087442288130172,-0.18808073787544433,30.124864834579757,-4.1635473955693
535,-1.8890942925788794,-0.21326029962766394,27.894791178164265,-4.662546911676604
536,-2.359204343194552,-0.2509494213651092,25.708288845348783,-5.170082786427499
537,-2.8095153366813888,-0.29137406369299856,23.624378974103767,-5.671177968997376
538,-3.2355258477631197,-0.3211671422905099,21.621460731962763,-6.152680227969752
539,-3.6315957028266586,-0.33239610867195946,19.60253902501742,-6.613905860818632
540,-4.00421582640472,-0.32985806058874506,17.482015602169096,-7.063391908553177
541,-4.341020436390596,-0.3483981357701963,15.207927806156937,-7.501762245401246
542,-4.6416634778987635,-0.42273473345547496,12.751310066238,-7.929629558238441
543,-4.982242638008945,-0.5504966986585729,10.137375667733,-8.356661455129338
544,-5.428843995380119,-0.714281233307873,7.452996437979195,-8.792370505684323
545,-5.934418097943062,-0.8994508575781927,4.7971166132839596,-9.239642535356987
546,-6.432596863125691,-1.091142291585288,2.217075851617759,-9.69956912509754
547,-6.916465837496282,-1.2820723977510395,-0.33571284756510456,-10.172166652086199
548,-7.394595301776189,-1.4699024394748685,-2.9635570611244133,-10.654374524380147
549,-7.898543109816348,-1.6497461737049175,-5.717145335259415,-11.147441698679946
550,-8.447891606809227,-1.8178461334281688,-8.577839391558342,-11.645735333529377
551,-8.958785354893449,-1.9717323612697613,-11.523258363388496,-12.115102576297714
552,-9.349794178576955,-2.112548167068201,-14.551201321342583,-12.52525653990444
553,-9.672679875393476,-2.2517727081272323,-17.637017924608074,-12.885445079548958
554,-10.00848868378103,-2.4021998972182854,-20.728632626165574,-13.216005365804136
555,-10.378542202642002,-2.566481816265991,-23.803064992661778,-13.528997514851984
556,-10.790560965692155,-2.7440959751819336,-26.880291675485193,-13.82930999047338
557,-11.240226035011366,-2.937843852984754,-29.9971553369056,-14.098786377814331
558,-11.713592768244101,-3.148148996242907,-33.1890676651343,-14.317921499564699
559,-12.241217696869697,-3.3712673335133467,-36.4831320760598,-14.49837734439555
560,-12.841800351452221,-3.6010970651329353,-39.886841075339504,-14.65990864157363
561,-13.4322607774281,-3.8273400095500936,-43.37571188911036,-14.809728095436986
562,-13.932226455965733,-4.042560883015268,-46.90288051147563,-14.95201277660241
563,-14.373282926723627,-4.24836829160678,-50.4327800484746,-15.088991148262819
564,-14.814800330560743,-4.450816491500613,-53.97462940442795,-15.217854297859029
565,-15.283487388586767,-4.6626552811227535,-57.579337374844734,-15.363897037054901
566,-15.792898264410022,-4.890464456000856,-61.293144038546444,-15.539537436289331
567,-16.32002012746636,-5.113250816825491,-65.11294387174432,-15.751444737314282
568,-16.829651322888775,-5.307546426200637,-68.9903905167148,-16.015135556576382
569,-17.340087777856798,-5.474156123288751,-72.86423506576477,-16.319444927939394
570,-17.867219546076722,-5.622119666361849,-76.70004396872,-16.61136173083028
571,-18.346377391833084,-5.76128199379731,-80.50872616780802,-16.853200364238177
572,-18.694806534673987,-5.901932549698846,-83.72335969443027,-16.998869088593374
573,-18.945455852445672,-6.048358120003723,-85.11373851173569,-17.015478216124343
574,-19.137654801506443,-6.203161919924309,-84.14086222229588,-16.929190436749725
575,-19.31003322965988,-6.379342074361456,-81.28709811034734,-16.804217286025196
576,-19.500626166981117,-6.588954504754535,-77.28769137814305,-16.685491360329245
577,-19.687032031322385,-6.837429074513113,-72.72237393141478,-16.618161876784956
578,-19.833399020495786,-7.111407623505587,-67.90913202647467,-16.59647554709646
579,-19.984840940931456,-7.413774237513004,-63.040909038308655,-16.63968892275948
580,-20.424332973347266,-7.79472541588839,-58.96213476805669,-16.92429328245209
581,-20.858563809802817,-8.165923663857413,-55.20995921235829,-17.21169320747992
582,-21.227232273546594,-8.511306025330411,-51.987269431638545,-17.475307268522453
583,-21.537411009037225,-8.813385393143111,-49.40068580792474,-17.69168193589917
584,-21.80554002464006,-9.057135092636035,-47.450012529749266,-17.833069003891513
585,-22.014284301010925,-9.252376089398524,-46.08534313870783,-17.8778546598574
586,-22.13922674644154,-9.418012717638645,-45.22170866542055,-17.819352170106637
587,-22.14120816600352,-9.5618381372465,-44.710919160003066,-17.67112202636634
588,-21.99512105969283,-9.686290295833103,-44.41578171305999,-17.460233572403837
589,-21.752748668376437,-9.790880376988142,-44.26327989943498,-17.220989282162797
590,-21.49188897390515,-9.872486544346675,-44.21557277242088,-16.982243084362555
591,-21.245681525310108,-9.92852040791296,-44.20581464627151,-16.75189769534096
592,-21.029368210223186,-9.959662845077965,-44.14031650884801,-16.522098843059915
593,-20.861541438538858,-9.977559199404874,-43.979001470828905,-16.27451820916132
594,-20.74123540697296,-9.992826135527254,-43.769070770762276,-15.989750390674148
595,-20.651458954528533,-9.995460941258782,-43.59101057507431,-15.665004242716114
596,-20.561435992107274,-9.970370026601183,-43.49008521998382,-15.30794899179217
597,-20.396319786053112,-9.914433174060141,-43.462857570849906,-14.924002744559584
598,-20.095364063509127,-9.82982749870899,-43.48825752637755,-14.522277079865045
599,-19.70309449665903,-9.723938311108169,-43.55532947603544,-14.12222185580406
600,-19.295639408892583,-9.604024413810219,-43.665924270277806,-13.74244013109799
601,-18.89133169305061,-9.465379585994407,-43.81830456459638,-13.387393868272499
602,-18.48697656373727,-9.299811174925308,-44.003481178065975,-13.05736038222854
603,-18.07528983428502,-9.101245059097238,-44.19270865766274,-12.757416928653159
604,-17.64096593596124,-8.871114552934761,-44.341246160376315,-12.490515876216508
605,-17.192640291931394,-8.633970423316818,-44.41164399020755,-12.263070985610284
606,-16.747084471631876,-8.417750919928652,-44.3828802966892,-12.06647191968747
607,-16.283549004106288,-8.226031656059401,-44.24840825387026,-11.878970521893274
608,-15.785361073405191,-8.049596862642762,-44.0284278983027,-11.660334953837458
609,-15.299972209376811,-7.877524682909236,-43.74648747968462,-11.400474288422595
610,-14.87936523207433,-7.697053006809075,-43.41113899237931,-11.129632079087143
611,-14.52141591283837,-7.499318230869339,-43.03239068004751,-10.868447670366253
612,-14.200155117891555,-7.283595312298464,-42.62814453549527,-10.611515440304053
613,-13.864777585253796,-7.058062771317531,-42.207578240141025,-10.354661905559857
614,-13.474177154539914,-6.836024144027808,-41.76279731313557,-10.113320957061815
615,-13.080277433294757,-6.632051998267758,-41.27964944289699,-9.89279339090207
616,-12.755586364338967,-6.454599251016362,-40.75891538227532,-9.695002665144228
617,-12.489500676836975,-6.299266807017821,-40.217155413486616,-9.500073625190614
618,-12.24377292573699,-6.1515148384451095,-39.66573961911538,-9.281821579500242
619,-12.001869976189635,-5.98767454685907,-39.10705594349949,-9.025819535668145
620,-11.748186284124007,-5.788399532770205,-38.54030323922396,-8.731661156353937
621,-11.478581980530128,-5.554537092916384,-37.970149118741176,-8.422450253809375
622,-11.19814595110168,-5.3029005456926095,-37.399664996022075,-8.129658553940367
623,-10.885212026982671,-5.0639334164320555,-36.812612713727745,-7.8698983217926415
624,-10.52438078481768,-4.868002191303427,-36.17270954069992,-7.647187128381386
625,-10.164978503502557,-4.725432044685524,-35.45735285180546,-7.454568766813492
626,-9.862549450292,-4.630327774975235,-34.67510088571746,-7.277023127683382
627,-9.607112246920188,-4.564725352897601,-33.850177369691615,-7.098369425974347
628,-9.367404661143043,-4.505686629828386,-33.0036410716546,-6.908215996066271
629,-9.126577459525617,-4.439643663842195,-32.15398999949883,-6.71102810865352
630,-8.873183101778155,-4.361101157127241,-31.335473092268508,-6.518218501991405
631,-8.622407743876511,-4.2681833615503075,-30.58448356597523,-6.3374247620678155
632,-8.39644224860426,-4.163964725036782,-29.890008627286466,-6.172904207718301
633,-8.170480369090958,-4.056605566057449,-29.17655828958325,-6.02234657448245
634,-7.914845180111015,-3.9544513324992736,-28.360422059102405,-5.880695012028101
635,-7.661517837509967,-3.8567970180957234,-27.410743023159203,-5.748705199060322
636,-7.448619173614286,-3.7614992598479926,-26.35472121299342,-5.630166983885713
637,-7.255854948100444,-3.6784129261877707,-25.247124323691033,-5.524903235055716
638,-7.051680240395057,-3.609208073303295,-24.14439567424789,-5.431080950660848
639,-6.82911480764926,-3.5604277451732447,-23.10112231504356,-5.35921596503617
640,-11.179443043609425,-7.567460396945045,-9.080079355845479,-13.488876091680837
641,-11.59272380196013,-7.744451602221921,-9.510120229952381,-13.948654504604695
642,-12.10119860668986,-7.897664692946817,-9.908436670746331,-14.45953713439868
643,-12.634458817972483,-8.053176568220268,-10.279226366019373,-14.989652404247247
644,-13.102916597918444,-8.239494076683982,-10.629065948575729,-15.489610335494831
645,-13.522383785600717,-8.466147670577364,-10.920984050873573,-15.937455694176318
646,-13.928039292031272,-8.73035467336714,-11.120742984609238,-16.324760822879746
647,-14.308997218766999,-9.016381708069245,-11.237759108780955,-16.65891374100389
648,-14.655837717465937,-9.30217013735589,-11.298224835031668,-16.96075709542718
649,-14.964144221058644,-9.572677207951953,-11.325784687953439,-17.24987270424036
650,-15.236596726912168,-9.818476027180479,-11.336707133056741,-17.539831837990786
651,-15.529764229803414,-10.033515992758142,-11.353169064036784,-17.83763038944187
652,-15.890681107823601,-10.217899686534528,-11.355891692434406,-18.13882299827184
653,-16.262272468362088,-10.376440956000105,-11.30943099768574,-18.419936033564095
654,-16.576519152627412,-10.515847930952834,-11.160401882429126,-18.658592900186353
655,-16.855691666057933,-10.647259933676148,-10.970726214437919,-18.856441837710737
656,-17.136451321384186,-10.777170879792704,-10.924949040810224,-19.023120875873424
657,-17.41374568766564,-10.894324907872754,-11.11860840457009,-19.16685641803892
658,-17.67807433971175,-10.99122843726171,-11.492128611596145,-19.293086403611813
659,-17.912931767990923,-11.061350532331714,-11.927327026858126,-19.38672873475315
660,-18.10471828505076,-11.121620805815585,-12.323505094031145,-19.43665826790046
661,-18.297534508853257,-11.193954431486198,-12.598202715012537,-19.471570539157018
662,-18.52768219304866,-11.294542635766945,-12.727614479098781,-19.52392522905946
663,-18.72430443514279,-11.410369490705639,-12.758800071677282,-19.5951992018398
664,-18.814793504806126,-11.516916603671152,-12.743448957065137,-19.673070395972708
665,-18.837415175148127,-11.589314087646724,-12.715740191362785,-19.740868352124387
666,-18.85004565479077,-11.619482583384995,-12.660935226696013,-19.77822489750617
667,-18.86594966314252,-11.621496048742044,-12.57067930730632,-19.767213099368355
668,-18.883759805226557,-11.630473771120487,-12.48099529261863,-19.70042259546777
669,-18.868206013192825,-11.671787481993803,-12.406965400113231,-19.59090729762019
670,-18.787832593952224,-11.74023549922616,-12.356441184750823,-19.45691808809929
671,-18.693894641415337,-11.82399123085691,-12.293928521452502,-19.30167647443959
672,-18.644660149357072,-11.905065068146298,-12.174525284464034,-19.125309177358698
673,-18.61965485165576,-11.98399350751122,-11.988071096358063,-18.93530775784812
674,-18.582004282286324,-12.066883957506345,-11.74056085685086,-18.73740247157144
675,-18.519807631936754,-12.147084424408199,-11.442719555528928,-18.53449651685346
676,-18.428207374919022,-12.218831196383965,-11.112307638664428,-18.32529465687094
677,-18.32735697717809,-12.286595524330279,-10.761402345355208,-18.096295707042998
678,-18.23728581830644,-12.35657834483878,-10.400145938565288,-17.83692101218881
679,-18.122122456156152,-12.433951409079567,-10.048138496929205,-17.5526274166883
680,-17.943138305325963,-12.520415115643079,-9.717773412491885,-17.25714173461368
681,-17.726684953764675,-12.608911915528095,-9.40357622623389,-16.975941991411965
682,-17.505242280340376,-12.687726445333384,-9.091473789069946,-16.724825159374674
683,-17.25926533190297,-12.74482110825221,-8.755486697135439,-16.47584857375423
684,-16.966650512078008,-12.770509059644008,-8.392380916891033,-16.19161897011769
685,-16.63726764760471,-12.762122519555014,-8.004221932683558,-15.863132138656315
686,-16.28525495383308,-12.721649269027827,-7.638159615635277,-15.489629834618274
687,-15.927156556516604,-12.652354705393655,-7.349967994005384,-15.07016927483225
688,-15.571564317313529,-12.559825105552502,-7.143269444024663,-14.607341039931637
689,-15.180393851342007,-12.448994089273134,-6.983397181322814,-14.09054606049384
690,-14.717859384209271,-12.325695605658264,-6.816931403848561,-13.515708551725169
691,-14.2175578219266,-12.203505851747135,-6.619848956626881,-12.920279728671515
692,-13.721911572958085,-12.089945068825452,-6.387240616630873,-12.341494084635292
693,-13.223361072547483,-11.971635289034966,-6.125345357678862,-11.769225644065545
694,-12.703607882625676,-11.827655499836057,-5.850155087683164,-11.180438090740035
695,-12.151345850743352,-11.641228237416202,-5.579701725644505,-10.570193755675056
696,-11.555979542879422,-11.402096667210628,-5.322528155625702,-9.932957973988753
697,-10.934707565342435,-11.110036936797238,-5.063529733820518,-9.25389645637391
698,-10.30226908595122,-10.775890233991786,-4.7799840771698925,-8.521972181283866
699,-9.60803593559931,-10.422720181519372,-4.466474238839599,-7.734011943634953
700,-8.85675023120532,-10.098467840295315,-4.153394937685071,-6.9426021492673415
701,-8.172869124135909,-9.862935409145209,-3.8931014829574884,-6.280211487787987
702,-7.6969266652720165,-9.725640867126467,-3.7165470807758667,-5.839516116922339
703,-7.392740071628367,-9.633683625076278,-3.638110120996371,-5.573492947918431
704,-7.149839630645986,-9.534113897086494,-3.6754181305567855,-5.357394518557152
705,-6.873247764716254,-9.39837069424463,-3.819583100540494,-5.1203146035812095
706,-6.498393277440941,-9.228526296846278,-4.044296674131838,-4.829022054617723
707,-6.065208177838154,-9.04666075117449,-4.2747022626087325,-4.491231562318781
708,-5.766608624608601,-8.849570976304273,-4.386307567948678,-4.178338309374402
709,-5.49408836957337,-8.68622196251846,-4.40160607491832,-3.864812323204899
710,-5.233983753382323,-8.554693356408194,-4.328104277092054,-3.550834614694759
711,-4.984337574264521,-8.435583500631777,-4.219102201402521,-3.2520679648416686
712,-4.738387867850585,-8.304713239826793,-4.13764423173992,-2.976283794507979
713,-4.491827234507063,-8.152151978667696,-4.098807728776483,-2.6967967940069966
714,-4.245052220012569,-7.9784426471668235,-4.100939163925408,-2.386260813697547
715,-3.984609935332442,-7.793856701128133,-4.100690883303395,-2.0491742674426954
716,-3.700249574428257,-7.610419884358534,-4.086662201028995,-1.7035231719374968
717,-3.422322626292129,-7.426783560369081,-4.061208555198052,-1.381529138246559
718,-3.1803087894712245,-7.234208759295835,-4.039284710461678,-1.1057104380430551
719,-2.941580685929128,-7.021687592895079,-4.006815344908191,-0.8328200294953825
720,-2.660902477903879,-6.7797730645584755,-3.9468915437455645,-0.5086121266625834
721,-2.3375990807759264,-6.513546400816321,-3.879769150014538,-0.14107914257751855
722,-1.9839294500886733,-6.232519762634583,-3.8271509944189495,0.23659678010079083
723,-1.6082598567313764,-5.9334739488102315,-3.7725479417135777,0.5927857530025241
724,-1.2207821094969509,-5.6126752352652645,-3.690321541478834,0.9010063411443748
725,-0.8042817060056475,-5.275615967284232,-3.5694567997660314,1.1681296941740364
726,-0.3435741968206435,-4.932219858333144,-3.4106474156011775,1.4191700044215998
727,0.10404044509629656,-4.602650186335504,-3.2305307285210128,1.6690850026193986
728,0.47937872193426423,-4.303732803884783,-3.058019334318471,1.9271311251604544
729,0.8215477944187618,-4.023287999369471,-2.9304410423703557,2.195678551106666
730,1.1906008774192849,-3.7445907459562395,-2.8743449811022748,2.468788719277025
731,1.589783937284469,-3.4538226967381807,-2.8769614778645134,2.739945127718694
732,2.0006056066044073,-3.1579102887183175,-2.9066671240124684,3.0014278617089234
733,2.3843313077590924,-2.8560834938145105,-2.9410822993641355,3.241218453238059
734,2.7012684269948104,-2.55169094088526,-2.961733451183221,3.4501257401391765
735,2.977282095347811,-2.244005259951873,-2.9548307734195833,3.628675728547233
736,3.2543654219022757,-1.934616085127136,-2.916502009577649,3.7831316046008325
737,3.508879769998487,-1.6462416493379688,-2.846592090563071,3.921308027358409
738,3.7076844802948115,-1.4015136224887215,-2.7529818487039184,4.050472231282288
739,3.868519894226029,-1.1958173880242682,-2.66287597722166,4.174964006923973
740,4.016024948105222,-1.0133735262144337,-2.6050597346393176,4.293262763280148
741,4.159434542844707,-0.8394120094189632,-2.5860444660604807,4.3949602430954995
742,4.297582215905524,-0.6617219966892767,-2.60198358379146,4.4679541965199085
743,4.384442333964865,-0.48456842819786294,-2.6539139511177763,4.503198336097757
744,4.3757392734428295,-0.31823724136323683,-2.7395087185019316,4.4973066889410385
745,4.31696000977883,-0.15783793612926345,-2.844946417425447,4.4675281612099536
746,4.272728570180234,0.003363081330810966,-2.9552213142659913,4.431938185405108
747,4.234670704906266,0.16000117858789362,-3.0686216475760064,4.369339756913305
748,4.175455805307775,0.30511817951025344,-3.1832047022954613,4.255612080701363
749,4.093608918498045,0.432942014775266,-3.2792647568275743,4.114856319761554
750,3.9911567237838046,0.5432646362479847,-3.338519879554583,3.980618393117548
751,3.8819938506472194,0.6554453674966829,-3.3559699911760803,3.859183619612051
752,3.7844006597148665,0.7921123837906662,-3.3406543328837377,3.7469429050991137
753,3.674689150385958,0.9569062384199264,-3.3341798208683437,3.627265342856988
754,3.528160756921889,1.142595688583302,-3.3756648841589163,3.4847973065705276
755,3.399536585650197,1.3380045033743764,-3.449793296750635,3.3467662055358924
756,3.344696200311195,1.528505431775445,-3.5167990743049584,3.2463422640487574
757,3.31664205407707,1.7008207887371625,-3.54562002401857,3.173278279763733
758,3.249173241229058,1.8458343207704753,-3.511886368328456,3.105247952869111
759,3.1300515451415984,1.9646866258191065,-3.405020277775217,3.0249610302189445
760,2.9747884081106744,2.061904951410545,-3.231624584016258,2.9256983042100435
761,2.85305169488192,2.127846107811124,-3.019317323978863,2.848914471788765
762,2.8322246967351363,2.156894564983868,-2.798912363588259,2.8393322525229383
763,2.8547812864155535,2.1730470317065147,-2.567104810076382,2.8746973200346573
764,2.8312295697536936,2.207339195210709,-2.317384075647858,2.908999409055444
765,2.7710734039756693,2.2753981266285765,-2.08946722914585,2.9177403230818784
766,2.7070768771095004,2.381687177897633,-1.926793780241142,2.8870760515947107
767,2.6278537797762502,2.5167619184019783,-1.8321211766301375,2.8184134435757433
768,-15.107062176622502,-8.574259357423436,-13.697751264784968,-10.658271555500098
769,-15.39867226385351,-8.866203387484198,-14.168718271485645,-11.08612759688186
770,-15.529366591666822,-9.129005997511678,-14.611761570297766,-11.562243739970308
771,-15.510113009439472,-9.370065155081479,-15.037930922607815,-12.07803845133281
772,-15.393875067237687,-9.586739254280007,-15.457005421835554,-12.611649158633703
773,-15.302153077152887,-9.774624513931364,-15.857444780119081,-13.141100410183178
774,-15.335975062051997,-9.934490351134048,-16.225284406363482,-13.644404699527925
775,-15.457953310065617,-10.09466311873953,-16.564764825294862,-14.102911263450471
776,-15.586115655065475,-10.282238339641331,-16.883750759856483,-14.511843003390231
777,-15.678901122214569,-10.495349449251968,-17.188580941152765,-14.893470808477428
778,-15.714274403417809,-10.717240334947098,-17.48394743475101,-15.272232078860817
779,-15.716346015866014,-10.921822729953602,-17.755539349235086,-15.647410996766359
780,-15.719832355146776,-11.08483829869154,-17.99500230403278,-16.00628289535575
781,-15.6917638844377,-11.20453824459544,-18.237914611556874,-16.33370326239612
782,-15.59439792029089,-11.291695641759489,-18.520353753464033,-16.614436175214255
783,-15.457356178562,-11.357227382094282,-18.835021775741197,-16.842710498415673
784,-15.320322450632966,-11.413727215444904,-19.156925345802126,-17.02346408372523
785,-15.188085114913711,-11.471584245178446,-19.461410880659233,-17.166349692994878
786,-15.060389680865397,-11.536689408052695,-19.72296768350761,-17.286954862170713
787,-14.941632028762308,-11.612681370350098,-19.922977534818465,-17.414133395803905
788,-14.830746119443974,-11.698050751404143,-20.058734514757408,-17.565728536193735
789,-14.735552528857887,-11.78297872495762,-20.145570062193052,-17.72265203178155
790,-14.656953764571389,-11.855345722838736,-20.208324033954188,-17.85479881354907
791,-14.55016321210843,-11.907095175340434,-20.278170986219344,-17.93921838634465
792,-14.378140895380172,-11.933473018055864,-20.37462601080191,-17.967092421147655
793,-14.177961918595756,-11.932123008679225,-20.481295642095272,-17.96504176913358
794,-13.997986417178819,-11.90593692344235,-20.569754929790154,-17.967178882982545
795,-13.840327774368147,-11.86301828735603,-20.630888698829576,-17.977851162851167
796,-13.692971237604574,-11.813310016301285,-20.665981365422578,-17.98866182860468
797,-13.537116467542562,-11.769320236416808,-20.667488493804857,-17.993415976988615
798,-13.353171926378616,-11.736453233775336,-20.646991986440135,-17.98017813663552
799,-13.160883289131956,-11.702117400286188,-20.67240283009789,-17.933127963536965
800,-12.981780489003205,-11.649316041688989,-20.800637621276916,-17.842370905219912
801,-12.77443698964185,-11.564773262895496,-21.01399584104887,-17.702553585293952
802,-12.504813812654124,-11.445383297296736,-21.258746236336375,-17.522279649681114
803,-12.224166757355897,-11.315021892356372,-21.462311021706736,-17.342037622339785
804,-11.994822750061864,-11.195785320816388,-21.563484391212448,-17.201667210993687
805,-11.831190876322234,-11.098685454913497,-21.568121692560364,-17.105381825827543
806,-11.728679089115747,-11.010861904191016,-21.509072575787144,-17.04147926745713
807,-11.65746022516477,-10.918090166381738,-21.40078003716875,-16.99324558412649
808,-11.58479535481078,-10.819814219282872,-21.24798440017522,-16.944938890149555
809,-11.539117609641215,-10.712081119488934,-21.042921378142307,-16.901820640004118
810,-11.548664195710337,-10.594530772903848,-20.771313346656196,-16.872087261109943
811,-11.551160023133313,-10.461477753558206,-20.41976192547831,-16.845983969455236
812,-11.482203457673613,-10.307458619319343,-19.99349931482779,-16.806656776907456
813,-11.372530636043152,-10.135702649174714,-19.543919960705413,-16.7313648240106
814,-11.261737611852285,-9.951376709864418,-19.126768091224918,-16.602550058037355
815,-11.125046167499711,-9.755003520309812,-18.755668563589488,-16.429328578575863
816,-10.931279351826605,-9.54638052265457,-18.419808218866176,-16.229156766561808
817,-10.665367610326664,-9.326680012228433,-18.09683494722177,-16.003906002329465
818,-10.324383805954886,-9.095223486583624,-17.7549526487224,-15.751320896874361
819,-9.95925465378702,-8.849260461951134,-17.361896505701214,-15.478558783743058
820,-9.615199202864002,-8.583344622758478,-16.899649640461206,-15.185139526322033
821,-9.238475643983122,-8.28733210508672,-16.37909375249265,-14.845863659416814
822,-8.76736090044113,-7.952673773020167,-15.82190835817406,-14.437152877458457
823,-8.226249812333277,-7.577270444285619,-15.241464924006593,-13.960227876213345
824,-7.659142083679106,-7.166252199358115,-14.645235831390982,-13.429655159594553
825,-7.092560146636293,-6.735256804240887,-14.02719948214011,-12.868009679393033
826,-6.545554709699483,-6.301616551135924,-13.376166666902188,-12.29739729907137
827,-5.99155986641332,-5.872566781506664,-12.703139551396667,-11.725669730667285
828,-5.457120434916096,-5.484865095263546,-12.05059183758928,-11.190328235795034
829,-5.0985147766757315,-5.214504379794413,-11.422592031016434,-10.720305197169026
830,-5.065655265524963,-5.085857879721354,-10.85000626115627,-10.357414379378723
831,-5.238688627611147,-5.043603258326347,-10.370153551629162,-10.082655215523664
832,-5.409659887092153,-5.0306354023500806,-10.01127411374334,-9.847228645774466
833,-5.488438972708356,-5.02702799618064,-9.81706203798021,-9.626206687442831
834,-5.449652059304269,-5.025177369723696,-9.799823331396546,-9.399885713116152
835,-5.344653468696089,-4.999536915716959,-9.88868083183518,-9.139424255506711
836,-5.451187241183079,-4.8913381021452835,-9.729350797517661,-8.92170684777558
837,-5.546461224254176,-4.747645537226736,-9.52401329250433,-8.676360251498197
838,-5.589912310235974,-4.593439600747287,-9.214352733774334,-8.439118941380098
839,-5.6147607534029165,-4.46137387367664,-8.796209732397669,-8.247220367306888
840,-5.663518292004946,-4.361262574046437,-8.30243594493112,-8.12342185814659
841,-5.732582821222846,-4.28062226870467,-7.7859716078097625,-8.055149268820724
842,-5.80356858388603,-4.209721191046635,-7.303654271090964,-8.011575751479226
843,-5.849091210791418,-4.132918596480545,-6.893380891128178,-7.967476983653679
844,-5.842185436360419,-4.039639996877599,-6.559764905346997,-7.902825993259145
845,-5.7962060124114325,-3.923465378202695,-6.262475205387455,-7.8051747704134655
846,-5.736606897730773,-3.785339859183234,-5.946280456033394,-7.67081117916735
847,-5.65098658916264,-3.643876471779591,-5.560578440514315,-7.505859921792625
848,-5.523311208027273,-3.51769290435071,-5.087744324362002,-7.315900160718004
849,-5.372117188030164,-3.3974375939132013,-4.60720738811466,-7.084478440747596
850,-5.219308781645504,-3.266800867089339,-4.2110326440134,-6.795318629954438
851,-5.0765470780867,-3.127118132306218,-3.8908086398775863,-6.465673000102608
852,-4.94947132677363,-2.9859875269253324,-3.593342195426959,-6.124172604742654
853,-4.797711328318151,-2.852402307526138,-3.254717618826572,-5.784391127819919
854,-4.590716421468854,-2.734730759792457,-2.826346744933663,-5.457137730655152
855,-4.423667662364798,-2.6307732909086448,-2.3537542290416167,-5.16147582342807
856,-4.401631480189856,-2.5328595217004772,-1.915148480400457,-4.91072340314442
857,-4.479452545338566,-2.4344901657332882,-1.535671256872684,-4.698166170768588
858,-4.569697817878318,-2.3327762016731497,-1.211319903016753,-4.509740236814218
859,-4.649856721144625,-2.2325564943646317,-0.9071017525795304,-4.342491126739138
860,-4.716557498437662,-2.1418919797300315,-0.5798764528002179,-4.191730176037923
861,-4.785708031724403,-2.0726901128297808,-0.24078705309654821,-4.034488527326419
862,-4.884219017942983,-2.0299571531410137,0.07929778794595566,-3.8493368514997806
863,-4.9836746989283425,-1.9874328833852646,0.37783501908786843,-3.6332190445274515
864,-5.050324363691945,-1.9204705943822957,0.6589262849191078,-3.3954768007144125
865,-5.13480937266346,-1.824964451513454,0.9246347688103922,-3.161168262221088
866,-5.296794334879527,-1.722022025651445,1.1785770284395711,-2.95600801493639
867,-5.51480405782769,-1.6350397234765954,1.4114511812163997,-2.7799853452627863
868,-5.7470580471304675,-1.5684616442049764,1.6118582297418738,-2.622417133499303
869,-5.9815323362929025,-1.5205384788954954,1.78582566653853,-2.4793412287950156
870,-6.21544953020642,-1.480830777455222,1.94118396471063,-2.3509003245482902
871,-6.463755338591547,-1.4445278292069377,2.078054623615444,-2.2450438903535357
872,-6.74354847728529,-1.4116898861880094,2.1895318320130546,-2.1730419127006613
873,-7.029853432182637,-1.3857805116430009,2.245239299457266,-2.140648953753149
874,-7.280751627627769,-1.3712147130525627,2.221194301881441,-2.143840134327622
875,-7.482817972736633,-1.3713571251311165,2.1445861677282183,-2.1672227463765505
876,-7.623727914557225,-1.3841631470941627,2.062496335116848,-2.187664614677945
877,-7.650382028700176,-1.3917620180422248,2.0104862746835863,-2.171983092992053
878,-7.520805745493453,-1.3764635631679898,2.012301754204882,-2.1005805033564067
879,-7.267394937268057,-1.34293278457326,2.063388715257972,-1.9954361315571327
880,-6.946661429605182,-1.3049389175509079,2.1432623188695468,-1.8979327244471786
881,-6.585059393253165,-1.2729730523483285,2.2446258712777216,-1.856518871374924
882,-6.196774728504779,-1.2531819254053755,2.3637391751180616,-1.902275478923885
883,-5.792473443678216,-1.2402853196547454,2.4855136613415483,-1.9983308173557917
884,-5.370918610823225,-1.2216925390646758,2.598516028372608,-2.086462271262009
885,-4.923918044560614,-1.1841675019158402,2.71241932554554,-2.15078659353457
886,-4.449951974129592,-1.1186619913261568,2.8385132759344525,-2.193356495455116
887,-3.9555544623309453,-1.0289447190296046,2.966067138350235,-2.223956911821462
888,-3.466098415605795,-0.922371293253233,3.079547028015142,-2.253018440974154
889,-3.0465981167045326,-0.8203505799115048,3.1737273322450665,-2.2574841365433564
890,-2.7555431686779936,-0.7336141703406022,3.24824675254765,-2.206388918198409
891,-2.605693867739351,-0.6571132179872794,3.3128175722221957,-2.0986249041106944
892,-2.5642998678498077,-0.5956231905551256,3.3775996824568524,-1.9481579609110096
893,-2.5166169819631636,-0.5564704635339007,3.431337169316013,-1.7721909860854523
894,-2.3495590708358898,-0.542364786698196,3.4581808278669106,-1.5913524035229427
895,-2.081833991898054,-0.5262140214152634,3.45950343391124,-1.4263570512649093
896,-11.848630500028792,-12.418801963385622,-14.349519450225198,-12.650877100611535
897,-12.27473289693008,-12.937824517052608,-14.654424103724159,-13.063957337633285
898,-12.741733561663674,-13.434529052832376,-14.94044961252088,-13.458628365590075
899,-13.239378728220812,-13.90715364420575,-15.221952900352735,-13.834977858753916
900,-13.748286106783297,-14.362816391078962,-15.513560928915503,-14.197455322230441
901,-14.2835521863304,-14.807312711943373,-15.812803205101478,-14.548582445947952
902,-14.854396144901482,-15.23713436441928,-16.116074032717837,-14.891687701366688
903,-15.399867243308774,-15.641094201420112,-16.434198984848553,-15.224543771599333
904,-15.863766849694088,-16.007505079369885,-16.7764201611099,-15.546259239635788
905,-16.27263257747515,-16.33558554707211,-17.14900073123949,-15.879814321744401
906,-16.669401858547417,-16.633041732007673,-17.540008851729336,-16.24093178272284
907,-17.066534583872922,-16.91261542997468,-17.91731031703105,-16.593508031197093
908,-17.46010430955232,-17.185889915535547,-18.238518441830593,-16.900620531923845
909,-17.81123035267608,-17.453249623507617,-18.5016805345414,-17.174336857468674
910,-18.077212403127824,-17.700674231251803,-18.746842960496895,-17.438526177489674
911,-18.26848894755786,-17.910579262472737,-19.001180023019106,-17.714054481521
912,-18.40861682129076,-18.077405702872355,-19.26264593556944,-18.008978563338307
913,-18.489749542804965,-18.212064714714835,-19.516591260209882,-18.276297502704782
914,-18.506635994832987,-18.331899076448124,-19.747606715703817,-18.467294731923825
915,-18.475433573571312,-18.440826330757258,-19.960659527025737,-18.606092427901665
916,-18.41761128495611,-18.527580789061602,-20.177845702400365,-18.729425218615045
917,-18.366587423455698,-18.593229871936426,-20.399151185996356,-18.830342599044133
918,-18.34757709954375,-18.655700877168663,-20.59771912273775,-18.895884098536854
919,-18.334909023555813,-18.726271262527998,-20.757899227753978,-18.918468981702475
920,-18.29778156193524,-18.804599079451403,-20.884031319217705,-18.89583319521647
921,-18.26054744712888,-18.882719412476494,-20.977199520983156,-18.86108750103087
922,-18.249923438502726,-18.950434203891657,-21.02902023813321,-18.841944076783978
923,-18.244633490789848,-19.001852550928707,-21.03914377597363,-18.80807434976642
924,-18.215351738866453,-19.039627032308477,-21.02123022250056,-18.718973222423696
925,-18.147729021446846,-19.066944598182733,-20.978608150056655,-18.55688578144864
926,-18.03248100189658,-19.078461794256757,-20.916889806183704,-18.325568179766325
927,-17.88126041172809,-19.064754982602846,-20.8460274569532,-18.07781149920172
928,-17.708156752609575,-19.014374727135216,-20.773754566760218,-17.868230024905085
929,-17.483766671791887,-18.919090480266036,-20.701549428257646,-17.686148918106287
930,-17.186448562617066,-18.778025263277,-20.62736154945008,-17.499260667246624
931,-16.868402028622274,-18.603259589055735,-20.54801911725616,-17.297466457549426
932,-16.585808555423004,-18.410564159179966,-20.457440966550337,-17.073436363221706
933,-16.33211884221225,-18.207447508502277,-20.34679144393293,-16.811305760097742
934,-16.078342601033413,-17.994320064460286,-20.20798513690961,-16.505848139090048
935,-15.799345174412355,-17.76116255790355,-20.03391886071962,-16.18082267960381
936,-15.465259004030935,-17.491320015708666,-19.82253882748601,-15.855577519341441
937,-15.056268675034426,-17.15193141931726,-19.597004441494224,-15.510943561552608
938,-14.569685814300852,-16.71104491852696,-19.375136309368717,-15.11938762859026
939,-13.992481339015203,-16.176899248873568,-19.16706835824562,-14.662963914829605
940,-13.35022695671848,-15.590540529308054,-18.97768037935921,-14.137280337106137
941,-12.706654888263257,-15.004142785778102,-18.771727535130267,-13.576291106224339
942,-12.143184676942202,-14.462757650043885,-18.48186236909966,-13.01488996174107
943,-11.651219668878447,-13.959198720334234,-18.091120371209957,-12.44175659415773
944,-11.116890759618759,-13.429718889307946,-17.64230937508585,-11.832924022106521
945,-10.454125635468973,-12.819534382634702,-17.161270134737126,-11.16629251782604
946,-9.672264382468057,-12.118382542182749,-16.631787189534986,-10.428763638306227
947,-8.830298835610478,-11.341743282596992,-16.03063308419944,-9.668010982433007
948,-7.979427410602115,-10.519071197781987,-15.34930879464861,-8.908480962374854
949,-7.1022648028244335,-9.660221646518146,-14.598217871123586,-8.131046804252547
950,-6.1246578595364385,-8.74336833765125,-13.760245436827564,-7.266119267980367
951,-5.080407101908501,-7.804280856821074,-12.706903131103896,-6.32049614174271
952,-4.122330892768425,-6.943297996378772,-11.2761861707474,-5.391797103654825
953,-3.2828272676680865,-6.172757380238207,-9.448235058651907,-4.537259206763941
954,-2.4378455943740818,-5.398515844624472,-7.3423576859327895,-3.732388217571922
955,-1.5139718445970236,-4.573521547094519,-5.066051801483927,-2.9734349579032284
956,-0.6219377667478436,-3.7681661781856928,-2.6630685554120115,-2.2803200721047503
957,0.005731000474692771,-3.0935276765259436,-0.18211812729371069,-1.7098369302710232
958,0.2620348244793248,-2.591832583268056,2.366113235286053,-1.2680039394947173
959,0.22833825594162827,-2.2385343687108037,5.085710905609278,-0.966609040020134
960,0.07706712922443792,-1.996835122524316,8.096344779432552,-0.7590722550509228
961,-0.1461511739542164,-1.8282539046826085,11.414141801293383,-0.6680785680439405
962,-0.3632736714801327,-1.7227304174171791,14.956524944357742,-0.6806952027963354
963,-0.5155710874312646,-1.7268870204034172,18.552890477547948,-0.7359592353021737
964,-1.3860576159166142,-1.7736101445920103,15.852096026528056,-1.7281493714623566
965,-2.219809190187272,-1.8088204962294974,13.136398586200958,-2.719205804703921
966,-2.9812746718867986,-1.8367809122781533,10.410710470003252,-3.7095233949079542
967,-3.7090871573192485,-1.8648379738831342,7.693025147307515,-4.688217513130375
968,-4.453494551716203,-1.8884170450735773,4.98443991147502,-5.63520615867357
969,-5.203411003205128,-1.8889054833682755,2.268522931492511,-6.51288320704476
970,-5.929914470986472,-1.8625644724893564,-0.4367461217169786,-7.293069762288153
971,-6.618884136979644,-1.8270065490790008,-3.0677348184378523,-8.00900977655693
972,-7.258372515630972,-1.7942862546180036,-5.580268501143933,-8.70628008674759
973,-7.846147946441648,-1.762405508189708,-7.988134207066672,-9.369673279117395
974,-8.390182241584915,-1.7284042321730462,-10.337935995110005,-9.97455003560731
975,-8.892528127802036,-1.6950196822551833,-12.650210129484886,-10.537236975333894
976,-9.359521764011465,-1.665693794927573,-14.905522947293335,-11.086284903013699
977,-9.82112876275182,-1.6392424786476452,-17.089720961964797,-11.659668478120356
978,-10.308524599180316,-1.6146455931226984,-19.20938168407037,-12.287229805783916
979,-10.824283958709623,-1.5900172548235172,-21.272829603897126,-12.940413172647146
980,-11.361751362534754,-1.5675546681754828,-23.277854863556758,-13.574577944293528
981,-11.926092313862378,-1.5655352878865307,-25.23385547565217,-14.18982320056469
982,-12.518438007830804,-1.6027579925943054,-27.145494087620023,-14.79963639698472
983,-13.134505128231632,-1.6843453398884705,-29.018236795206164,-15.40583114328832
984,-13.763114323984405,-1.8032701680931453,-30.849136443468215,-16.006427197284737
985,-14.354908350165227,-1.9517091101617705,-32.60519526409768,-16.5862039520324
986,-14.868339783405098,-2.121944387974899,-34.25578960617447,-17.124734728199492
987,-15.350198729810904,-2.3094514234563426,-35.803091234539,-17.615383255788178
988,-15.863535714603703,-2.515891764817979,-37.272829794854786,-18.061743439112192
989,-16.398482036729874,-2.7401746261114486,-38.729498009372776,-18.470292313747283
990,-16.923709620542947,-2.9757577134317033,-40.22117967835002,-18.854628445290498
991,-17.41610627298251,-3.2199085007545576,-41.732694508634665,-19.24192829809468
992,-17.860769589162445,-3.476063864982995,-43.197076721660785,-19.653316588617745
993,-18.30340250281659,-3.746827376030698,-44.55867428299092,-20.08360932855174
994,-18.795178795039416,-4.032078877347136,-45.80331244443112,-20.514120246295413
995,-19.28487323633334,-4.332917599642662,-46.93903103086315,-20.915714188228925
996,-19.704846335324834,-4.651745441163348,-47.97731394980164,-21.26669964134087
997,-20.07948477702437,-4.9826773822551695,-48.94212290928576,-21.592351305570723
998,-20.439174695660274,-5.309800784334839,-49.88033694043866,-21.92873743801675
999,-20.8435390474264,-5.6230216028887545,-50.83316584356704,-22.27146596284864
1000,-21.279603003375154,-5.924379775318368,-51.78600022602701,-22.60335253094974
1001,-21.71912632217789,-6.218488592560674,-52.68601668383339,-22.914395506234573
1002,-22.120228180156072,-6.504251409304276,-53.47165988568266,-23.19794152512889
1003,-22.49995471500807,-6.77672174420416,-54.14554214120265,-23.4695777250357
1004,-22.889955429289675,-7.031726003720917,-54.73766937070053,-23.746518998629075
1005,-23.269232900906463,-7.265775055194647,-55.28823005132088,-24.01067491663387
1006,-23.60695431571194,-7.476239240168589,-55.81902358086635,-24.235522077832567
1007,-23.904764443653793,-7.663299235198787,-56.33536728154035,-24.409798341926304
1008,-24.169028864487473,-7.833130496711549,-56.82599872479215,-24.534624604458337
1009,-24.400208836277624,-7.995622201431796,-57.28713726627259,-24.639137414015813
1010,-24.60034618604849,-8.152041767448495,-57.715136681752284,-24.755951871826408
1011,-24.7508743120821,-8.284852820953468,-58.09797901483779,-24.87874945521128
1012,-24.840105392964748,-8.378760509690755,-58.42584137447001,-24.985234231978566
1013,-24.925571443666836,-8.437613790520105,-58.69763526170713,-25.06376252514065
1014,-25.06695208505561,-8.48184646139144,-58.91800978726634,-25.106165262985975
1015,-25.233887606358852,-8.522054839931073,-59.096857193633,-25.10796371724547
1016,-25.36775262073785,-8.551673723099944,-59.24455593803683,-25.07252780379805
1017,-25.44351589765138,-8.567009713467899,-59.36644302701298,-25.010816820816615
1018,-25.44654261167322,-8.574241397691312,-59.461537434514945,-24.933749409122015
1019,-25.378268447170516,-8.575437146178437,-59.51680756292973,-24.841895118526082
1020,-25.251065050378504,-8.563352084022242,-59.516493614819,-24.73110811646316
1021,-25.042596570959642,-8.530936452818672,-59.46072568416624,-24.598574102283457
1022,-24.733680355860066,-8.480144028891988,-59.35104469467661,-24.44012174507062
1023,-24.37896714120546,-8.421759635466286,-59.17370719845548,-24.25695142524978
1024,-32.206585495679825,-10.613409726642699,-183.59694437295602,-35.46096017005119
1025,-32.761130150748244,-11.17482121809867,-186.82001444622134,-36.043183299413116
1026,-33.219178782473605,-11.715021259850946,-189.62158747828713,-36.4357228132753
1027,-33.53491632137093,-12.248650261452841,-191.98910199379193,-36.63478802862653
1028,-33.69303475295122,-12.790910533467796,-193.9222318702761,-36.68790177370086
1029,-33.75473061523259,-13.34443150757749,-195.45029622563206,-36.6514685840274
1030,-33.79861193800324,-13.90477030073512,-196.60453335297623,-36.58117396565369
1031,-33.83942467377277,-14.469385524088288,-197.37280124379393,-36.50607336076006
1032,-33.87471120159265,-15.036108279258041,-197.72474507386207,-36.43619550628495
1033,-33.93583501780632,-15.604271320071268,-197.66474428480106,-36.389516410815844
1034,-34.03335148072954,-16.175370527807925,-197.2011599651498,-36.36496670005531
1035,-34.12308586265705,-16.75142875824718,-196.3825069137316,-36.31705202144572
1036,-34.147859632181486,-17.333736452129013,-195.31564590200801,-36.19326159395887
1037,-34.04496997423336,-17.922810222037196,-194.2405132571878,-35.95792323225877
1038,-33.78282557514898,-18.51677612331795,-193.5446632289392,-35.599226529526256
1039,-33.434513921179985,-19.107946262445264,-193.496983223513,-35.15537505038879
1040,-33.090736908343246,-19.689265522909544,-193.97992266178028,-34.677779992468
1041,-32.747534299318275,-20.262217299884497,-194.62764725228618,-34.174030131906186
1042,-32.379075980920994,-20.830508504112203,-195.2264436510091,-33.64260409173476
1043,-32.00827010002913,-21.39389714330051,-195.82987542011875,-33.114009358444406
1044,-31.649871434674573,-21.95030072040882,-196.4411726258012,-32.60776225719442
1045,-31.27748712871955,-22.49771929645348,-196.78790774953228,-32.099506459230845
1046,-30.864050533452524,-23.032094897049525,-196.5433031450794,-31.55537661644059
1047,-30.388971959660285,-23.543153419019884,-195.53768559558884,-30.947738704291147
1048,-29.847466757929283,-24.02317676697046,-193.68657027896143,-30.26322006036584
1049,-29.296937207336235,-24.47710849320168,-190.9767115932295,-29.529857425718156
1050,-28.78402275828794,-24.910093387667995,-187.39974172213005,-28.779426049423847
1051,-28.247984634340717,-25.320217886675703,-182.828020474575,-28.0041490672796
1052,-27.608717381642236,-25.697766160840157,-176.98354257497573,-27.17822058466555
1053,-26.846876614069174,-26.01474928101002,-169.6965922912576,-26.266815046499513
1054,-25.96728636792322,-26.24739874060817,-161.06813033270842,-25.24120640831647
1055,-24.998967328605612,-26.403451406403846,-151.24168433167372,-24.10880396511615
1056,-23.977430481887158,-26.501884855880487,-140.12518735170696,-22.891973550229693
1057,-22.886232156013172,-26.559266473197848,-127.58205212956884,-21.607722682095062
1058,-21.706409222194385,-26.585936630586595,-113.7803324914305,-20.268153818471376
1059,-20.483289926230242,-26.568593498161356,-99.11645913063573,-18.864269853468276
1060,-19.263792861598642,-26.490611553034295,-83.99461371464254,-17.386998597806016
1061,-18.04202373963413,-26.35894757073806,-68.59511006342993,-15.862882467809595
1062,-16.7950178980697,-26.186348993099905,-52.852375321742166,-14.321519703694094
1063,-15.496670480475998,-25.980189963672395,-36.66495545014304,-12.761071184980244
1064,-14.119660918712015,-25.742180062780434,-20.054091497487175,-11.172036722330981
1065,-12.66864700423606,-25.458527868660852,-3.0734199288793396,-9.554866066737246
1066,-11.154621224151356,-25.11368573615037,14.341853434153341,-7.91032407643458
1067,-9.53677288274162,-24.705761486908735,32.35049278587676,-6.236058829509447
1068,-7.790115072832859,-24.24328379923743,51.04220722128894,-4.53352328438404
1069,-5.993280040770956,-23.747647068970384,70.43875432623265,-2.8131374807937495
1070,-4.2307471033701445,-23.24140182222116,90.46348757880263,-1.084208495604471
1071,-2.493326790881694,-22.72767708726248,110.94861919037338,0.6570903427045154
1072,-0.7474922379214826,-22.19981163178076,131.66867734878352,2.418716285928006
1073,1.0151123945951528,-21.660270224024703,152.4043237922615,4.201178623002435
1074,2.803374395767795,-21.10268119007823,172.94341619732745,6.007159576279168
1075,4.615878984417941,-20.489338677838365,193.07641805716042,7.849615092113726
1076,6.447701806228816,-19.78951278548482,212.66222528010147,9.738113738863975
1077,8.3336864377156,-19.01290442804512,231.65111160537938,11.675280032766047
1078,10.298006861512603,-18.188773565883043,250.10357941480464,13.653790076884727
1079,12.283372249355878,-17.35699709264182,268.15823328660673,15.638690242847243
1080,14.232938047854994,-16.547946338293713,285.97724931821915,17.6043863240077
1081,16.16526558914871,-15.753142457631634,303.62950111132994,19.578679545583515
1082,18.125133106179632,-14.94241039886872,321.0105424708195,21.605361872889507
1083,20.168767545279284,-14.077879954112934,337.9255705061507,23.713678037302042
1084,22.209963620117836,-13.141650111812506,353.6282408341916,25.82645576064013
1085,23.93581727018166,-12.148589114763855,366.7951395943669,27.736115316491112
1086,25.22234492592162,-11.134958289627942,377.0002642143462,29.3272038307
1087,26.310350986766828,-10.107920547146612,384.9840147989756,30.61299899687317
1088,27.355868786337055,-9.063297537019817,391.8968088627974,31.60270272953138
1089,28.317425937489304,-8.008873435951818,398.77867938502976,32.3208010378017
1090,29.117841764814663,-6.946021148901762,406.14224295360117,32.83025229033517
1091,29.744035082282434,-5.851547825073866,413.9199115044064,33.199391708373874
1092,30.502975216354344,-4.620734914261477,419.9174494802902,33.64473323783456
1093,31.20523921054016,-3.360561581509485,425.8837185460888,33.991891277696
1094,31.867413340500246,-2.0960422004311186,431.59380298999076,34.29048202038075
1095,32.50696708904183,-0.8397293077388182,436.8017750086503,34.61807471372624
1096,33.13555898262274,0.40200890557191615,441.3267113614952,34.97591493332127
1097,33.7742488944066,1.6238926289635354,445.0607354118688,35.28249579641661
1098,34.43540052072156,2.825651918623138,447.9329541146875,35.51306999732583
1099,35.096260116587366,4.01526990890157,449.8541821129428,35.73542468245288
1100,35.71510060491931,5.194001273177544,450.78726142579114,35.936963932903545
1101,36.24931085326479,6.343890633358628,450.82899347964343,35.98259692446255
1102,36.66115771714526,7.436958918747521,450.1388940510525,35.83750578540265
1103,36.92759074664697,8.431432176275754,448.8094956408021,35.62133723612455
1104,37.07859698902377,9.307624043608989,446.88486868679314,35.400123131972116
1105,37.06552578372251,10.068769206168808,444.3182398413141,35.12378996754414
1106,36.92956856200172,10.753065869715634,440.9045199493974,34.7859628702322
1107,36.831130823236805,11.42248744929147,436.43691071320495,34.47279088651493
1108,36.82103312724839,12.078287404740985,430.963203481876,34.23510249140396
1109,36.83126856278994,12.647416221764338,424.74052280839334,34.066606536587145
1110,36.74877374245079,13.102008163883577,417.9638641125188,33.97187458564107
1111,36.5901115297316,13.49121072223474,410.7293080271374,33.90381737773309
1112,36.40962786868748,13.854600925849493,403.0424991168603,33.80084106659845
1113,36.20726315935649,14.191759913014362,394.95328606942144,33.59361362107507
1114,35.97314142794036,14.483478688280531,386.50154491598636,33.23780562910048
1115,35.68751256856972,14.731100393868298,377.66212209927136,32.763383605807725
1116,35.332098668407205,14.9402758246207,368.4234965829707,32.23189016246805
1117,34.93904487376899,15.113107130414853,358.8694244483761,31.699154611974507
1118,34.55267071531648,15.255627861994547,349.1134412019771,31.197178471742017
1119,34.19442322361035,15.384326335484893,339.2136777305816,30.674778695081045
1120,33.86520439209202,15.512790228680496,329.2073738680735,30.082626895726307
1121,33.4992447324401,15.629441882411227,319.1724997790956,29.408526863331755
1122,33.03434559908723,15.728858831756401,309.1483378547317,28.72888761252691
1123,32.5434512542883,15.806137559546741,299.02311844693304,28.096598494393824
1124,32.09893408526297,15.891887127025,288.6878791078991,27.553900934804343
1125,31.751684530335865,15.99585689428191,278.0765519180771,27.052685126552372
1126,31.442881500230172,16.1184273190247,267.2497017040725,26.536997624957653
1127,31.062740537690875,16.240800387608815,256.3231743117722,25.985061402604025
1128,30.565108707166914,16.331141327639394,245.3567031768996,25.430133729982007
1129,29.98474866110042,16.354938814216332,234.39065280542505,24.85337583140417
1130,29.33791932434291,16.29762537159395,223.49840618461528,24.157484208190013
1131,28.589076176514343,16.144370950215507,212.7043534825219,23.30710547989522
1132,27.793481102698728,15.921920534421199,201.9381744808233,22.399008736411652
1133,27.058780551062597,15.694136706067962,191.12912335301144,21.566189943672306
1134,26.484341889658225,15.497786211508714,180.29139549206855,20.853404824184192
1135,26.02305217037213,15.335000884608597,169.47395341131266,20.21635049236254
1136,25.569030553104387,15.202215091508917,158.70516154564186,19.619958592756003
1137,25.047466185493484,15.07668140972188,148.03288495153367,19.073278905010696
1138,24.414812916748314,14.916750002980237,137.51442102473723,18.556746339986915
1139,23.70508801584029,14.697385297478423,127.1511205147571,18.005686132132602
1140,22.991741664982722,14.437121630017614,116.85439492827602,17.38602752335892
1141,22.301462506801574,14.1575954897823,106.49004039812577,16.760057082993193
1142,21.64171064842204,13.880570529409662,96.01095737033235,16.241428678737478
1143,21.038235508719957,13.585692814193026,85.48590682516983,15.868118623793649
1144,20.49570575592209,13.239371988136469,74.97788508811898,15.565434244383281
1145,19.97245800787808,12.8377491706797,64.48404189131061,15.229121263502776
1146,19.413049232098817,12.390247128800597,53.96838865560549,14.785668484112673
1147,18.761450565194064,11.910176471366036,43.416866582375675,14.2100177144862
1148,17.98585403061962,11.413940314017104,32.82551540800562,13.530280495392361
1149,17.133448866151088,10.907073737823481,22.22134303444482,12.790727848622367
1150,16.279728477148975,10.388180791786176,11.637461338137696,12.04354918182749
1151,15.44413073110949,9.857466726786463,1.064543967962186,11.321319923433409
1152,-3.175665851462704,-7.223570479069839,9.250251535725926,-3.0346053987080768
1153,-3.3524424086237348,-7.38875584630728,8.87285721317126,-3.2421433808161493
1154,-3.4004769400674864,-7.5446982003756995,8.517603792898546,-3.421608247613025
1155,-3.307951108585572,-7.693703137883923,8.19755983049034,-3.5412027233518355
1156,-3.1017006338802413,-7.8391908283518665,7.9114214526339115,-3.5873926438714197
1157,-2.862298613033665,-7.984460046276256,7.6607020693723955,-3.5925292242725693
1158,-2.6796708066171986,-8.13270139979694,7.441257443001957,-3.61026744765225
1159,-2.5751870129708734,-8.288004221968881,7.232309929154282,-3.6891737681433896
1160,-2.547370467877084,-8.452916227974951,7.020323471082197,-3.8612361201973933
1161,-2.6363566882099687,-8.62428477052904,6.811833685619249,-4.118524271823848
1162,-2.858376910575531,-8.797583145158312,6.62037068553901,-4.430866741207022
1163,-3.1486650536418828,-8.973388534743696,6.482391052587862,-4.774360950400062
1164,-3.4287368987909423,-9.150098305812207,6.406593852214315,-5.121022893626866
1165,-3.6503159096750504,-9.318297251087225,6.296306856670761,-5.436079093615322
1166,-3.793479590504971,-9.46740717804226,6.050242089640496,-5.690607035909764
1167,-3.896698737907482,-9.585699185368345,5.658248909420252,-5.858031639054277
1168,-4.012722517299969,-9.669196138292307,5.160159945755421,-5.933170129395036
1169,-4.13376410116671,-9.736891994679398,4.639097904214949,-5.957762988680524
1170,-4.241432223063871,-9.810100556001597,4.172654143649862,-5.984018296191337
1171,-4.367967078422093,-9.892953441116761,3.755671742070247,-6.045579515052854
1172,-4.538965502820173,-9.980469951680366,3.340111223195912,-6.155160505204201
1173,-4.726706807377247,-10.055460457355718,2.8706229546551394,-6.280749026083944
1174,-4.900976571685129,-10.104105080612767,2.305754680934142,-6.385571464614465
1175,-5.052185786855926,-10.143891154591532,1.6610678506928656,-6.487912985964917
1176,-5.192161858009996,-10.196568508929273,0.9862387086819231,-6.615024947450846
1177,-5.3900286865276446,-10.259781204177353,0.33195473172879364,-6.760839972090322
1178,-5.706798662466666,-10.323055077513049,-0.2571441350710592,-6.911501016648513
1179,-6.107309770472453,-10.373424577604517,-0.7555602672674698,-7.047361673967762
1180,-6.527654454310866,-10.400173950556523,-1.16565630034787,-7.155803814233971
1181,-6.940165735400438,-10.41135004900203,-1.5215380576773299,-7.264035325091571
1182,-7.328262262084346,-10.418762081092074,-1.8684827249705873,-7.403081521287088
1183,-7.679263364409701,-10.41972432737907,-2.2379845757314523,-7.571638126333861
1184,-7.9943821275491045,-10.407463820481262,-2.648106313558145,-7.752260352660971
1185,-8.283848503304535,-10.376004048470293,-3.1063941592597804,-7.910592339487092
1186,-8.549257515443262,-10.321630373587746,-3.6056408561104467,-8.017229488204048
1187,-8.781781875809271,-10.250989434643715,-4.119290127951204,-8.08849683535328
1188,-8.95882271599306,-10.173325491059021,-4.621834427616881,-8.154559202714925
1189,-9.012752762386175,-10.09064589810558,-5.112363428051272,-8.2194040325241
1190,-8.901159981045556,-10.001667892434712,-5.595709412598368,-8.28415307903606
1191,-8.700733299257351,-9.903523064526674,-6.066835965657968,-8.365535851559883
1192,-8.508347364895396,-9.792330358364296,-6.514697281290177,-8.473856700781612
1193,-8.350761933973684,-9.667011085720373,-6.918001200973006,-8.601205041545938
1194,-8.222531896767316,-9.52790270342202,-7.258122839518796,-8.73255244303157
1195,-8.077221162772314,-9.373868554247126,-7.533956751503666,-8.845766526565926
1196,-7.870598097275328,-9.204902498032405,-7.760802042047155,-8.92198652129713
1197,-7.657319041181338,-9.024999952050148,-7.971465234678209,-8.97060872774274
1198,-7.503780582595226,-8.838839986684837,-8.201885280126248,-9.004286309801158
1199,-7.378986102207318,-8.647159938674724,-8.47356700371425,-9.001706210184317
1200,-7.240866660647137,-8.450382481528468,-8.789761753999825,-8.945862606630758
1201,-7.1043805624556216,-8.253913455158575,-9.139409546540179,-8.861634816618489
1202,-6.992234278608134,-8.060394049770512,-9.498868925073003,-8.782915266498478
1203,-6.929157806489697,-7.863032875717948,-9.818428032425008,-8.732025630986398
1204,-6.928200645981662,-7.65246370906144,-10.069082220706644,-8.721055839102368
1205,-6.928445217859074,-7.419196775233506,-10.306191251976736,-8.734859158854023
1206,-6.869522939832475,-7.158983052749308,-10.599287362471767,-8.749983931105154
1207,-6.80287937955785,-6.88351052383338,-10.95946940591879,-8.771436691932232
1208,-6.7906029615657735,-6.607625357394389,-11.374993432864132,-8.803850637605253
1209,-6.79181230843607,-6.333572009232325,-11.827464671127517,-8.816564605639654
1210,-6.759601993869931,-6.059165988781053,-12.294029142674896,-8.783798785260545
1211,-6.721505123744511,-5.784743801667329,-12.773811208289583,-8.716989785805877
1212,-6.711716295462222,-5.52982235774506,-13.198356239624026,-8.640461586402495
1213,-6.7471401193746425,-5.330806807222454,-13.369610718813062,-8.63695242580736
1214,-6.8277749654422415,-5.225836201139483,-13.143660955534887,-8.768746063177527
1215,-6.8745039797201795,-5.201778884318888,-12.585615164493937,-9.022294544154233
1216,-6.812460809283393,-5.216507002080816,-11.877794637316747,-9.345605986876132
1217,-6.7139183268468905,-5.235354208712938,-11.139160875920988,-9.704097077802412
1218,-6.672637267802299,-5.231511806162522,-10.44496230740139,-10.064675609544613
1219,-6.663241100870881,-5.193620481512077,-9.814437112360126,-10.389661116791304
1220,-6.704144862061941,-5.022088336487731,-9.36216988010445,-10.590964452438442
1221,-6.737552264004052,-4.848204707417489,-8.91260527304449,-10.772237345485685
1222,-6.781818595142734,-4.690584008437109,-8.466308065945832,-10.968681234802245
1223,-6.911914514209115,-4.557141912025192,-8.057950224801413,-11.226320849630286
1224,-7.187371203682234,-4.449573307335125,-7.737000465329529,-11.571191203684972
1225,-7.511448103124057,-4.373604547305681,-7.533526383008019,-11.959398424783561
1226,-7.7575102831678,-4.330487865188624,-7.451670570106704,-12.325334533819502
1227,-7.944205152048334,-4.312585702898562,-7.451649739011898,-12.647955348222085
1228,-8.129037017930694,-4.305322037593269,-7.477356368673888,-12.923615783038946
1229,-8.300839836812301,-4.281588306633848,-7.502759182850456,-13.14020000345462
1230,-8.44510535891368,-4.2168243224558335,-7.518884263286619,-13.294764385318407
1231,-8.566696290643446,-4.11091304938826,-7.519134638024081,-13.398348741286913
1232,-8.674051115961115,-3.977307996932556,-7.505386635880705,-13.463788576385625
1233,-8.819961245394978,-3.828576998670209,-7.483882583665219,-13.50157813847447
1234,-9.047842399555972,-3.678150437259112,-7.456855021219822,-13.517773831961813
1235,-9.290631537939941,-3.5416328271964574,-7.4211653037348,-13.507304252192274
1236,-9.458763027105219,-3.426198477683548,-7.3656333974607975,-13.464291627055431
1237,-9.548789338332487,-3.3191695043813314,-7.264698585961295,-13.392607181639804
1238,-9.588854780352564,-3.202427715651121,-7.094786781602951,-13.304168999649955
1239,-9.60303705652152,-3.067036981524399,-6.85706909090306,-13.224618027916694
1240,-9.618014566302168,-2.91241514750642,-6.572982995102628,-13.17551311944525
1241,-9.622686140643358,-2.75259722337737,-6.267049535668678,-13.149026698768182
1242,-9.593364976778325,-2.604541393006212,-5.9766092199324214,-13.121602011693966
1243,-9.569047461080057,-2.467010463924285,-5.773293216701269,-13.067310114093644
1244,-9.585485430984354,-2.330787925918055,-5.708232946031441,-12.966440175771204
1245,-9.571618969071999,-2.1921313055265768,-5.759110185772474,-12.815937894489577
1246,-9.450096689358622,-2.0482850659553073,-5.8559351541209645,-12.62745328418011
1247,-9.250184062753824,-1.8946880101292376,-5.8833404685172335,-12.440229380487585
1248,-9.037577236398993,-1.7322410579662966,-5.7438921674882115,-12.28629566853012
1249,-8.873164581082332,-1.5725476809222463,-5.45893407869424,-12.126415997814794
1250,-8.803384385302435,-1.4303578242864923,-5.113079554067097,-11.91288648100616
1251,-8.78509124389663,-1.31787247881363,-4.782153604842545,-11.662445749129603
1252,-8.753718841718019,-1.2396408848058218,-4.531817923408325,-11.419533765133803
1253,-8.754920674247407,-1.185347822289763,-4.400499852440955,-11.24704548312326
1254,-8.851155712223942,-1.137067450175378,-4.386526879594632,-11.192104072813585
1255,-8.998664888384399,-1.0750353517022295,-4.439227285225956,-11.208581295291914
1256,-9.135493187431564,-0.9862237794269454,-4.499123006698474,-11.215659809415646
1257,-9.265092736964917,-0.8802737869661991,-4.5604929369271625,-11.178694399804158
1258,-9.399848275892387,-0.7742900266977849,-4.637007466638394,-11.085244356949945
1259,-9.534617626263591,-0.6740117598398377,-4.718434927785927,-10.935906637462987
1260,-9.6549280687919,-0.5785760316289535,-4.791032584042793,-10.7500256266872
1261,-9.70420738794971,-0.47674413819773265,-4.843398330683946,-10.540332233540102
1262,-9.62763712367995,-0.3578895618777648,-4.867940388691487,-10.319967232216756
1263,-9.447303711331823,-0.23488276040459516,-4.875045503285111,-10.131923796501338
1264,-9.213403945678825,-0.1271068741327022,-4.884915802020588,-10.008635771611415
1265,-8.947683862439241,-0.04092770666004247,-4.916657539146103,-9.9189728252307
1266,-8.662745227288868,0.024886513193108417,-4.980258530039014,-9.81370072779878
1267,-8.366452549332548,0.08146630178148337,-5.069707297953764,-9.668899788087318
1268,-8.055402276113536,0.1425311214284012,-5.162069750668383,-9.476650514835535
1269,-7.731109394179556,0.2078614038915501,-5.210315470436392,-9.26344531278398
1270,-7.397790126945808,0.2708327115742267,-5.17213152673833,-9.062056044188761
1271,-7.039016305048136,0.3286095203832885,-5.048897440359599,-8.848115106861714
1272,-6.653960318424094,0.37859473717866476,-4.867197072207461,-8.590022446965907
1273,-6.308379267622514,0.4178075554938773,-4.659400809247115,-8.30967216722297
1274,-6.079396978722784,0.44538499056062686,-4.459380789792226,-8.047349278785308
1275,-6.001838246070194,0.4628008160314474,-4.2847092224640715,-7.842086757598107
1276,-6.072526982522467,0.4730927451800352,-4.14000503472535,-7.719195516125404
1277,-6.2271948515161535,0.4797524011563317,-4.033233997026229,-7.657444072059626
1278,-6.37871937870455,0.4867683178714425,-3.9670235923013126,-7.607726948666262
1279,-6.499000861294965,0.4997529822399587,-3.92576769545359,-7.517469897379065
1280,-16.135298606085694,-11.158846933709285,-9.497764965007448,-16.096254233121428
1281,-16.684921961674767,-11.529060902760232,-9.69715972592144,-16.702584197036963
1282,-17.218156821948014,-11.897588610487047,-9.84315234420161,-17.303707686598248
1283,-17.739662166606585,-12.264290019394359,-9.912712900646984,-17.872643765302662
1284,-18.25356021229711,-12.622267220146995,-9.915597881296776,-18.38972460967793
1285,-18.736563894658087,-12.956391914349178,-9.873472084749576,-18.834609544010302
1286,-19.16459895277668,-13.251965950891618,-9.821348264466232,-19.203284327728902
1287,-19.50699246375347,-13.5045849399848,-9.789339732560839,-19.500846599563452
1288,-19.74890915700243,-13.717475616333044,-9.799927838810108,-19.743248590411266
1289,-19.9464638140057,-13.90158021492526,-9.87036459914343,-19.971281073012687
1290,-20.15866315576026,-14.068001866992837,-10.00683575769694,-20.21986247037566
1291,-20.357288378646018,-14.216932190282703,-10.195845965521322,-20.481928376536565
1292,-20.504269609627865,-14.344327362357456,-10.422057669430945,-20.733763775721165
1293,-20.6251834845105,-14.447756620514072,-10.690210110273933,-20.962285064227224
1294,-20.753872619941724,-14.527130417264672,-11.006277545947267,-21.153553281903843
1295,-20.907409602013797,-14.589077153027915,-11.360121373957575,-21.287508006576623
1296,-21.09121529099898,-14.642766925907384,-11.734312371835152,-21.356451787375867
1297,-21.263582766748268,-14.693243204810177,-12.109231540153651,-21.36925015079013
1298,-21.382163441458616,-14.742837586142347,-12.466031233736393,-21.349059011304703
1299,-21.483375103264283,-14.79297257375093,-12.787635566633845,-21.34700333614766
1300,-21.60692087075829,-14.840752932761793,-13.071589261383506,-21.40010386360277
1301,-21.711209562592554,-14.877448100072868,-13.34485429420259,-21.48014217517986
1302,-21.746302814963023,-14.89342829794868,-13.633923660649145,-21.53759883111947
1303,-21.70793566936887,-14.880348459327188,-13.96771187278336,-21.539094162599135
1304,-21.606507101298522,-14.836362243209978,-14.336639912643982,-21.466171899671913
1305,-21.475700793016415,-14.772631303079248,-14.706038333865335,-21.33564653413648
1306,-21.347929986080832,-14.704608106084859,-15.034033319676753,-21.17772962370455
1307,-21.185046720606476,-14.644350001566323,-15.30982793593852,-20.99631006155632
1308,-20.954134538917682,-14.597342236967126,-15.540799584764182,-20.794079058289398
1309,-20.72539850770279,-14.556319657927611,-15.732814197893614,-20.595539154167703
1310,-20.57467589365331,-14.508626424674238,-15.90558884582548,-20.42619223306743
1311,-20.50164902453206,-14.446439205866312,-16.085502605695623,-20.30339321756987
1312,-20.472766066642635,-14.365973143305817,-16.297205078262074,-20.233380821188412
1313,-20.42404560877671,-14.267617253107511,-16.53449414827332,-20.200275972099085
1314,-20.295513335779965,-14.158910712198278,-16.757078357382944,-20.175948461979175
1315,-20.10368274819097,-14.052044778045076,-16.926065288398753,-20.135517666646642
1316,-19.88809163544123,-13.962699920503965,-17.046678288397374,-20.056648907215813
1317,-19.643340798170353,-13.913785179403078,-17.157952991424477,-19.91532896039333
1318,-19.35806563540737,-13.918988193615943,-17.30577315847362,-19.69950036609447
1319,-19.04718949096098,-13.964943200636652,-17.4857600001743,-19.426199117293752
1320,-18.71689424800658,-14.025470837779425,-17.67406021472221,-19.11723841775324
1321,-18.34602404802938,-14.075191588695121,-17.826559274153876,-18.77212737288662
1322,-17.91603556565986,-14.092692369232706,-17.915972411699496,-18.38629610017903
1323,-17.411419699458506,-14.065524114633819,-17.93192223047436,-17.964129047002928
1324,-16.840555135094323,-13.993252625383368,-17.872898574461185,-17.513964022904258
1325,-16.297330820786538,-13.891689391349132,-17.76485304490066,-17.05227566157104
1326,-15.864035517428027,-13.777893197434052,-17.667527162990876,-16.59599659615211
1327,-15.481993493957797,-13.651444764283466,-17.633069133731098,-16.147269741996478
1328,-15.064071747780535,-13.507151608344177,-17.662500251217562,-15.700039693771208
1329,-14.608005666161375,-13.344917344687385,-17.717179441429582,-15.252789836164123
1330,-14.12479442641218,-13.167684017492425,-17.73345051528255,-14.794072550921586
1331,-13.602918923451984,-12.986457389330265,-17.662897089976518,-14.286743479379581
1332,-13.03176553822039,-12.80984067225251,-17.474194885723243,-13.693798519603963
1333,-12.377585853203396,-12.632990635035924,-17.156304456752945,-13.002055955157255
1334,-11.617214939027068,-12.441637623609854,-16.721670888611406,-12.214907283951352
1335,-10.804848118028268,-12.209911396768709,-16.199890963891782,-11.349800693310081
1336,-10.002544118084463,-11.916050455288161,-15.629204220406374,-10.434937686472548
1337,-9.198785570364864,-11.564210153502225,-15.049032493630659,-9.49452683230553
1338,-8.370534515624332,-11.16891288069798,-14.489059540106823,-8.548927743974637
1339,-7.531093398956099,-10.73920228697803,-13.963037410246203,-7.625278140222203
1340,-6.741176006323393,-10.297383814182576,-13.513430950851816,-6.751556450425958
1341,-6.049374735743747,-9.867181107035597,-13.208862576976012,-5.932880401951038
1342,-5.512133232372426,-9.475515080215729,-13.043030512092482,-5.168244754215912
1343,-5.036408734209853,-9.13194098404411,-12.91629939285274,-4.428274443616042
1344,-4.501918535054071,-8.831519474106587,-12.767684744514016,-3.6797440888994393
1345,-3.9556740533268093,-8.561523889052554,-12.579029072549686,-2.938900436762609
1346,-3.4746122264321646,-8.305912986270014,-12.334899590090073,-2.229051589125318
1347,-3.011389028164824,-8.050526736059554,-12.029872008518305,-1.5338951236888352
1348,-2.400349809693889,-7.674853534568907,-11.640224331872457,-0.9205390002122292
1349,-1.750646001441298,-7.276650514004134,-11.269951644556192,-0.2765228028795246
1350,-1.0766708962411882,-6.843726080519421,-10.949497200807782,0.40664359430859737
1351,-0.4173283066515118,-6.372576708133749,-10.69646262079774,1.10632772208459
1352,0.1887536469703367,-5.87051341751486,-10.509453581410158,1.7900755384615261
1353,0.7739148942250217,-5.358628303150866,-10.358830185174963,2.455020407261492
1354,1.3857801119771265,-4.860648020603139,-10.206819915084473,3.1008232163339184
1355,2.0054431218708935,-4.39008788693362,-10.036387406019639,3.684531602765508
1356,2.5957864755898834,-3.951957428288802,-9.841188842945838,4.167726403204664
1357,3.1437442394998625,-3.542544103287483,-9.639696450205179,4.570772646361831
1358,3.6421447619209677,-3.1544404151417123,-9.450890957583397,4.931624421813194
1359,4.09907925111453,-2.7874859990898053,-9.305127008251036,5.276151954401598
1360,4.5296927837549275,-2.4452424696724036,-9.243692398410886,5.618209607953421
1361,4.915176745229956,-2.1285856313605875,-9.247733347153465,5.929827283033809
1362,5.238536842287789,-1.8393361901131648,-9.214834388110303,6.179819072980193
1363,5.545250011488694,-1.5828398734718099,-9.053410563652378,6.392321561718589
1364,5.886948009314564,-1.3623518312503486,-8.758952534317737,6.609999497343321
1365,6.252980375247093,-1.1757750148582393,-8.395581132637409,6.872435139105263
1366,6.610321120246245,-1.0156456958741074,-8.04245517728737,7.1953968887196345
1367,6.940107757253421,-0.8664881952711365,-7.738145003611151,7.512877814818082
1368,7.221169565557142,-0.7127182847425695,-7.486827384447285,7.736311011948654
1369,7.432254891524415,-0.5490215048606322,-7.276103463099982,7.839728389713118
1370,7.55852555794441,-0.3785045879667258,-7.083372557453317,7.829331799736058
1371,7.576818675112626,-0.20951899822795433,-6.9039169442728765,7.723064931477238
1372,7.47640438339759,-0.05349970235318151,-6.742958642793558,7.5541543306710555
1373,7.298116735050489,0.07561493792691502,-6.60223370304696,7.340468395885257
1374,7.097369977819394,0.1705365929833203,-6.483084745717312,7.098911378757007
1375,6.888613059113164,0.24482020191733028,-6.375115387871273,6.8842939952597355
1376,6.679311589665293,0.31772097235414487,-6.270806874773794,6.7463600887451385
1377,6.510103876923879,0.3956513309191262,-6.171465504610112,6.681213554518725
1378,6.416114727646381,0.4788614482517448,-6.085935390940146,6.66179959543739
1379,6.401420464167846,0.5613874675837958,-6.0063908884796655,6.65689845843756
1380,6.448379622316603,0.6371228881609458,-5.8982870202348465,6.639393709353799
1381,6.500679693489923,0.7184836623004972,-5.733650537090786,6.621358143230324
1382,6.501006685452293,0.8199542764324397,-5.532483903347981,6.624075797822224
1383,6.461092512645528,0.934588689219541,-5.35147189167012,6.630099374323142
1384,6.4139814159513,1.0487845817474053,-5.192608227359202,6.613025339601307
1385,6.350001349337319,1.1546650623537882,-4.972281032710298,6.5582067916201
1386,6.2555632731693125,1.2481595866230344,-4.609375175868081,6.464049058630873
1387,6.136487268553215,1.3349192739650684,-4.120990394172018,6.366742850770856
1388,6.006662495949185,1.4250503168216118,-3.6002447931325845,6.3084656224793
1389,5.911313385547868,1.521459259856964,-3.122667779302004,6.290730782946519
1390,5.891125328708048,1.6238826498903811,-2.7011861972110265,6.294654331560007
1391,5.908913399867209,1.734571609046751,-2.3114039341923114,6.292465938923143
1392,5.909410165789143,1.8545686701753543,-1.9361275304806242,6.25774817212834
1393,5.904289337157833,1.97910038712797,-1.5673070714673485,6.20003803538589
1394,5.916682848001359,2.1040371772180255,-1.211796689823561,6.137890064538929
1395,5.928714170889809,2.235752745826686,-0.8677239133539371,6.062577137458109
1396,5.917295502698247,2.381257009026842,-0.5324243499221282,5.960221328637113
1397,5.860944874883322,2.5357480804753787,-0.2127337402295386,5.810435759937234
1398,5.750788433155505,2.6915996394268045,0.08590713830850273,5.608944312284958
1399,5.640266912098353,2.8452916418674308,0.37870991003757365,5.43179089782933
1400,5.592161116334934,2.9970051916975575,0.6702853184152364,5.361489957306299
1401,5.592241831533244,3.154773970961224,0.9430686288107702,5.379571680256055
1402,5.603597654317466,3.3279752673935503,1.154743704962642,5.4298281721628765
1403,5.633258363958157,3.5190101046913256,1.270811484260282,5.487692612910831
1404,5.688665304686123,3.7231254515666157,1.287471624942141,5.5320315077887905
1405,5.748447452281196,3.9256014010046414,1.2144674017277086,5.537400782280974
1406,5.786467966238409,4.1095821946627415,1.0788799994378766,5.492096865364683
1407,5.765027926249552,4.266652037695677,0.9079737427368391,5.392939572894664
1408,-11.318902587793934,-9.561039654839844,-16.685783867051406,-12.94581611658384
1409,-11.544837321833976,-9.813415451175926,-17.13234040296657,-13.199413069816112
1410,-11.665368769689765,-10.054711717340966,-17.599162600393026,-13.407236260219944
1411,-11.755639571313631,-10.288515849629004,-18.054956863682527,-13.58556757624121
1412,-11.893992378974875,-10.51840486150227,-18.46504619870965,-13.758733377090868
1413,-12.064626503650977,-10.749055854796078,-18.819104831142873,-13.922531576526973
1414,-12.22607586862215,-10.983100775231163,-19.12050402222144,-14.07885324978742
1415,-12.346775954712562,-11.218834414331006,-19.367419144138353,-14.228676716794405
1416,-12.406157332907135,-11.4495690050863,-19.569877516943663,-14.389985821443915
1417,-12.44971611517549,-11.661374733011934,-19.763703402623587,-14.55553553296302
1418,-12.52538836006825,-11.84290500704798,-19.983563386860062,-14.681666385246997
1419,-12.5776360583906,-11.99285680918173,-20.2454909024454,-14.738293905385765
1420,-12.547391666777582,-12.120057052840483,-20.544742064578116,-14.73383248457194
1421,-12.47908151504066,-12.248619642574145,-20.844905883364333,-14.686945550025952
1422,-12.43206841442204,-12.400839301322506,-21.104459560437196,-14.62655588465506
1423,-12.418667309304576,-12.576416251016468,-21.305273318187687,-14.562465416843645
1424,-12.435178475055128,-12.763144308667169,-21.44911156058443,-14.495133881218266
1425,-12.447835537178259,-12.94648916515505,-21.563018918781466,-14.427041081667886
1426,-12.421908969136274,-13.111052343815649,-21.677425200769587,-14.360332733506024
1427,-12.3945644137808,-13.246505543782183,-21.79678801354146,-14.29929535199544
1428,-12.406393930627033,-13.34934702077784,-21.914291901646884,-14.24957022757683
1429,-12.408943617685521,-13.423713604856394,-22.015694223621352,-14.21603236879984
1430,-12.350745993331627,-13.476688535112112,-22.09297522203733,-14.196142287790757
1431,-12.259857573037728,-13.511388637980238,-22.17829511923214,-14.176961448157778
1432,-12.174689781997428,-13.532863885268423,-22.302798367445643,-14.138658478006398
1433,-12.103389690857398,-13.539456478484908,-22.445841154088907,-14.048537186972295
1434,-12.040812120405956,-13.537724254115457,-22.571160150007593,-13.886626841962293
1435,-11.945518841908001,-13.543051194475284,-22.659850275227203,-13.67940398233011
1436,-11.78206818530542,-13.560489936298401,-22.696999335072274,-13.465315921947193
1437,-11.592919409410815,-13.58562420765707,-22.665505136137458,-13.262054587280417
1438,-11.435162063352857,-13.607496982465646,-22.561559486507253,-13.075392372368478
1439,-11.31251577172408,-13.61726878052665,-22.405958792603816,-12.895177785521147
1440,-11.218166594618657,-13.607870092964413,-22.222973015981278,-12.70671798243589
1441,-11.154509485244635,-13.571477580429013,-22.022566464072337,-12.513786993084073
1442,-11.120798654954513,-13.507520998035448,-21.80729752710686,-12.325962641762745
1443,-11.141423827779853,-13.430899462078687,-21.56735468122116,-12.147779624817806
1444,-11.227169454339348,-13.355562478912137,-21.29512386292298,-11.983666386484094
1445,-11.299304827258437,-13.293950094265147,-21.017297735021018,-11.827961088136874
1446,-11.282989413148698,-13.239167828003863,-20.76011052800107,-11.676798667792708
1447,-11.217391440892051,-13.170531008514189,-20.50360924800361,-11.5573537960598
1448,-11.163936377382491,-13.064375837614923,-20.22260247231151,-11.487098881404021
1449,-11.125204497153025,-12.91366317111739,-19.924363544581666,-11.426704884456756
1450,-11.089423839568486,-12.721415637681083,-19.619753201189045,-11.325180805715602
1451,-11.041775143332385,-12.49516671544223,-19.310152529905505,-11.155912543685496
1452,-10.95894988534478,-12.245812222578525,-18.987481602554197,-10.909249220957797
1453,-10.84706639560614,-11.981921342481895,-18.62265730321116,-10.603656187644566
1454,-10.710971117792576,-11.708629570750682,-18.18720947857872,-10.266254002479918
1455,-10.484545408231297,-11.428982810301061,-17.668075321862112,-9.9003225095577
1456,-10.122435220938664,-11.143712082204736,-17.07789176472939,-9.50181197528532
1457,-9.708365306261504,-10.84977024362822,-16.479432163434147,-9.071639961628419
1458,-9.341632155260449,-10.545890023853266,-15.933139592112315,-8.612936710893575
1459,-9.04258949273765,-10.239424299750716,-15.444942154037564,-8.141748805855125
1460,-8.792081266974632,-9.937552667331333,-14.985568678460325,-7.674267380966814
1461,-8.520147872063449,-9.639773539590163,-14.48687494560649,-7.203202185865179
1462,-8.154453389437606,-9.33915220053055,-13.885883088882593,-6.717584536809159
1463,-7.725954253261424,-9.020961979438699,-13.19948654874894,-6.227256975127946
1464,-7.285639505760705,-8.669098741846216,-12.46789080850894,-5.739601427094177
1465,-6.79073789546349,-8.274453357496585,-11.68735647323351,-5.239548511437503
1466,-6.204636566404977,-7.83540776494067,-10.851996594677546,-4.70816677632519
1467,-5.58889860208907,-7.3568366199520305,-9.979502484448265,-4.133237710751521
1468,-5.046211288688151,-6.874228122432715,-9.141218362165798,-3.547671946802025
1469,-4.609473883300099,-6.457551581828276,-8.422317600861959,-3.0417638755778684
1470,-4.303761290334649,-6.141356075489209,-7.9140155176657405,-2.6633393575345607
1471,-4.0413318183100895,-5.907719853367795,-7.578318564293479,-2.398590343921971
1472,-3.720669470379025,-5.723797911102336,-7.315273491303125,-2.186332242882837
1473,-3.416654532164841,-5.565921485012422,-7.0585077323595735,-1.9982045843209286
1474,-3.2269215788578336,-5.42024413045285,-6.766409646272822,-1.8227987027608903
1475,-3.0817000008082074,-5.275362847490779,-6.428640795148621,-1.6547916791608874
1476,-2.6848343227017817,-5.149865258484287,-6.106915683633237,-1.3896079975060276
1477,-2.268222082107503,-5.0138571505260545,-5.793036572198776,-1.15419797808534
1478,-1.866428423768331,-4.8752910370592595,-5.514755681207767,-0.9486191561684375
1479,-1.518796153585098,-4.747703168040504,-5.2620327193356,-0.7693017445043128
1480,-1.2548943289827716,-4.640894909141576,-5.00654511289695,-0.60674960097924
