,TP9,AF7,AF8,TP10
0,-1.9100328685830459e-10,-9.400774877432252e-11,-7.968302940551929e-11,-7.940964555115397e-11
1,-3.871050975849537e-09,-1.9347001576917507e-09,-1.5951037958757556e-09,-1.630557491359681e-09
2,-4.5104927191921214e-08,-2.1607490558633542e-08,-1.7926144280953722e-08,-1.830132199200535e-08
3,-3.442560003269765e-07,-1.5882205262888186e-07,-1.3278403295265355e-07,-1.3552505419804986e-07
4,-1.9513185600415375e-06,-8.74627710886487e-07,-7.378563524675477e-07,-7.523388100020545e-07
5,-8.799151335184705e-06,-3.860289606594907e-06,-3.289979634915826e-06,-3.349571572377213e-06
6,-3.2988677694581574e-05,-1.4271413739647592e-05,-1.2301040342818026e-05,-1.2500653186509682e-05
7,-0.00010614075569738432,-4.560454389500518e-05,-3.979303416618778e-05,-4.0353701435877824e-05
8,-0.0003002566581785645,-0.00012897613422534343,-0.00011402071873624836,-0.00011536732624502338
9,-0.0007613086754203413,-0.00032886182280946136,-0.00029473578903509254,-0.0002975268391753256
10,-0.001757702180520917,-0.000767343738529864,-0.0006974857413499587,-0.0007024500467035052
11,-0.0037443188778688227,-0.0016585966060968555,-0.001529333162170476,-0.0015366343933404956
12,-0.007441640099024083,-0.003354794027713902,-0.003137932953494276,-0.0031455816986212725
13,-0.013928613904123359,-0.006403944757291161,-0.006075165312136701,-0.006075703917486356
14,-0.02474710935888864,-0.011619407355993597,-0.011175518360235902,-0.01114979906784761
15,-0.04201454473413104,-0.020159942250835304,-0.01964815436453546,-0.01955454104517634
16,-0.06853942866905888,-0.03361802878338794,-0.033180046930776946,-0.03293690589608403
17,-0.10793234318301019,-0.05411272226369228,-0.05404575487543404,-0.05350484876123844
18,-0.16470260631494943,-0.08438155206553155,-0.08521738808583933,-0.08412593287854622
19,-0.24432867420785456,-0.127864022111738,-0.13046628897312662,-0.12841604862247624
20,-0.35328858948013897,-0.18876745301521836,-0.19444611912708917,-0.19080890330637892
21,-0.49903596398744404,-0.27210454598838874,-0.2827456065367854,-0.2765957181133668
22,-0.6899077383199509,-0.38369147646266144,-0.4018983887527262,-0.39192377774975806
23,-0.9349525414882655,-0.5300957347158978,-0.5593373939014568,-0.5437424718402851
24,-1.243672678160702,-0.7185243965581415,-0.7632822768106882,-0.739686594769982
25,-1.6256780712248482,-0.9566459782542768,-1.0225507634793634,-0.9878891495379116
26,-2.090256520647148,-1.2523424186063405,-1.346288464786787,-1.2967197593294122
27,-2.6458711921722373,-1.6133919063536044,-1.7436167428488014,-1.674449821247674
28,-3.2996030626379462,-2.0470880867507897,-2.223204337515205,-2.1288513565226026
29,-4.056562618209565,-2.559806421212892,-2.792775294965693,-2.66674260004642
30,-4.9193007759466125,-3.1565338539291865,-3.458572756144552,-3.2934991730109724
31,-5.887253347766161,-3.840383106670191,-4.224804721474428,-4.0125546980340046
32,-6.956256119673062,-4.61211745676878,-5.093103302900984,-4.824918559906959
33,-8.11816853490951,-5.469715312989564,-6.062032558650326,-5.728740930125641
34,-9.360642546215896,-6.408005826144557,-7.126681299142704,-6.718955955449353
35,-10.667068980714907,-7.418406757582937,-8.278376067484565,-7.7870329931892055
36,-12.016726580147756,-8.488793579412231,-9.50454587927134,-8.920862807374352
37,-13.385149114996713,-9.60352420214613,-10.788764424496415,-10.10480065836421
38,-14.74471419829966,-10.743636933543932,-12.110987411087452,-11.31988127315571
39,-16.065444250717068,-11.887230615714284,-13.447992661308097,-12.544211993383929
40,-17.31599612401732,-13.010025856954464,-14.774018641839742,-13.75354033890368
41,-18.46480207982144,-14.086095464125533,-16.061583823973162,-14.92198136329917
42,-19.4813124018254,-15.088741224148697,-17.282455574899394,-16.022879256655752
43,-20.33728010886035,-15.991483746979535,-18.408724489341527,-17.02976755389384
44,-21.008021956858304,-16.769122889926056,-19.413929629271585,-17.917383973730132
45,-21.473587636578916,-17.398819064378017,-20.274173275278795,-18.662690180546853
46,-21.71977109537298,-17.86114117717924,-20.969161301709306,-19.245844245679955
47,-21.73890432717692,-18.141025588721046,-21.4831074175951,-19.65107454906856
48,-21.53038457513944,-18.22859253524587,-21.805446068615556,-19.867408209095544
49,-21.100899870607616,-18.119771899929074,-21.931309225568445,-19.889214420973808
50,-20.464334059132366,-17.816698722619428,-21.861735862124014,-19.71653269446675
51,-19.641349797036057,-17.327849906633862,-21.603598786099443,-19.355167203501544
52,-18.65866556795431,-16.667906600047612,-21.16925070340056,-18.816540632134114
53,-17.54805978398748,-15.857340976301405,-20.575908927926694,-18.117313404067755
54,-16.345150472867637,-14.921740814231057,-19.844814871563763,-17.278786406694305
55,-15.088011732609942,-13.890899516274942,-19.00021914893281,-16.326116607560635
56,-13.815696967387336,-12.79771209447807,-18.068254606048036,-15.287384591198691
57,-12.566743313690397,-11.67692832655401,-17.075766789253702,-14.192560328611842
58,-11.377731407458032,-10.563821969542392,-16.049173543972696,-13.072417864506967
59,-10.28196976851289,-9.492839087332445,-15.01342221706903,-11.957450749467114
60,-9.308363792614431,-8.496288973929973,-13.991104445638957,-10.876837920318536
61,-8.480516273022968,-7.603137941105425,-13.001775384820965,-9.857504603656524
62,-7.816090719624708,-6.837959768126678,-12.061507605931206,-8.923315215023402
63,-7.3264520355459615,-6.220087446093389,-11.182691340213836,-8.094425884900486
64,8.95195560512656e-11,-9.555131117439339e-11,-4.8282670927022415e-11,-1.442279217023235e-10
65,2.2129290280438466e-09,-2.0602796578446837e-09,-8.913103595272413e-10,-2.5192805963953365e-09
66,2.4630692202015563e-08,-2.2830238838225214e-08,-1.0120497240737736e-08,-2.8142221856262095e-08
67,1.8124478838396057e-07,-1.6748025587732114e-07,-7.541737157039928e-08,-2.047659561799428e-07
68,9.883368561777516e-07,-9.215833413305266e-07,-4.226182696521046e-07,-1.1180055439403222e-06
69,4.268889178499926e-06,-4.070702457806435e-06,-1.904084795369121e-06,-4.8974555358129774e-06
70,1.5238742791015857e-05,-1.5084680827084705e-05,-7.207915323730682e-06,-1.7992416224676005e-05
71,4.632646846209804e-05,-4.8385875485032294e-05,-2.3652890124653374e-05,-5.7219359581032825e-05
72,0.0001226570618739982,-0.00013752739873182693,-6.886976243814519e-05,-0.00016130389099646805
73,0.00028780939220267787,-0.0003527503530791772,-0.00018116942728359478,-0.00041063297095457127
74,0.0006068103538039491,-0.0008284914407225221,-0.00043679329098057345,-0.0009581108698667097
75,0.0011620902135924037,-0.0018031064267039578,-0.0009764048023983686,-0.0020738396993252727
76,0.00203789162006549,-0.003672415070153524,-0.002043002065534114,-0.004205798267465272
77,0.0032893790872569623,-0.007057801480219868,-0.004032891895269109,-0.0080578477623945
78,0.004893889849030505,-0.012888632851005874,-0.00756051502448392,-0.014685251773913305
79,0.006682826309269185,-0.022497704643361323,-0.0135368534393719,-0.025606478790646484
80,0.008253494273259759,-0.03772717890308247,-0.02325992712346599,-0.0429282652525034
81,0.008861010984973472,-0.06104093230160279,-0.03851448043278987,-0.06947873980269915
82,0.007291576213743983,-0.09563733073481166,-0.061676303275708076,-0.10894087251009343
83,0.0017200615185750028,-0.14555432794923562,-0.09581474813853418,-0.16597584459597461
84,-0.010442906597964258,-0.21575673230479836,-0.14478504427867006,-0.2463234715397651
85,-0.03270634071229047,-0.31219386159165946,-0.21330024505988857,-0.3568649168185889
86,-0.06964530929342255,-0.44181495705404644,-0.30697138636717325,-0.5056319518164327
87,-0.12702339823972833,-0.6125298981718197,-0.4323039292337315,-0.7017471567277546
88,-0.2118735045749072,-0.8331040800749043,-0.5966389918382853,-0.9552809226420343
89,-0.33251816748141527,-1.112978799272471,-0.8080293540767511,-1.2770140006600084
90,-0.4985116311623842,-1.462012078940538,-1.075042844012318,-1.678098740284595
91,-0.7204887832436344,-1.8901394146638841,-1.4064895448835173,-2.169617982633632
92,-1.0099107066072794,-2.406959232510064,-1.811074276205244,-2.762047646104468
93,-1.37870252314496,-3.021253629761404,-2.2969817897217832,-3.4646369768311858
94,-1.8387861971990023,-3.740460841126145,-2.8714086194965653,-4.284728720539393
95,-2.4015185427745522,-4.5701214179758,-3.54006184964252,-5.227049501861502
96,-3.077052299960225,-5.513324895203892,-4.306650440715836,-6.293007783853413
97,-3.873645429229538,-6.57018735876165,-5.172398571339126,-7.480042300109899
98,-4.796950548176676,-7.737392461651407,-6.13561237346767,-8.781067169490559
99,-5.849322491856915,-9.007828765100152,-7.1913314564506114,-10.184060538867595
100,-7.02918669783286,-10.370354550891559,-8.331094844644852,-11.671841136667366
101,-8.330513545171838,-11.809717307075628,-9.542847474067408,-13.222071364082336
102,-9.742443038173718,-13.306648921283541,-10.811008103626863,-14.807516441551337
103,-11.24909998143084,-14.838149426493569,-12.116712229750904,-16.396576932387752
104,-12.829632224626192,-16.37796235468463,-13.43823430982473,-17.95409721278703
105,-14.458494100241134,-17.897233984991164,-14.751582642974496,-19.442436027247645
106,-16.10598431486097,-19.36533776387123,-16.031248428089015,-20.822768230092912
107,-17.739032941551056,-20.750834698437842,-17.25107898008538,-22.05657030451193
108,-19.32221676377852,-22.022531318343255,-18.385235118712092,-23.10722741848319
109,-20.818967201386354,-23.150589503788556,-19.409185433589908,-23.9416876248024
110,-22.19292146756779,-24.107637606736233,-20.30068618291513,-24.53208028373885
111,-23.409356261639314,-24.869830210162206,-21.040695241276257,-24.857211615235165
112,-24.436634909487907,-25.41780477173986,-21.614171653888146,-24.90385108476644
113,-25.24759417951977,-25.73748728166434,-22.010718576590055,-24.667728393371895
114,-25.82079671661734,-25.820705746481654,-22.225036115311827,-24.15417221102882
115,-26.141579402430963,-25.665579424213927,-22.257161119645748,-23.378338029155344
116,-26.202836669955175,-25.276662760043454,-22.112482603033396,-22.364992808136712
117,-26.00549022717645,-24.664835242883118,-21.801533462259485,-21.14784723627463
118,-25.55861212534079,-23.84694116700833,-21.339570937695598,-19.768450934892574
119,-24.879185967446872,-22.845195756487275,-20.745969200719113,-18.2746902762712
120,-23.991510368573326,-21.68638553860592,-20.04345691587918,-16.71895105154865
121,-22.92626823322461,-20.40090057097521,-19.257239906956784,-15.156027658233857
122,-21.719303569328453,-19.02164358731407,-18.414053511294526,-13.640875570015265
123,-20.410163259099598,-17.58286595167462,-17.541190430795734,-12.22631373778296
124,-19.0404737164671,-16.118982317891536,-16.66554782919401,-10.960787677582369
125,-17.65223114910851,-14.663415104592762,-15.812732444580817,-9.886302086915542
126,-16.28608869043277,-13.247516522609804,-15.006255319777017,-9.036623974535006
127,-14.979723580675715,-11.899610278546763,-14.2668393981205,-8.435843896094383
128,-2.1272174003503768e-10,-7.527678215716617e-11,-4.3957860451719095e-11,-2.0206104819446112e-11
129,-4.770523889921816e-09,-1.5597127080239644e-09,-8.857858496137671e-10,-3.99735291169073e-10
130,-5.4333827390792874e-08,-1.741112273726637e-08,-1.0272947228580862e-08,-5.1034301118383004e-09
131,-4.075471363290163e-07,-1.284906960263123e-07,-7.845692375801292e-08,-4.1881519803863536e-08
132,-2.2744572504706968e-06,-7.114815423960337e-07,-4.4943745854525816e-07,-2.542633570352831e-07
133,-1.0109219494158107e-05,-3.1625747000740753e-06,-2.064078473739651e-06,-1.2226796188792326e-06
134,-3.7403408527693954e-05,-1.1793935366815802e-05,-7.937979816345249e-06,-4.873733676260823e-06
135,-0.00011891668009861944,-3.807301632280502e-05,-2.6366528781220353e-05,-1.6639261904022596e-05
136,-0.0003328320176050617,-0.00010892322101822233,-7.7421823507394e-05,-4.9879432690930606e-05
137,-0.0008360436969777458,-0.000281274933982791,-0.0002046830745751083,-0.00013389718255579525
138,-0.0019147439392073738,-0.0006653130771967098,-0.0004944503952913861,-0.00032706157024155674
139,-0.004051187996114208,-0.0014588386131799864,-0.0011047548540568625,-0.0007366092323155374
140,-0.008006468182039202,-0.0029948273151451216,-0.002306264261644476,-0.0015466348971800753
141,-0.014918340855873395,-0.005803660960352172,-0.004536697075906066,-0.0030556522662621975
142,-0.02641220189869627,-0.010690646604533028,-0.008469570308534647,-0.0057248763479297825
143,-0.04472180827645678,-0.01882834004384499,-0.015096989806663692,-0.010237956894491548
144,-0.07281428923915832,-0.03186182580482509,-0.02582472455735595,-0.01757215317222594
145,-0.11451170692307507,-0.052023463151430624,-0.04257604968019697,-0.029079813066048597
146,-0.17459923068647315,-0.08225169584059144,-0.0678989294481273,-0.04657752954436475
147,-0.2589080551299362,-0.126306432196282,-0.1050692184785307,-0.07243863549145008
148,-0.37435972829893827,-0.18887140582402107,-0.15818086765069914,-0.10968296796060666
149,-0.5289579522731851,-0.27563207132350226,-0.23221277969417767,-0.1620562942587165
150,-0.7317146254944651,-0.39331625807619625,-0.3330611184266879,-0.23409062289238172
151,-0.9924990943321819,-0.5496842614827924,-0.4675256887882584,-0.3311359410974808
152,-1.321803120606777,-0.7534555289611041,-0.6432396528546286,-0.4593538192985004
153,-1.730418679076519,-1.014160764599084,-0.8685334858441565,-0.6256638731242479
154,-2.2290312304258464,-1.3419112344017485,-1.1522268178698882,-0.8376353590505781
155,-2.8277374329733025,-1.747081289725173,-1.5033456642829206,-1.1033182612231218
156,-3.535502958780014,-2.2399055032456188,-1.9307674363068574,-1.4310111304872901
157,-4.359582451626186,-2.829998048713098,-2.4428018285301367,-1.828966611708811
158,-5.304928985070167,-3.525808662278103,-3.0467218384121426,-2.3050399291775125
159,-6.373624288610638,-4.33403623364869,-3.7482652614058622,-2.866290399376208
160,-7.564363451374568,-5.259027272208199,-4.551132367867468,-3.5185510280168617
161,-8.872028712140052,-6.302191652306023,-5.456509442932762,-4.265986042636336
162,-10.287385956920634,-7.461471645916556,-6.462649913298179,-5.1106603270429405
163,-11.796934249948672,-8.730901855183157,-7.564544599584227,-6.052147635688159
164,-13.3829329345039,-10.10029691064115,-8.753710168869514,-7.0872056899338185
165,-15.023622752811143,-11.555100498269416,-10.018120271377406,-8.209545468102808
166,-16.693647437188453,-13.076423359472797,-11.342297369667596,-9.409719070487288
167,-18.364670790768788,-14.641289497662473,-12.70757520419425,-10.675145561323308
168,-20.00617206806285,-16.22309922926986,-14.092532511444025,-11.990287415005167
169,-21.58639050216099,-17.792305454236566,-15.473588429460015,-13.336982011992847
170,-23.073379348524725,-19.31728628980979,-16.8257395193718,-14.694923510454645
171,-24.436121822883262,-20.765383872780713,-18.12340818342105,-16.04228089602088
172,-25.645656260871352,-22.1040666451215,-19.341363303244112,-17.356428646375228
173,-26.67615573768822,-23.302161780479725,-20.45566703553976,-18.614757824052084
174,-27.5059082541901,-24.33109652872762,-21.44459767094626,-19.79552814462753
175,-28.118147539953117,-25.166082952757773,-22.289497786896685,-20.878716271069994
176,-28.50169159429705,-25.787180383761136,-22.97549975989416,-21.846812829329583
177,-28.651355948193356,-26.180174170449366,-23.492086859146024,-22.685520856911484
178,-28.56812060496816,-26.33721782042493,-23.833457207268506,-23.384311833720194
179,-28.25904291572571,-26.25719792335307,-23.99866927361827,-23.936802117726415
180,-27.736922509010633,-25.945796503500926,-23.991560536602172,-24.340922296756474
181,-27.019737958412044,-25.415242650974736,-23.820444635210194,-24.598864166055975
182,-26.129887036195655,-24.683763295685278,-23.49760573967857,-24.716803955320295
183,-25.09327206965102,-23.774760662656664,-23.03862099760192,-24.704415004473514
184,-23.938278392245348,-22.71576016168696,-22.46155184130096,-24.57419714860176
185,-22.69469707487162,-21.537186187957566,-21.786051990329494,-24.340662491363315
186,-21.392643277512544,-20.271033612161443,-21.032443741084307,-24.019427080402586
187,-20.06151892376913,-18.949508850396775,-20.220814490542004,-23.626264576852915
188,-18.729063157445953,-17.603715779204457,-19.37018251349618,-23.17618093976031
189,-17.420526581987197,-16.26245816852328,-18.497775099777616,-22.682568290201026
190,-16.157996340677034,-14.951221897639511,-17.618453699482625,-22.15649156188443
191,-14.959889518770979,-13.691387559307508,-16.744310307278884,-21.606153540737647
192,8.631792207756007e-11,-9.051872695494855e-11,-5.601989595425833e-11,-9.292089931232423e-11
193,2.772682775835949e-09,-1.9691450283993695e-09,-1.291316891633953e-09,-1.6129294123000135e-09
194,2.9734677211817073e-08,-2.176134856981926e-08,-1.5318870332782044e-08,-1.8400889179155053e-08
195,2.146764961782876e-07,-1.5931567628044754e-07,-1.1993830657327438e-07,-1.3666117565321723e-07
196,1.1496644667101677e-06,-8.737217500109427e-07,-7.013649117939177e-07,-7.624290434232118e-07
197,4.888896406439766e-06,-3.842152964235645e-06,-3.2747490087632174e-06,-3.4151356706499633e-06
198,1.7223546551622375e-05,-1.4161982903067282e-05,-1.2749730567122205e-05,-1.2834861097811593e-05
199,5.180525530806134e-05,-4.515626638042622e-05,-4.268821175665132e-05,-4.1758142654664024e-05
200,0.0001360593153086221,-0.00012754375754373952,-0.00012581162453854957,-0.00012039642724567828
201,0.0003175223221345784,-0.0003250859784746863,-0.000332452454217419,-0.0003132666615211696
202,0.0006676313706555399,-0.0007589091608161178,-0.0007995336602137293,-0.0007463691479091557
203,0.0012787542348465695,-0.0016424906288994264,-0.0017719410874944951,-0.0016476649683599008
204,0.0022499312834347858,-0.003328845009215121,-0.00365703565493835,-0.0034033067246551246
205,0.003657325011156687,-0.006370825380839761,-0.0070918871666314914,-0.0066311917093279564
206,0.005506293048265664,-0.011594711372110615,-0.013021862732673932,-0.01227220315742712
207,0.007662838218587488,-0.020186372264016535,-0.0227884798449596,-0.02169807085923163
208,0.009762951455031654,-0.03378819390558583,-0.038223703574694685,-0.03683309988331976
209,0.011099297871740299,-0.05460357018307691,-0.061746824463187404,-0.060285067715534095
210,0.010486110686443197,-0.08550406183341652,-0.09645853490266888,-0.09547833375552063
211,0.006105117973354556,-0.13013239860139866,-0.1462249468290187,-0.14677971783077748
212,-0.004662087875085083,-0.19299253597222082,-0.21574244674484774,-0.21960518486809924
213,-0.025406577898888845,-0.27951625213715364,-0.3105729641677662,-0.3204931447956975
214,-0.0608570479547372,-0.39609459747266285,-0.43713884914157897,-0.457128670974922
215,-0.11702090661434589,-0.5500621637248907,-0.6026672847925559,-0.6383025466972425
216,-0.20128218832376496,-0.7496228128498189,-0.8150759290902716,-0.873790116203209
217,-0.3224355811288082,-1.003707261918845,-1.0827940706608594,-1.174137602486394
218,-0.49063641333339647,-1.3217557171515215,-1.4145167969233876,-1.5503478907418438
219,-0.717248897882088,-1.713422459751548,-1.8188933913828544,-2.0134635940425345
220,-1.0145792301521783,-2.188203747050003,-2.3041553405737734,-2.5740522608772634
221,-1.3954861984856737,-2.754995424251949,-2.8776938280198565,-3.241606465366745
222,-1.8728696553033592,-3.4215920479630717,-3.5456011829156924,-4.023879772496815
223,-2.4590459947783816,-4.1941448537311095,-4.312195066548763,-4.9261876364042605
224,-3.1650290032355746,-5.076601229856145,-5.179547799965768,-5.95070950518862
225,-3.9997435354500097,-6.070153078433457,-6.147045809106461,-7.0958341121970685
226,-4.96920804694363,-7.172725082845098,-7.211005462581879,-8.355593466521269
227,-6.075729747198812,-8.37853599445145,-8.364371505707917,-9.719231896636279
228,-7.317162320343984,-9.677766202795052,-9.596522809512566,-11.17095423094837
229,-8.686279898383255,-11.056362803746552,-10.893207218887332,-12.689891616177874
230,-10.170321399112087,-12.496009042463077,-12.23662286095324,-14.250314560580367
231,-11.750756027155601,-13.974278498642187,-13.605657392979236,-15.822110864946556
232,-13.40331349955187,-15.464986005619625,-14.97628948964138,-17.371531773189187
233,-15.098311464199798,-16.938737520270493,-16.32214872240033,-18.862193836415596
234,-16.80129786151561,-18.363670545554783,-17.615221334846442,-20.256307682691435
235,-18.474008438745305,-19.706365835799687,-18.826680804998244,-21.51608921817194
236,-20.07562057369258,-20.932900556566416,-19.92781406454414,-22.6052949056038
237,-21.56426563063714,-22.010003406178157,-20.891007344252973,-23.49081179364187
238,-22.898744682418403,-22.90626407562566,-21.690750314565513,-24.144226010881773
239,-24.040377657971852,-23.593343519298838,-22.304613872699743,-24.543291351949684
240,-24.954904762682453,-24.04712847480142,-22.714155848571455,-24.673222894192698
241,-25.614352236740533,-24.24877392597663,-22.905710170958216,-24.527749264427616
242,-25.998772915166253,-24.18558083128312,-22.871018644098235,-24.10987070407462
243,-26.0977757856789,-23.85166318107442,-22.607670311000714,-23.43228741041155
244,-25.911767440219496,-23.248367823403647,-22.119321188512327,-22.517482379618173
245,-25.452841230248,-22.384421926762915,-21.415676581028055,-21.397463493519176
246,-24.745266349842566,-21.27579581332457,-20.512228741258387,-20.11318916054396
247,-23.825548123621225,-19.94528253960935,-19.429753819269383,-18.713718816391285
248,-22.742051263314934,-18.421809316580685,-18.193583304668472,-17.255142583591265
249,-21.55419816983947,-16.739508910045718,-16.832676032381443,-15.799352332915761
250,-20.33127277743098,-14.936590816376794,-15.378526817122012,-14.412718612819441
251,-19.150875674537755,-13.054061604026314,-13.863956431445727,-13.164734261330986
252,-18.097087423663627,-11.134350790903829,-12.32183446472728,-12.126676287905601
253,-17.258403643185456,-9.219902581007622,-10.783791142044462,-11.37032363361064
254,-16.72550723630354,-7.351794479808064,-9.278976079865863,-10.966750967217667
255,-16.588940379969333,-5.568441229904526,-7.832920998479543,-10.985199476972925
256,-7.123199436181083e-10,-7.097900092030563e-11,-2.390245199070201e-12,-4.89227809991695e-10
257,-1.5665198746395433e-08,-1.4649736323949125e-09,-2.7907334741358798e-11,-1.0415082767640321e-08
258,-1.746950885911706e-07,-1.638218265276986e-08,-3.0646026234700144e-10,-1.1674998781590082e-07
259,-1.2879154071454807e-06,-1.2114732037972735e-07,-2.2014699297653195e-09,-8.661572173765394e-07
260,-7.101801765336257e-06,-6.725700889840255e-07,-1.2332222574590423e-08,-4.819083078244629e-06
261,-3.134466012564644e-05,-2.998511485056876e-06,-5.707072510869332e-08,-2.1512729147743594e-05
262,-0.00011573848402948004,-1.1217251386756956e-05,-2.2628991896942383e-07,-8.05181368263065e-05
263,-0.00036898002987097644,-3.632300083052975e-05,-7.864187993544732e-07,-0.0002606777268402031
264,-0.001040124550975648,-0.00010420708970017516,-2.4360795796465275e-06,-0.0007472819763401733
265,-0.0026415708627834955,-0.0002697172869995864,-6.821694742495183e-06,-0.0019318024120987339
266,-0.00613625149655194,-0.0006390381092784394,-1.7490056403604003e-05,-0.0045697710145981675
267,-0.013200888032324666,-0.0014025303156643036,-4.1542717479707566e-05,-0.01001095984088197
268,-0.02657290784133151,-0.0028797122773731687,-9.239350520068652e-05,-0.020512238957197157
269,-0.050483321817154814,-0.005577390092232416,-0.000194219014744755,-0.039637919021514686
270,-0.09117151464332396,-0.01026112457714391,-0.0003888959287197577,-0.07274552567003331
271,-0.15747024117340885,-0.01803929226311007,-0.0007463562882543739,-0.127547084087802
272,-0.261439880292757,-0.030457906000411747,-0.0013792631249386436,-0.2147270097120653
273,-0.41902012303752034,-0.04960304349014897,-0.0024626535178059075,-0.34858742580199553
274,-0.6506549796718883,-0.07820615135773647,-0.0042587311744424015,-0.5476801296577268
275,-0.9818340810259386,-0.11974571332230043,-0.007146412220681439,-0.8353720202592122
276,-1.44348132196086,-0.17853697006468236,-0.011654655950484408,-1.2402787652164806
277,-2.072113222357349,-0.2597998178533126,-0.018498118748796352,-1.7964916448169272
278,-2.9096863121481893,-0.3696939908654543,-0.028613246046638185,-2.5435170742542104
279,-4.003057017178765,-0.5153104040440871,-0.04319251047847687,-3.525849323728916
280,-5.402989629082083,-0.7046082900856302,-0.06371410147657287,-4.792105952891129
281,-7.162667853128527,-0.9462895859704321,-0.09196405033448156,-6.393673027017592
282,-9.33569254096092,-1.2496048916468177,-0.13004767868062794,-8.3828329455909
283,-11.973581387286506,-1.6240890957728618,-0.18038749731540618,-10.810380436730634
284,-15.122823858697677,-2.079229222320069,-0.24570525984276995,-13.722770091691538
285,-18.821584089146448,-2.6240719222031017,-0.32898669289892707,-17.15887938063601
286,-23.09618334789355,-3.266783032133133,-0.43342836562222786,-21.146511775489017
287,-27.95752939476457,-4.014176465845402,-0.5623671610557998,-25.69880260288346
288,-33.397689903488384,-4.871234082280724,-0.7191938706141876,-30.810722611730775
289,-39.386828235881865,-5.840641749017514,-0.9072535540350879,-36.45589804038723
290,-45.87072911599061,-6.922369190848,-1.1297364376232506,-42.58397835966446
291,-52.76913665383384,-8.113321996126906,-1.389564131885907,-49.11878143794322
292,-59.97510625496799,-9.407093022491857,-1.689276673118473,-55.95742885676119
293,-67.35553512525021,-10.793837238616842,-2.030926214858373,-62.97065078027554
294,-74.75298431797948,-12.260288800076061,-2.4159830718607296,-70.00439057719167
295,-81.9888405982327,-13.789932160562959,-2.8452592586693997,-76.88277609255837
296,-88.8677919892688,-15.363330713595508,-3.3188536808547484,-83.412450115521
297,-95.18351125595885,-16.95860740905284,-3.836121757183864,-89.38817148062587
298,-100.72536232130679,-18.552062588600187,-4.395670541768769,-94.5995156165688
299,-105.28587152228944,-20.118905517591294,-4.99537848940224,-98.83842501748444
300,-108.66864408944211,-21.634068324622927,-5.632437003892753,-101.90729195003892
301,-110.6963608734454,-23.07306482207387,-6.303409001345755,-103.62720309861284
302,-111.21846491779088,-24.412852468157347,-7.0042981573762475,-103.84594327310084
303,-110.11814463300512,-25.632653947604,-7.730621620030497,-102.44534586695062
304,-107.31824121570793,-26.714695770267884,-8.477479086996357,-99.34759303112472
305,-102.78575186287482,-27.64482498159259,-9.239612424982267,-94.5201083251913
306,-96.53466492137714,-28.41297139171231,-10.011452301808392,-87.9787470789541
307,-88.62694476029557,-29.0134312666614,-10.787151127080206,-79.78907141231456
308,-79.17157829120582,-29.4449586070159,-11.56060428521858,-70.06559313146481
309,-68.3216961344308,-29.710661237114277,-12.32546359994636,-58.968972808846004
310,-56.26988304997365,-29.81771013252071,-13.075147952164974,-46.70127085420811
311,-43.241887719803614,-29.77688090029313,-13.802856249354969,-33.499449598100334
312,-29.489025023442444,-29.6019553250688,-14.501588171080726,-19.62741777183061
313,-15.27962944388943,-29.30901778884811,-15.164178953868026,-5.366984431921813
314,-0.8899623048245083,-28.915685762326312,-15.783356100390398,8.991856384077002
315,13.405004261825258,-28.440315322374744,-16.351827675664946,23.160859284987474
316,27.340508202254767,-27.901221889163587,-16.862412497973068,36.86322462373431
317,40.670232960899426,-27.315953387606026,-17.308220690888557,49.842625809284385
318,53.17351597912545,-26.700648185800535,-17.68288807930612,61.871178413291716
319,64.66125439875013,-26.06950381319581,-17.980860321240588,72.75602735089204
320,3.924411182069214e-10,-9.498081823264461e-11,-2.1815622933824926e-10,1.7939892798235636e-10
321,8.468039020726575e-09,-1.9492884027593015e-09,-4.640732709875601e-09,3.932394414342893e-09
322,9.297749334866448e-08,-2.1995868761098988e-08,-4.995747993844792e-08,4.340768020767508e-08
323,6.750611090815236e-07,-1.6314698710024612e-07,-3.5563694054776005e-07,3.1747869502139445e-07
324,3.6613105273648126e-06,-9.068526945319272e-07,-1.8952750975298982e-06,1.7396750332129083e-06
325,1.587750282079865e-05,-4.04047492240447e-06,-8.097191292603664e-06,7.644533352112597e-06
326,5.753606700435434e-05,-1.5079877493230058e-05,-2.900553569070315e-05,2.8157237658234304e-05
327,0.00017980968170664267,-4.864512873998851e-05,-8.995684621597895e-05,8.971096309337746e-05
328,0.0004963670918100051,-0.00013886151983694535,-0.00024744957252336423,0.0002531533331139028
329,0.001233511843511111,-0.00035729677893813275,-0.0006152010049901932,0.0006444951030148099
330,0.002802402906513786,-0.0008410392541285188,-0.0014032385769305656,0.0015023633914347189
331,0.0058952531935441,-0.0018332334863840121,-0.0029721819959485506,0.003245555577913291
332,0.011605864119017473,-0.0037377688105416852,-0.005903648922303567,0.006562853075558569
333,0.021573413101266287,-0.007188969642879175,-0.011086123364703911,0.012525656930931873
334,0.038146717629495105,-0.01313609797606937,-0.019813950942687644,0.022722231504655303
335,0.0645639494474332,-0.02294122891467309,-0.033895647871345885,0.03941046317623601
336,0.10513991493523525,-0.03848752367078265,-0.05576653050058689,0.06568399100735128
337,0.1654497097912399,-0.06229308180952659,-0.08859962982351567,0.10564421167938157
338,0.2524939704646681,-0.09762347743238523,-0.13640767355461114,0.1645679088259675
339,0.37482734383146077,-0.14859394947135537,-0.20412744883278824,0.2490571932217907
340,0.5426287695406954,-0.22025029162280674,-0.29767627044687095,0.3671553922012053
341,0.7676905811565021,-0.3186160465421444,-0.4239690295195906,0.5284100301902531
342,1.0633040872079877,-0.4506929310997882,-0.590883924811718,0.743862724088872
343,1.4440224725053812,-0.6244017216226887,-0.8071658499363502,1.0259462294065012
344,1.925287345173016,-0.8484522940121807,-1.0822586486834025,1.3882713799112851
345,2.522912620003329,-1.1321342337535916,-1.4260609772715716,1.8452913568588623
346,3.2524283613031355,-1.4850234245013332,-1.8486051555723741,2.4118374159070712
347,4.128297377945785,-1.9166051743898838,-2.3596638745611522,3.1025284379259324
348,5.1630281923434085,-2.435820523245457,-2.9682955281662124,3.9310658286903832
349,6.3662186552693925,-3.050549027786906,-3.682344667277099,4.9094346804624625
350,7.743574119098677,-3.7670480786741947,-4.5079189975557385,6.047041090676122
351,9.29595214022075,-4.589375120403911,-5.448867995687439,7.349823590817731
352,11.018491650861414,-5.518824437678807,-6.5062904193039275,8.819383340280325
353,12.899887741225314,-6.553413908573378,-7.678098834410292,10.452182661643723
354,14.921872731358205,-7.68745884269797,-8.958668972065686,12.23886412712457
355,17.05895941804846,-8.911269406335922,-10.338600357236755,14.163742178785618
356,19.27849311145227,-10.211004991931887,-11.804612101970267,16.204515643261928
357,21.541045713205083,-11.568713197787599,-13.339593718676332,18.332242171300965
358,23.801168191429227,-12.962572965468745,-14.922824942175115,20.511604625405287
359,26.008498050539174,-14.36735118214713,-16.530370713292942,22.70148520797258
360,28.109196740222636,-15.755070140706804,-18.135647912274052,24.855846509490615
361,30.047669912946144,-17.09587029138983,-19.71014984234707,26.92490082275199
362,31.768502892009515,-18.35903950450139,-21.22430390589734,28.85653135377771
363,33.218526410886696,-19.514167521187286,-22.648428536738134,30.59791270909678
364,34.3489149667065,-20.532373409960712,-23.953748202063085,32.09726444527881
365,35.117212918253145,-21.387545624328887,-25.113420683630324,33.305661456081374
366,35.48918247542818,-22.05752948944312,-26.103528963581233,34.17881919140173
367,35.44037338251494,-22.525196172661644,-26.903990639469196,34.67877052230441
368,34.95732625449154,-22.77933066101743,-27.499340594776463,34.77535461532047
369,34.038339330689965,-22.815283872383343,-27.87934749551759,34.44744632204257
370,32.693750608323775,-22.635345371874433,-28.039431583006156,33.683866928347086
371,30.94571259126959,-22.248807564913797,-27.980860203087587,32.48393295403043
372,28.827463993657677,-21.67170881918723,-27.710708369089957,30.857618086004518
373,26.38213022911095,-20.926260703964385,-27.2415838489928,28.825323051857335
374,23.661110609773147,-20.039982341767217,-26.5911289285544,26.417267928318605
375,20.722132961689027,-19.044581651063936,-25.781323137259026,23.67253966759694
376,17.627074193694146,-17.97463794692356,-24.837621916707725,20.637843329107056
377,14.439657112689328,-16.86615199681775,-23.78797475223669,17.36601775915723
378,11.223138711226026,-15.755037388427976,-22.661772157863634,13.914384736272718
379,8.038102845514057,-14.675630411751088,-21.48877376205873,10.34300465826603
380,4.940460752801552,-13.65929434976367,-20.2980694222426,6.712911686558063
381,1.9797470989031167,-12.733188205714546,-19.117121847055266,3.08439712858932
382,-0.8022211928225687,-11.919259883510511,-17.970932891571753,-0.48459773226549496
383,-3.3722793336568944,-11.233510376289152,-16.881366956349588,-3.9399283314793947
384,-2.8421835169697795e-10,-7.91614668675424e-11,-4.71366224127309e-11,-5.871967457032628e-11
385,-6.276228753445012e-09,-1.723501613833543e-09,-8.760883167312837e-10,-1.2758533415462172e-09
386,-6.879888303888001e-08,-1.9199120199410638e-08,-1.0160183334745404e-08,-1.4185238830574413e-08
387,-4.979343855241358e-07,-1.4147486298102857e-07,-7.732195530876329e-08,-1.0457868179842592e-07
388,-2.686022090305027e-06,-7.810204668499411e-07,-4.425774272401588e-07,-5.784238119719302e-07
389,-1.15592001139418e-05,-3.456940743900404e-06,-2.036166366147124e-06,-2.5693292339946316e-06
390,-4.148624612272725e-05,-1.2822511832213243e-05,-7.865094292972273e-06,-9.581333927317416e-06
391,-0.0001281915875399816,-4.1129305930285965e-05,-2.6305135286341232e-05,-3.095416436817133e-05
392,-0.0003494078637081602,-0.00011680971566376683,-7.794479444091754e-05,-8.869859336798465e-05
393,-0.0008564546931326579,-0.0002992002468771992,-0.0002082958594694777,-0.00022958915959310657
394,-0.001917892459419694,-0.0007014855727047352,-0.0005092122866701007,-0.0005446770193691878
395,-0.003975400241699503,-0.0015236770831205473,-0.0011520830342400454,-0.0011984050456441003
396,-0.007711403999768686,-0.0030969019377315404,-0.0024356667209905042,-0.0024692322539058933
397,-0.014127611061993842,-0.005939585293790362,-0.004850798614284447,-0.004803127789098492
398,-0.02463308865580577,-0.010825355128739765,-0.009163140748043532,-0.008880524466225817
399,-0.04113957863785972,-0.018861710752705433,-0.016513716601342626,-0.01569636913226842
400,-0.06616036906472769,-0.03157759427315266,-0.0285352205578119,-0.026651771421061867
401,-0.10290736184955145,-0.05101685982617934,-0.047480115528578476,-0.04365440295449125
402,-0.15537905277438652,-0.0798331476875211,-0.0763544291232681,-0.06922320721157238
403,-0.22843012366006515,-0.12137987554964548,-0.11904901858568019,-0.10659118239029541
404,-0.32781169372556845,-0.17978717241170086,-0.1804579402413926,-0.15979813839496954
405,-0.46017066999655865,-0.26001595891114393,-0.26657148650058965,-0.233763659964616
406,-0.6329975504987274,-0.3678784163954091,-0.38452962662751317,-0.33432935634406225
407,-0.8545143647754918,-0.5100140837280549,-0.5426203498957743,-0.46825914899818244
408,-1.1334976221123287,-0.693811907443972,-0.7502072566129322,-0.6431870429424176
409,-1.479034632433414,-0.9272706942975575,-1.01757215423202,-0.8675035844391662
410,-1.9002151822830162,-1.2187934093430843,-1.3556617336409011,-1.1501749363088076
411,-2.4057643558550543,-1.5769144203405456,-1.7757326618118172,-1.5004920397006591
412,-3.0036262969627514,-2.00996293415255,-2.2888963493346117,-1.927751508470851
413,-3.700512740043261,-2.5256703564123724,-2.905572658334736,-2.440874545415993
414,-4.501433979346922,-3.130733984955449,-3.6348701958260223,-3.047975071060341
415,-5.409233431069382,-3.8303541167465,-4.483918903990234,-3.755893135148396
416,-6.424149811356121,-4.627766000341428,-5.457187837354089,-4.569714165456094
417,-7.543432688654714,-5.5237916961241655,-6.5558268515740385,-5.492298256766555
418,-8.761037148163744,-6.516439346586404,-7.777074952264741,-6.523846058597268
419,-10.067421216422103,-7.600578176792327,-9.113779761088187,-7.661528503817969
420,-11.449465761484923,-8.767716426360092,-10.554071427209136,-8.899206399069838
421,-12.890531352087848,-10.005906238066828,-12.081229978737829,-10.227262730933363
422,-14.370660440591923,-11.299794373203909,-13.673777448683232,-11.632565567415062
423,-15.866926362466153,-12.630830757459691,-15.30581533002245,-13.098572948545014
424,-17.353923131106743,-13.977638680207699,-16.947614500266404,-14.60558357890956
425,-18.8043822583246,-15.316541457706766,-18.566449457132563,-16.13112896813475
426,-20.18989551477823,-16.622231052550525,-20.127652464371533,-17.650494473373886
427,-21.481716281076274,-17.86855507459759,-21.595847098342247,-19.13734905404788
428,-22.651607318493696,-19.02939036448254,-22.93630590017882,-20.564457012154683
429,-23.672699669399186,-20.079564578651787,-24.11636461845137,-21.904440073426755
430,-24.520326270452838,-20.995782419167984,-25.106817142019676,-23.13055528948346
431,-25.172794933550595,-21.75751082677296,-25.883211779551445,-24.21745366512692
432,-25.61206849872865,-22.347777857473442,-26.426971784370952,-25.141886172572594
433,-25.82432469880816,-22.753843159623695,-26.726271055825407,-25.88332771483199
434,-25.800374054699446,-22.967703838900995,-26.776609176111336,-26.424495303241887
435,-25.535920664151803,-22.98640773491807,-26.5810471706505,-26.751743798209763
436,-25.031657999252275,-22.812156264366518,-26.15008517880346,-26.855330552855254
437,-24.293199598804435,-22.4521903827933,-25.50118421506236,-26.729548629885528
438,-23.3308523009796,-21.918465137543304,-24.657955220169573,-26.37273625303716
439,-22.159246738414932,-21.227129935897853,-23.64905858776389,-25.787177056569927
440,-20.796845757381615,-20.397842265445874,-22.50687516474638,-24.97891081194758
441,-19.265356079677478,-19.452951502095885,-21.266024096290202,-23.957477154356216
442,-17.58907181416001,-18.416596068630987,-19.961812514765075,-22.735615236199855
443,-15.7941801154609,-17.313761162833586,-18.62870589803953,-21.32894037404709
444,-13.908059139099018,-16.16934533588626,-17.29890537852277,-19.755615067367817
445,-11.958596506629926,-15.007282350295188,-16.001109462643292,-18.036026842700835
446,-9.973553175240138,-13.849760169430006,-14.75952329670394,-16.192479854646464
447,-7.979993373246054,-12.716571995810664,-13.593160149562966,-14.248901659589698
448,1.4196512598722494e-10,-7.676486517922079e-11,-8.497346301745983e-11,-7.347445625664519e-11
449,3.153863756299442e-09,-1.6669637950557655e-09,-1.8464246793612185e-09,-1.604397002154994e-09
450,3.3496902343198984e-08,-1.8696029111782998e-08,-2.0968796601471163e-08,-1.7914612477935145e-08
451,2.342799730476144e-07,-1.3871009469932774e-07,-1.5733974572383826e-07,-1.3233548663974312e-07
452,1.213987631652721e-06,-7.715369448855201e-07,-8.846448331858573e-07,-7.314870826448359e-07
453,4.981641860727562e-06,-3.4421803406939738e-06,-3.985784905876582e-06,-3.238015694212054e-06
454,1.6895096521081295e-05,-1.2871626898365573e-05,-1.5032534934202865e-05,-1.1999047284420858e-05
455,4.879865650944939e-05,-4.161954437624289e-05,-4.89520907638767e-05,-3.841877508910505e-05
456,0.0001227334592298479,-0.00011912047063974024,-0.0001408772623701122,-0.00010885358274977008
457,0.00027337976547759437,-0.00030735256351880014,-0.0003648966676515397,-0.000278091451440236
458,0.000546230115587082,-0.0007254705940356762,-0.0008632985171783262,-0.0006503281466360003
459,0.0009879655551198506,-0.0015854480062952596,-0.0018884048588412275,-0.0014094209655406418
460,0.0016258028390514286,-0.003240146811963304,-0.0038582708682667385,-0.0028598853417513667
461,0.002433352246415,-0.006244382531878481,-0.007426622208959962,-0.005479648423024065
462,0.0032812540770615854,-0.011428572475667193,-0.013566579991995337,-0.009984992104200004
463,0.0038713303306305005,-0.019983494627318264,-0.023666948259457934,-0.017407361281774628
464,0.0036534308097073,-0.03355351358860625,-0.03963888627139453,-0.02918070251471242
465,0.001724943401723866,-0.05433430103734075,-0.06402939405531484,-0.04723668547657126
466,-0.003285730962437561,-0.08516956430266558,-0.10013607514393721,-0.07410357422995732
467,-0.013348593944402925,-0.12963965559858445,-0.15211525269416948,-0.11300279097909667
468,-0.031168903397570155,-0.1921333241055352,-0.22507310495664637,-0.16793555376545616
469,-0.06032328947932276,-0.2778925387225761,-0.3251275642353079,-0.24375058348970793
470,-0.10538405767495018,-0.3930195450745732,-0.45942773334976467,-0.3461829410642571
471,-0.1720180785446566,-0.5444354025875638,-0.6361177543199699,-0.48185369446366677
472,-0.26704517368984143,-0.7397803971829161,-0.8642334621761044,-0.6582204186821508
473,-0.3984408157931301,-0.9872490468138212,-1.1535226766144024,-0.8834695653463375
474,-0.5752692149772363,-1.2953558743717786,-1.5141834917862258,-1.1663435562062034
475,-0.8075352417764066,-1.6726325074742132,-1.95651927615524,-1.5158980854911952
476,-1.1059470843204615,-2.127261638781153,-2.4905141627736995,-1.9411885678693697
477,-1.4815861389384053,-2.666658531964339,-3.1253384430431668,-2.4508888906078283
478,-1.9454863229471577,-3.2970156931200214,-3.8687992669858287,-3.0528504681092596
479,-2.5081313726658356,-4.02283072579383,-4.726758095595177,-3.753614757854974
480,-3.1788852087425017,-4.846441005543386,-5.702542012477946,-4.557897469338083
481,-3.965376740274733,-5.767591447269658,-6.7963807571877375,-5.468067246834444
482,-4.8728663375352985,-6.78306306963512,-8.004904623445984,-6.483645262285034
483,-5.903626326993667,-7.886390024455241,-9.320739668826146,-7.600854651884691
484,-7.056371642478222,-9.067690978233227,-10.732235614221073,-8.812249868548976
485,-8.32577848729001,-10.313637014096193,-12.223358149446305,-10.106455617399783
486,-9.702128053638251,-11.607572528332561,-13.773771078244717,-11.46804290255235
487,-11.171108937565966,-12.929798114667069,-15.359125065748914,-12.877565709032757
488,-12.713806016359616,-14.258015561503623,-16.95155917606067,-14.31177597713052
489,-14.306895397481085,-15.567925418582888,-18.52040958630334,-15.744026999102257
490,-15.923054889752901,-16.833957826631682,-20.033107584495323,-17.14486655750048
491,-17.531587903454408,-18.03010820684444,-21.456236926489343,-18.48281152005607
492,-19.099246666186747,-19.130841715070723,-22.756709534920095,-19.725285714829475
493,-20.59122903710759,-20.11202469743398,-23.903009055271404,-20.839693197284262
494,-21.972312630288528,-20.951838181935805,-24.866444659219564,-21.794589925546067
495,-23.208080839626017,-21.63162792001559,-25.622353386550888,-22.560908847275233
496,-24.26618821859441,-22.136647663667578,-26.15118880255002,-23.11318702409619
497,-25.117608193525925,-22.456657053911258,-26.439437106095127,-23.430739277253746
498,-25.737804856788745,-22.586342410087056,-26.480309008786055,-23.498721467221113
499,-26.107772741620686,-22.525537460138732,-26.27416629804142,-23.309028242916536
500,-26.214893771190393,-22.27923120524607,-25.828655279042984,-22.86097495076547
501,-26.053568617128533,-21.857361174773082,-25.158534336838187,-22.161721140909524
502,-25.625590146919905,-21.2744017303704,-24.28519867815176,-21.226403321301653
503,-24.94023898798538,-20.548768149706564,-23.23592094530355,-20.077956754002077
504,-24.014094649780528,-19.70206719553759,-22.042840967468635,-18.74661957439377
505,-22.870569040453624,-18.75823298522039,-20.741750664741442,-17.269126719020882
506,-21.53918165907405,-17.74259255646962,-19.370730379949258,-15.687615433128748
507,-20.054606706178426,-16.680908153717986,-17.96870013627535,-14.048277868281257
508,-18.455531567817403,-15.598442815950541,-16.573953093117936,-12.399808880871767
509,-16.783373293037197,-14.519092525066553,-15.222738551253377,-10.791708039711848
510,-15.080904423912733,-13.464622427834275,-13.947958198320212,-9.272503486354536
511,-13.390841650001736,-12.454037094693824,-12.778032110392285,-7.887971107990067
512,-3.7044807392598487e-10,-9.398686814461767e-11,-7.957379158448731e-11,-8.520973060588725e-11
513,-7.579580657345872e-09,-1.8411845187740988e-09,-1.6968665488359268e-09,-1.687391788629876e-09
514,-8.311833089848698e-08,-2.0871370335448414e-08,-1.8981396970394684e-08,-1.9348756801971746e-08
515,-6.008082713515329e-07,-1.5494877380696685e-07,-1.405062542710215e-07,-1.4588896726869632e-07
516,-3.2400265889435144e-06,-8.637192567773987e-07,-7.799174044550263e-07,-8.245399366977545e-07
517,-1.3960774324739751e-05,-3.864578476920513e-06,-3.4746257800637753e-06,-3.73431163332375e-06
518,-5.023870623895179e-05,-1.4500844898475361e-05,-1.2988890555977008e-05,-1.4157339738070638e-05
519,-0.00015586033396337954,-4.706865572222765e-05,-4.204999609307748e-05,-4.6342573722863364e-05
520,-0.00042705955586677994,-0.0001352697444543382,-0.0001207216488696367,-0.0001340633663776504
521,-0.001053430889584444,-0.00035047730665103396,-0.00031305845974626836,-0.00034905756554685355
522,-0.0023759884513340716,-0.0008306304665176854,-0.0007440982695505301,-0.0008301250309202561
523,-0.0049634331172865925,-0.0018222125609480952,-0.0016402308357983998,-0.0018252974922183438
524,-0.009706443722559866,-0.0037369471273494817,-0.003385349970645162,-0.0037487904130542923
525,-0.017928602201388588,-0.0072237390489390966,-0.006593890190157198,-0.007253575893278083
526,-0.0315110848478503,-0.013255149197845812,-0.012199982606189857,-0.013319444936935694
527,-0.05302635779504719,-0.023226409749911362,-0.0215598314601367,-0.02335529045198025
528,-0.08587383520896492,-0.0390635959239227,-0.03656236489251755,-0.03931286356270006
529,-0.13440796207732938,-0.06333596462547392,-0.05974150737819275,-0.06380734033145649
530,-0.20404661490344045,-0.09936556432417422,-0.09438212339961684,-0.10023774133975667
531,-0.3013453350704298,-0.15132509779224293,-0.1446106891393004,-0.15289783712828273
532,-0.43402130139135464,-0.2243129410206953,-0.21546094550525946,-0.22706601723171682
533,-0.6109107693385928,-0.3243925857715558,-0.3129041683594825,-0.32906106011110253
534,-0.8418454132017154,-0.45858303855080007,-0.44383342112259,-0.4662501030670624
535,-1.1374365030180846,-0.634787229814437,-0.6159914746878682,-0.6469955392788863
536,-1.5087607848303253,-0.8616474856745066,-0.8378332627711625,-0.8805291816633276
537,-1.9669479705581558,-1.1483205764018098,-1.1183160538953434,-1.1767448888583085
538,-2.5226767688521803,-1.5041696113546799,-1.4666142170806535,-1.545904981801506
539,-3.185594150237492,-1.9383757582326404,-1.8917606460299492,-1.998261100857604
540,-3.9636804623946054,-2.4594790405436466,-2.4022233748287336,-2.5435964389781476
541,-4.86259030129503,-3.0748638857018595,-3.0054329901489023,-3.1907031306986697
542,-5.885005000713604,-3.7902112549298734,-3.707283067205903,-3.9468154627802163
543,-7.030036874719189,-4.608944697285767,-4.511630915406963,-4.817025935246798
544,-8.292727608906674,-5.531702109901373,-5.4198286333301935,-5.803716463637134
545,-9.663683010063927,-6.55586792867603,-6.4303146511298275,-6.906040651136553
546,-11.128883094843145,-7.675201451381249,-7.538293923824678,-8.119494591661446
547,-12.669699956298102,-8.8795956281502,-8.735531346493984,-9.43561273868464
548,-14.263146156160904,-10.154996665706552,-10.010278344488373,-10.841821758880306
549,-15.882364139778831,-11.483508143668185,-11.347347256912009,-12.321478952374731
550,-17.497352996107068,-12.84369421432044,-12.728342108977339,-13.85411290490884
551,-19.075913544233035,-14.211085327572206,-14.132047539407106,-15.415872933032178
552,-20.584777234956338,-15.558877477812263,-15.534969902105173,-16.980181213862647
553,-21.990870045887682,-16.85880309740892,-16.912015973493844,-18.51856813017026
554,-23.262650817993926,-18.082139388221716,-18.237285647524526,-20.001658323949403
555,-24.371455277208398,-19.20080903783864,-19.484946221699385,-21.400263255387696
556,-25.292772813840614,-20.188519789112068,-20.63014839700272,-22.686526624893244
557,-26.007383161612225,-21.021883914476316,-21.64993904193984,-23.835062555288946
558,-26.502284705223648,-21.68145681256067,-22.52412401324546,-24.824023524201724
559,-26.771355369482304,-22.152635938788972,-23.236036283837223,-25.63603607605771
560,-26.81570066141849,-22.42636711368296,-23.77317006316512,-26.258947556543877
561,-26.643660582348403,-22.499614633801,-24.127649676780514,-26.686336440014884
562,-26.270466638371726,-22.375564038988966,-24.296511563845062,-26.917751874989822
563,-25.71756078107748,-22.063541111907856,-24.281787764674796,-26.958664047085726
564,-25.011608511783102,-21.578646785507996,-24.090388975926913,-26.820124700681657
565,-24.18325713140276,-20.941124028247177,-23.73379435727683,-26.518155261676892
566,-23.26570563149282,-20.175488328463956,-23.227563744243554,-26.07289701521016
567,-22.293163773193058,-19.309467023551367,-22.590695704409544,-25.50757242910875
568,-21.299283861688266,-18.372803469685913,-21.8448617121721,-24.847317986310756
569,-20.315649629498004,-17.395989244069963,-21.013552207831093,-24.117956182439148
570,-19.370402683866324,-16.408990782147125,-20.12117404989798,-23.34477732527883
571,-18.48707835177115,-15.440035951075181,-19.192140599581652,-22.55140034321178
572,-17.683709776824767,-14.514521185116843,-18.24999525775439,-21.758776041988586
573,-16.97224255285173,-13.654091362563959,-17.3166066558803,-20.984386432287234
574,-16.35828327464371,-12.875933233981169,-16.411468915272,-20.2416804559507
575,-15.841185570135247,-12.192309767644877,-15.551133631190824,-19.539770552270184
576,9.644752037758285e-11,-9.863916938857395e-11,-1.552369011754615e-11,-7.700953667979168e-11
577,2.1867866639430398e-09,-2.0284919027689636e-09,-2.405375427405597e-10,-1.6480789995731926e-09
578,2.2545471188231416e-08,-2.270218265646091e-08,-3.045604201939076e-09,-1.863310576832713e-08
579,1.5195995871607694e-07,-1.6723225024048714e-07,-2.4807009886713378e-08,-1.3943271775891125e-07
580,7.491103610684575e-07,-9.240881172995985e-07,-1.5146576312887657e-07,-7.826779931727102e-07
581,2.8746773862485048e-06,-4.097270609661747e-06,-7.389135222696674e-07,-3.526297891070588e-06
582,8.896946630246937e-06,-1.5233167813972247e-05,-3.007991204277042e-06,-1.3326435154585821e-05
583,2.2595548913731746e-05,-4.899763405894325e-05,-1.0537513092893086e-05,-4.358434433407352e-05
584,4.696063914454979e-05,-0.0001395779680312727,-3.252236006426019e-05,-0.00012627479921210565
585,7.652124550618104e-05,-0.0003586230697839093,-9.009809886316865e-05,-0.00033003537531344976
586,8.007293069806086e-05,-0.0008432896306935719,-0.00022747539135832865,-0.000789504704999819
587,-3.0321437902358912e-05,-0.0018365458169414652,-0.000529994368472328,-0.0017491138727540898
588,-0.0004471686978199769,-0.003741025309582603,-0.0011513826289560943,-0.003623909030263007
589,-0.0015338326648908238,-0.007186583620815357,-0.002352347531763688,-0.007078888445440206
590,-0.0039095231819698106,-0.013110452492916987,-0.0045520411177043755,-0.013126923947726873
591,-0.008552220715382855,-0.022847642811723436,-0.008392916427599794,-0.02324375794210708
592,-0.016917820159338744,-0.03822800405710969,-0.014818193050835324,-0.039496881574131254
593,-0.03107250292962858,-0.06167503579789135,-0.025159790744782272,-0.06468327554609843
594,-0.05383355513394027,-0.09630007144362222,-0.041233329755136584,-0.10246895418835385
595,-0.0889115639274003,-0.14598383635094134,-0.06543564164346204,-0.15752098231281397
596,-0.14104420858102315,-0.21543578924472867,-0.1008390564526195,-0.2356202578019718
597,-0.2161088854091292,-0.31022039555508624,-0.15127538122681694,-0.34374116405505545
598,-0.32119864161101197,-0.43673894634675753,-0.22140094201624344,-0.4900826280930531
599,-0.4646441523683949,-0.6021560678606368,-0.3167325366712563,-0.6840346382958732
600,-0.6559645576224643,-0.814261896351495,-0.44364307522056884,-0.9360652749271194
601,-0.9057322000987793,-1.0812640427637337,-0.6093055772723933,-1.2575159897730788
602,-1.2253404388563915,-1.4115077868408992,-0.8215754593133832,-1.6602972246971763
603,-1.626669244895236,-1.8131280922513382,-1.0888038094115664,-2.156482260118
604,-2.1216497913991113,-2.293642604326306,-1.4195784455781553,-2.757804079687223
605,-2.7217363886815127,-2.8595003310829443,-1.8223945749605435,-3.475067580840019
606,-3.4373014553139356,-3.5156057739728364,-2.305262317918064,-4.317497146920459
607,-4.276976220501863,-4.264842503352748,-2.875263768421439,-5.292046869556328
608,-5.246966070533613,-5.107623259323544,-3.5380772803281464,-6.402706983554238
609,-6.350374702324019,-6.041495387611725,-4.297491065552914,-7.649844800099915
610,-7.586575401120157,-7.060830594682934,-5.154931792490062,-9.029621126699759
611,-8.950670406385798,-8.15662645814636,-6.10903651064628,-10.533523507942558
612,-10.433079678871849,-9.316443686200147,-7.155297638638112,-12.148055393158488
613,-12.019297666520918,-10.524497708884374,-8.285810576696845,-13.85461544550253
614,-13.689850592910412,-11.761915861399705,-9.489151314795176,-15.6295936812338
615,-15.42047767060332,-13.00716247993038,-10.750406875777673,-17.44470117156043
616,-17.182548097581336,-14.23662418470286,-12.051374475411388,-19.267538052998667
617,-18.94371243770133,-15.425337206419934,-13.37093618073345,-21.062391203417494
618,-20.668772838175975,-16.547828674776706,-14.685605222593807,-22.791238983647546
619,-22.320742571092225,-17.57903519353908,-15.970228840112553,-24.41492692024066
620,-23.862052823952766,-18.495255534885235,-17.198821582560573,-25.894466209422674
621,-25.25585450946555,-19.275090418411313,-18.34549331336379,-27.1923975020408
622,-26.467355706939617,-19.900321379370453,-19.385428536606693,-28.27415644238205
623,-27.465131482893018,-20.356682698197414,-20.295868599443704,-29.109375407569214
624,-28.222342565273912,-20.634485122261147,-21.05704602926591,-29.673057997954604
625,-28.717802933337474,-20.729057370893187,-21.65302075234318,-29.946568889454326
626,-28.936843787901964,-20.640980790187612,-22.072371210715215,-29.918391241573033
627,-28.87193198595239,-20.376103482932802,-22.308699514338528,-29.58461628882209
628,-28.52301392332038,-19.94533214380615,-22.360918816841743,-28.949144159872784
629,-27.897570128879195,-19.36421192597507,-22.23330293773857,-28.02359033689185
630,-27.01038077802435,-18.652316147521116,-21.93529230403596,-26.82690740277701
631,-25.883017179446636,-17.83247772127542,-21.481065484561118,-25.384745810511404
632,-24.543087996376602,-16.929902141891983,-20.8889005261711,-23.728589483490502
633,-23.023280391469214,-15.971207162992892,-20.18036348672165,-21.894711461964416
634,-21.360244592366488,-14.98343663548125,-19.379371743190468,-19.923001093676692
635,-19.59337526392759,-13.993095320506262,-18.511186053889332,-17.855717192662084
636,-17.763544598408547,-13.025248038231029,-17.601387718361817,-15.736221146924773
637,-15.911840334884328,-12.10272067610997,-16.674895700940933,-13.607740363830894
638,-14.078357214766308,-11.245432919443163,-15.755073730323298,-11.512206145712117
639,-12.301083210942288,-10.469883727104198,-14.862969725351165,-9.489201728117862
640,-3.770278037846255e-10,-9.748380269302166e-11,-1.3588576241985336e-10,-1.2254925043205952e-10
641,-8.114751157928105e-09,-2.0394169261253993e-09,-2.164586720208564e-09,-2.370870004751749e-09
642,-8.738590657006686e-08,-2.274568633011643e-08,-2.5115954369200337e-08,-2.706733254763668e-08
643,-6.217234554461934e-07,-1.6763204777486954e-07,-1.8707795819346763e-07,-2.0175041290286605e-07
644,-3.3004090991962913e-06,-9.260097006697184e-07,-1.046999060442377e-06,-1.1258526088141519e-06
645,-1.3994892561417171e-05,-4.102690491248012e-06,-4.700558559227793e-06,-5.029131592244212e-06
646,-4.9559419888567e-05,-1.5237610622689917e-05,-1.7684128047734947e-05,-1.8792473222267374e-05
647,-0.00015132136050190784,-4.895582008700305e-05,-5.750887775874565e-05,-6.061903626652447e-05
648,-0.0004081831176306366,-0.00013930847292781083,-0.0001654530857462542,-0.00017284427650093086
649,-0.0009916881717103208,-0.0003576310978613728,-0.0004288216296087305,-0.00044381381003546436
650,-0.002204389933906935,-0.0008405914833395253,-0.0010159320919869632,-0.0010417368410906868
651,-0.00454187883973889,-0.0018308590594751375,-0.0022265395633684192,-0.002262930915605105
652,-0.008768073595725113,-0.0037322237075101084,-0.004559318473886467,-0.00459599408275053
653,-0.01600266772624754,-0.007180120283264219,-0.008796669901041556,-0.00880234256124728
654,-0.027818602323495027,-0.013127449208705837,-0.016105717605821194,-0.01601231647309138
655,-0.04634600569236259,-0.02294434784882099,-0.028153056905157164,-0.02783472911739446
656,-0.07437733926394618,-0.038529109402060106,-0.04722949792194198,-0.04647625091087216
657,-0.11546667474450797,-0.06242571095045774,-0.07637950908718127,-0.07486531733446782
658,-0.17401415174596235,-0.09794139233874213,-0.11952803822247485,-0.11677324270159421
659,-0.2553248660151472,-0.14925553992324203,-0.18159484003182128,-0.17692294298505656
660,-0.3656301599134121,-0.22150901581844887,-0.2685836409108633,-0.2610733222333427
661,-0.5120591361807139,-0.3208613649326599,-0.3876309939266215,-0.3760653583063507
662,-0.7025495818612422,-0.4545023884874164,-0.546998282654818,-0.5298147887174602
663,-0.9456902714257426,-0.630604687505706,-0.7559905862600849,-0.7312365287302562
664,-1.2504904147928582,-0.8582051505093895,-1.0247883619818285,-0.9900878862069178
665,-1.6260764555419505,-1.1470060431545006,-1.3641820202115102,-1.316721287048441
666,-2.081321317531916,-1.5070903062908123,-1.785205169988609,-1.721742389031918
667,-2.6244163523788524,-1.9485507269234055,-2.2986691044568484,-2.215575716339277
668,-3.262401320589579,-2.481038586465753,-2.9146085845765346,-2.8079468382208312
669,-4.000672373252316,-3.1132438930449835,-3.6416567663618165,-3.5072971840587446
670,-4.842491969448668,-3.85232596577299,-4.486374841885986,-4.320154461746043
671,-5.788527871633284,-4.703319474643397,-5.452569214046571,-5.250488020452689
672,-6.836450527057131,-5.668546503938512,-6.540635216457893,-6.299084025639478
673,-7.98061867867769,-6.747069265103884,-7.7469709295665785,-7.462979588962983
674,-9.211881305886191,-7.934220256469891,-9.063506827072766,-8.734997446303638
675,-10.51751974326501,-9.221246606845096,-10.47739628100141,-10.103422816952554
676,-11.881347378839457,-10.595102837916121,-11.97090791375324,-11.551861156340715
677,-13.283976280875033,-12.03842128545309,-13.52155330991439,-13.059309354033907
678,-14.7032509350876,-13.529682008513701,-15.102472768558401,-14.600463527681876
679,-16.11483939576409,-15.043594434796127,-16.683088017805613,-16.14627432026859
680,-17.492962132802905,-16.551691657406952,-18.2300147093113,-17.664746208279418
681,-18.81122953130738,-18.023125838603676,-19.70820995454735,-19.121961739611468
682,-20.043551237558543,-19.4256403837015,-21.08231230263604,-20.48329594023602
683,-21.16507489600535,-20.726682326172018,-22.31811479064903,-21.714771481994642
684,-22.153108523849276,-21.89460764999878,-23.384097624233437,-22.784492683509953
685,-22.987979989696928,-22.899923929025125,-24.25293710416919,-23.66408695345291
686,-23.65378907308865,-23.71650941187445,-24.902902795937113,-24.330076688820192
687,-24.139012547993108,-24.322746022756956,-25.319056241842013,-24.765103474977305
688,-24.43693043351652,-24.702505929117216,-25.494171881513648,-24.958930069474512
689,-24.545851337271248,-24.8459372900921,-25.42931383384626,-24.909154134103286
690,-24.469125913410178,-24.75000421449502,-25.134020062823065,-24.621580781708047
691,-24.214949208168463,-24.418748225549155,-24.626067084345703,-24.11021811940574
692,-23.79596444818232,-23.8632528698133,-23.930812540394406,-23.39688020692688
693,-23.22869183919588,-23.101308606355573,-23.080138237388216,-22.51040400477145
694,-22.53281522869998,-22.15679080973882,-22.111041102568844,-21.48550956292195
695,-21.730366279663855,-21.05877867067153,-21.06394236035677,-20.36135439513761
696,-20.84484976879084,-19.840456088797147,-19.980804368489455,-19.17985217365537
697,-19.900354776593137,-18.537846549077308,-18.903158440541112,-17.983841206882904
698,-18.9206949266544,-17.188441823156932,-17.870154275969877,-16.815198469976714
699,-17.928616482081637,-15.829788710660312,-16.9167415376146,-15.712999448299271
700,-16.94510626120068,-14.498098730793576,-16.072086471236158,-14.711822318559753
701,-15.988822693348144,-13.226942747281226,-15.358311739747815,-13.840287084100439
702,-15.075663914801238,-12.046086269047318,-14.78962693857347,-13.119906711049268
703,-14.218477522544491,-10.980512149423394,-14.371892139570106,-12.564308995308647
704,1.2530056182614346e-10,-6.805367914286743e-11,-4.1712195037691116e-11,-2.6546868455135145e-11
705,2.6897190355516464e-09,-1.4606607767894973e-09,-7.642497198863695e-10,-5.606380247508863e-10
706,2.8198265386276816e-08,-1.6236320116257932e-08,-8.70611466385375e-09,-6.50578012779167e-09
707,1.935432449597183e-07,-1.1937863362868505e-07,-6.518618089019396e-08,-4.9930182895521914e-08
708,9.79573938575509e-07,-6.583126790927282e-07,-3.677358111686816e-07,-2.8781072233969055e-07
709,3.904996083417677e-06,-2.913416814631111e-06,-1.6705449927374301e-06,-1.3323622007823978e-06
710,1.27861555492795e-05,-1.0813974906768232e-05,-6.383202846797321e-06,-5.173559400707679e-06
711,3.539206248584657e-05,-3.47339394568943e-05,-2.1154393155977278e-05,-1.7373985357513246e-05
712,8.451940204505317e-05,-9.882730449335073e-05,-6.220431096887774e-05,-5.1622418500823746e-05
713,0.00017656157105127774,-0.0002536729967926778,-0.00016517059466639064,-0.00013812455126106904
714,0.0003250450445547564,-0.0005960509827456004,-0.00040161422008075636,-0.0003375398370478264
715,0.0005267519385141622,-0.0012974123136156163,-0.0009044644871329858,-0.000762121517040214
716,0.0007388483311725072,-0.0026420751426045543,-0.0019044765977705254,-0.0016053495022483974
717,0.0008463819964979947,-0.005075489729962747,-0.0037792443387502416,-0.003180747697399515
718,0.0006201433649097131,-0.009262171637109212,-0.007115518337432209,-0.005969881954520458
719,-0.0003348171205381948,-0.016152146915155565,-0.012784613005031658,-0.010678833674277627
720,-0.0026394225344880465,-0.02705393848923234,-0.022029556111600727,-0.018301717465830505
721,-0.007208386348511601,-0.043711167315286466,-0.036561303292161396,-0.03018896770671169
722,-0.015323596702249372,-0.06837868887740517,-0.058659734090692986,-0.04811707817792691
723,-0.02871005269031826,-0.10389287656199774,-0.09127327978097616,-0.07435526281014405
724,-0.04961020055017416,-0.1537293509637536,-0.1381090565590955,-0.11172325883061902
725,-0.08085121008749696,-0.22204037893636505,-0.20370357707017758,-0.16363345753117378
726,-0.12589843893353256,-0.31366360447741576,-0.2934628482205288,-0.2341100041370738
727,-0.18888752365629352,-0.43409395219218677,-0.4136602419499696,-0.3277776926223177
728,-0.274627657681931,-0.5894115881166869,-0.5713811588970054,-0.4498145113648451
729,-0.38856972862693,-0.7861607109499097,-0.7744052478239102,-0.6058635150223727
730,-0.5367347791305435,-1.031176544632564,-1.03101974312208,-0.8019021104781356
731,-0.7256003791191418,-1.3313610029923055,-1.3497611903584676,-1.0440695928632553
732,-0.9619448265354148,-1.6934108904164233,-1.7390872889559363,-1.3384566404616092
733,-1.252651606901476,-2.1235060025679786,-2.2069856264331023,-1.6908633425040867
734,-1.604479068707035,-2.626967937328432,-2.7605315411119102,-2.1065350998898325
735,-2.023802482030401,-3.2079036539433377,-3.4054129578131014,-2.5898882709886295
736,-2.5163373257739754,-3.868850624614095,-4.145445370752352,-3.144239504615021
737,-3.086853877275241,-4.610442569865502,-4.982104633226345,-3.77155402646783
738,-3.738894163998519,-5.431115995548926,-5.914108227673318,-4.472228454522437
739,-4.474503081924995,-6.326877827670622,-6.937076701052796,-5.244922831450102
740,-5.293985710324369,-7.291153206779497,-8.043305603961088,-6.0864543997711404
741,-6.195702280649416,-8.31472990007272,-9.221674476890653,-6.9917622549732
742,-7.175910898396331,-9.385811871216868,-10.457713330887987,-7.953947581962382
743,-8.228666229344189,-10.490189497967366,-11.733839049847655,-8.964389070155573
744,-9.345780180993254,-11.611528029595435,-13.02976470120577,-10.012927813993723
745,-10.516848225247756,-12.73176949369416,-14.323074450986374,-11.088111104342937
746,-11.729342521946363,-13.831636792541582,-15.589946203484836,-12.177480530718482
747,-12.968770700879741,-14.891222571537567,-16.80599379125594,-13.267887141529917
748,-14.218897387875364,-15.890639979334228,-17.947191154462594,-14.34581527793269
749,-15.462024404783794,-16.810708010753828,-18.990833171100608,-15.397697151711892
750,-16.679324754347974,-17.633641021682287,-19.916482401268606,-16.41020217630677
751,-17.851224645670275,-18.34371044534128,-20.7068486786874,-17.370488266797185
752,-18.957826810150483,-18.92784686578631,-21.34854970703302,-18.266406526659058
753,-19.97936736511141,-19.37615247163968,-21.832705732018304,-19.08665562889513
754,-20.89669763737694,-19.682297491251084,-22.155329743976516,-19.820887436956998
755,-21.691781536570243,-19.84377935370428,-22.31748596158215,-20.459770597460164
756,-22.348198010714057,-19.862029765536885,-22.32520277638787,-20.995023489172333
757,-22.851636733134086,-19.742362257000778,-22.189140972144767,-21.4194314866726
758,-23.190373610882773,-19.493760588901946,-21.924032891498285,-21.72686543814197
759,-23.355711168188304,-19.1285162693791,-21.547922325664572,-21.912318108888872
760,-23.342367434506365,-18.661730909627277,-21.081247299361976,-21.97197285690108
761,-23.148795771299763,-18.110705913187026,-20.545817761287275,-21.90331405919731
762,-22.777417467242202,-17.494247746357143,-19.963746753312385,-21.705282235025106
763,-22.234749471423566,-16.83192149280007,-19.35639644174248,-21.37846916584023
764,-21.53141170972316,-16.143288269820278,-18.74339925783681,-20.92534050329278
765,-20.68200200457569,-15.447163130240993,-18.14180942367147,-20.350466276388175
766,-19.704831364789626,-14.760929138394951,-17.565431699755244,-19.660734102453244
767,-18.621518065005763,-14.099940381928107,-17.024362826021484,-18.865516339846483
768,-3.516794777920708e-10,-9.831373634139706e-11,-1.1309685060803501e-10,-9.55702954430951e-11
769,-7.472024641257857e-09,-2.0222823527842665e-09,-2.3440843259322542e-09,-2.110245293330202e-09
770,-8.000369904598454e-08,-2.2971831585469588e-08,-2.5976134802897588e-08,-2.3930717160370273e-08
771,-5.661452572235459e-07,-1.7132832638358403e-07,-1.9000038989407905e-07,-1.794488273949624e-07
772,-2.991735617912503e-06,-9.575172713147797e-07,-1.0407757418496332e-06,-1.0076383042636055e-06
773,-1.2642559648814433e-05,-4.288161303388992e-06,-4.5685556536397205e-06,-4.532461183332022e-06
774,-4.467702048459802e-05,-1.60795177545619e-05,-1.6797908468344373e-05,-1.706430575160153e-05
775,-0.00013634279970539846,-5.208473887782151e-05,-5.339488470535556e-05,-5.5476127859271736e-05
776,-0.0003682348857580379,-0.00014919999744908576,-0.0001502671169537696,-0.00015943258367129794
777,-0.000897433392567846,-0.00038496499505821026,-0.00038149277047509425,-0.0004125645866154091
778,-0.002004977420956155,-0.0009079893605394066,-0.0008870258091198206,-0.0009756468561564512
779,-0.004159694872790392,-0.001981559316946717,-0.001912533991048475,-0.0021343890070695697
780,-0.008099866146567145,-0.004041778387104163,-0.003863484107766668,-0.004363577106448619
781,-0.014933272693500806,-0.0077704529564768575,-0.007375168614530863,-0.008408169794307124
782,-0.026254661418660476,-0.014181689172446124,-0.013399599399004515,-0.015380690165385763
783,-0.044277670534409064,-0.024719899182172714,-0.02330889502697214,-0.026872909568402503
784,-0.07197609303753226,-0.04136557185748147,-0.039012877983367146,-0.04507834324412045
785,-0.11322713315058831,-0.06674366675031906,-0.06308619911961903,-0.07292038745229633
786,-0.17294694980774233,-0.10422777150626754,-0.09889767535486309,-0.11417896653039489
787,-0.25720627621639114,-0.1580312917944039,-0.15073195588548116,-0.1736063893283488
788,-0.3733116285793644,-0.23327514269792263,-0.22389139206092118,-0.25702096181513107
789,-0.52983617773242,-0.3360200328210305,-0.32476430199303363,-0.3713651353964256
790,-0.7365842359078295,-0.4732508868767272,-0.4608449372619307,-0.5247140224367923
791,-1.0044746198728653,-0.6528015633215849,-0.6406906242701194,-0.7262203492249353
792,-1.3453308338392906,-0.8832099957103523,-0.8738030201962316,-0.9859835641145263
793,-1.7715700732047865,-1.1734972210471157,-1.170423347935962,-1.314833902382183
794,-2.295788561062632,-1.5328683102789817,-1.5412358595727618,-1.724026606436417
795,-2.9302475497855087,-1.9703386759778008,-1.9969793970739045,-2.2248469703592235
796,-3.686271969288428,-2.494295218768254,-2.547973381426169,-2.8281331135691707
797,-4.573581520975084,-3.112007840551596,-3.2035714081299442,-3.543730007929072
798,-5.599581453561812,-3.8291125528193817,-3.9715624669942393,-4.379894838717266
799,-6.768646904703631,-4.649092319217383,-4.857546327266698,-5.3426797790590435
800,-8.081440062547141,-5.572785486620414,-5.864315479178411,-6.435323200308167
801,-9.534302857801977,-6.597953836166479,-6.991280682227394,-7.65768378927832
802,-11.118768837958184,-7.718942613815852,-8.233979909743494,-9.005753641290125
803,-12.821236035808477,-8.926463167096113,-9.583710545050394,-10.471285896308716
804,-14.622838041716209,-10.207524876929137,-11.02732152669774,-12.041569718099648
805,-16.499543174067185,-11.545536927420494,-12.547195657196603,-13.699380325901474
806,-18.42250154312958,-12.920592220516909,-14.121442851592041,-15.423124448870933
807,-20.358647027046217,-14.309935748463213,-15.724313466779044,-17.187192258656474
808,-22.271546367361132,-15.68860851432571,-17.326827937457686,-18.962516018859564
809,-24.12247197391954,-17.030246397671444,-18.897605686289733,-20.717324019782787
810,-25.87165999403296,-18.308002096561687,-20.403863539662236,-22.418066580158264
811,-27.479701874162288,-19.49554837356859,-21.81254246409417,-24.030479755400435
812,-28.909006848308966,-20.568113170280647,-23.091512094003797,-25.520742654692736
813,-30.125265246100852,-21.50349241866263,-24.210795902019687,-26.856676675165964
814,-31.098838949330155,-22.28298504735154,-25.143756484284637,-28.008930205939485
815,-31.806006213744443,-22.89219694371128,-25.868180592635724,-28.952090975771057
816,-32.22999343612593,-23.321666430434774,-26.36720735457239,-29.665670478341028
817,-32.36173589479442,-23.567272815749917,-26.630050498034226,-30.134910689693662
818,-32.20032253063703,-23.630401254633316,-26.652476069338004,-30.351372123418916
819,-31.75309593922981,-23.517850785117783,-26.437010508894236,-30.31327342222525
820,-31.035397167765748,-23.24148713178013,-25.992869068364286,-30.025565326245285
821,-30.069964445546443,-22.817656746301424,-25.33561011341999,-29.499735154096157
822,-28.88601411202716,-22.266392617040214,-24.48653547007597,-28.753351133204472
823,-27.518049355409183,-21.61045470822362,-23.471869476583418,-27.809368393593594
824,-26.00445694031072,-20.874257648025953,-22.32175907258469,-26.69522966979534
825,-24.385963176683827,-20.082744799292783,-21.069143857427004,-25.44180327336918
826,-22.70402726149612,-19.26027061138265,-19.748548645823387,-24.08220822398522
827,-20.999252175927662,-18.429551932916194,-18.39485180414196,-22.650581084649506
828,-19.309890311816037,-17.61074383226847,-17.042080672295274,-21.18084065932949
829,-17.670513351857476,-16.82068682910807,-15.72228077640248,-19.705505154963223
830,-16.110904528992066,-16.072360980944513,-14.464498616315936,-18.25461190125112
831,-14.655217196930181,-15.374568889396404,-13.29390921355827,-16.854782771288473
832,1.1140079914900537e-10,-8.370165458006032e-11,-1.0947673714332046e-10,-5.172137892836627e-11
833,2.584974159692635e-09,-1.7852653069598705e-09,-1.5877419341549123e-09,-1.1125779161991586e-09
834,2.667783620279098e-08,-1.995861830843019e-08,-1.8338755125369434e-08,-1.2336994193890915e-08
835,1.808916094066713e-07,-1.4732681796949838e-07,-1.3480817916491947e-07,-9.06509525318086e-08
836,9.022195256251749e-07,-8.152089290651093e-07,-7.420345625312503e-07,-4.995725325081152e-07
837,3.5352671463288054e-06,-3.61779045846664e-06,-3.2668398188861566e-06,-2.210060185731508e-06
838,1.1336665380215452e-05,-1.3457203925530483e-05,-1.2029914264536638e-05,-8.204280494103677e-06
839,3.056707215190647e-05,-4.329120704523867e-05,-3.827168300557125e-05,-2.6374886722169302e-05
840,7.050146633741987e-05,-0.00012330514014109438,-0.00010779424141689608,-7.518536863387144e-05
841,0.00014018877102905939,-0.0003167109007150646,-0.00027401781162877053,-0.00019359074431328215
842,0.00023907289175685955,-0.000744436430901377,-0.0006384408587653107,-0.0004569308077196094
843,0.0003384605162875366,-0.0016206470441624263,-0.0013804897372911103,-0.001000546375594395
844,0.00035120581121303175,-0.0033003678527010185,-0.0027984121737969943,-0.0020527059150669577
845,8.750749416031753e-05,-0.006339567737113564,-0.005362189619602768,-0.003978067087219983
846,-0.0008048320036969543,-0.01156702681613553,-0.00977842440178974,-0.00733234232046189
847,-0.0029168097930641177,-0.02016621423057899,-0.01706598688702978,-0.01292809160792991
848,-0.0071714745831245,-0.03376425271177369,-0.028639966816369388,-0.02191061086699541
849,-0.014932721756218752,-0.05452381500664682,-0.0464001849478353,-0.03584170408241495
850,-0.02812639360282892,-0.08523245510501688,-0.07281903752736839,-0.056787736921203695
851,-0.049368254784013674,-0.1293824582644796,-0.11102175428994238,-0.08740685338604742
852,-0.08209101091140626,-0.19123291876008908,-0.16485042842412692,-0.13102874967483266
853,-0.13065997830915288,-0.2758446365386923,-0.23890176204639046,-0.19171913265863616
854,-0.20046461220220205,-0.3890778470308813,-0.3385277608855042,-0.27432013058897403
855,-0.29797139656394667,-0.5375430380185567,-0.4697888161085363,-0.3844576134643468
856,-0.4307230683981155,-0.7284963806201588,-0.6393498969736658,-0.5285067154901113
857,-0.6072699135191516,-0.9696736848453851,-0.8543129620856442,-0.7135078795665846
858,-0.8370208456404261,-1.2690602176932742,-1.1219822192024362,-0.9470274872079907
859,-1.1300051530635822,-1.634597975761345,-1.4495633694410983,-1.2369596076284626
860,-1.4965403578308119,-2.0738367762665577,-1.8438032168921867,-1.5912685961154998
861,-1.94680766436726,-2.593540449084448,-2.3105815719046547,-2.017676122936094
862,-2.4903436890525605,-3.1992640955940668,-2.8544727703853368,-2.523300516405219
863,-3.1354649035534483,-3.894922463033693,-3.4782989698592828,-3.1142606972205793
864,-3.8886488060279523,-4.682372630291114,-4.182701270712164,-3.7952610212387436
865,-4.753902727391105,-5.561036136792807,-4.965757355914632,-4.569176623974003
866,-5.732156877987731,-6.527586184864693,-5.822675385563909,-5.436661083216705
867,-6.820722105139508,-7.575724468228916,-6.7455930816714105,-6.395799238993662
868,-8.012854158131647,-8.696069461524429,-7.723508052229444,-7.441827775898909
869,-9.297464635783603,-9.876173686275877,-8.74236039210723,-8.56694467129651
870,-10.659014233747834,-11.100681661150746,-9.785281480522885,-9.760225851161795
871,-12.077616670738836,-12.3516331581749,-10.833013933251054,-11.007663412776292
872,-13.52937190693928,-13.608908317623701,-11.864497251106371,-12.292334654705849
873,-14.986935069609029,-14.850802546717865,-12.857602507883422,-13.594705063147162
874,-16.420313224923426,-16.05471049921252,-13.789988288727692,-14.893061609411994
875,-17.797866699919293,-17.19789047847226,-14.640039950597988,-16.16406562287443
876,-19.08747638553029,-18.25827405164487,-15.387846049574724,-17.38340764088579
877,-20.25782466446413,-19.215281158189406,-16.016160133755108,-18.526540564094848
878,-21.27972640883216,-20.05059903117888,-16.51129355828983,-19.56946265154223
879,-22.12743880806911,-20.748884057215516,-16.86388576818627,-20.489518695555716
880,-22.77987549748693,-21.298349258615097,-17.069502728421348,-21.266186251564314
881,-23.221652180528654,-21.691206114215714,-17.129021689360364,-21.881814015478433
882,-23.443897757223823,-21.923937488420833,-17.04877094533996,-22.3222811701684
883,-23.44477633888544,-21.997387919378713,-16.840406049855044,-22.577549519591784
884,-23.229680609676652,-21.91666777558224,-16.520518346469736,-22.642084257571113
885,-22.81107495492379,-21.690878144111565,-16.10998675093388,-22.51512410251006
886,-22.207986792978026,-21.332673099894905,-15.63309859021816,-22.200787172785404
887,-21.445165500374316,-20.857684616004573,-15.116479161478544,-21.708005291583007
888,-20.55194870120187,-20.28384229088306,-14.587881720048252,-21.050286219565066
889,-19.5608938946829,-19.630624908582497,-14.074899119387075,-20.245310292616104
890,-18.506248105522797,-18.91828336133636,-13.60366450102702,-19.314374654328113
891,-17.42233856894656,-18.16707453794676,-13.197610640974576,-18.281704285701387
892,-16.34197273873107,-17.396543425034192,-12.876355376652398,-17.17365403602176
893,-15.294935605981461,-16.624886031130107,-12.654774010384145,-16.01782972511919
894,-14.306666277346817,-15.868419145462658,-12.54230915241485,-14.842159180150915
895,-13.397184467890163,-15.141174886098007,-12.542554926345481,-13.673945969895263
896,-2.9352207889077664e-10,-7.279476378248334e-11,-1.9739796169530023e-10,-7.896922994359442e-11
897,-6.0978290139463225e-09,-1.3064931627971056e-09,-4.356486079251909e-09,-1.3881191971691866e-09
898,-6.44901325142362e-08,-1.4912631208939414e-08,-4.804661330303245e-08,-1.6103978640292715e-08
899,-4.501746110880601e-07,-1.1116325412860228e-07,-3.5069520360718567e-07,-1.2160383368981364e-07
900,-2.3447939892430875e-06,-6.221528053461675e-07,-1.912325351513249e-06,-6.885813491396455e-07
901,-9.761829238237245e-06,-2.7948081979861876e-06,-8.336524222152259e-06,-3.1243839659778083e-06
902,-3.397844835420335e-05,-1.0530804332182822e-05,-3.0359952721832122e-05,-1.1869926909282612e-05
903,-0.00010215460609569886,-3.434159620307056e-05,-9.530268801305198e-05,-3.89579741125891e-05
904,-0.0002719851838388455,-9.921719330776218e-05,-0.00026403779706450127,-0.00011308619827580407
905,-0.0006542187578694753,-0.00025862033178418643,-0.0006577614565492099,-0.00029571353099711744
906,-0.0014449083465870656,-0.0006170922565152553,-0.00149576509292008,-0.0007069495539212153
907,-0.0029694415478405908,-0.0013638739229906872,-0.003143894791366988,-0.0015638593239507967
908,-0.005740466957695158,-0.0028194426402474828,-0.006171964215729086,-0.0032331899410197873
909,-0.010531370928608955,-0.005496003166230803,-0.011417485758777365,-0.006299513098638104
910,-0.018465749517863724,-0.010171852561559714,-0.020052774466764848,-0.011648477917602356
911,-0.031121574606589472,-0.017978290080226215,-0.0336524814354935,-0.02056344890898695
912,-0.05064682146775436,-0.03049640770966592,-0.05425850653471008,-0.034832344431437096
913,-0.0798813810660881,-0.049859669483022784,-0.08443872361454965,-0.056860005393090975
914,-0.1224780678198293,-0.07885660192136275,-0.12733499949266677,-0.08977981370802218
915,-0.18301345335070288,-0.12102617281265672,-0.18669484648196374,-0.13755650079615
916,-0.26707738030760086,-0.1807366359876566,-0.2668801107143025,-0.20507022997340704
917,-0.3813286964122048,-0.2632370060544712,-0.3728457772092593,-0.2981703810151712
918,-0.5335041928908554,-0.37466926204330775,-0.5100826037561343,-0.42368643787894256
919,-0.7323678965121733,-0.5220292173729434,-0.6845190479889398,-0.5893833663674198
920,-0.9875887955087446,-0.713065042925001,-0.902380753002389,-0.803850162808932
921,-1.3095370659130077,-0.9561048163804218,-1.1700093588357956,-1.0763129426328986
922,-1.7089923089171368,-1.2598081733249025,-1.4936460678571073,-1.4163679785295418
923,-2.196762311186595,-1.6328419406989287,-1.8791886312610233,-1.833635267328281
924,-2.78321708257328,-2.0834852362907106,-2.3319327789780164,-2.3373391760982947
925,-3.4777498617860854,-2.619175522978773,-2.8563103526207705,-2.9358290322029754
926,-4.288183923525945,-3.2460130953452024,-3.4556365521863204,-3.6360586858408643
927,-5.220150937511132,-3.9682470285090012,-4.1318780561854656,-4.44304961644521
928,-6.2764727304852395,-4.7877703008816885,-4.885452747957276,-5.359366632299116
929,-7.456582847628877,-5.7036552242944545,-5.715070777379012,-6.3846382702164135
930,-8.756026652845085,-6.711762085609938,-6.617625877666981,-7.5151552988187476
931,-10.166078607987473,-7.804453711384601,-7.588145072367018,-8.743580020846476
932,-11.673512886094379,-8.970446247311212,-8.619803664287335,-10.058796152180832
933,-13.26055867357667,-10.194821684250382,-9.704010119095242,-11.445923864820191
934,-14.9050642874758,-11.459220582622692,-10.830561792181655,-12.886517155653628
935,-16.580884539206266,-12.742224293929613,-11.987867567560034,-14.358951295936832
936,-18.258493938865232,-14.019925179399216,-13.163228128809438,-15.838997158129592
937,-19.90581509519788,-15.266671522979758,-14.343159856021327,-17.30056737963238
938,-21.489237887806222,-16.455961816289594,-15.513745248330272,-18.716607446258973
939,-22.97479146102714,-17.56145173571376,-16.660991820030333,-20.06009379575741
940,-24.32941867524133,-18.558027357140624,-17.77118245309783,-21.305091909362908
941,-25.522292462128856,-19.42289079096884,-18.831202515433027,-22.427820890017802
942,-26.52610684231761,-20.136600176655378,-19.828831813883784,-23.407667858822236
943,-27.31827311617981,-20.684005304739635,-20.75299201235522,-24.22809595303181
944,-27.88195420740317,-21.055023248843057,-21.59394233105845,-24.877393819667784
945,-28.20687698189244,-21.245205189347878,-22.343418385396024,-25.34922198223863
946,-28.289873030008778,-21.256055750080847,-22.99471131564389,-25.642921844996522
947,-28.135112290399345,-21.095079030594608,-23.542687166950085,-25.763565738154078
948,-27.75401028768321,-20.77554031478664,-23.983749775019355,-25.7217405851663
949,-27.164807641777205,-20.315948241823946,-24.315753876856487,-25.533072668863216
950,-26.391838741025502,-19.73927807229551,-24.53787832303871,-25.21751570739985
951,-25.464524063176377,-19.071971631860443,-24.65047164802839,-24.79843811992635
952,-24.41613677362384,-18.34276266521459,-24.654883508346412,-24.301557076361664
953,-23.282408087637634,-17.581386881076302,-24.5532954561054,-23.753775940383235
954,-22.10004634913294,-16.817243170039273,-24.34856318630857,-23.181987424175485
955,-20.90525074694632,-16.078075745733,-24.04407995383268,-22.611906827902043
956,-19.732301424729034,-15.388745927450243,-23.643667605734276,-22.066998057644568
957,-18.612303554564807,-14.77015692363365,-23.151498016264306,-21.567549951966562
958,-17.572154388374674,-14.238385673227786,-22.57204407441244,-21.129952353336634
959,-16.633790161850136,-13.804063323532331,-21.910056129928577,-20.766211095510513
960,-6.995476819912485e-10,-7.091165424660653e-11,2.964891787916634e-11,-8.2297794877868e-10
961,-1.5276584871700305e-08,-1.3318519760378754e-09,5.244664804050501e-10,-1.790513115242972e-08
962,-1.7285752230882672e-07,-1.5017348867502153e-08,5.820224563475474e-09,-1.9963018458644302e-07
963,-1.294712161906207e-06,-1.1111710769984637e-07,4.203904946501251e-08,-1.473197052305607e-06
964,-7.274391665320023e-06,-6.172926787769193e-07,2.2786175424563359e-07,-8.149594209123974e-06
965,-3.2791066996363344e-05,-2.752653934405523e-06,9.909453369952197e-07,-3.6162176319613116e-05
966,-0.00012387981679903845,-1.029465183292444e-05,3.6140849383603118e-06,-0.00013451107929120262
967,-0.0004045172750260907,-3.3310656026090904e-05,1.140758066444648e-05,-0.000432741708636573
968,-0.0011684544544170862,-9.545072974689044e-05,3.19051605665178e-05,-0.0012327150126478156
969,-0.003040026473048649,-0.0002466586212919286,8.053019058168063e-05,-0.0031668011818444036
970,-0.007228646501448788,-0.0005832751640739227,0.00018613622992452259,-0.007445402103182064
971,-0.01589841948810186,-0.0012773378436250536,0.0003986840668796782,-0.016213800521273327
972,-0.032667450808965715,-0.0026164413254345913,0.0007990812505709144,-0.03303213352480835
973,-0.06324246705682612,-0.005054901207965142,0.0015109135489281618,-0.06348382634602164
974,-0.11618434932643124,-0.00927619751336994,0.00271346058616386,-0.11590795879301466
975,-0.20378918345411645,-0.016265773928990753,0.004655029203379111,-0.20224010700210765
976,-0.3430566939178187,-0.027392178339940395,0.0076652531990152204,-0.33893385670795423
977,-0.5567027878695887,-0.04449322724496004,0.012164604932501431,-0.5479209090173701
978,-0.8741553786395962,-0.06996237838538011,0.01866896937011847,-0.8575513103260426
979,-1.3324537037432171,-0.10682892236062236,0.02778680064764524,-1.303437621714148
980,-1.9769529994011643,-0.15882414083851853,0.040206202047306,-1.9291097188580537
981,-2.861721535753997,-0.23042443578923738,0.05666931572293832,-2.7863732379088235
982,-4.0495091543501625,-0.3268618154084664,0.07793173571669233,-3.935257739464375
983,-5.611168822579271,-0.4540921728306778,0.10470527486006949,-5.443443342570591
984,-7.624427512636903,-0.6187126548926574,0.13758332792156466,-7.385068855748952
985,-10.171930346256213,-0.8278211920598398,0.176949279372609,-9.838850826752546
986,-13.338521330596292,-1.088814028735509,0.22286991361585437,-12.885480580163685
987,-17.20777290929669,-1.4091208084052207,0.27497755169606464,-16.604313035925752
988,-21.857832116615274,-1.7958812513984959,0.3323465326373755,-21.069413914432154
989,-27.356709877887717,-2.2555723765884896,0.3933714750155813,-26.34508731847121
990,-33.75719798933352,-2.7936001542495412,0.45565625432937495,-32.4810599486465
991,-41.091651369203525,-3.41387403212999,0.5159236098261084,-39.50754763805203
992,-49.36691723339908,-4.118386581917234,0.569955591199266,-47.43047074874865
993,-58.55972417293824,-4.906823278514714,0.612574599370625,-56.22711365461377
994,-68.61285903285228,-5.776228879820402,0.6376735650897074,-65.84253656490424
995,-79.43245461704396,-6.720756805871595,0.6383019235432744,-76.18704232592017
996,-90.88668384809893,-7.731526127941924,0.6068115664250484,-87.1349742990148
997,-102.80610500597265,-8.79660717023851,0.535063946670173,-98.52507299774047
998,-114.98582899419154,-9.901151286427119,0.4146959911502063,-110.1625495752412
999,-127.18958635375066,-11.027673262772804,0.23743850643787429,-121.82294626593301
1000,-139.15566385069928,-12.156486342828268,-0.004523467851378547,-133.25775224332736
1001,-150.60456446819953,-13.266280588271137,-0.3181630468556157,-144.2016345501757
1002,-161.24812849424399,-14.33482584194303,-0.7092149226685082,-154.3810354087372
1003,-170.79974590089182,-15.339771653402543,-1.1817907576694044,-163.52378738808582
1004,-178.98520001952548,-16.259508861653906,-1.7380288385942455,-171.36931439911513
1005,-185.55361698624284,-17.07405168439785,-2.377800166418778,-177.67892606639694
1006,-190.28796011829635,-17.76589560783285,-3.0984915305008434,-182.24568095432016
1007,-193.01450673433047,-18.320805405113326,-3.8948830944792294,-184.90329364025354
1008,-193.61077836476477,-18.728489408899406,-4.759133844331979,-185.5335928395598
1009,-192.01146283414798,-18.983120720883925,-5.680883223397158,-184.0721014825156
1010,-188.21196491824853,-19.08367321272691,-6.647471637452045,-180.5114015062277
1011,-182.26934538473105,-19.034049604877833,-7.644276374402019,-174.90206083564138
1012,-174.30054876418123,-18.84299007767117,-8.655152939930495,-167.35103072835292
1013,-164.4779695787493,-18.523762057243925,-9.662965133723173,-158.01756028010035
1014,-153.02255572119827,-18.093644196195832,-10.65018095778547,-147.1068127206417
1015,-140.1947866154799,-17.573229267836535,-11.59950641240212,-134.86149636379957
1016,-126.28398330194625,-16.985580883980035,-12.494526081512577,-121.55193334513218
1017,-111.59649957464643,-16.355286957595286,-13.320318492137988,-107.46507438193247
1018,-96.44340174054895,-15.707458170903347,-14.06401550779552,-92.89302216418544
1019,-81.12826608386281,-15.066722137915358,-14.715278063730226,-78.12164630611107
1020,-65.93570683205171,-14.456263453678853,-15.266664751031325,-63.41985816610176
1021,-51.121194902283754,-13.896956570267902,-15.713874546670453,-49.03006587219419
1022,-36.902642948029154,-13.406632703230068,-16.055850145342937,-35.16025241945891
1023,-23.454121486431497,-12.999514070039412,-16.29473407786183,-21.978018441682035
1024,4.709399285102592e-11,-1.5573026627747094e-10,-8.945070222500475e-11,2.4003365599094076e-10
1025,8.728595807672026e-10,-3.1454784708746874e-09,-1.0538596876294418e-09,4.985265764408109e-09
1026,1.3751083223326998e-08,-3.54203261726108e-08,-1.1811874669838611e-08,5.548555676970113e-08
1027,1.2930125132263581e-07,-2.6182989690883586e-07,-8.393039528158246e-08,4.083996845634755e-07
1028,8.708625176870716e-07,-1.4513861656322772e-06,-4.5262064378001733e-07,2.2556533674039384e-06
1029,4.545561903595667e-06,-6.452263634345695e-06,-1.9768906155063195e-06,1.0002433697353094e-05
1030,1.9361305332692506e-05,-2.40393129948804e-05,-7.3227242635887055e-06,3.721695049549181e-05
1031,6.978296484236893e-05,-7.744532687397328e-05,-2.3743078294622907e-05,0.00011988321120606359
1032,0.00021866676038664336,-0.0002208588971971538,-6.89546070537597e-05,0.0003422374328809435
1033,0.000608451613491593,-0.0005678458623337314,-0.00018245969338895977,0.0008817889083188961
1034,0.001529335253082028,-0.001335714786956646,-0.0004455919657437028,0.0020806403674202383
1035,0.0035216495888492068,-0.0029091936424250923,-0.0010143370753894416,0.00454968250206066
1036,0.0075178811379659856,-0.005925478873347838,-0.00216923411700828,0.009310648549357398
1037,0.015027557307828286,-0.011381003373092386,-0.004386132263497899,0.017978639759331574
1038,0.028365769272317643,-0.020758350113421017,-0.008430073742107124,0.032984844144651436
1039,0.050923182869524145,-0.036169744131197765,-0.015472221336798632,0.05783594030979067
1040,0.08747151513987406,-0.060511429367695754,-0.027226828406325045,0.09740303408711841
1041,0.14449343915270974,-0.09762088307710932,-0.046102211932776915,0.15822874060893635
1042,0.23051988203471732,-0.1524261556825211,-0.07535690424329854,0.24883602382202075
1043,0.35645111478052594,-0.23107376758465398,-0.11924979564005579,0.38001671974254436
1044,0.5358314251582581,-0.3410188849921529,-0.18317114612881968,0.5650717433429573
1045,0.7850412918965678,-0.4910594624782056,-0.27373966806345645,0.8199696479641132
1046,1.1233669894220735,-0.6912953143127651,-0.3988494360243143,1.163386600423975
1047,1.5729066561183758,-0.9529941764440817,-0.5676493237885364,1.6165900787698535
1048,2.1582749278837303,-1.2883500812173991,-0.7904375936739425,2.203131578497404
1049,2.9060754485169378,-1.71012478115693,-1.0784559263739453,2.948320679915088
1050,3.844121656236208,-2.2311702718304227,-1.4435713307611384,3.8784638073911673
1051,5.000400750653934,-2.8638391595780046,-1.897841246348552,5.01986523684713
1052,6.401793166406689,-3.619299083865559,-2.4529664255595174,6.397604487544146
1053,8.072579385061928,-4.506776935479446,-3.119646926629389,8.034122150328107
1054,10.032786236908159,-5.532767518339722,-3.9068675248673044,9.94766440927778
1055,12.296444453747974,-6.70024892299075,-4.821148783442153,12.150653908500045
1056,14.869846642650032,-8.00795256141457,-5.865807787750004,14.648069998245983
1057,17.74990875808317,-9.449738982373272,-7.040277456929883,17.43593351747869
1058,20.92274716383396,-11.014130691908843,-8.33953505530941,20.49999882816956
1059,24.36258599448189,-12.684049844484088,-9.753689046744585,23.814757593904112
1060,28.03110432552444,-14.43680158779761,-11.267768770690576,27.342853720542312
1061,31.877318876894872,-16.244333088426302,-12.8617535916685,31.034996263468827
1062,35.838075668710374,-18.073784173152802,-14.510867100431836,34.830436783450054
1063,39.83919408135584,-19.888328815788064,-16.186147759652425,38.65805016894604
1064,43.797270521654355,-21.64828836970297,-17.855290498416565,42.43802463623507
1065,47.622108362633384,-23.312478728014977,-19.483735137204672,46.08412949567741
1066,51.21969872212988,-24.839735836076695,-21.035958651298753,49.506490894076485
1067,54.495636261145776,-26.19054857214271,-22.476910974313327,52.61476897232978
1068,57.35881884929276,-27.32871632362974,-23.77352012414712,55.321597610639266
1069,59.72525238688176,-28.222941792050317,-24.89618320778743,57.546122753102544
1070,61.521764316939006,-28.848268560350917,-25.820156117489834,59.21745931235069
1071,62.6894228433428,-29.187278145319443,-26.52675671881015,60.27788128559053
1072,63.18646467090485,-29.23097251164334,-27.004304127936255,60.68556575269002
1073,62.99055261880589,-28.979284621558854,-27.248730097506378,60.4167289324103
1074,62.10021524288728,-28.441180390008878,-27.263817163856093,59.46702081081837
1075,60.53536206847373,-27.63433893191734,-27.061041056396924,57.85208259957913
1076,58.336817852257,-26.584422626622537,-26.65902036480154,55.60721628120144
1077,55.56487451428718,-25.32397269776785,-26.082602401784772,52.78616492306007
1078,52.29691651304356,-23.89098819208693,-25.36163813466463,49.45905301863024
1079,48.62423045579558,-22.327265079257078,-24.52951875943754,45.709584409387475
1080,44.64815844791352,-20.67658643653631,-23.621560378793692,41.63163805005078
1081,40.475793484009344,-18.982863313939013,-22.673330739222802,37.32543615535864
1082,36.21544151881308,-17.288328144680886,-21.71901321037096,32.89348285142028
1083,31.97208734680499,-15.631878171214089,-20.78989870325901,28.436482849260013
1084,27.843099549933317,-14.047655506467045,-19.91308655051936,24.049448159332798
1085,23.91439378948171,-12.563933906233272,-19.110460980205847,19.818186651389507
1086,20.257244771991516,-11.20236135124177,-18.397991308542135,15.816340426526528
1087,16.925897450108693,-9.9775837619984,-17.785382356506922,12.10310646470261
1088,9.131837299812112e-11,-9.278495412539424e-11,3.07381005082161e-11,1.664704289400096e-11
1089,2.107616883794076e-09,-1.968014681955367e-09,7.847490549098202e-10,3.523133632222375e-10
1090,2.063222608401617e-08,-2.1912447776301006e-08,7.581516134725288e-09,3.5265057005515346e-09
1091,1.3198921599588304e-07,-1.6110414464832739e-07,4.817287644300051e-08,2.3039220335991516e-08
1092,6.132349931124746e-07,-8.879988139283668e-07,2.2233673631129264e-07,1.1014815310027837e-07
1093,2.1989102030933855e-06,-3.925993494229492e-06,7.908263147891908e-07,4.097654380450167e-07
1094,6.281664715850618e-06,-1.454987569912448e-05,2.2232441862961944e-06,1.2266860247839031e-06
1095,1.4419198651787974e-05,-4.663722108382559e-05,4.900456091837839e-06,2.9937765211531604e-06
1096,2.5890197823036243e-05,-0.00013236515858174673,7.770358146326923e-06,5.8737190817699354e-06
1097,3.161718607654131e-05,-0.0003388095586933702,4.733431615332999e-06,8.532312450759116e-06
1098,2.9265761500815974e-06,-0.0007937433544139716,-2.3008734178396023e-05,5.471711363046756e-06
1099,-0.00012563245682867757,-0.0017226140730786912,-0.00012086428058698774,-1.772329508717481e-05
1100,-0.00047925544459844144,-0.003498076428728289,-0.0003835369757294158,-9.178248765635864e-05
1101,-0.001270884772169931,-0.0067026874319509495,-0.0009891243264936742,-0.00027418666234579257
1102,-0.0028334063919977833,-0.012204504060026494,-0.0022472086641971826,-0.0006628776889518579
1103,-0.00565531668405619,-0.021244343373273727,-0.004663268589436696,-0.001413339225515176
1104,-0.010419040333470323,-0.03553227788232968,-0.009021193593227648,-0.0027589921123291053
1105,-0.018040627410221836,-0.05734946819678915,-0.016484721191487268,-0.005034615216759073
1106,-0.02970887125080664,-0.08964967337698679,-0.028717102063007902,-0.008702153167857808
1107,-0.046921139524090216,-0.13615285262401722,-0.04801620169462497,-0.014377827776941783
1108,-0.07151246027482898,-0.20142142212849037,-0.07745963604776299,-0.022858990765830076
1109,-0.10567374634146715,-0.290908272653767,-0.1210515955318424,-0.03514870952901013
1110,-0.1519547658527819,-0.41096491161142074,-0.18385999817934795,-0.05247572074650105
1111,-0.21324787631297873,-0.568798311217395,-0.2721298695228143,-0.07630716043826373
1112,-0.2927496842063188,-0.7723663616970329,-0.39335677245818534,-0.10835141848400978
1113,-0.3938993363076422,-1.03020425304539,-0.5563030576072165,-0.1505486008008436
1114,-0.5202937150518784,-1.3511775657774818,-0.7709399233280555,-0.2050464444902411
1115,-0.6755812651039103,-1.744162183067529,-1.0482998755397617,-0.27416015341422734
1116,-0.8633376295351892,-2.2176561365073524,-1.4002272307076964,-0.36031553314138665
1117,-1.0869277507274744,-2.779333890109523,-1.8390188573203308,-0.4659760091115842
1118,-1.3493603567264432,-3.4355590315501705,-2.376953414412638,-0.5935555675097929
1119,-1.6531415525807807,-4.190876526663905,-3.0257147774124094,-0.7453212564356088
1120,-2.000134544631652,-5.047510226889005,-3.7957238301502954,-0.9232904501824694
1121,-2.391432579658943,-6.004894815604203,-4.69540187690001,-1.1291293918006085
1122,-2.8272520937646846,-7.059273425385058,-5.730398020690034,-1.3640603734309529
1123,-3.3068526677452854,-8.203392368549798,-6.902821287634197,-1.6287851417289172
1124,-3.828489361029036,-9.426322478935944,-8.210525226054889,-1.9234316817474333
1125,-4.389401295510445,-10.713432313944505,-9.646497244761232,-2.247530490602177
1126,-4.9858382427343075,-12.046531964658003,-11.198406132765992,-2.6000249108611366
1127,-5.613124778121671,-13.404197764084309,-12.848358280009341,-2.979318167551682
1128,-6.265759453942399,-14.762278257324652,-14.572905728494577,-3.383357523126718
1129,-6.93754442938024,-16.094571044273582,-16.34333752336408,-3.8097534702804827
1130,-7.621739239472633,-17.37364923897604,-18.126270665278145,-4.255929143392193
1131,-8.311231189346906,-18.571806037979446,-19.884539492616906,-4.719292210444088
1132,-8.998714471392868,-19.662076962192398,-21.578363867628962,-5.197418584914487
1133,-9.676870427507854,-20.619292373031307,-23.166758273621152,-5.688234687957328
1134,-10.338542146448967,-21.421108428969752,-24.609126713740604,-6.190183113910184
1135,-10.976897624914239,-22.04896317158732,-25.866972807720998,-6.702355830866072
1136,-11.585577116936848,-22.488906181410393,-26.90564149327303,-7.224579797879665
1137,-12.15882209837831,-22.73225526047472,-27.695999370113327,-7.7574422100641245
1138,-12.691585222455611,-22.776041678298267,-28.215956428596744,-8.302246355753278
1139,-13.179622240167971,-22.623216202018998,-28.45173407124615,-8.860893938057105
1140,-13.619567736334945,-22.282600775184353,-28.398793788476034,-9.435695218947844
1141,-14.008996725543753,-21.768584521955866,-28.062357413853025,-10.02911402764268
1142,-14.346473877713095,-21.100576857764086,-27.457472353488132,-10.643460131106924
1143,-14.631591497378414,-20.302243960721746,-26.60860159210998,-11.280546333195398
1144,-14.864996238393056,-19.400566776141773,-25.548746382449135,-11.94133160799614
1145,-15.048402869269948,-18.42476826431813,-24.31813722284979,-12.625574261938926
1146,-15.184591485854506,-17.40516410392536,-22.96255427022524,-13.33152029505772
1147,-15.277382837171468,-16.371994136177644,-21.53136034900632,-14.055651629727148
1148,-15.331585197449867,-15.354291361944286,-20.075347083763784,-14.792516641824045
1149,-15.352905553441282,-14.378841440964177,-18.6445064467398,-15.534661515758515
1150,-15.34781787276134,-13.469278777702847,-17.285845358026382,-16.27267549542761
1151,-15.323382175070448,-12.645355984886114,-16.041359315470192,-16.99535635929392
1152,-1.4415921154218855e-10,-7.789326229084742e-11,-1.589158615275448e-10,-5.422354426697593e-11
1153,-3.1963331291067334e-09,-1.6030674879997314e-09,-3.349647078340228e-09,-1.1094291711810768e-09
1154,-3.218060502945092e-08,-1.8056376631914677e-08,-3.79646213190436e-08,-1.2321601687159894e-08
1155,-2.1465693894432392e-07,-1.34306877750384e-07,-2.8312225590557995e-07,-9.020206724829296e-08
1156,-1.063627958102256e-06,-7.494463747104586e-07,-1.5806940184882369e-06,-4.942541396474752e-07
1157,-4.195785406385132e-06,-3.355874485347495e-06,-7.066087497956329e-06,-2.168594614119904e-06
1158,-1.3796709624028287e-05,-1.2600334325572665e-05,-2.6426125463929292e-05,-7.964019052758578e-06
1159,-3.912451036533338e-05,-4.092632860377819e-05,-8.530341376685672e-05,-2.5268318097054115e-05
1160,-9.831807494546977e-05,-0.0001177084545685446,-0.00024331645105702337,-7.095012847286436e-05
1161,-0.00022396905432985558,-0.0003052854972946568,-0.0006246481593113079,-0.00017968787916712993
1162,-0.000471516026183515,-0.0007245015346178255,-0.0014648412945311704,-0.0004168386611761266
1163,-0.0009323874905193849,-0.0015921868901700058,-0.0031762980877531634,-0.0008970405604121902
1164,-0.0017545135312040064,-0.003272466214522536,-0.006433260395503175,-0.0018097507771724917
1165,-0.0031729260866577855,-0.006342970360006653,-0.01227517007011734,-0.003452855032493228
1166,-0.005552604294102422,-0.011676036988832463,-0.022225613538021678,-0.006275221013611038
1167,-0.009444780722135794,-0.02053384674884013,-0.03842262417241844,-0.010928498272876626
1168,-0.015656854412101934,-0.034675106696000636,-0.06375474918238372,-0.01832754657313631
1169,-0.025334870322118397,-0.05646929784540739,-0.10199564683013293,-0.029717677190545487
1170,-0.0400560877585586,-0.08901261926497905,-0.15792780008057192,-0.04674556622994786
1171,-0.061927521556912384,-0.13623766932869905,-0.23744327158496867,-0.07152940828535646
1172,-0.09368474112718217,-0.20300680405549548,-0.34760673039334455,-0.10672275167631155
1173,-0.13878381626206,-0.29517729079879546,-0.49666401633991114,-0.15556555520862256
1174,-0.20147800810910643,-0.4196251654854244,-0.693979131510763,-0.22191536437957296
1175,-0.28686941694018,-0.584214404555156,-0.9498843498217034,-0.3102511588143892
1176,-0.40092443460942273,-0.7976988933542671,-1.2754322701139187,-0.4256424771856368
1177,-0.5504410041402725,-1.0695468580275544,-1.6820447494028383,-0.5736770405955042
1178,-0.742955966069088,-1.4096809636741299,-2.181061110691963,-0.7603414493057502
1179,-0.9865824653045713,-1.8281320462480217,-2.783196095002604,-0.9918517163784775
1180,-1.2897705062457903,-2.3346101959521115,-3.4979260517867297,-1.2744333940163346
1181,-1.6609881814463412,-2.938003294668644,-4.332829245701761,-1.6140546646010994
1182,-2.1083268187622357,-3.6458197275041284,-5.292912366007655,-2.0161197437854352
1183,-2.639040065317791,-4.463598412959962,-6.379959964682486,-2.4851339695747465
1184,-3.259034140849623,-5.394315075561109,-7.591946354700061,-3.024355721108557
1185,-3.9723332689423954,-6.43781836058754,-8.922550360437379,-3.635453523586101
1186,-4.78054986621064,-7.590332479358288,-10.360812100465381,-4.318189055623532
1187,-5.682393064215093,-8.844064122907971,-11.890967510579314,-5.070148014366838
1188,-6.673251378961213,-10.18694999846395,-13.492490270540447,-5.886540668221304
1189,-7.744885591037712,-11.602577290775708,-15.14036194757504,-6.760092253928842
1190,-8.885265767847407,-13.070302584575064,-16.8055795277329,-7.681040052188935
1191,-10.07858161246977,-14.56558550803527,-18.455895595916164,-8.637249058848111
1192,-11.305448025571025,-16.060541982713495,-20.05677130697334,-9.614451889083696
1193,-12.54331821571314,-17.524709105723087,-21.572507388810507,-10.596611314732403
1194,-13.767105146201525,-18.926000115845362,-22.967505195853168,-11.566396139652076
1195,-14.949998844280083,-20.231814515657124,-24.207599415333153,-12.505753486606611
1196,-16.064452714417797,-21.410256249120334,-25.261397164726084,-13.396553508359732
1197,-17.083297616443573,-22.431402874832305,-26.101555316832858,-14.221276512431139
1198,-17.980929571413796,-23.268561833498733,-26.705929221081686,-14.963707950795955
1199,-18.734506893824513,-23.89944684793659,-27.058531609626815,-15.609604077319203
1200,-19.325086314892246,-24.307208601257187,-27.15025013047697,-16.147290668341643
1201,-19.738625926515013,-24.481259183493606,-26.97928489930271,-16.568159269295926
1202,-19.96678606352227,-24.417839181696667,-26.551282616146484,-16.867030053431847
1203,-20.007467764780433,-24.120289250510496,-25.879159909781894,-17.04235741395716
1204,-19.865041879992454,-23.59900385382311,-24.982624563793856,-17.09626346464996
1205,-19.55023924330192,-22.871062692098274,-23.887418359564652,-17.034395041100275
1206,-19.07969236736291,-21.959554004077965,-22.624318901679423,-16.865610743882975
1207,-18.47514062888381,-20.89262219305923,-21.22794956676687,-16.601515170975166
1208,-17.76233282282305,-19.702288761401128,-19.73545615607109,-16.255866950728752
1209,-16.96968197245321,-18.423109122164174,-18.185115368031468,-15.84389486781823
1210,-16.12674577045988,-17.090737474905282,-16.614943174668216,-15.38156178680286
1211,-15.262620331780187,-15.740476892459185,-15.061370015286743,-14.884818902121152
1212,-14.404343786328218,-14.405891746715303,-13.558044122987873,-14.368892925077862
1213,-13.575408917085472,-13.11755466531459,-12.134814507432308,-13.847646179225428
1214,-12.794480235884306,-11.90199076084172,-10.816932009677625,-13.333044401053881
1215,-12.074400514295801,-10.780868598793564,-9.624491851386733,-12.8347596617844
1216,5.0933396681252325e-12,-1.0406767744496072e-10,-8.277800576837728e-11,-1.3464412347795824e-10
1217,-4.283856414625401e-11,-2.201412547643395e-09,-1.5884007246227327e-09,-2.827758135244771e-09
1218,-3.384118527706559e-09,-2.4653708509014503e-08,-1.7885911410057967e-08,-3.156501011879791e-08
1219,-4.612063781013049e-08,-1.8207949237101442e-07,-1.3253629647246598e-07,-2.3220937783125037e-07
1220,-3.7170345176338977e-07,-1.0075642740602817e-06,-7.379661771818439e-07,-1.2799685620347422e-06
1221,-2.1500433500682925e-06,-4.469370125833567e-06,-3.3018485339443952e-06,-5.655856130628004e-06
1222,-9.749557728119289e-06,-1.6609022607129256e-05,-1.2404746643925076e-05,-2.093867317146417e-05
1223,-3.651600589433201e-05,-5.3357055804413795e-05,-4.0368791635940364e-05,-6.701591058753668e-05
1224,-0.00011703188046178612,-0.00015171602660166362,-0.0001164716379684844,-0.00018985149499326743
1225,-0.00032943558621010427,-0.00038892935653741693,-0.0003033589515836283,-0.00048489016917920816
1226,-0.000831171118328215,-0.0009122972473189997,-0.0007236469566052455,-0.0011330914211692168
1227,-0.0019105673615411167,-0.001981903747917485,-0.0015997357224171388,-0.0024519087193010463
1228,-0.0040553781780599575,-0.00402773622321412,-0.0033094819488269406,-0.004962361354781031
1229,-0.008038329297909432,-0.007721647387714295,-0.0064596128785129,-0.009471926726172284
1230,-0.015018865561455609,-0.014063438248687884,-0.011977550301417481,-0.0171715272793497
1231,-0.026659328035023657,-0.024479080335889785,-0.02122060104188812,-0.029743524149011578
1232,-0.04525235011947943,-0.04092770913979092,-0.03609925101371853,-0.04947630427743681
1233,-0.07385429586839685,-0.06601245642841808,-0.059208752268116616,-0.07937961859632503
1234,-0.11641725889677755,-0.10308841962840509,-0.09396064136846358,-0.1232931438758152
1235,-0.17790969856856317,-0.15635917011561473,-0.14470360375323837,-0.18597880370224698
1236,-0.26441337860010267,-0.23095137299182256,-0.21682139766932362,-0.27318541656830936
1237,-0.3831822133316787,-0.33295562724980976,-0.3167943632380534,-0.3916726791603778
1238,-0.5426474841945255,-0.4694208999676899,-0.452210336732628,-0.5491809024180668
1239,-0.7523542150923221,-0.6482902438050508,-0.6317106748013305,-0.7543337677527328
1240,-1.0228155090402535,-0.8782670852314912,-0.8648579660916184,-1.0164639100698414
1241,-1.3652751621282335,-1.1686043102496522,-1.1619144113940576,-1.34535526259556
1242,-1.7913735854299402,-1.5288125651429096,-1.5335242702037064,-1.7509014481460603
1243,-2.3127177858048715,-1.968289387258806,-1.9903002993362233,-2.2426855367888106
1244,-2.9403627279225697,-2.4958766530737067,-2.5423223380111324,-2.8294926908590345
1245,-3.684218445912672,-3.119359970263149,-3.19856517820602,-3.5187731924278807
1246,-4.5524041802883515,-3.8449296154433283,-3.9662813549599294,-4.316078834381243
1247,-5.550577009029288,-4.676628004806138,-4.8503713213507105,-5.224500483998168
1248,-6.681267616570174,-5.615813075540115,-5.85277788376354,-6.2441385515475405
1249,-7.94325986881026,-6.660669999114591,-6.971943643706136,-7.3716407397996715
1250,-9.33105342428859,-7.805805013498142,-8.202369833560898,-8.599842262746348
1251,-10.834449128185327,-9.041954581235027,-9.534312743204474,-9.917542152165892
1252,-12.438294819751336,-10.355840336725585,-10.953649981187562,-11.309444936098526
1253,-14.122424238985069,-11.73019528234205,-12.44194278668441,-12.756289888881284
1254,-15.861814162655868,-13.143979462493174,-13.976711999002594,-14.235180626534005
1255,-17.626975109586198,-14.572794118706147,-15.531933867264753,-15.720116769974664
1256,-19.384579252564894,-15.989492524640701,-17.078748012590268,-17.1827174940176
1257,-21.09831599269213,-17.364973938207118,-18.58635467096433,-18.593114741714174
1258,-22.729951791933804,-18.669135158367325,-20.023063532711472,-19.92098234971735
1259,-24.240557472784488,-19.871942896164352,-21.357443883407246,-21.136656948276514
1260,-25.591854445188527,-20.94458044791402,-22.55951686545232,-22.21229800846817
1261,-26.747622066553397,-21.860614796609234,-23.601926369675276,-23.123028575891745
1262,-27.675102168499055,-22.59712593430959,-24.46102547709949,-23.847995775803422
1263,-28.346334176744026,-23.13573932144754,-25.117820063124952,-24.3712915980709
1264,-28.73935559185049,-23.46350514547046,-25.558719457400787,-24.68267998465437
1265,-28.839207891305577,-23.573574275332724,-25.776055165360393,-24.778085661752087
1266,-28.638696647022662,-23.465630162047763,-25.768341925893637,-24.65981292377259
1267,-28.13886600590247,-23.14604784329906,-25.540270144912675,-24.33647776508937
1268,-27.349160943582408,-22.627765003081976,-25.10243429399031,-23.822653265004625
1269,-26.287265388030544,-21.929864959098534,-24.470817324918592,-23.138244813124047
1270,-24.978619916771855,-21.076886695053354,-23.666065424742733,-22.30762756776876
1271,-23.455638450057066,-20.09789178074514,-22.712599298383864,-21.358592546402456
1272,-21.756658128217136,-19.02533136334853,-21.637616443026676,-20.321159108868933
1273,-19.924669399168522,-17.893767536065216,-20.470042780365457,-19.226319562766776
1274,-18.00588354043156,-16.7385115226924,-19.23949129106722,-18.104785553670503
1275,-16.04820184970948,-15.594245644249975,-17.975280286193104,-16.985805392380556
1276,-14.099653999167769,-14.493696566550538,-16.70555539113109,-15.896116393946993
1277,-12.206872136780548,-13.466423780791517,-15.456548178454643,-14.85908686780899
1278,-10.413662310585666,-12.537779899463668,-14.251991746448843,-13.894089148695087
1279,-8.759726429318375,-11.72808873731486,-13.112700528646721,-13.016128864569984
1280,-1.2962554025825063e-10,-8.952781556081696e-11,-3.8792411008453325e-11,-6.259255421623086e-11
1281,-2.7640245461375243e-09,-1.9256430918692023e-09,-7.893920035551566e-10,-1.3048359010994187e-09
1282,-2.7897850569165676e-08,-2.122886625332838e-08,-9.157426225335646e-09,-1.4550075197332417e-08
1283,-1.8576877281992715e-07,-1.548463079077128e-07,-6.99552170590973e-08,-1.0728681965689511e-07
1284,-9.209320084292412e-07,-8.465729349133861e-07,-4.0067501821627e-07,-5.934762427638974e-07
1285,-3.6433061052791727e-06,-3.7127432682493355e-06,-1.8396032652946125e-06,-2.6351728992974088e-06
1286,-1.2055760011049483e-05,-1.3652449211135963e-05,-7.072490124385605e-06,-9.816116298108422e-06
1287,-3.4559158098749294e-05,-4.343745471171784e-05,-2.348406196663822e-05,-3.165249222854527e-05
1288,-8.82601565652855e-05,-0.0001224366656685764,-6.892957872836592e-05,-9.045260452501022e-05
1289,-0.0002054904348964536,-0.00031142817541590716,-0.00018211839976534118,-0.00023330972767929972
1290,-0.0004444154952412489,-0.0007254685919609661,-0.0004394977205152103,-0.0005511899994453447
1291,-0.0009060161198247199,-0.0015664978185758185,-0.000980412389631117,-0.0012069923174773823
1292,-0.0017600194224652965,-0.003166809127680568,-0.002041852292325971,-0.002474103802618874
1293,-0.0032819789492243684,-0.0060438057767354504,-0.00400334288368782,-0.0047864164965854845
1294,-0.0059028057209046005,-0.010965662989958557,-0.00744162594084495,-0.008800084713202858
1295,-0.01027104442250565,-0.019026630142678552,-0.013193894735636142,-0.015466537250922167
1296,-0.017327304480709526,-0.03172969105329726,-0.022427584249367655,-0.026115384045887594
1297,-0.028389381136271524,-0.05107309577862351,-0.03671401460044383,-0.04254479676011604
1298,-0.04524547931701804,-0.07963587619107448,-0.05810233627826483,-0.06711562616639127
1299,-0.07025153364373354,-0.12065595324870367,-0.08918903390090659,-0.10284396345213621
1300,-0.10642707602492084,-0.1780930289217622,-0.13317671473870993,-0.15348517837526815
1301,-0.15754260604092069,-0.25666738515978427,-0.1939143511436468,-0.22360087087568475
1302,-0.22818997018298212,-0.3618652468306545,-0.27591011519596226,-0.31859888911865514
1303,-0.32382586354725423,-0.4999016984426493,-0.38430797497132607,-0.44473582872385503
1304,-0.4507775134026888,-0.6776333722380288,-0.5248205693193405,-0.6090714651139552
1305,-0.616199384605359,-0.9024152243304376,-0.7036133567775684,-0.8193655671557741
1306,-0.8279707510181928,-1.1818985812902436,-0.9271381478950501,-1.0839096072338703
1307,-1.0945262157265434,-1.5237711126503155,-1.2019173474890275,-1.4112890010370154
1308,-1.4246145119035447,-1.935443294512381,-1.5342832837065672,-1.8100755309513772
1309,-1.8269849955563366,-2.4236900843784075,-1.9300799317462416,-2.2884542638587457
1310,-2.3100061060167816,-2.9942607033295117,-2.3943373646697617,-2.853794263320636
1311,-2.881225560313583,-3.6514733421057897,-2.9309324961566348,-3.5121774230623335
1312,-3.546887707618296,-4.397814940826439,-3.5422529392429736,-4.267904556252304
1313,-4.31142869012167,-5.233568593397069,-4.228883608902478,-5.123002213122549
1314,-5.176974388879962,-6.156492275932307,-4.989337387229005,-6.076757273108733
1315,-6.1428694077489565,-7.161572261346529,-5.819851173331883,-7.1253088225549055
1316,-7.205267422100655,-8.240872638841294,-6.714266678395172,-8.261327800044201
1317,-8.356813759513637,-9.38349882982614,-7.664011547150948,-9.473814012197689
1318,-9.586449645031168,-10.575688028940705,-8.65819125371707,-10.748037114508445
1319,-10.879363933072211,-11.801033368215098,-9.683796290823583,-12.065642906902173
1320,-12.217112527743609,-13.040841648355737,-10.726022855946622,-13.40493892925088
1321,-13.577918401607429,-14.274617107029062,-11.768698753008913,-14.74136423911783
1322,-14.937156370326472,-15.480656333643346,-12.794799717095168,-16.048137985276377
1323,-16.268016706240637,-16.636732543720086,-13.787035087162018,-17.297070624342833
1324,-17.542330661538458,-17.72084145021713,-14.728476164999899,-18.459511026108153
1325,-18.731529843033766,-18.71197634291256,-15.603196312161502,-19.507392905633008
1326,-19.80770119323892,-19.590897087946068,-16.396889443233448,-20.41433563586823
1327,-20.744690973732613,-20.340856853327534,-17.097433456122253,-21.15674816378329
1328,-21.519205200361107,-20.948251576879297,-17.695367374584418,-21.714881081283522
1329,-22.111850867497232,-21.40316046751044,-18.184255311647224,-22.073771359847097
1330,-22.508062442838202,-21.69975095992527,-18.56091633619741,-22.22402709876397
1331,-22.698861761641673,-21.836528174119653,-18.82550642549601,-22.16240582640524
1332,-22.681406412073407,-21.816416614569885,-18.981446507088467,-21.892149130641243
1333,-22.459291333094885,-21.6466700591574,-19.035198851739104,-21.423048141092817
1334,-22.042579903101693,-21.33861379862358,-18.995902532985177,-20.771227947162913
1335,-21.447553752960523,-20.907231099634814,-18.874886973147273,-19.958653601189507
1336,-20.69618453121025,-20.370612571388055,-18.685090200318196,-19.012375058321215
1337,-19.815345339749285,-19.749292732353535,-18.440414629101923,-17.963542370690366
1338,-18.835793668586426,-19.0655023180815,-18.15505719267752,-16.84623485395851
1339,-17.790970375855796,-18.342367648372047,-17.84285192951429,-15.696158053997886
1340,-16.71566973760209,-17.603089641088463,-17.516661481792166,-14.54926956545663
1341,-15.64464320121862,-16.87013482767152,-17.187849683681986,-13.440398650812027
1342,-14.61120365913537,-16.164469064816885,-16.865861172954983,-12.40192490478595
1343,-13.645897333120717,-15.50486171573227,-16.557926552445828,-11.462577826388062
1344,-5.86256035792838e-11,-7.102891026326534e-11,-1.0048148244909074e-10,-7.680712094847575e-11
1345,-1.2801854296281257e-09,-1.493126458038462e-09,-2.137504138851725e-09,-1.4466800464308623e-09
1346,-1.734074541361234e-08,-1.6599033589345007e-08,-2.4361882827892854e-08,-1.654470727200345e-08
1347,-1.4842156848884519e-07,-1.221494564667455e-07,-1.8283625952886635e-07,-1.2416046965832963e-07
1348,-9.309584911906923e-07,-6.744940948063505e-07,-1.0275013477530633e-06,-6.995694170804468e-07
1349,-4.58798456821978e-06,-2.9905566896283376e-06,-4.6232453509679795e-06,-3.1632950098595786e-06
1350,-1.860803063419611e-05,-1.1127194449558387e-05,-1.7398519660246165e-05,-1.19917669908324e-05
1351,-6.42155377199312e-05,-3.584867839262108e-05,-5.648574841683993e-05,-3.9308973804596114e-05
1352,-0.0001934044553770555,-0.00010237580732291998,-0.00016194101353624192,-0.00011402379376302169
1353,-0.0005187534881626986,-0.00026392838128520206,-0.00041756926764502676,-0.00029799846512371906
1354,-0.0012598631194134244,-0.0006232681470297361,-0.0009828866065800656,-0.0007119101468590324
1355,-0.002809112016266507,-0.001364343993102344,-0.0021380643395859907,-0.0015732077704097675
1356,-0.005818016343940872,-0.002795725280350901,-0.004342764355446249,-0.00324791005643683
1357,-0.011304197821777981,-0.005406844376260539,-0.008308887063412616,-0.006317104448027037
1358,-0.02077772805981406,-0.009937233100946467,-0.015086490750526054,-0.011658005121615972
1359,-0.03638402333513208,-0.017457991126275073,-0.026161312407183272,-0.02053833658809551
1360,-0.06105820670044774,-0.02946365908932443,-0.04356106260901318,-0.034721523378639485
1361,-0.09868302213070898,-0.047971419606740937,-0.06996575621120871,-0.056578591879495786
1362,-0.15423929457650357,-0.07562302202972536,-0.1088148926858673,-0.08920078346158164
1363,-0.2339348819769032,-0.11578300074195583,-0.16440178150754595,-0.13650473819406003
1364,-0.34529536822569845,-0.172624763815942,-0.2419433386283126,-0.20331996360377433
1365,-0.49719784741559847,-0.2511942833378886,-0.34761272189588105,-0.2954464927844229
1366,-0.699828718474891,-0.3574398555190395,-0.48852240139141,-0.41966957618762074
1367,-0.9645479684473569,-0.4981961154954197,-0.6726465737464966,-0.5837182991257138
1368,-1.3036460898610598,-0.6811114212103945,-0.9086740824584136,-0.7961564199941176
1369,-1.7299852220955274,-0.9145098596207731,-1.2057861426639793,-1.0661965113052767
1370,-2.2565229556297375,-1.2071823117324105,-1.5733572593744922,-1.4034325400532652
1371,-2.895725240658896,-1.568105011662756,-2.0205827729888317,-1.8174910996861111
1372,-3.658883790359027,-2.006088651261596,-2.5560422609631024,-2.3176073369735164
1373,-4.555362753242777,-2.5293661362342728,-3.1872141014579904,-2.9121378890019103
1374,-5.5918084329267135,-3.1451323832828812,-3.9199622687578106,-3.608029503866088
1375,-6.771363609050557,-3.8590547684448957,-4.758021315509018,-4.4102680472694225
1376,-8.092933892142213,-4.674777604182293,-5.702509044347587,-5.321337801790579
1377,-9.550557021256557,-5.593447896062093,-6.751498265569147,-6.340724838454241
1378,-11.132926471463954,-6.613292158226684,-7.899679041384344,-7.4645002519166965
1379,-12.823117558211596,-7.729274858104549,-9.13814079019546,-8.685018759295417
1380,-14.598557050275549,-8.932867807779873,-10.454299489361366,-9.990765233566941
1381,-16.43126638152165,-10.211956353746947,-11.831989019015968,-11.36637607223649
1382,-18.288394559057927,-11.550902528537604,-13.251727593276634,-12.792854010152318
1383,-20.13304061760521,-12.930777611651193,-14.69116057060467,-14.247984468737723
1384,-21.925347703595186,-14.32976720050474,-16.125670242128272,-15.706949381363092
1385,-23.623832502749778,-15.723741514417604,-17.529132209703672,-17.14312142063218
1386,-25.186896053135733,-17.086972994013294,-18.874787599389993,-18.529008565240378
1387,-26.574446596072203,-18.39297313342727,-20.136191587344335,-19.837306936454357
1388,-27.74955349358403,-19.615411691432044,-21.288192425310463,-21.0420097845607
1389,-28.680044414562897,-20.729074649996836,-22.30789192954601,-22.119513290736194
1390,-29.339956641123504,-21.710813055584662,-23.175538466569087,-23.049656211088173
1391,-29.710757876108826,-22.54043354646179,-23.87530666501038,-23.816630811593306
