,TP9,AF7,AF8,TP10
0,-0.033687628809599246,-0.06091011772121924,-0.06429746812926368,-0.043292500262933575
1,-0.3290911954569474,-0.2621818014125932,-0.2760774667968407,-0.19342109244030958
2,-1.0392129768921272,-0.6841651646540596,-0.7252356216604678,-0.5501516446797852
3,-2.192992703714387,-1.351827043021004,-1.452194238622834,-1.1939870945518687
4,-3.5956990502994732,-2.222248563868628,-2.427272649223908,-2.1474668255063363
5,-5.25395269028613,-3.195750679535763,-3.54375969322108,-3.3385794202165515
6,-6.838571747997076,-4.27426594843454,-4.808875473888903,-4.783525618315773
7,-8.043908297355925,-5.273291114028029,-5.995189375138454,-6.185242233001364
8,-8.728623309856612,-6.010310510203643,-6.87443107948191,-7.239751379693165
9,-8.89493051888759,-6.404027924987259,-7.344826184612959,-7.805205164137225
10,-8.804758901519756,-6.4824149118403,-7.456828939434855,-7.9341778570111705
11,-8.869689580097589,-6.440179741055042,-7.356519677567934,-7.8389869101830385
12,-8.932913285915914,-6.451075017964472,-7.368620780782841,-7.809232565016016
13,-8.299009998181365,-6.4518392969772576,-7.4667039016093515,-7.875878656684007
14,-6.6813670598029145,-6.160709003844186,-7.285638337428585,-7.733709680600853
15,-4.112144054650475,-5.5107276205998215,-6.664986002125913,-7.2699599113218225
16,-0.9292754021080433,-4.53050096538541,-5.54366437766294,-6.390970061869646
17,2.2667965735091946,-3.365373507633261,-4.029903626137106,-5.110972663916048
18,4.8253574113624165,-2.1909116067499457,-2.342016265941353,-3.535679160452685
19,6.508014302702318,-1.04183126998467,-0.6450062989395355,-1.75872484418134
20,7.2346267851556,0.0927017633853659,1.1354371018424274,0.164342532074632
21,7.252322049298272,1.1813900880323231,2.921547814405455,2.2669501882115086
22,7.194926159720506,2.2141723782016434,4.656458406833467,4.252317262696057
23,7.227050805977511,3.180970313487865,6.274463402013725,5.7562107442389365
24,7.083583030371807,4.067734616004878,7.750911981138044,6.588990383410167
25,6.479449056103281,4.8491510150111665,9.093174946417344,6.8228599671590295
26,5.473191826345723,5.590760994116669,10.171734012311111,6.704558698655902
27,4.25323105624674,6.2326544816130625,10.878189992454493,6.6635063978146984
28,3.0325669588681237,6.697457368441318,11.203450737589014,6.768199681646645
29,2.103959928068041,6.949310523334331,11.21322866192847,6.626335501680586
30,1.41313681939769,7.013692187946861,11.216835345102934,6.227551505671764
31,1.0701467839110652,6.967168949327547,11.262761881338134,5.710195538616212
32,1.0236135089330762,6.9619530224343285,11.162888542049053,5.273067174023764
33,1.0675245845237673,6.99601036474196,10.672183216376064,5.073706075566085
34,1.0266508555381586,6.922062836031525,9.761577814453124,5.160655938958399
35,1.0239116393684697,6.72543626699749,8.536168239486097,5.129465844114772
36,1.36019930715138,6.425397213032825,7.212636111814181,5.048475723162874
37,2.1201277812645296,6.079606650941064,5.9817971309508,5.193294196553688
38,3.265825722238384,5.752053043462386,4.772519910932832,5.711424411222361
39,4.655882180275581,5.465186545490291,3.641780915057761,6.565374941479503
40,6.0975574902960386,5.159830148568925,2.6039084537127284,7.660867264090509
41,7.642841767543462,4.8596466348416705,1.6752704689314817,8.654941208567534
42,9.108518324840471,4.5757739436374125,0.7805152868210047,9.26966696937928
43,10.190936466823363,4.3145413582598735,0.0005685538587819894,9.605857118160777
44,10.748006599668088,4.0836328003942315,-0.5697855013096005,9.685273707125942
45,10.837198151045357,3.8923660840418908,-0.8452313585250497,9.607442504239584
46,10.786112299768158,3.743488091778983,-0.9234180882834563,9.605086045447077
47,10.79200672215945,3.625591045910545,-0.9069352554731955,9.68656152363694
48,10.7587178132601,3.508374467332907,-0.9430979525602273,9.615422060769056
49,10.36357171759571,3.3454431983674104,-1.0850315100075585,9.255603864990672
50,9.585760925799311,3.0880318129309705,-1.2208871386608062,8.47944236269194
51,8.495279556729995,2.6983623673310952,-1.2920668890729556,7.241433443307905
52,7.235505501312436,2.154736143691799,-1.2701698813755062,5.592247900148457
53,5.9249842797700305,1.4525526210585586,-1.3000927736895378,3.626676113018318
54,4.509340810885507,0.6047049772992241,-1.498264489879632,1.339968925002275
55,3.028943304371438,-0.3551127487281204,-2.0099593996314438,-1.100853943266808
56,1.5796561357798156,-1.367591469845737,-2.8560086504305353,-3.5556766952275134
57,0.18486899382947353,-2.3547055100385985,-3.934333483757264,-5.805705616161685
58,-1.2270055468068746,-3.2446894636750097,-4.926922497333754,-7.526765333612133
59,-2.7428658756706725,-3.998828802145717,-5.616564580032614,-8.551210826576273
60,-4.3523118815879975,-4.609116053723245,-5.94732924481079,-8.947064446748977
61,-5.943801286030861,-5.138113011605915,-5.957038151673613,-8.930620540764316
62,-7.428423865695934,-5.5699724444402605,-5.949415336990578,-8.885979407907776
63,-8.60730702701435,-5.870430355548482,-5.987136727290399,-8.922113755324268
64,-9.366593637533258,-6.026915082567818,-5.896727352472687,-8.862028901570339
65,-9.720462468016315,-6.0640633720147505,-5.467563951501577,-8.51483701263814
66,-9.75866427953782,-6.0320349373620585,-4.6810423629085,-7.8528539062781295
67,-9.73614242812566,-6.030403725085137,-3.6288437739021915,-6.928931990527851
68,-9.751310294186206,-6.061441471551207,-2.4971393502389585,-5.882111062295671
69,-9.712905189785841,-6.019530611086525,-1.4498836050015482,-4.843225777701635
70,-9.385911502099617,-5.85487430412028,-0.42346237865513453,-3.7894768936994585
71,-8.712117675222254,-5.536742304648111,0.5068114720555672,-2.7155802894834444
72,-7.767286460239764,-5.088024863783667,1.4050095349738396,-1.763594971569465
73,-6.7649611807067815,-4.574408658534198,2.189560778448692,-1.0797398038553934
74,-5.995239121378314,-4.0509951283318,2.7583192668596364,-0.7248557277568299
75,-5.519590484863445,-3.4943571772263096,3.062852332894708,-0.6528710754627252
76,-5.335711658057427,-2.9014419216768084,3.1245785617355266,-0.7054343275824785
77,-5.345167858757141,-2.2608730825431325,3.0947953819970695,-0.7135646422226322
78,-5.382414731668058,-1.584787832133594,3.097344446339261,-0.6860128148615557
79,-5.366010444724112,-0.9154774303954015,3.098028819018913,-0.829671965559948
80,-5.2867989546612435,-0.30162332184230867,2.885586437322383,-1.206367012126107
81,-5.177772015618711,0.22697381085934087,2.3949340347499573,-1.8159231991510265
82,-5.15114240589958,0.7120479480773437,1.5890093296563506,-2.554816218928018
83,-5.189887913181638,1.17906641503369,0.5254867329905059,-3.198675803627782
84,-5.132655134627774,1.5819158112343645,-0.4905624936925895,-3.6127323370005358
85,-4.699189193814137,1.8610609900728543,-1.234788678019585,-3.8170243743174237
86,-3.9942036253840336,1.9895392338471531,-1.610795762267955,-3.8456542481583633
87,-3.2712724909853685,1.97773091828353,-1.6429521614158538,-3.815388449488821
88,-2.806812033178009,1.9863436793596883,-1.628083879480306,-3.833065634064538
89,-2.7207445959253556,2.027210884631487,-1.650800608362546,-4.094630295273506
90,-2.766678528925821,1.982830482087118,-1.5672217246529083,-4.530168896097079
91,-2.8217863941491514,1.6371063481678418,-1.1903261086969446,-4.999933905843488
92,-2.838620728212205,1.0690319822984047,-0.4670123035621101,-5.334985207583013
93,-2.914041110225656,0.48837436946536583,0.3839575223203656,-5.41453098939558
94,-2.9894614922391067,0.11137187880799379,1.0554421497276445,-5.397317407339256
95,-2.9723413060941546,0.035199095719823756,1.3600611959251139,-5.447815170050648
96,-3.086361890617505,0.09130475977609932,1.4284922013399521,-5.435949237709362
97,-3.184150650256012,0.09489098624420134,1.3834099086869092,-4.968524662992104
98,-2.9961888927667313,0.0524541843908706,1.3824243269962682,-3.9107824433154392
99,-2.1751774597062656,0.1941693524191339,1.4000577720275846,-2.3378986093981244
100,-0.5813955057980265,0.5673789163921147,1.2266856501884096,-0.5124143713488084
101,1.6970694013661214,1.2592611111380496,0.8128258729796056,1.2917717814431433
102,4.333966210339678,2.0690040320142544,0.16681891834492357,3.0249861268626814
103,6.88381271049522,2.7163536987592485,-0.6224794964521065,4.87784409882841
104,9.455131487962333,3.0501621193448716,-1.436037599446609,6.64059162647937
105,11.607227777752453,3.1204333064258463,-2.2326329655876735,7.999877748527881
106,13.049203122072633,3.109021041833348,-3.0077341783361096,8.7692672763761
107,13.748834205930159,3.107031724355431,-3.799259850948822,8.998486048887044
108,13.871623150202389,3.062839768978432,-4.511678223996932,8.895425914632659
109,13.800290964374229,2.7657988597989203,-5.034443350813886,8.867375336437041
110,13.784590078727597,2.17655682691055,-5.31525418894959,8.953381024566694
111,13.764567103013228,1.4744428723554766,-5.36357289077708,8.833119622605226
112,13.378379735030345,0.9144373617654523,-5.353852640717612,8.430908357364832
113,12.629671080257133,0.6579381764432497,-5.372205723528323,7.794303616826037
114,11.59522282835183,0.6285930679157955,-5.338186989314754,7.088224269001786
115,10.447591780379984,0.6263032894856135,-5.023679116197975,6.5063089122054585
116,9.37524258701377,0.6089588345907965,-4.382600617392144,6.131424030534122
117,8.39235721709082,0.662288309420854,-3.474773128764246,5.778129040054308
118,7.513443056626304,1.0395084509246355,-2.4879246753603446,5.4171181578410135
119,6.730686157527801,1.6449559405378034,-1.5339835986604426,5.018205012054476
120,5.964499192566763,2.256731993179472,-0.7074811226853795,4.58352197133225
121,5.1613820641071415,2.6484903828591926,-0.1231683198501884,4.1240573707982415
122,4.339583946131525,2.730240781112195,0.17698926853886465,3.644432133037569
123,3.5853989138625884,2.6891520954346206,0.24668512376125706,3.116310888756714
124,2.6716445211975555,2.6415687595202937,0.20116150805599037,2.327517433894663
125,1.6705180213066912,2.662663232663735,0.161336531124256,1.3959559040036305
126,0.7786207920733919,2.6639516986304526,0.18420223829389054,0.5663809390119794
127,0.19320049856113694,2.6639516986304526,0.18420223829389054,0.044787529918380836
128,-0.057818318112224376,-0.11273978207830837,-0.027764284514527587,-0.08501039282089118
129,-0.3847471839340062,-0.48274500756685734,-0.11963732746631708,-0.35489124981354875
130,-1.1409672542360911,-1.2717205870461052,-0.31328098283158623,-0.9023825739851589
131,-2.3367944249727923,-2.55340716093687,-0.6289511458011892,-1.705901695456258
132,-3.9035198773900115,-4.221221626490326,-1.048406635168487,-2.7918768490862886
133,-5.577351354262306,-6.37474772081699,-1.6509813280886103,-3.9079277794354663
134,-6.963451072600132,-8.560074482593102,-2.3148198250260372,-4.775161548095434
135,-7.8281138330742515,-10.265527695078825,-2.8697066251892545,-5.250690088095797
136,-8.175422875086248,-11.212878914690062,-3.1991381019775216,-5.35335759363187
137,-8.13439022166893,-11.42034363371121,-3.2699684662313486,-5.294450136480299
138,-8.128511136089214,-11.295106910443637,-3.264864620867185,-5.297190580969029
139,-8.216617043666824,-11.325115890503394,-3.269852889098519,-5.308965372863979
140,-8.098599281557757,-11.386289009722706,-3.211800884724316,-5.03077068294625
141,-7.4691802002897,-10.741436603415027,-2.879094718999317,-4.417002034235029
142,-6.23164647508253,-9.126793252148495,-2.3014270170336877,-3.3693451969645256
143,-4.110177513039355,-6.5303505109195665,-1.591581150829012,-2.1927148686813203
144,-1.6918424405744397,-3.3736145565495335,-0.8940142310537103,-1.2780681962060398
145,0.24868079061790188,0.04621619305972613,-0.27282496053653565,-0.7852182975950304
146,1.4243862975944157,3.09595769026857,0.4245564772700703,-0.7122708999186844
147,1.666963144116288,5.338222558637742,1.2738914315485976,-0.6776616793992519
148,1.6206417323443056,6.508772510637819,2.2935808718287687,-0.6147129300364504
149,1.6615392323780132,6.719123357592689,3.4540598983953945,-0.7771207304978888
150,1.5288718806912571,6.645775189629913,4.68485391468319,-1.640536219035205
151,0.3491509853870952,6.62619689366222,5.895348622801595,-3.2857799830943284
152,-1.9422827233930904,6.516527230402395,7.010132857752224,-5.475684142272144
153,-5.457194815029656,5.6930451185248385,7.981998815446181,-8.060629895217472
154,-9.398620153567398,4.136221163547792,8.81647638848384,-10.38985816489767
155,-12.580442144307758,1.9958440485446316,9.45825228151287,-12.187830015805025
156,-14.59721801652052,-0.044881100138903285,9.865671684169742,-13.174536204848227
157,-15.381040809417163,-1.3689880136956096,10.048054401692054,-13.3254180790368
158,-15.169740290166812,-2.0254045816677118,10.066506174200041,-13.353169443643642
159,-15.182476920214683,-2.060866745669019,10.033794468755998,-13.433623637578052
160,-15.52403901434106,-2.0667448419988617,10.047579912881192,-13.214420737770588
161,-15.101233672347268,-2.1572800949811293,10.069927241623274,-11.822741510699862
162,-13.08557437976733,-1.9705832710336557,9.947832625460242,-9.004167788932708
163,-9.131322539657686,-0.9689927111109469,9.56706584663169,-4.835403192185
164,-3.490446363547655,0.9816793507415844,8.8235011531679,0.24369617561406542
165,3.0690487186014024,3.762162426283151,7.6625056949472174,5.740142581952211
166,9.801081287796997,6.998240792907557,6.077551167773258,11.752702283726535
167,16.96063379883969,10.28830615785813,4.059509273835127,17.89545206384459
168,24.148540038283926,13.612882873399645,1.6086259277634913,24.134636596437574
169,31.53747625301306,16.925994838455825,-1.19824168186785,29.951444883644427
170,38.4230989064325,19.78553501295275,-4.232362736828658,34.47800324930775
171,43.71595487854497,21.787248151943132,-7.271924751644866,37.19749237183866
172,46.795148374585715,22.808136466384067,-10.3349420597397,38.21471515776723
173,47.83798265598464,23.042164647374374,-12.999202008154413,38.042008877300646
174,47.51316205058357,22.829411875415307,-14.870598025677486,37.985070681941174
175,47.46682291801919,22.80589291882962,-15.822315818659346,38.24172968606657
176,47.84941391528637,22.995416836323024,-15.998672010212834,37.87951430731331
177,47.35022070734368,22.802570262480845,-15.912460769963625,36.21766813658864
178,45.20588288628831,22.02250314619037,-15.871754969157134,33.12342371230229
179,41.2087115842625,20.54513508856084,-15.820183689234025,28.911402704493547
180,35.7126588325872,18.48204438274041,-15.322266988218441,24.253025772284907
181,29.51716719219151,16.112655287914293,-14.433188251911421,19.73952355973525
182,23.355456086359638,13.683841201228491,-13.282918492090726,15.115946745578064
183,16.93421051412409,11.051557390308371,-12.056186253236742,10.630211132471581
184,10.668483022183274,8.317995319501527,-10.846819717711613,6.4210590710334525
185,4.799467252342267,5.530132793432269,-9.467300396784669,2.586888870004735
186,-0.5020652320055567,2.7259528502076913,-7.887328554384189,-0.819511881899561
187,-5.099009456964138,-0.05848926597918558,-6.170643856536771,-3.7769584791123085
188,-8.871264784626645,-2.786469668443261,-4.4224857337507055,-6.284524234982685
189,-11.769337745892077,-5.4133208293130926,-2.7675858744407336,-8.360847101864142
190,-13.884699650537616,-7.8772124345112,-1.2780802101064235,-10.05002456561146
191,-15.44070206109243,-10.106225720874862,-0.017219115361118892,-11.419532113144864
192,-16.678132009460494,-12.038441730627248,0.9056946903431815,-12.537869458460065
193,-17.7376273223091,-13.62904986440399,1.4471709442133924,-13.456297946324888
194,-18.661697118056935,-14.916089660536844,1.6608324799931273,-14.224050858841899
195,-19.485325203478787,-15.855987645788769,1.653588942235274,-14.919803440172615
196,-20.284087086694342,-16.428602825184868,1.6600899313861766,-15.664601694454927
197,-21.143656438971348,-16.68486073905387,1.6448497963646824,-16.59172218156113
198,-22.126606871739195,-16.72631084135274,1.5579742026111627,-17.785375083657254
199,-23.287496787351078,-16.683957328543787,1.3932007477210209,-19.25066044644439
200,-24.67531334556938,-16.675525178566133,1.228427292830879,-20.904857886461297
201,-26.422848031039713,-16.720563432671078,1.145840748036667,-22.821890001918195
202,-28.50769737662932,-16.747521264987576,1.1364163260517526,-24.847969578996285
203,-30.47846653620073,-16.755058814946825,1.105961252200799,-26.59506571874702
204,-31.877613876068214,-16.745372403381968,1.085689516222297,-27.748453480420668
205,-32.528657178105206,-16.711700532113635,1.4114564289510618,-28.230433834200536
206,-32.50266363902455,-16.67914261127967,2.2464838246709853,-28.129553211008503
207,-32.53546044503705,-16.68299953810947,3.6006805907703088,-28.174791293824175
208,-32.6920195795422,-16.685796843649296,5.25458583808151,-28.383356695954294
209,-32.41745246707314,-16.60829586756786,6.955666488403939,-28.09419899275478
210,-31.113789845746627,-16.326483520930573,8.374202233097316,-26.732392095276907
211,-28.664849648651995,-15.743135094954711,9.349857072265946,-24.095792876998537
212,-25.312607584959125,-14.800995035564975,9.815995665803346,-20.388470615019425
213,-21.575055044174473,-13.527216240262861,9.902849947461855,-16.173912931111797
214,-17.91738629965601,-11.97034531498522,9.81251700567015,-12.040088865426343
215,-14.17760833020781,-10.171693442162532,9.790499996790693,-7.942346272200913
216,-10.596241598624816,-8.200661567209844,9.850300087701227,-4.194712912445077
217,-7.354720366902521,-6.128524773516391,9.793624231306222,-0.9682290705744567
218,-4.561271161714495,-4.032228107973231,9.596705936712244,1.6660948250024528
219,-2.216993905580318,-1.9899692667320807,9.263741619053844,3.7261719831482174
220,-0.2587219536086648,-0.07122612791530658,8.859611747710186,5.286147489946844
221,1.3893339473170896,1.6722728261618154,8.483557533486014,6.431359606981404
222,2.8173563770183305,3.191468276526814,8.20662019411861,7.353341831323236
223,4.153462257935138,4.524935662271064,7.970558416406661,8.092942658270028
224,5.532773644714261,5.574132328270059,7.752039855719353,8.624171756892238
225,7.006189911353678,6.256685791240756,7.473484582658446,8.924341158403681
226,8.496547230611753,6.57928161618111,7.026446477159592,9.016716943289435
227,9.885104276286867,6.639066014587936,6.310407038573216,8.984694646116626
228,10.956809809977756,6.589306548511021,5.277234541896917,8.940481286363614
229,11.607219052186599,6.562501928843847,3.951824329034131,8.962913001288086
230,11.884178536628061,6.574435581338575,2.4227890407194206,8.963831222907645
231,11.907536433604841,6.5341877319808095,0.8129327099782725,8.973663251004945
232,11.88832290164135,6.478939745716559,-0.734728609580413,8.940888124414471
233,11.885706528860826,6.42973190238279,-2.211213578206132,8.845065706614474
234,11.851566244920546,6.405180048667327,-3.442744129505838,8.741863252046528
235,11.659281510929413,6.401585544534827,-4.282370628405267,8.617144828679935
236,11.298658280254429,6.393541838558074,-4.699605384538769,8.540567899395514
237,10.799042334890794,6.377836086602324,-4.784553026884266,8.524738735197335
238,10.25894844116784,6.372435613658073,-4.720953956903212,8.460560289263205
239,9.786393157829274,6.359803391184767,-4.693442854379758,8.170041444553295
240,9.372504203214866,6.317172214641395,-4.723615981726689,7.568576366134915
241,9.046924759515992,6.2274340472749055,-4.618959556359132,6.606436137577545
242,8.782790155608158,6.089877440075203,-4.410994858233924,5.308063878464151
243,8.572153339991381,5.922066990858163,-4.171257518657591,3.8363213305005557
244,8.433519741233043,5.730789939898009,-3.9898576121283833,2.2489332098333343
245,8.349069187904433,5.493871937825507,-3.9225542105417466,0.6355472568065073
246,8.218668635400942,5.189894745675375,-3.937829937395806,-1.1528303451847335
247,7.904263027367328,4.810899950142549,-3.955574172517566,-2.8738181303662285
248,7.349526054200119,4.376528954139745,-3.952624745179567,-4.208714537053273
249,6.654995498788073,3.9245080265316403,-3.950211227723088,-4.964795243479838
250,5.993279657837675,3.489553234816616,-3.950211227723088,-5.126594991838692
251,5.465845529559757,3.103980705546335,-3.950211227723088,-5.150108297438821
252,4.890946094702532,2.688756709591552,-3.950211227723088,-5.02784082601944
253,4.260027341394312,2.274957110345561,-3.950211227723088,-4.843300367783037
254,3.6753941077510976,1.9350734485101533,-3.950211227723088,-4.447166838979264
255,3.2801873435285307,1.7283585420562093,-3.950211227723088,-4.051033310175493
256,-0.10665321778427311,-0.1198694009315715,-0.0921615296864692,-0.09036347890070845
257,-0.5600868144081473,-0.5024483987343542,-0.3618400932205741,-0.42474207964395383
258,-1.483530497224915,-1.2951543192971107,-0.8352015758880674,-1.1215409616184648
259,-2.9326467278688955,-2.5457390255579453,-1.6577954551128338,-2.3044528321727995
260,-4.710461043024532,-4.1278291177821735,-2.623121895513256,-3.6459352125580233
261,-6.340097038204058,-6.102541042740127,-3.451785054857912,-4.741727197193982
262,-7.443147363931762,-8.064182262365755,-3.95338760420882,-5.348189293525426
263,-7.930622722046604,-9.574277876678806,-4.104160725717631,-5.432240909204093
264,-7.921768291783496,-10.404848597091874,-3.9950577129553935,-5.436420564352728
265,-7.9072257170575915,-10.566373485070166,-4.006218575876394,-5.47052174531298
266,-7.974670666831294,-10.50517679347655,-4.124759483443821,-5.320581908813489
267,-7.823556139905639,-10.537621960177843,-3.939219248445641,-4.581795546861251
268,-7.162223051912241,-10.497294287637795,-3.301255450393765,-3.2512968712000947
269,-5.980354693229073,-9.747068273797304,-2.229175477992958,-1.54938861920526
270,-4.40465798815132,-8.118853226166767,-0.7987473982754504,0.3099072465835658
271,-2.667362447828898,-5.676879543505827,0.5523938254067037,1.907063072350683
272,-0.9625933065279828,-2.7625471982523946,1.4429577674609484,3.154790816490447
273,0.8390643100583809,0.20604414416792483,1.9346686552189265,3.864636839568865
274,2.630846644625724,3.1389539979732435,2.0447503450578117,4.0828247627407395
275,4.352090294500887,5.893757429621101,1.9695062926499383,3.983910838220323
276,5.942158313312365,8.449892419702122,1.975716355211265,3.9720794879188417
277,7.292778496508267,10.532514385117818,1.961224957458923,4.057641647957387
278,8.504881957120181,11.920524278412385,1.7523541575011117,3.9074583733994586
279,9.503171323243158,12.592904119106548,1.4564786957637321,3.4657847509866264
280,10.208314136226532,12.711784616212414,1.1886612518113209,2.826477222220771
281,10.601944191598271,12.614903601866086,1.0873322285104776,2.185046364563294
282,10.695463529522579,12.610500204530489,1.0499912942701948,1.719092629172624
283,10.658468400292136,12.64678139371878,1.0210373777546426,1.5129203213257152
284,10.727507957130214,12.328213490722458,1.086299920374441,1.3693385172939934
285,10.756535509016894,11.562171833663562,1.619674458701784,1.295023869847586
286,10.223395037335484,10.345150923586646,2.7465402077982777,1.2762961233428167
287,8.874347641268495,8.812979461698964,4.425656273348281,1.2878087870610289
288,6.7040308431682645,7.151861479060188,6.376466178388219,1.2970597324061268
289,4.0428159402085395,5.41363519986982,8.577962385972965,1.2912744470960975
290,1.4305499040378218,3.582508090176806,10.736451528234042,1.2912744470960975
291,-0.9068656521252206,1.7383911433864458,12.4132675098132,1.288319149608689
292,-2.88353643227184,-0.010328931218626547,13.353735354319046,1.284054433860158
293,-4.286675122996129,-1.7529050130845651,13.571615301897,1.3106123328585484
294,-5.077540768710866,-3.290655225533661,13.444532442587342,1.3138675760604361
295,-5.365917548867399,-4.404880964506085,13.462989558560805,1.2343398716916898
296,-5.322090536300344,-5.000616080097226,13.541415201458905,1.0613549725711053
297,-5.304788654608503,-5.132278060702532,12.94773065353741,0.7520635241541678
298,-5.375858484310931,-5.041361545179246,11.381083613764325,0.38068646106206655
299,-5.282966396116324,-5.064189275471663,8.772722756284406,0.07020381289322067
300,-4.816312276170718,-5.123831281916583,5.450786483841358,-0.10923971559692587
301,-3.9254529829755502,-4.748786802408451,1.9951195682846075,-0.18430086331163759
302,-2.716933304728061,-3.7684708666586038,-1.1991370838230544,-0.15588736947892895
303,-1.4132147072450294,-2.161370047043958,-3.9954656412624745,-0.1536957516862085
304,-0.16919807156390532,-0.12212961957972113,-6.254839052912363,-0.19823455242163995
305,1.1673088141948074,2.0405693840303174,-8.013406613537736,-0.15296300322014134
306,2.618589665416276,4.113885040226465,-9.371397122593157,0.07000059983996643
307,4.206415592523131,6.263579214207236,-10.429926159740265,0.5227605776898694
308,5.8266713160209855,8.172027958337317,-11.271641941377398,1.173432647419892
309,7.172632814284005,9.54385605519548,-11.950216391681264,2.0095801705211254
310,8.028293160641896,10.261284477702283,-12.68746944075682,2.815354743033302
311,8.38976246001595,10.428688582554088,-13.451785394447185,3.450213437992391
312,8.381423095659752,10.282918909321136,-14.106015054467388,3.7988580219386043
313,8.38018912652538,10.265021361372499,-14.518316197176903,3.8805351333345004
314,8.429525232358472,10.391064268633952,-14.649245474231298,3.8275033582082303
315,8.318766222163184,10.23107518180909,-14.539669184403003,3.8028487147401964
316,7.802903371109108,9.641631485017504,-14.574044601870881,3.827857485594087
317,6.826023182939475,8.548989653878454,-14.724560150237506,3.7476878788800483
318,5.4643595155083435,7.039685967529534,-14.538193684221204,3.5608223718604766
319,3.95914122472502,5.316791136255716,-13.727329223312728,3.293403205536483
320,2.584007792987332,3.5538754288799397,-12.14291292109317,3.0131570996629025
321,1.3442757029388779,1.673963795030049,-9.892929025715942,2.7827478241086343
322,0.3454007121120357,-0.22827818738770078,-7.316530313996852,2.592978619401727
323,-0.46645191985777684,-2.0830842357281982,-4.816158283024334,2.3732271350029825
324,-1.1908967343601327,-3.818878751677057,-2.494689449491436,2.0842854258465944
325,-1.8603402256262849,-5.357928588641199,-0.6323499774132886,1.7015566638231874
326,-2.4216575010071795,-6.7437897012455394,0.6635110820896475,1.2171418845949222
327,-2.8156904574091,-7.865094463440281,1.4677749689057216,0.6220650803297312
328,-3.0502344857830797,-8.621308039557151,1.9837027722261158,-0.09703777273812053
329,-3.196364694596653,-8.997915466119093,2.4184229875607324,-0.9376382883957164
330,-3.325702413892226,-9.068485729254284,2.886227080983429,-1.8707713296459803
331,-3.465337799267232,-9.022924530287316,3.406180247780731,-2.863974784679135
332,-3.635048644749023,-9.013305621688138,3.9603174565384274,-3.9024409524769377
333,-3.9130286096828883,-9.0176610595593,4.539484569352967,-4.9845609827438535
334,-4.4161172341531705,-8.855104109424559,5.14814413640128,-6.097627533701792
335,-5.206479502328254,-8.436239316842295,5.79137671651689,-7.1851217166376244
336,-6.246954238102263,-7.872370795848594,6.450959005177566,-8.154091360473007
337,-7.4668836169565544,-7.368627157073179,7.15704583027143,-8.948596126474166
338,-8.867268307216811,-7.088613720131227,7.81514502448343,-9.617612708634708
339,-10.529671044616112,-7.02051543647526,8.310207335351041,-10.300334784404908
340,-12.509655210725775,-7.071087809483551,8.58504591541037,-11.156426050782912
341,-14.779047627546152,-7.079781385700774,8.663353374079875,-12.325801522924477
342,-17.312354644096878,-7.02275152044805,8.609160389258362,-13.946350383542056
343,-20.193125884119972,-7.1296279237539135,8.619239121371036,-16.17814197627003
344,-23.601288292094257,-7.378127673158778,8.682066352971793,-19.1747466302475
345,-27.681097964000784,-7.678789656466348,8.600336113982936,-23.00446431922424
346,-32.405337318759784,-7.915326469758938,8.27662434494436,-27.595009507193858
347,-37.50189339579227,-7.997256570645121,7.703355814765942,-32.59653297256739
348,-43.41893714036156,-7.966582046205657,6.990396125723062,-38.50412396046778
349,-49.220065461028916,-7.95907115583877,6.315701766812319,-44.3719926333963
350,-53.73635568638305,-7.95186435416777,5.81317746260938,-48.987386649883916
351,-56.28022810373376,-7.8217861677690035,5.415166906823078,-51.617393502736945
352,-56.663030068032306,-7.5675146284598185,5.124077192977539,-52.1342356350748
353,-56.76880246402232,-7.212731767454466,4.920102993233875,-51.99696132997681
354,-57.02516903882834,-6.805978949275083,4.782004300319363,-52.223565852523585
355,-56.399851550232604,-6.382669438235466,4.671960395744195,-52.05650701871872
356,-52.50763359366021,-5.894637173906136,4.522915142642971,-49.00001818384998
357,-44.587972153112794,-5.284562126126061,4.243139930468443,-42.052682460130214
358,-32.878713118053135,-4.510633101649289,3.739353559076503,-31.1110072897205
359,-18.71268334243527,-3.527958752655601,2.949526366615667,-17.25011924487798
360,-3.5822322000398708,-2.308804791030577,1.8647414729402845,-2.0365340491348656
361,12.759650195635183,-0.8626580706286053,0.5289362753789704,14.12264088818015
362,29.537976477367366,0.7678642709652448,-0.9767975019718932,30.708660494469413
363,46.14346372405748,2.519143959649284,-2.5614595055320057,46.95716958672695
364,61.68928384940399,4.312384298527115,-4.153422988984781,62.00604685692891
365,76.38397374123919,6.069925280578084,-5.711150045286761,76.26522184040108
366,88.83206034033323,7.732684133478192,-7.183427877919088,88.25615288174552
367,97.5897909826471,9.261744334162731,-8.603193124329747,96.55338396017945
368,102.21270871370581,10.612713030470442,-9.828034904104094,100.76486075202638
369,103.46722230258814,11.884130485627857,-10.695556837107366,101.72187066655935
370,102.72774980575379,12.971236869760322,-11.148403247562053,100.84041696278892
371,102.60081362223326,13.743647611791765,-11.265991204550275,100.74435441500343
372,103.28719077478785,14.150168153750354,-11.153214587992098,101.51336451730538
373,102.51556625210964,14.228894962577247,-11.208649907970331,100.68440151255697
374,99.4652052279011,14.190987090354149,-11.36174404018271,97.54493736556084
375,93.95385813441038,14.210027141269968,-11.177809392710335,91.88060274895952
376,86.7225686232661,14.206224978820327,-10.339462674856687,84.42709148031929
377,79.11988716153112,13.858289214217669,-8.765921241324227,76.50822156547378
378,72.22024943109446,13.081336510662382,-6.363161010051601,69.149237327986
379,65.62042053328862,11.96083164182908,-3.7140468677087295,61.91674245228241
380,58.765242922275824,10.530636695026743,-1.6143377650349922,53.99138754370326
381,52.3750607118577,9.172916340122457,-0.28591821229722414,46.3021940051105
382,47.48316664931639,8.15234629165068,0.18761344918211087,40.24988454691943
383,44.70817310286187,7.576324868046039,0.11199805765077694,36.73959684955642
384,0.005030172979565678,-0.05997470672335664,-0.001057299449734179,0.10549153020108293
385,-0.0019697011961155586,-0.27989297635279997,0.007818812042761976,0.48923875711895015
386,0.0609466501958989,-0.7929937993168915,0.0032783681272109226,1.2879211648558064
387,0.3413904426279656,-1.7056278896942563,-0.028195325970775873,2.5312633481802784
388,1.0037417262356219,-2.9863496235110842,-0.06416660159637975,4.122440507196915
389,2.143457917023755,-4.784041019723632,-0.08685276565059706,5.915106889954104
390,3.7514271682216718,-6.699351004482729,-0.08892622722119732,7.77770717377575
391,5.766969395073905,-8.238831418067335,-0.06708887068800441,9.59470225828907
392,8.065356646713505,-9.11082914840932,-0.051333836523712706,11.570770872197809
393,10.87038992783508,-9.29962499287488,-0.07322416359984318,13.46348074033526
394,13.69924577545415,-9.208148418016101,-0.04947544323896394,14.93313357805029
395,15.925570714556956,-9.245802893471225,-0.050780809930028925,15.767878864481231
396,17.171135685390112,-9.253306664261508,-0.296984029597282,15.89884240023468
397,17.372145788598075,-8.545069346820771,-0.9521990892159142,15.933977519190366
398,17.37808740408004,-6.956035816274228,-2.1952657853844193,16.04098421294773
399,17.479852024792365,-4.610624867694844,-3.684838932622295,15.837414725993334
400,17.230887293190865,-1.9509012487101383,-4.910159259801193,14.480118218331521
401,15.589208942860726,0.5163687568056797,-5.554514933705811,11.764668620917472
402,12.386536839786174,2.670480229020195,-5.691230436596677,7.923010219046543
403,7.946667800007825,4.579828371250782,-5.604962980411265,3.5742498056050755
404,3.0222859332194822,6.201676603586017,-5.5848859754237985,-0.6856108447028413
405,-1.668419640409246,7.513030876237738,-5.573051439561601,-4.964549001887036
406,-6.223044222222304,8.592571710165723,-5.314638118348502,-9.135981595556812
407,-10.411105602093874,9.411546316263125,-4.906546043689964,-13.032462906280385
408,-13.975091464300352,9.944888276169307,-4.546175378621708,-16.405489962453245
409,-17.04648040361383,10.211078292842975,-4.322574805925177,-19.215719742616866
410,-19.46186311871124,10.260074708309377,-4.203476269676432,-21.287178856570957
411,-21.087060541729567,10.245362279801236,-4.0295840624085155,-22.561577015462323
412,-21.92731700748804,10.243210140868861,-3.895929038531916,-23.14517309452553
413,-22.10295088462726,10.218805987555793,-3.794314961408118,-23.23316485774394
414,-22.027002360959045,10.014293537727454,-3.46135108275259,-23.164097982827126
415,-22.02488818219486,9.624172956316627,-2.5834212396521856,-23.18620000270674
416,-22.022029616221776,9.091907602770611,-0.9583373612113991,-23.19839849571667
417,-21.44491106152369,8.507681632820518,1.3858628467415801,-22.78126625612131
418,-20.15113178868471,7.941093010795158,3.7329793382289083,-21.80585857027294
419,-18.194941231833557,7.338330120349479,5.400744524158104,-20.2842499531595
420,-15.91307737866158,6.675169120474413,6.280660000799942,-18.44090664098789
421,-13.739795518181449,5.929189626713539,6.442874462763364,-16.60496955961
422,-11.821335998586378,5.0873217744414605,6.369397002642323,-14.928521559889973
423,-10.220842164650033,4.167227292592408,6.257210493885082,-13.452571283073611
424,-8.977378916834112,3.2256392131542992,6.187992047152256,-12.188180277351488
425,-8.083126688492396,2.345424853506526,5.971371248088558,-11.042906637615888
426,-7.485206041429903,1.608977403036864,5.75475044902486,-9.868112171722911
427,-7.035247795128891,1.0638260113369078,5.622623665107121,-8.496009219135857
428,-6.509987996672053,0.7216592597551339,5.64130800044227,-6.783970622300891
429,-5.735562871750875,0.5470072587848558,5.6681118420892425,-4.67138034011127
430,-4.70246149905114,0.4793747565678686,5.5882262456596585,-2.2369681320877115
431,-3.541096004376335,0.47368379491937906,5.632526066738401,0.37798190957251687
432,-2.384324879213586,0.4854315495773313,6.07606442482784,2.9818861156971708
433,-1.2771973585926673,0.4709484541309862,6.838786661895463,5.138863080761187
434,-0.21866716866230854,0.3963638687672465,7.6410093882405965,6.544644108619366
435,0.75448868587077,0.24720976159973657,8.182968506034895,7.172054947129384
436,1.5668021357506956,0.019652675095641003,8.272716254235634,7.207616268274119
437,2.192507970836149,-0.2655053287068243,8.310752593894282,7.156072266491274
438,2.70853629961046,-0.5926187968608226,8.327609656881258,7.187143771530861
439,3.2242058715683566,-0.9900893653150229,8.163577291958546,7.125011863079805
440,3.7741475613699436,-1.5084710603011264,7.472357435142567,6.5058693208724225
441,4.303080785496434,-2.197312160599402,6.344664568014587,5.50577815120125
442,4.7468792525290535,-3.0695880275870833,5.074784579244407,4.494741074807789
443,5.1073909066357555,-4.066059858148503,4.058731428702211,3.848390135890715
444,5.430942454253231,-5.1485626335889405,3.5463812288264602,3.7509522036509964
445,5.73054538566502,-6.113081818114092,3.305682465241385,3.788800919910661
446,5.976324223918477,-6.785615194490923,3.222216774372039,3.7744425928009973
447,6.171225614674017,-7.11612401130781,3.06252252383258,3.8090643513465867
448,6.390333951169131,-7.178375205051943,2.6047766724204733,4.315623794089163
449,6.719108191829697,-7.128694718288637,1.7508277418320901,5.3536550383066475
450,7.163378043616456,-7.09746389277688,0.5561929386718623,6.7956260421444075
451,7.627625889473973,-7.1108372882374065,-0.8180089541071452,8.31486919380074
452,7.992930460705661,-7.06837936461906,-2.1909275354045015,9.717140846298992
453,8.29170064938932,-6.999736472386063,-3.43028878463167,10.883283315134777
454,8.547853889009819,-6.944021515054443,-4.45138291901096,11.70681615351609
455,8.764046265258276,-6.900938873681504,-5.1905231787341775,12.135588534240153
456,8.911757617735233,-6.874851294064286,-5.613194068631902,12.238385961496354
457,8.962183559418879,-6.84821812681264,-5.893532424689403,12.162476886117942
458,8.94418017175763,-6.840188160400191,-6.129847098997087,12.131499295807803
459,8.93634551663684,-6.819597588592793,-6.345074124633203,12.186234504172479
460,8.95744293913369,-6.713606499435736,-6.511543526910956,12.127561120373372
461,8.885732424706433,-6.44246515689987,-6.556670860865833,11.920808702495595
462,8.657884491441324,-5.956506079698762,-6.600910427282793,11.533550287438093
463,8.245729357817906,-5.304933794268076,-6.650067362418021,10.992015519542862
464,7.683009544296373,-4.5498453492090425,-6.546594154823715,10.390469535778955
465,7.022943641266435,-3.7437466904227805,-6.04616194221306,9.846495407232869
466,6.285549908696547,-2.887252720694302,-5.200433576333101,9.40359482441835
467,5.394551672654672,-2.011133548425007,-4.242732002356202,9.126779035187013
468,4.49851435964845,-1.1473342974674055,-3.4510137494396855,9.001621043843036
469,3.7987768243029016,-0.32613390690266586,-2.844921625120002,8.946400095528077
470,3.4064794384563575,0.4339754824402714,-2.2952348552018007,8.844164932344484
471,3.360871296234241,1.130044750031701,-1.8155344753565246,8.586268905566067
472,3.418073954762925,1.7732473897586163,-1.50104693800132,8.10406443292469
473,3.402840306842715,2.3708416581592466,-1.4168933685262222,7.384090381564582
474,3.253828288124891,3.0296511843588165,-1.4136983492795079,6.45175644453921
475,3.1095324685154884,3.679056029507481,-1.4354456582291464,5.324012614839348
476,2.9691817751928493,4.195967949799422,-1.5151844380847104,3.9809010076086655
477,2.9775945318764565,4.495004561865339,-1.7515897972627306,2.384595543569516
478,3.0506779447877648,4.5751850087760415,-2.039236648495322,0.518971728949613
479,2.954452320344828,4.531433605124227,-2.274825546460632,-1.5800873140566947
480,2.598114756175765,4.509920581453217,-2.3619849673473876,-3.823155731453303
481,1.860578422779002,4.537188525511946,-2.3246029822715846,-6.047266697294091
482,0.7898381096129748,4.452353589698453,-2.3615692748502903,-8.336739095562786
483,-0.4277107900890812,4.281766320436363,-2.502629712906325,-10.401042543636422
484,-1.6758255121802783,4.085596217446414,-2.715880550558596,-11.916690221488018
485,-2.813504400205826,3.9382558620894486,-2.961919298998479,-12.737013541291004
486,-3.6090990744726175,3.8861751272109277,-3.1735292058529376,-12.953817991779728
487,-4.0056488302592115,3.9055753869854613,-3.2986277225964216,-12.76362565071068
488,-4.068115766886541,3.9207053669640386,-3.354660998823406,-12.792784323807883
489,-4.038614915268845,3.9155587447833033,-3.3691301187850593,-13.01650439273598
490,-4.060730067351007,3.914385385206078,-3.3611567257998605,-12.771455657502255
491,-4.0329159482435175,3.914385385206078,-3.347536782896557,-11.69186448653833
492,-3.6620690108853897,3.9054343368249613,-3.3724795941329297,-9.609124133760316
493,-2.8911519844141362,3.9078938880628673,-3.4168194172060877,-6.764951170694273
494,-1.781543068709816,3.9475440613639403,-3.3408991535332264,-3.528719160827787
495,-0.43810863102513375,3.948753575959683,-2.8984360391642223,-0.5989587130941516
496,0.8767015061344892,3.792774164806062,-1.8377681643069055,1.7186764750259593
497,1.955309729221945,3.3849603970231104,-0.09336461073567737,3.0709665535718647
498,2.647548968541269,2.7105419050052313,2.3105182123367065,3.5333971571907843
499,2.9180827520520882,1.8472822516352234,4.9551959763960225,3.4192681803413865
500,2.8719786134760152,0.9329722103347939,7.1984129198608455,3.3773251576387815
501,2.8731467540279865,-0.040163156198041616,8.614793660778817,3.4944824949723015
502,2.939095163298998,-1.0137932139877368,9.168515225432095,3.359630522057598
503,2.8440013696134985,-1.8127882826198323,9.096907780778983,2.581064344935171
504,2.2887770866625337,-2.3150776896351424,9.061579121444963,1.3599841524940668
505,1.4135998997838253,-2.5082271712329325,9.177952110852926,0.1495987959693582
506,0.5429075291230395,-2.470474187296327,9.003478260595417,-0.6023830747323136
507,-0.0011687820862311682,-2.4865877533598866,8.273421935390708,-0.7325084694449469
508,-0.09921349500837282,-2.485184698571364,6.566588487212567,-0.6403355161553852
509,-0.03493600269165076,-2.3573655324177265,4.334371494641462,-0.5454338499988522
510,0.03624827158594435,-2.1339137301185023,2.3791704813813155,-0.5947758784616894
511,0.0,-1.9104619278192774,1.3031843196529997,-0.5947758784616894
512,-0.17462143978921663,-0.09194357528242261,-0.11729483407236962,-0.14987802950505952
513,-0.5918047939294291,-0.34996217301668975,-0.5641749470163492,-0.5569094757565723
514,-1.2903423396032827,-0.8462912290069263,-1.5182893711152512,-1.3306770965985373
515,-2.160324799404819,-1.5797342970117356,-3.2868479952842637,-2.459059328540713
516,-3.2303072509928192,-2.475721645087014,-5.646375910864668,-3.795651931462293
517,-4.303348720385155,-3.537896724167825,-7.9211973455308975,-5.3158680799543205
518,-5.158127702907426,-4.556672266984688,-9.49979270223193,-6.837919451651532
519,-5.6613182460665605,-5.319607675306401,-10.16934273893199,-8.080796099748
520,-5.782325517783411,-5.724771298836507,-10.088780510203959,-8.85783043579499
521,-5.7435030578273905,-5.7866226722983605,-10.050532973262882,-9.16075170900215
522,-5.750706683088655,-5.777587149147703,-10.19622588306903,-9.073509661027938
523,-5.745573324152532,-5.7857100470920875,-9.94978514217502,-9.110162972924048
524,-5.331119415384111,-5.713700036244467,-8.929714465289118,-9.268864360370284
525,-4.3825405357437495,-5.3119089442400895,-7.120224968947323,-9.061634884250008
526,-2.9275937064513653,-4.559568163964788,-4.777646967124723,-8.077007933912222
527,-1.192870556078209,-3.519173528862918,-2.3370962297795517,-6.130341911647646
528,0.5305477525053288,-2.34170331051116,-0.11089422126963477,-3.2905705911654586
529,2.2204679636448295,-1.1684496396375426,2.1744619654112425,0.13554784527464014
530,3.9248347473660736,0.059681893556061405,4.458633498082816,3.697129634544438
531,5.417975815065128,1.2818586065544342,6.682744434987302,7.791554447263197
532,6.473483322983548,2.4561088518431777,8.962960945310193,11.681036149117993
533,6.99397194342884,3.6301711597742994,11.001329029736029,14.597108010356173
534,7.049031824265843,4.6950043257802365,12.470725832170102,16.166408898166992
535,7.007058406082951,5.491951293495615,13.237822531621031,16.544631703843805
536,7.044482713227247,5.9378924328735865,13.365360545524664,16.229689517648914
537,6.905866984357888,6.073300318070285,13.33918726826123,16.214687276654416
538,6.469116163056015,6.019900580609016,13.347613456217596,16.489523277589445
539,5.9250298371372345,5.999729664767983,13.244635806514669,16.035902032661987
540,5.485197133347741,6.045295224900361,12.540095856826625,14.544498740304398
541,5.3247657779253865,5.989521784201703,11.178830657519695,11.97178276071094
542,5.353401595308871,5.780897479147134,9.28383517194158,8.759654202449301
543,5.420769131633868,5.426670670715844,7.197411585255363,5.369907619507558
544,5.4845629586845845,4.9965246578031595,5.113906169378473,2.57597520164168
545,5.639135690822232,4.592471219098252,3.0224971193197048,0.5014862395732754
546,5.793708422959879,4.280496421396418,1.294410120038762,-0.5672651331378391
547,5.864245221545952,3.996595356207317,0.18034043103989958,-0.811422093470538
548,5.885004914112545,3.744215461455066,-0.2895892809326974,-0.6502027381369914
549,5.924323058347768,3.516094260588817,-0.2540606060529243,-0.6901877002520029
550,5.920863676673426,3.3172488328155154,-0.2330513092432015,-1.1032575840567191
551,5.539724900190946,3.1589606036580666,-0.32666095980702714,-1.498625441783301
552,4.589323386956606,3.0458391865450487,-0.17043278790034339,-1.8381536546373844
553,3.0024179655252454,2.966865523275119,0.5059134709367783,-1.8478712315872368
554,0.9359798527698779,2.8933517063764134,1.8326920610844575,-1.7311420528808719
555,-1.2688108159828173,2.789365275433433,3.5162985014393033,-1.8547479345203701
556,-3.3427077177681124,2.63077811270208,4.977376493457785,-2.504580211424979
557,-5.13129955652169,2.414305766306426,5.787156916140902,-3.572683615300381
558,-6.512773728721948,2.1500996625407325,6.103796821018853,-4.912149148085815
559,-7.445072928947187,1.847636512365292,6.024858148467806,-6.2539105409244655
560,-7.969730630685671,1.5056016997090573,6.018734954758909,-7.255586120459191
561,-8.178866599404573,1.1171922153586624,6.125651971789275,-7.9531178859173535
562,-8.191173256298084,0.6851128051488803,5.967405640987267,-8.279565251746833
563,-8.134205047582858,0.22488675312957127,5.312047304630346,-8.281230727028966
564,-8.152324970244104,-0.24363134709016937,4.115358556676779,-8.296075105756557
565,-8.203863079916964,-0.7010294551070227,2.486081139006101,-8.361195925479922
566,-8.1255101996561,-1.1289639797994149,0.6188422234462723,-8.24146864200726
567,-7.768493762320676,-1.5140783678754022,-1.3051290908012736,-7.638140414916414
568,-7.001426524516127,-1.8537313208826436,-3.635996843855956,-6.4830059722198605
569,-5.79078133121306,-2.1596204295335077,-5.934200549989628,-4.875067424730628
570,-4.223850274357618,-2.4560935209866166,-7.7010098100163304,-3.0589466702202
571,-2.488495833332021,-2.760903099142271,-8.660031749258088,-1.2785277594096498
572,-0.4746474996851446,-3.1265145481404817,-8.843012676515833,0.49849134646929083
573,1.4665396849852232,-3.497281869487657,-8.772507364537683,2.2771588377096004
574,2.945943609180098,-3.7924586089411605,-8.748947536252553,3.827292518009057
575,3.759655315902357,-3.960718733878732,-8.679850922361055,4.922770004071404
576,3.8905944521015714,-4.000727436366196,-8.082071103251943,5.4840959883342695
577,3.9174141954317507,-3.978044139648871,-6.8336639592809885,5.558394161345569
578,3.9577685037017405,-3.974616028148384,-5.1183255732225765,5.561204075403665
579,3.74191322871092,-3.9841033582275847,-3.5069921419648726,5.590405379998681
580,2.716122804262799,-3.903292829764165,-2.4971641197449674,5.465484629548085
581,0.8747892269111276,-3.710437465083362,-2.05223036138399,4.794946728878323
582,-1.5448318846743736,-3.411714978489539,-2.09350048561828,3.5375484214141504
583,-3.7639835319497053,-3.051927054516141,-2.0941031579335987,1.83912917767713
584,-5.136077103372759,-2.686702277476521,-1.9842051949561306,-0.16019253631961827
585,-5.820362141279499,-2.3300213125780713,-2.122026992082361,-2.1208152143508046
586,-5.877223085039395,-1.9673163781364027,-3.058157841291709,-3.822808973705824
587,-5.85531539296044,-1.6076122687062269,-4.5628576763345965,-4.925140687199385
588,-5.88799843486645,-1.2701524690271264,-6.0790152594390054,-5.3723535605211215
589,-5.730401506100878,-0.9845516536045632,-7.043626796686997,-5.32607538740623
590,-5.021594104438412,-0.7688355414574881,-7.188882436214466,-5.282494868493169
591,-3.8187833938343987,-0.6093544300104509,-7.151552453590921,-5.356512799437062
592,-2.215765284479198,-0.46105576487641287,-7.11163698193206,-5.227164394234049
593,-0.7082499922339777,-0.2675531624804732,-7.017394606935552,-4.698085568510531
594,0.2710656464102171,0.012977526477862322,-6.429756844936941,-3.791550230470695
595,0.8174258593733953,0.3942203449861632,-5.391442112787906,-2.675385145704969
596,0.9327746591634833,0.864081826243672,-4.089721385270853,-1.6134377184836126
597,0.8768737008111182,1.3883518640726216,-2.845783345335504,-0.8013351364427782
598,0.8044686393887069,1.9225341979796045,-1.9991028281891199,-0.11989824759636633
599,0.7903458643837423,2.4722975460895844,-1.451166374096269,0.38307132261137744
600,0.7014839164873434,2.959626075167186,-1.2459124513242852,0.7797203541121269
601,0.6126219685909444,3.3097571273669413,-1.2517042420053872,1.0895317834731575
602,0.5667010279202165,3.49378338944157,-1.2479104899019395,1.3080968354781994
603,0.5757370044190299,3.511195762903795,-1.0331862277329336,1.4305573856724871
604,0.5415016383199567,3.5270561107812557,-0.5411655053878495,1.4655332589672962
605,0.5020587970260106,3.556896694026712,0.34863964419696847,1.4464850615617124
606,0.6979815543436887,3.491469717143212,1.4220510742167969,1.4435766345820709
607,1.2737364808951792,3.1457823127130498,2.3116848211596346,1.4599929469818826
608,2.2462468632053096,2.472401873276269,2.837268927669981,1.4130164627100805
609,3.430787817411119,1.52332357920969,2.9700506731039753,1.2786993756044205
610,4.803627539504326,0.45761928025350646,2.9094271832453362,1.0570653019941887
611,6.092296261366075,-0.5442601687822124,2.8972912452192547,0.7986813051864738
612,7.117576880371006,-1.4672565253161376,2.9363650910224757,0.5831415856864507
613,7.7129031626477005,-2.2320344982450235,2.592190272322233,0.4591575937287831
614,7.851632341104699,-2.821806025979543,1.957338430170928,0.40197580999133264
615,7.817246278671405,-3.2871110539649324,1.264367142151007,0.3733523330509383
616,7.8378664740073996,-3.661954305872327,0.7757239865773462,0.3120136744899709
617,7.81741368273632,-3.938780460507699,0.6852590011514902,0.19044379576807002
618,7.2497446637404135,-4.105623871573954,0.661324047429282,-0.054773194150322155
619,5.956663482131331,-4.171564873107846,0.629384434332686,-0.36345670860440427
620,3.991080256765896,-4.155174695365651,0.7935028490508469,-0.639388051469918
621,1.5867388911627365,-4.16655241454787,1.4457832821337768,-0.8119102096671434
622,-0.703613132408253,-4.200171983251109,2.6430690847592646,-0.8541657341136019
623,-2.4682572564030916,-4.148414659997213,4.014698540099449,-0.8520513938741964
624,-3.4956487088302435,-3.928097804210121,5.066051483932091,-0.8496016683037138
625,-3.843146256266156,-3.529304027876576,5.514744849122131,-0.8316013739031698
626,-3.7611378636004558,-3.008334110825871,5.615710314815638,-0.6829705229117053
627,-3.7491131441164347,-2.457721294624294,5.542330961198401,-0.3103084574109045
628,-3.8312799437442653,-1.9379376129740489,5.538765839871702,0.253445496125175
629,-3.669196122876865,-1.3802234348235576,5.5685489038881135,0.8225957943811507
630,-3.1342586369848884,-0.8022473555082296,5.343141614524917,1.2123215464821433
631,-2.195770162293793,-0.13360382136579446,4.8362584928739185,1.3923073832756059
632,-1.1426136817550656,0.5236433786548726,4.10000335715486,1.3785663872802993
633,-0.3514092424657969,1.0353576615749756,3.277800761809033,1.3684151931375266
634,-0.024292646848204015,1.323692542600724,2.5359074637341275,1.4001042389467788
635,0.07330585617084251,1.4023122326090236,1.9372660381296838,1.3322437926460717
636,0.02469137880926043,1.3620312621875144,1.3881480541697604,1.0772313161625888
637,-0.027218789919988856,1.3195260114879444,0.9509598352844627,0.7163569441124689
638,-0.0006424091894602945,1.3416665311418547,0.6617766075639941,0.3857305809870683
639,0.0,1.3416665311418547,0.5160115222940618,0.20590601240217413
640,-0.1560829347349394,-0.08139946206831367,-0.13447557235720287,-0.10245315930068133
641,-0.6060211343378006,-0.35739118546284165,-0.4599920042868572,-0.3803729408126142
642,-1.4494887986558378,-0.944881922272611,-1.060395103903442,-0.9268209237341495
643,-2.638470750531,-1.8790383724299673,-1.9583227734823385,-1.773080969102339
644,-4.140497341973523,-3.141365328204153,-3.1484762687223853,-2.8539817764569335
645,-5.943803408725362,-4.674127521119495,-4.583990322885578,-4.273030663238109
646,-7.6834837701776255,-6.127637849341182,-6.596142658915402,-5.743667482934721
647,-8.987609915725976,-7.1783681638906485,-8.822127050599427,-6.914437278940368
648,-9.663397888899166,-7.697040902186054,-10.69641890964911,-7.575522612100351
649,-9.709705346503924,-7.7295738771638876,-11.820128885618972,-7.739627495578319
650,-9.703992652058579,-7.725047554025755,-12.061946312484396,-7.618300331098182
651,-9.799668792910625,-7.783224341492208,-12.06154570834481,-7.615642715846391
652,-9.616710352573067,-7.646235264002187,-12.078353692977444,-7.711367854883681
653,-8.618965731833956,-6.942295705178455,-11.883289243868761,-7.461836090908213
654,-6.715784398387796,-5.617594695825451,-10.681982440702901,-6.726318441475267
655,-4.126700583250388,-3.8033566547593054,-8.418761556382659,-5.461094452641337
656,-1.3192095367858738,-1.7942138104288234,-5.36059733289507,-3.7799714849643546
657,1.2917144703175274,0.13788203472953298,-2.0663871977761756,-1.8907988468488945
658,3.809135169683353,2.0728520072872865,0.9735650189722413,0.06953299660782941
659,6.063112682810653,3.8879762074351882,3.9323246651121306,2.1273584248472766
660,7.931042546294833,5.51391680768357,6.673950863414278,4.209559723872288
661,9.284495483479258,6.893395188037992,9.39136933686719,6.0244235300637206
662,10.0886340436089,8.062696257572565,11.799323360053247,7.300108920051998
663,10.454079308579445,8.95836212169469,13.548067508311478,7.953402444065339
664,10.567996105946587,9.53333286401238,14.477133836911767,8.111944102552687
665,10.584725268452221,9.805139523059172,14.670929352655312,8.031824113917429
666,10.591145167083512,9.846037842876012,14.580035958212285,7.962079653623141
667,10.61245730573171,9.816130871128104,14.554143381901225,7.995040617094257
668,10.616950070892825,9.821124882534825,14.531889120942342,7.994172469919394
669,10.59319149406638,9.819785578471508,14.01168978826017,7.992525378450134
670,10.57785029479701,9.635795510330432,12.993766062704724,7.986425596891394
671,10.554895299315769,9.218629298705524,11.596439231405142,7.953383404649242
672,10.482652984297285,8.559001364331293,10.057202243276308,7.883918049871335
673,10.314495252683644,7.70704920437349,8.513686677661322,7.795107440264128
674,9.974140879875216,6.733318055626751,6.92811546059165,7.702868698797926
675,9.353501690709555,5.641637554802569,5.520728502054439,7.60219784948874
676,8.353662065261325,4.457195695916716,4.564280571272761,7.448509558945316
677,6.959665245497129,3.2394399519940853,4.140625313469239,7.189716505822526
678,5.247314438441181,2.0430686472865913,4.145437026373729,6.814696343605185
679,3.398560373500556,0.9059874608098879,4.130970073978466,6.347491641845156
680,1.5823897766148893,-0.1539421557018299,4.162875502331236,5.801149614860469
681,-0.3259294816697183,-1.1145350011434418,4.339261417203165,5.158077594914393
682,-2.105846344439251,-2.04618692203387,4.669084560530527,4.408911870346714
683,-3.4644421135316383,-2.8583373242956616,4.998907703857887,3.5920855584415086
684,-4.217842158474901,-3.441720650741837,5.187601972099321,2.776455177771783
685,-4.400830497136993,-3.7500147337113563,5.179688939563836,2.0071828227871746
686,-4.2733234763762376,-3.819659141365485,5.168181255351644,1.2748883186306883
687,-4.236330883796389,-3.767895350415273,5.247303820739247,0.5350863547425937
688,-4.31646800204404,-3.7682793299746766,4.9526139430942795,-0.22801988861043432
689,-4.128319889120595,-3.8032821864865474,4.080528349491479,-1.040877212149937
690,-3.628508784184615,-3.6701356731305457,2.5551132873771216,-1.784055850609962
691,-2.8627363067301714,-3.3213556676006237,0.5458997639871832,-2.3264887360717434
692,-1.9911840918200694,-2.7778507753824195,-1.5889113420313081,-2.615192435538867
693,-1.1893657534526028,-2.150018301098921,-3.543815351991054,-2.6911959719783023
694,-0.46811066258421313,-1.5842100269853394,-5.413228049404756,-2.6455964175183326
695,0.1964705691055842,-1.1575362352009473,-6.9857072051196445,-2.6335738281395695
696,0.6903311999429771,-0.8300592805785518,-8.10152413265643,-2.6728295836632845
697,0.9550397393705056,-0.5944063811039454,-8.711257337978516,-2.648217104358818
698,1.0049260030683838,-0.4023578258921732,-8.890875155391978,-2.464109248316302
699,0.9657863896383231,-0.20289720106519746,-8.805011546873551,-2.1232707485160356
700,0.970541703859413,0.11119314227015276,-8.781435826628105,-1.741023658076366
701,0.979689472082349,0.5144374781986156,-8.853514324578576,-1.458464626332507
702,0.8308728780347786,0.8961515340595874,-8.756319277259081,-1.3539657387826907
703,0.4978978017119112,1.1536891906353406,-8.435995580012134,-1.3874359785075483
704,-0.0019013758266561709,1.2521230925792386,-7.931572174860466,-1.3702636428926924
705,-0.6339104567486739,1.2164076974935676,-7.382456072925109,-1.296140984799329
706,-1.3955941011787214,1.2201811984019844,-6.96446799469067,-1.3770738464198016
707,-2.3391075403087678,1.2697007994834633,-6.760375351174162,-1.8164998491584763
708,-3.467766351315935,1.2006344571842116,-6.611282653060977,-2.7288267754631845
709,-4.655283265988276,0.9210668279571855,-6.462553804922557,-4.061352451305236
710,-5.754670243436356,0.4089547087073236,-6.264077149018292,-5.74266582908616
711,-6.823673066160408,-0.2760523326939687,-6.007568447864298,-7.535235786919593
712,-7.774129824245874,-1.0151430057331015,-5.712001807392911,-9.146185211931149
713,-8.493507964571075,-1.7078597524590573,-5.405540517408076,-10.2403184228931
714,-8.904042098264858,-2.396391783574246,-5.042334018293953,-10.726978758707165
715,-9.009533283588349,-3.0679473522543956,-4.670450109833379,-10.701245466790937
716,-8.926842869145586,-3.661240070065004,-4.369526355278735,-10.702414842605002
717,-8.950287001082241,-4.097424675063117,-4.195817139832455,-10.79007168249088
718,-9.037988072696503,-4.340158505664468,-4.154863055181928,-10.590502519501808
719,-8.80774686049959,-4.415477812731584,-4.171099991554202,-9.811209853872986
720,-8.068117179786986,-4.389946176066817,-4.161550783941378,-8.480908822012033
721,-6.771086140820715,-4.378403616445453,-4.1896242965779775,-6.818154389547492
722,-5.0751191880285145,-4.402367901421311,-4.318982528075322,-5.138804501710053
723,-3.2408850424726605,-4.382624939913327,-4.49157484483165,-3.620882844834695
724,-1.4579761170063181,-4.269272179775385,-4.640282012552834,-1.9830540516521231
725,0.4595672753266269,-4.027867406332832,-4.6586664156291295,-0.2601068135147705
726,2.2233590602551874,-3.6476041305431024,-4.729138509271617,1.4977676449812574
727,3.520941133543146,-3.1466941509517716,-4.805792800740754,3.1938516645754325
728,4.198247731469382,-2.5584294487581727,-4.667251522223574,4.7128400482396815
729,4.340631660853826,-1.888172026040655,-3.9825665829474493,6.034740211332017
730,4.221972153915836,-1.1953998269582105,-2.62583334610724,7.055345236558141
731,4.198794356681869,-0.5459527736162365,-0.6831866220793211,7.709934044620495
732,4.252826370911623,0.024788431995381027,1.5502218286141676,8.014789706731682
733,4.069491281747329,0.4862567540955001,3.896984227651357,8.06373404017389
734,3.7321492185022853,0.8086788614835738,6.0851381986535245,8.007654816329115
735,3.366270060910219,0.9898476064066548,7.666332771539587,8.001500488574147
736,3.1119999086547527,1.0569013098920368,8.474111857269797,8.047173357097444
737,3.0547883250691443,1.0511224724261847,8.58358303727847,7.9549526787081835
738,3.1022581445116724,1.049229468090213,8.567266444349617,7.608571570364333
739,3.107283700861909,1.0471384101311372,8.58123990634395,6.924750336857568
740,3.134116219289175,1.0221964394359506,8.41775394306621,5.9171818625853945
741,3.221033423844915,0.9749264167037344,7.637039723355896,4.672549458926
742,3.3236357972525656,0.9276563939715181,6.292149970963374,3.2838497448178057
743,3.402171874391996,0.906188508171228,4.824257260630804,1.8421489730705238
744,3.4292671425095866,0.8945080263190075,3.7652812851031383,0.4428141049418097
745,3.3873077945419947,0.8875786663845994,3.3765710956782593,-0.693065063596782
746,3.4206670301697555,0.901829133216019,3.326819907010952,-1.409155188157315
747,3.4744336333191237,1.0157768410462018,3.4253890134228673,-1.7136776547675376
748,3.409124737806074,1.240507258741053,3.431560450190885,-1.7427817842712563
749,3.096372056895003,1.5497245545472293,3.3180700132822225,-1.6913606953214062
750,2.46351428905532,1.8426837249015977,3.2131513203644446,-1.711221114367311
751,1.5340402262013386,2.0283630386574405,3.087121790926651,-1.7178002745010728
752,0.42887801987684937,2.1096364813106607,3.1235821554480254,-1.5263379430384558
753,-0.6910783906377154,2.106459194005065,3.2315311053401907,-1.2005677817949252
754,-1.765869582121373,2.116967971455042,3.158850216524231,-0.8620392420792505
755,-2.6398960327728624,2.1443294569712545,2.473414446756621,-0.6388632269858764
756,-3.3465295703735007,2.1075271006527254,1.3149695849351444,-0.6292535522536661
757,-3.881220720989055,1.899210462360546,0.09901932791777016,-0.6188249599883927
758,-4.24647551456132,1.4351177043267347,-0.7212421250499027,-0.4973695130031521
759,-4.455397036611717,0.7282982612729203,-0.9352358136191079,-0.7032325900206686
760,-4.506252365919282,0.001917472170897619,-0.8152832768748207,-1.3041582200166146
761,-4.513168060354284,-0.5113034601679372,-0.797992088974076,-2.0762017567124547
762,-4.527202106243214,-0.769647509503151,-0.8359521451910115,-2.7191240469486964
763,-4.5372200158887,-0.8049232216063666,-0.6695102790604185,-2.9990911500307824
764,-4.158941058598674,-0.7500531304938645,-0.3931069528428146,-2.9030830450682603
765,-3.464711275544739,-0.7318273648661218,-0.1167036266252108,-2.7933023383139504
766,-2.707381424547965,-0.7475923169152163,0.05220951717443601,-2.8421931687996347
767,-2.1722537269428828,-0.7475923169152163,0.06142296138168961,-2.8421931687996347
768,-0.10957415786072558,-0.0573580249117156,-0.10479604975485457,-0.10294565754307394
769,-0.2948464208821784,-0.22283123088241488,-0.48129398771936716,-0.39536036443973543
770,-0.5807751046414504,-0.5498784225833516,-1.2873512013782429,-0.9715997988996705
771,-0.9906267699582482,-1.0510400893611955,-2.5165375006032997,-1.8649866245191893
772,-1.6087379729932314,-1.7031607074976305,-4.290257572290839,-3.051169997857617
773,-2.552288431137613,-2.4512512178502104,-6.1929008548522955,-4.436862957938517
774,-3.8588020733879995,-3.374370453863805,-7.72024132950199,-6.10548492713979
775,-5.4640062487918675,-4.313115318158476,-8.584361618859823,-7.751900770555687
776,-6.974115982214269,-5.060483392021376,-8.795251053430391,-9.019532051043186
777,-8.037410879274736,-5.48861454035715,-8.641453239533867,-9.717206830840375
778,-8.542911375595436,-5.58841217154039,-8.669896040976395,-9.86932837385016
779,-8.562930489279415,-5.534712701509733,-8.795890559125143,-9.765900006046092
780,-8.575683207157072,-5.553681411115472,-8.337492497159523,-9.805026607448783
781,-8.643331777432861,-5.577282327855505,-7.057195418436033,-9.871061126789348
782,-8.492406237486607,-5.255626393057693,-4.971067750623289,-9.3720730296661
783,-7.7108382119795555,-4.482158598883074,-2.440717265993101,-8.07469564060153
784,-6.180140776356909,-3.287279978663696,0.012843959074891442,-5.959114698764881
785,-3.951285281806113,-1.8697396190718505,2.10105109771735,-3.301050970418546
786,-1.2934737621322323,-0.4896695353938786,3.9547563530852097,-0.5177487842916937
787,1.419038366612536,0.745920826828073,5.621580718848543,2.178225201902502
788,4.057316028771567,1.8547074575041667,7.083352163271423,4.81212800737781
789,6.452484973235968,2.7914947147993905,8.19805960265036,7.238472378966753
790,8.327031819920006,3.5450605945837843,8.866992738334138,9.5361083277812
791,9.534927528508469,4.149307746880695,9.119178961277576,11.46750320940559
792,10.120640353332622,4.592410378048525,9.068694082372888,12.80001725593383
793,10.2344498524591,4.868511455928631,9.0718624999397,13.471808510727973
794,10.17873818365534,4.996414693379796,9.147921541019944,13.612993076796094
795,10.146343557370663,5.016397904909037,9.01660412730133,13.510172477860939
796,10.138704877721565,5.0072804223346985,8.506741985895399,13.466075169386155
797,9.86203709181559,4.992339102460599,7.628035008323053,13.510959527150806
798,9.2985894309129,4.979231336773959,6.513864858798961,13.357116449962733
799,8.515547039282744,4.942350671764062,5.362650806168319,13.021834208583845
800,7.723961050021891,4.907957010606976,4.347180509421692,12.57569856631563
801,7.155853845728187,4.8810745423178306,3.2425265061674584,12.15452449109883
802,6.820114820893703,4.865411133980503,2.223370657310207,11.869800446474407
803,6.638052676065139,4.854130071571792,1.470314585704971,11.693264945652349
804,6.447769327457928,4.819515755300207,1.0689433367345968,11.468431274084256
805,6.135786117413839,4.789686291066144,1.021359476689376,11.060774925416432
806,5.692001912581286,4.770524074508394,0.9811688768854692,10.335951985039186
807,5.147302514764905,4.763324842391537,0.9318713303091692,9.207647835493644
808,4.504463602796244,4.758848549363087,1.0838588066246322,7.655988157653234
809,3.7551838254759824,4.758688278926177,1.7706807113684748,5.736304122717152
810,2.9477385457936096,4.756521861340868,3.067390329273717,3.5694844480648036
811,2.192383993881326,4.740931854036925,4.757928474697257,1.3143081940714934
812,1.5796957168561812,4.69426170317981,6.281760174395517,-0.8750963063384641
813,1.1135780629704513,4.593930694188572,7.19026201442483,-2.8871310880451344
814,0.7391645407137029,4.431985912459421,7.603109487041834,-4.660269184575178
815,0.41756322139962354,4.214409713301521,7.585492296324482,-6.154763401619363
816,0.1486108434896228,3.9484396835998643,7.580093644693858,-7.393247831352121
817,-0.0756638275016982,3.6147984899465526,7.648849799496601,-8.306883364748636
818,-0.3206560705222166,3.1740455894990824,7.502639408819309,-8.858710275566427
819,-0.6988450726846167,2.5798454433887956,6.8751747891156425,-9.09667824126787
820,-1.2994350804778856,1.793866565621656,5.739602165580749,-9.123389719170136
821,-2.1363053804757994,0.799104008439314,4.201139608538109,-9.09059584203378
822,-3.1790365806046337,-0.388376962197693,2.4430584811792055,-9.106336463640233
823,-4.377843889763427,-1.687157211434938,0.5859029597882379,-9.111109369098804
824,-5.853840305367431,-3.0894103014172503,-1.5173543732708037,-8.937778548329709
825,-7.352775764582829,-4.411988518856509,-3.7119432235973053,-8.555739961732598
826,-8.540527565238474,-5.425513487628072,-5.787576847507614,-8.00392689092047
827,-9.206498328805635,-6.011554350696727,-7.403214905536759,-7.392638193487112
828,-9.360426496693567,-6.2078714404648085,-8.372260956435673,-6.855380737861174
829,-9.25888452279095,-6.148660511330499,-8.75260311462071,-6.447874013849709
830,-9.232056479723726,-6.128524820260931,-8.734341472146072,-6.168419933097231
831,-9.28001330007965,-6.189408048572706,-8.724615946315868,-6.017363260434737
832,-9.050770707739654,-6.106935492694253,-8.777274582978471,-5.948224148892325
833,-8.496393177572315,-5.784299225847079,-8.689554272046529,-5.8764927000866445
834,-7.642088397428669,-5.215772994912447,-8.144296586223808,-5.697807268254415
835,-6.598503293864861,-4.482714568739619,-7.183605911249359,-5.3147734021656685
836,-5.461137586058074,-3.7300461044371827,-6.132355449971437,-4.659538311168898
837,-4.190688483296863,-3.0723550481158717,-5.3759593069869265,-3.724396866109815
838,-2.6907465950963165,-2.449534456270254,-5.1127920745704305,-2.5828787139412124
839,-1.0277233850333536,-1.83663083230601,-5.136400484014185,-1.3620399773468552
840,0.7006014539944596,-1.2926700084107228,-5.152334971066491,-0.2049466824667899
841,2.40288923347103,-0.8908181621840708,-5.105549801596309,0.928178536777154
842,4.255130411715701,-0.6704025751533288,-5.195032039650109,1.919896447587045
843,6.138079182487305,-0.6264966661367292,-5.6198307349898835,2.642186526096712
844,7.720329351648681,-0.6374906522188364,-6.256972441856008,3.034385364027433
845,8.721803573628371,-0.6359163168733204,-6.868549511998885,3.1126015290746367
846,9.09140435037859,-0.6609626418016679,-7.229801824626591,3.100514145507301
847,8.975082427572064,-0.847820376206186,-7.258825593852736,3.0919112075284834
848,8.97789550491409,-1.1817735316528486,-7.222310922019201,3.0448392719416546
849,9.132384047317355,-1.6265847599870216,-7.230613223563222,2.7233162990637263
850,8.909771153892667,-2.0405128477035257,-7.2410472906712045,2.102304805775461
851,8.018536425566408,-2.3005969096754675,-7.030346930348141,1.2332637390766084
852,6.422589937205393,-2.426940582883078,-6.503190127290828,0.2588880387893028
853,4.332294275061703,-2.4504759964168157,-5.592066927128507,-0.664778687787889
854,2.116958332619692,-2.4241122835110906,-4.295021952036659,-1.6745305070363208
855,0.08070559211972472,-2.437232870324351,-2.663876162330214,-2.6263745553068865
856,-1.9134638673470985,-2.4614993322995806,-0.7678100817404008,-3.363031507026119
857,-3.672854890163034,-2.372401460979292,1.503897711598778,-3.790965722360166
858,-5.215221173871573,-2.103203833644937,3.774266044998822,-3.9213952458240198
859,-6.424292758363856,-1.6269603948423597,5.565191606659034,-3.844432907817851
860,-7.223930926371468,-0.9836476203459463,6.601479938930026,-3.8391546122810105
861,-7.627143928643775,-0.26648686944819094,6.922644817869187,-3.9218717123276736
862,-7.709413780518796,0.4392143883251129,6.793538448691831,-3.827934025961987
863,-7.674241437585044,1.1053774241122805,6.733005090658863,-3.4396031425715394
864,-7.6551594618790695,1.6713394518601825,6.840169906001099,-2.712290354180483
865,-7.65835805278634,2.1096129990701584,6.72184286906261,-1.7234264072406673
866,-7.440898195600533,2.4216143728931283,6.2763017550421525,-0.6454705257440169
867,-6.914780035512055,2.6329783127462196,5.487624770104037,0.3602661372739365
868,-6.078470837509114,2.7830363363782364,4.462672615026259,1.3289020100357085
869,-5.0093729327417895,2.9087658883675127,3.53147378590648,2.1853440549768437
870,-4.012880843235711,3.0552275978972316,2.9614506977547363,2.8979018216432553
871,-3.2929043754070886,3.232712114832354,2.6716458080861307,3.46080745135165
872,-2.9452799570808748,3.4036903286479125,2.6586263724068364,3.8923105382028504
873,-2.9055680385348177,3.5262235946726346,2.6574618191149724,4.217782775038261
874,-2.9626730096038854,3.5827185329511906,2.619868081467031,4.446291135792498
875,-2.960289118567991,3.5744841649103227,2.667764897977008,4.5733097351968635
876,-2.865684362128708,3.5827417118500278,3.163742182987305,4.61238327218405
877,-2.792504677010985,3.6056761523500254,3.9894252853730623,4.641614598933226
878,-2.732239551843619,3.56836034593004,4.840604640074671,4.698780901923402
879,-2.7346672955868008,3.403265853057581,5.399958323698655,4.781648458158284
880,-2.7902345356944322,3.093167052666487,5.488002508805428,4.856188958674832
881,-2.7830588625372097,2.666757949667858,5.491393102978336,4.883315888628627
882,-2.6030381113110943,2.1888689114295796,5.5053425305143255,4.875040786006135
883,-2.1231743860303984,1.7188071599364247,5.408163428440828,4.885940759964169
884,-1.3066829465822192,1.232102037926077,4.83565930798975,4.898295103548698
885,-0.24360164240248172,0.7493020602748873,3.7925188873918256,4.80282169040891
886,0.8681179281502669,0.2898094278915819,2.4839385027384893,4.550632051179064
887,2.124021216950055,-0.18492953221570405,1.1205396275783803,4.181981847862123
888,3.3466306776302073,-0.6201944306496264,0.04957289563963027,3.823809992206196
889,4.314676812166275,-0.9451205202197848,-0.7041603679406682,3.606852621148834
890,4.8838996344119545,-1.1221431281595216,-1.0954740585148883,3.5487544583488013
891,5.053463068896934,-1.1675103915007874,-1.1894648032301374,3.5634573024452796
892,4.977068007003798,-1.1417252934703699,-1.1316312716535066,3.382782051410847
893,4.8883110926615165,-1.11697782791649,-1.0779972251620717,2.9984134202835175
894,4.932826286630227,-1.1304426316528966,-1.1082681221617037,2.5589637933040805
895,4.932826286630227,-1.1304426316528966,-1.1082681221617037,2.2343519653805464
896,-0.16386308216759687,-0.09096899926188445,-0.12326077814375663,-0.15903377417962367
897,-0.5291683473173274,-0.39044406913217367,-0.48274534812189507,-0.6543756901423443
898,-1.1590823861553183,-1.0303147160014499,-1.219227952318323,-1.6305820359542993
899,-2.152623064953521,-2.050019832258192,-2.3791783006142753,-3.0477274312672993
900,-3.5532870045731935,-3.4998552367957245,-3.8433586008953924,-5.0654743210003
901,-5.0403480360730475,-5.272477926135231,-5.735968142402337,-7.237489525233302
902,-6.224058389437599,-6.940205165357296,-7.675493402402333,-9.00593559909961
903,-6.863494727292593,-8.119410583865498,-9.210591081033982,-10.03243923955817
904,-6.945488218295696,-8.668150133954867,-10.082189630426988,-10.234394181984271
905,-6.89089719043526,-8.656022497160041,-10.293576463396473,-10.23854536418938
906,-6.9030638817739485,-8.656652631569663,-10.18050068683274,-10.253256419067991
907,-6.80438987753383,-8.76101226230581,-10.179965407898642,-10.055383962614062
908,-6.313744878011221,-8.568091489127786,-10.221429772536759,-8.948466184383273
909,-5.490788247966506,-7.659165357947412,-9.723031095033921,-6.898289365319183
910,-4.511544322309971,-5.969715979076579,-8.585948726117964,-4.157633608536388
911,-3.590215085557632,-3.691896844540892,-6.870083937118977,-1.2419694173281681
912,-2.816434002355817,-1.2220227735760931,-4.801175359479785,1.3861680854848513
913,-1.978034018563116,1.0892628943998708,-2.603294908772172,3.8313243129996684
914,-1.0638485450922621,3.365876612129547,-0.23487302127372178,6.057518219445424
915,-0.11141492240484951,5.448607265139422,2.4633535939757136,7.905549367632422
916,0.8046655836902952,7.422497273588512,5.344859077595674,9.198370721193854
917,1.6648010780487237,9.093504037071643,8.378384247907405,9.885614825956466
918,2.5274221767583835,10.261372770557411,11.211893668267018,10.080790446730292
919,3.4617252069232674,10.862090530993983,13.378010997901153,9.984835629745064
920,4.473723143194017,10.980794201019068,14.633244219904865,9.962091434461037
921,5.475989532616718,10.908775672237303,15.063158708346029,10.05292693587134
922,6.5084195854450595,10.905011639811654,14.968018435146162,9.954091158885447
923,7.435524153818292,10.918715510684867,14.909655371080053,9.545888994245669
924,8.12160060264501,10.580254665729509,14.999102157871683,8.816146987716188
925,8.50419242509222,9.815902572674185,14.873648035381931,7.8991094020899
926,8.603990845139625,8.659483691918165,14.369751277991512,7.029862010338622
927,8.576626948948363,7.29749150953245,13.483976678634289,6.40508418067097
928,8.516156055879005,5.971679740470398,12.305412313949725,5.965290904312219
929,8.499833985120333,4.772323405570156,10.986672992307827,5.71178739040269
930,8.423822381158214,3.7314195385088564,9.641791445313165,5.567789351464366
931,8.347810777196091,2.906552433714168,8.13681796895815,5.439591885433284
932,8.290534430899214,2.3059457839425046,6.5157287767395475,5.268805118748782
933,8.320475142393892,1.9072497631676648,4.765500061929668,5.061827784120439
934,8.342564900551926,1.6676485225897202,2.7053299674277436,4.864191928467941
935,8.27458270879598,1.534734058087138,0.4348994113624156,4.704507314833103
936,8.177159413915732,1.4557035895056207,-1.5876458113464995,4.560885408635471
937,8.065882144086064,1.3846593675592618,-2.9432276230675654,4.376099685022017
938,8.006843169781101,1.287914189566995,-3.510806216507102,4.104016480418017
939,8.068998992856372,1.145581607981909,-3.4761253991532164,3.726126499976465
940,8.114556868149577,0.9476665508794041,-3.4224283661339783,3.2136054909113616
941,7.8544733478809174,0.6834213459093941,-3.5045674461587457,2.504693011240574
942,7.164551293923012,0.3312912399935246,-3.291048050871007,1.5474953368861715
943,6.012117248492698,-0.13756846676642165,-2.71946113982976,0.36040598334253227
944,4.552830706519534,-0.7439741703655931,-2.0268770198007764,-0.9559232507492131
945,2.992932143471947,-1.486960634485703,-1.482633959684216,-2.2665486500238057
946,1.3741898842948386,-2.3320279326500493,-1.322025460409828,-3.466788564185321
947,-0.4063461359068592,-3.2383619478967973,-1.3640224988757628,-4.507458107115949
948,-2.3288186835608435,-4.155289890312825,-1.3343956904287757,-5.364998028145061
949,-4.382166625241206,-4.93059315798159,-1.413612006316233,-6.103905233842629
950,-6.384453198768509,-5.4456307370526105,-2.027584976066903,-6.722459400453649
951,-7.991168055322997,-5.679476437951587,-3.1694086128774024,-7.179756585937417
952,-8.995114354384249,-5.688257304168344,-4.463436727915565,-7.452317370824474
953,-9.411901854730967,-5.680026429107101,-5.434873212320769,-7.554743742997761
954,-9.395481882549369,-5.701198078531448,-5.81393295034361,-7.516006193892482
955,-9.364132810526618,-5.648173739707032,-5.79450228494898,-7.532126718349957
956,-9.421023497149896,-5.374764867528933,-5.782364076330409,-7.595337113887862
957,-9.321887148985978,-4.851787910359065,-5.853254659381163,-7.508591988220665
958,-8.827306862313064,-4.105868757089656,-5.716677565845805,-7.1318411839747835
959,-7.893524475118369,-3.230892074083374,-5.115936485973737,-6.4103995900528945
960,-6.626075401201768,-2.3337968485093215,-4.043822472615268,-5.395479172959882
961,-5.295038251427103,-1.4192152235910582,-2.6710826240723007,-4.2247677542218725
962,-4.171979693818504,-0.5250907209556408,-1.2880855528001973,-3.0254026200307087
963,-3.2104350538360724,0.22598834863109868,-0.1148217806334042,-1.7324163694245671
964,-2.4226200215051814,0.7385263515102753,1.138108566462079,-0.3894962681801375
965,-1.6279248164303501,0.9932142894102669,2.307217464398253,0.9429439264115723
966,-0.8492107456554634,1.0418163707519708,3.206309446364884,2.344242803989183
967,-0.21913212718196312,1.0084940404664717,3.714690361112099,3.624511446086161
968,0.14281475051726006,0.9913474018627222,3.8090175200410115,4.566006281118636
969,0.235396416969174,1.0002108749958523,3.8129793644763947,5.068248121436877
970,0.14433710310998554,0.9230592278535252,3.8163121419310295,5.1460767956919415
971,0.1720668564132126,0.7480194992501525,3.703725350126682,5.141875580430759
972,0.27100230008711645,0.4367073390172963,3.17167248406118,5.185085305235555
973,0.13237136904798857,0.020298033717266434,2.242022270468269,5.101163483582573
974,-0.365048092117957,-0.3776557678536686,1.0439837788471062,4.459682250363399
975,-1.2856856654957602,-0.6661657175144435,-0.20844641575397999,3.1404769480330788
976,-2.483100763353804,-0.8011642675842603,-1.3499652011298124,1.2406055452213574
977,-3.563339810610429,-0.8025072101194761,-2.476994642425348,-1.2275234010180065
978,-4.211339399265901,-0.7925593480170496,-3.611649960682563,-3.626514511169265
979,-4.51732944283438,-0.8021171167414518,-4.61670662600343,-5.517383237836858
980,-4.526018641380838,-0.766176836152326,-5.344899514638572,-6.57940302868359
981,-4.501642864321039,-0.6423612746611276,-5.734628693245753,-6.7928272548175395
982,-4.522964558692592,-0.44164776097574,-5.826851541719232,-6.737438314520798
983,-4.451519966273208,-0.22436256567253798,-5.766416483196562,-6.706706284047779
984,-4.163296959230599,-0.06684337367921409,-5.75043823093148,-6.587678950479417
985,-3.698307710810976,-0.006059413779907991,-5.787583329095248,-5.829869051816744
986,-3.1558631789527323,0.015768411879665222,-5.6583066976572916,-4.500535874952843
987,-2.6557902505408264,0.009506017780903007,-5.31028660133943,-2.8682310363220536
988,-2.249800461941565,0.0031081178188562307,-4.727774645815537,-1.353937349377131
989,-1.816756103443442,0.005779695047515984,-3.9766346218225745,-0.24650988792740874
990,-1.2389429455435446,0.0023841683726745734,-3.1698543486539297,0.5612244358716795
991,-0.5985120847134959,-0.0049090923758476675,-2.371962190084742,1.0339743800251249
992,-0.0520233201218592,-0.013226805630622528,-1.5708388693974573,1.232520369437673
993,0.2806578524446664,-0.01159127007810793,-0.7879529755973692,1.2300696758980192
994,0.355033836732314,-0.0053666309373989265,-0.0191260940310074,1.2355573032683451
995,0.33688128103473747,-0.025986849418938227,0.726332156985779,1.28385677029094
996,0.3605024419401014,-0.07831328627879511,1.40514268590278,1.2317243404922895
997,0.3363464471971354,-0.1457016073861094,1.958067499804225,0.8372340957613394
998,-0.03609558509063293,-0.19023178540714428,2.350042867644624,-0.030527832386799347
999,-0.8477168905089945,-0.18369637513050183,2.5981688778173697,-1.4029938439155785
1000,-2.0898759643717826,-0.18392163743226528,2.7687300823004164,-3.198806665735419
1001,-3.6837836228721157,-0.27797630040582477,2.950620480647881,-5.319339909404957
1002,-5.600541472630772,-0.5039927628247348,3.2320633212983316,-7.85807196611694
1003,-8.024990065481045,-0.8329522851839828,3.689025504671026,-10.872482728433258
1004,-11.103782550483976,-1.2233603607201216,4.374847399319131,-14.445733390545094
1005,-14.841641422660294,-1.6189028831579233,5.273540315480226,-18.598136026612952
1006,-19.108807452968108,-2.0634627742692637,6.497473523362615,-23.101159195423943
1007,-23.976145113018983,-2.511542913622024,7.790237290029285,-28.34931246749533
1008,-29.3950458878416,-2.861048395678121,8.829594341454403,-33.483148887602
1009,-34.37839663794856,-3.0548598447094446,9.4231681459091,-37.45354623298244
1010,-37.94420412748888,-3.099234439983833,9.563518455430918,-39.676562965714574
1011,-39.680553181136794,-3.0711463183506273,9.483351218783794,-40.167348142292845
1012,-39.67413212715508,-3.0662221893501114,9.484233164203106,-39.88964612092393
1013,-39.751264548928404,-3.079327385470799,9.522326645767636,-40.012270013919185
1014,-40.15354420244676,-2.997578948339167,9.185031744859474,-40.1518357598707
1015,-39.506309870020864,-2.79638496574865,8.351407836208724,-38.39915105258273
1016,-36.46308438758168,-2.4710507173869316,7.0408901924619345,-34.25058694863956
1017,-29.029155193155166,-2.071757995415831,5.058204061936043,-25.74294016726152
1018,-18.427619330463354,-1.5549881609710854,2.913150625694148,-15.103846051226487
1019,-8.279196281333752,-0.9756776059819331,1.1557269716672929,-5.953182685752244
1020,-1.8212175557660508,-0.4462785830472503,0.08553938619143231,-0.5044750173788075
1021,0.8733837180011672,-0.09122121294635277,-0.23003387792815183,1.190817669981446
1022,0.6592736328759816,0.04986689273829213,-0.08016584102914381,0.4421227086716977
1023,-0.26084734441956464,0.03475304187096769,0.08126492220276983,-0.4245917664179495
1024,-0.5090619000466141,-0.1453830145805759,-0.06988524600101259,-0.42942792330624124
1025,-1.9850443139240035,-0.6085585276948134,-0.4854174591481206,-1.7939128289371213
1026,-4.950695337069369,-1.5653230782147092,-1.2128814725147818,-4.621764864713466
1027,-9.382946557177625,-3.0866219735377554,-2.000156899809485,-8.88830261684026
1028,-15.861835659240679,-5.044034660715948,-2.566468468796957,-15.168810621155519
1029,-23.228540606945106,-7.714004147508842,-2.789561512853108,-22.03965140975411
1030,-29.582134988229637,-10.564007100109132,-2.73513682419147,-27.665387185186542
1031,-33.55820900107299,-12.896738458710397,-2.6872743063202456,-30.91669062888082
1032,-34.93774315955139,-14.260814081026565,-2.724297398534025,-31.637828892573072
1033,-34.27469312700744,-14.624506028611698,-2.6520360188142864,-31.313806889371147
1034,-34.38663300648458,-14.365555877546416,-2.4863884144113904,-31.449772996261025
1035,-35.27554029147918,-14.395874832760668,-2.2616334762057253,-31.482064321036606
1036,-34.15540373397144,-14.63718174297672,-1.9673517348303093,-28.765706231417354
1037,-29.33849918048342,-14.008649818797364,-1.5264472211180953,-22.411027754478738
1038,-20.203016121466742,-12.082100297336813,-0.8401225763420365,-12.428201130874164
1039,-7.554729097045719,-8.744158360473373,0.16168445857079283,-0.022158255001175853
1040,6.682827627779836,-4.386124496357699,1.2587826851325814,13.083086255353228
1041,20.65455860963608,0.27151288756911596,2.2091964601281333,25.994178633364484
1042,34.548343603012235,4.684335436586981,2.883204003582256,39.27711374965494
1043,48.32971029127673,8.93034057574355,3.2688438702941136,51.233349741907055
1044,60.23176813174582,12.687005074190285,3.4465459999224732,60.03895661427329
1045,68.58229411216615,15.995832556814706,3.508923685359507,64.86543472064012
1046,72.85324769808652,18.6024968555409,3.4656798691960455,66.24335032828937
1047,73.77860281212601,20.309436088331893,3.5348466525229023,65.47903896823104
1048,73.00866011307812,21.129600709567065,3.6540183050894255,65.35817403308826
1049,72.94314200226933,21.277900861722657,3.5244333295405137,66.09352097467335
1050,73.50074434676591,21.16292064333664,2.7913636577671355,65.2523484321678
1051,72.09410870540454,21.130813457321047,1.3749354687796944,61.87461589328255
1052,67.97992068941112,21.162375776193606,-0.782687776285704,55.66409191228051
1053,60.93874026079973,20.866101994194246,-3.0356346524446294,47.28506685879239
1054,51.75100609518317,20.2212064416944,-4.674351305988699,38.08565964430754
1055,41.81091259290353,19.269923265111455,-5.56562698960995,29.19908572634129
1056,32.05723873077865,18.145238654422492,-5.763121901098586,19.99359721999259
1057,22.198153402871373,16.97000737168392,-5.625324079372582,10.897464515625455
1058,12.688800698440012,15.700207745921928,-5.644753071343123,2.0730006733285284
1059,3.6996441779429365,14.256074290077482,-5.715343506278321,-6.357634047656047
1060,-4.620250958521378,12.665052582751258,-5.244839788238176,-14.260711065909405
1061,-12.098454294765794,10.987186779745986,-4.059249165354123,-21.379107313242194
1062,-18.605879439688607,9.304986920139642,-2.3467707890837,-27.857475083613863
1063,-24.135436579367138,7.685084015384673,-0.7650804177107455,-33.09787379107171
1064,-28.79007877972572,6.149686428180604,0.23411042951242267,-36.58566433062588
1065,-32.681435780952086,4.67485056260824,0.6402768463033539,-38.275536780009475
1066,-35.84679529171756,3.2085941419678377,0.7718659887110921,-38.590695849739426
1067,-38.29164413656881,1.6937165267199,0.8886831588395555,-38.35486369045574
1068,-40.10428060100071,0.08766233226217579,1.0862435868137374,-38.25276652238422
1069,-41.4542409499767,-1.6296905782205813,1.1914544858380367,-38.30784222042421
1070,-42.68384281098109,-3.4604021793512274,1.3324532379297513,-37.83206034750671
1071,-43.80139654917728,-5.390854903987756,1.8215689434722226,-36.90785153915897
1072,-44.66246947223028,-7.385352203223372,2.906668413629274,-35.73086007856011
1073,-45.1464584896901,-9.377784499957231,4.332207759361452,-34.645288196781465
1074,-45.265940544915686,-11.27384521386878,5.661949168564263,-33.930471784631344
1075,-45.15706580420602,-12.965596066862961,6.421739150373312,-33.52189229912002
1076,-45.201209127888625,-14.403805050896002,6.580381834332907,-33.249374115506704
1077,-45.31021762981268,-15.56251484141294,6.468006061749453,-33.02961078073454
1078,-45.033030972588705,-16.384350753064354,6.443211745323114,-32.77455920483946
1079,-44.15682042834833,-16.860532314503704,6.540245926895452,-32.41912468491364
1080,-42.58224739193825,-17.04871741987988,6.196483707488425,-31.904077474818134
1081,-40.37232157111413,-17.041498853714717,5.49835170581784,-31.168225830836928
1082,-37.70227549659591,-17.02792738270515,4.699268357547621,-30.144385812319264
1083,-34.705729422784174,-17.052237079152054,4.1045699337357915,-28.757886054600537
1084,-31.276525499964432,-17.01347438517019,3.9113362882822598,-26.9362730459044
1085,-27.56801679091551,-16.794774599574705,3.9819416825437273,-24.617855763752573
1086,-23.657780219526526,-16.35362655007368,4.067940040435311,-21.76487219522619
1087,-19.600089333977138,-15.680703180940249,4.072315167636915,-18.400758834960687
1088,-15.502091874163709,-14.808487581477236,4.146874455823912,-14.650736456250797
1089,-11.553536276848034,-13.773988474424007,4.22143374401091,-10.744121350640718
1090,-7.948146922291752,-12.532865944197141,4.249226719718322,-6.964998378610311
1091,-4.772048770540292,-11.138667931747039,4.252103913677646,-3.5658956105668564
1092,-2.0028689690318635,-9.650415104243752,4.327123090896553,-0.6958187069641505
1093,0.3772479857885812,-8.137705988034785,4.3302416010607745,1.602772392805855
1094,2.3167051302243817,-6.674090262362973,3.9684289102829133,3.3533262692088863
1095,3.7736099759618766,-5.324108160095782,3.1257856304959595,4.627222350027553
1096,4.842094377824452,-4.131170625904673,1.872365033116695,5.553614790330489
1097,5.758559977060875,-3.109056660741075,0.46384436936074835,6.309048773061436
1098,6.7561242868516125,-2.2398682636701017,-1.0174124847782173,7.069773811156965
1099,7.91950897051581,-1.4868267249272267,-2.34946106667287,7.959694953339504
1100,9.187186511307656,-0.8135375903730581,-3.4080392254518816,9.025091579937442
1101,10.46097225261025,-0.19479459430522889,-4.011623506120433,10.242639994550187
1102,11.67665539074983,0.38032863987509324,-4.165284386166829,11.546193212238634
1103,12.787142004587496,0.9142055815229946,-4.073208738717749,12.84498190224426
1104,13.735284455366655,1.414565444302749,-4.0653946775857275,14.037680887747676
1105,14.491343997641586,1.9015176287520295,-4.122428788842009,15.055810620253295
1106,15.124517300033833,2.4053749511356393,-3.8529742546915235,15.912362511807341
1107,15.799244490477372,2.9624226617402956,-3.178624012342182,16.694667658676806
1108,16.667818534301823,3.6050791303622267,-2.1393326130973236,17.507746522501208
1109,17.767911242137405,4.352259520265695,-0.9213077888748764,18.417943666547693
1110,19.027393490698543,5.2088450435855975,0.23679120717466595,19.43022177107665
1111,20.356829891968886,6.165149623071441,1.361414009274656,20.478138636881184
1112,21.694994020921346,7.194704570825609,2.4156666384911336,21.688546300524017
1113,23.159714906892265,8.245493556746014,3.2065466153123667,22.889034215886237
1114,24.55697958276266,9.338160368052852,3.63921800241807,23.84064915915807
1115,25.621612171881818,10.402684993885124,3.7282816568888295,24.39095837001745
1116,26.198682005307564,11.272154171315169,3.6875093040817615,24.547297707133424
1117,26.32772764736445,11.82504857555794,3.677575073405098,24.426777766761475
1118,26.224210202818195,12.050664712395003,3.67317606981583,24.42965837742733
1119,26.217539278806424,12.02013801148761,3.415058133387199,24.55325255574695
1120,26.283932736549154,12.02002517584876,2.834081143598743,24.3886834485376
1121,26.081801547813686,12.07751202180917,1.7397680188524982,23.803015286432075
1122,25.540225672903095,11.975200908642622,0.2697647016650794,22.778345190298634
1123,24.659769053857648,11.56059034031456,-1.1276190197249691,21.453766563934977
1124,23.52367194699134,10.829330437444469,-2.1242816295424016,20.045749134681905
1125,22.234860092456916,9.879640526238436,-2.596486817134164,18.68779034110082
1126,20.818239173255332,8.873748401134534,-2.5128160019557404,17.19189506113319
1127,19.1910642368338,7.93023041520387,-2.396822911272728,15.587849563502377
1128,17.44142614984522,6.9472194047228975,-2.563962378676749,13.900999169827886
1129,15.61906988167492,5.967933919576372,-2.871255406769371,12.166279709056475
1130,13.704192983010431,5.013938768043031,-3.1639375068049413,10.41938925720912
1131,11.645894849335319,4.10421897340306,-3.420721936518986,8.692098156992811
1132,9.429957359698548,3.2556236361046813,-3.2966170332291456,7.007610368329838
1133,7.077062306646039,2.477426475350433,-3.0677929089577365,5.369735266566939
1134,4.586977124379992,1.75944881398342,-3.375531745835197,3.729744665414925
1135,1.9143424824674722,1.0655663764421295,-4.320799839654939,1.9714065503290206
1136,-0.9791825404196508,0.3441505434636891,-6.00689578849603,-0.031640286988730226
1137,-4.0443602445533084,-0.44571129628668693,-7.90265272585603,-2.3271308207091153
1138,-7.13572828157215,-1.3159811084952446,-9.323930893473047,-4.8486047898538445
1139,-10.047946478000096,-2.2550546028432104,-9.89885282834647,-7.458399195250201
1140,-12.845322594926198,-3.2422462577441795,-9.962905289321819,-10.034579207338126
1141,-15.227607007779675,-4.257283242790574,-9.960537372697665,-12.46552982036556
1142,-16.89819488390005,-5.257216640922001,-10.041005779340576,-15.036940066472873
1143,-17.755536086391494,-6.330636766012853,-9.914507806396475,-17.461597387950892
1144,-17.934223619263406,-7.336907535595929,-9.024326380727706,-19.3204504887715
1145,-17.77956202666517,-8.097776765916894,-7.246641749189107,-20.36344058658617
1146,-17.786337130591537,-8.517063221423392,-4.739841847421214,-20.643614499030843
1147,-17.979334427640083,-8.626658812943205,-2.308859434271563,-20.501633601364357
1148,-17.460621676908445,-8.56594142044202,-0.7094735212199299,-20.350091109045735
1149,-16.312307281449147,-8.506584589109565,0.04738919819642118,-20.41824688710135
1150,-14.947222355500994,-8.53850970851127,0.164357907986268,-20.399250427508687
1151,-13.889680000411344,-8.53850970851127,0.018308774459574517,-20.380253967916016
1152,-0.05128645140530824,-0.08880522494069348,0.020757001719692157,-0.0733714795774518
1153,-0.16509497392512235,-0.38516575194503166,0.022304363070930755,-0.2577283642391424
1154,-0.4190325026603581,-1.0258456507711755,-0.08701487970298416,-0.6080168717381174
1155,-0.8997885669366114,-2.0705604317008452,-0.41023766951833834,-1.1296535041516556
1156,-1.668354442626373,-3.423102642647825,-1.023025939389615,-1.837922770202107
1157,-2.675025573432568,-5.14311600709003,-1.937588790916853,-2.659252370964754
1158,-4.05094622199786,-6.866207274480755,-3.0921823112899514,-3.401649876857684
1159,-5.5052459834995995,-8.19648840597699,-4.395814220330507,-3.902605116280892
1160,-6.676940291731282,-8.929740534000585,-5.689230013645727,-4.11496897600499
1161,-7.356314486119791,-9.097507901507871,-6.952757901881078,-4.09314868935631
1162,-7.541834246132154,-8.98498761104497,-8.02420538488899,-4.096421842204325
1163,-7.407240482534864,-8.999534049451523,-8.769840913890166,-4.143122647112305
1164,-7.441662832969263,-9.071082588153908,-9.158623773999208,-4.046552334859959
1165,-7.579944772710345,-8.656318581733961,-9.260489596500319,-3.67187443532872
1166,-7.217154644789421,-7.57798102495902,-9.126290579930833,-3.036783629847305
1167,-6.10017326868026,-5.830252902387086,-9.212386747522896,-2.267118284342621
1168,-4.185920020109536,-3.6511842921386375,-9.416347588069861,-1.5586510567347809
1169,-1.7645052467772147,-1.3993669812562848,-9.169809230025681,-1.0559033248983156
1170,0.6451364293868002,0.7323086468320003,-8.051092819417716,-0.6647492750087063
1171,2.6518692751802915,2.770513747813271,-5.874758943212662,-0.38101961811986373
1172,4.36114154102372,4.61642571834006,-2.8562602223187783,-0.13455041907215354
1173,5.7768448271620585,6.221975223309804,0.47014263991511784,0.1719300695540925
1174,7.023180837707606,7.551233093816527,3.590108498861226,0.6152879896164167
1175,8.151932367173591,8.582953922477223,6.537141893389046,1.2069808756762703
1176,9.093268071521482,9.322591233067179,9.408981216355977,1.8885869348747484
1177,9.743278132489174,9.816932494995726,11.917223919462298,2.575790869542967
1178,10.146291654790819,10.151683892082401,13.722566882203513,3.217080409566256
1179,10.398879137899351,10.423383823512708,14.674567608195897,3.8835067020274567
1180,10.580650851768091,10.690345255645601,14.85165514862879,4.602799382456052
1181,10.711805462641607,11.075718867853677,14.794583637239809,5.266151984366454
1182,10.774662069321316,11.524067034671768,14.786221319562191,5.738817256795134
1183,10.739851959147881,11.9174891920369,14.702573130801582,5.955215913848635
1184,10.765124523194816,12.163345695788378,13.981180978469382,5.943821933365383
1185,10.848685597610569,12.228740704883544,12.58971567331471,5.9346213020292495
1186,10.77414697828579,12.192209229861087,10.682133617592687,5.978573792664817
1187,10.320382363544397,12.22289825868732,8.607445633422653,5.910271839815802
1188,9.36422380447682,12.259596350760205,6.695889332178122,5.603531632667318
1189,7.936647464971313,12.012428114841454,4.885508178330774,4.945883960329294
1190,6.181026847281349,11.324841345586128,3.2263472342080326,4.124080720024867
1191,4.252283813155131,10.147239141041274,1.6429018768726373,3.4331813804338522
1192,2.1455584855257483,8.578327267443132,0.03097401160705371,3.0770605935244784
1193,-0.0009742717964823511,6.798226249521834,-1.41585694195788,3.0012931581776634
1194,-1.9910315333020625,4.901457620595166,-2.4603559679942624,3.0697742657137788
1195,-3.7632126912625825,2.865141621132475,-2.987355578502373,3.0490886868168716
1196,-5.255953160928193,0.7712679000854947,-3.0235620923525985,2.8563187915037407
1197,-6.368685518475788,-1.2803578755541323,-3.022158405657421,2.6571029918542175
1198,-7.049415289716085,-3.159691440170274,-3.0822215962351134,2.470105390206919
1199,-7.327303020552333,-4.814455392874614,-2.9291857663261163,2.460599314322101
1200,-7.310285401572892,-6.171023814531328,-2.2460048700568627,2.5430439417891573
1201,-7.271583732686939,-7.131722407426119,-0.8539871841283626,2.4703531054253887
1202,-7.3143864257815485,-7.675381179176613,0.8404071019395396,2.0639311019297084
1203,-7.268135309872178,-7.8747607150779935,2.2256234978114207,1.2919068042117028
1204,-6.984709518042635,-7.849093751469576,2.8994547813861127,0.2587974641475004
1205,-6.438467312250507,-7.837051894046866,3.076986788409789,-0.8657094305052824
1206,-5.715972233108438,-7.874765631468581,2.9723006052049143,-1.7797525811987265
1207,-4.994894546573061,-7.809072997603549,2.908941978009074,-2.4144445441861406
1208,-4.414356903927656,-7.535210023406678,2.951046432860471,-2.7200743841241644
1209,-3.90438596474865,-7.066229147011037,2.817443023515983,-2.7589143884591962
1210,-3.4260873848206916,-6.492681133219039,2.545242555731983,-2.7083215318514844
1211,-2.957749439513579,-5.953788476394029,2.1673765286413844,-2.7044116896000987
1212,-2.5275675349024724,-5.541433634916086,1.7279338276850764,-2.781329320927595
1213,-2.1495869635506453,-5.182847064376775,1.2370613308869602,-2.839146388230768
1214,-1.7778800709824754,-4.916972375368932,0.6517741488990344,-2.885771283653177
1215,-1.3458662352719826,-4.754665728078515,-0.23994732636699523,-2.876844076722819
1216,-0.8563916414864899,-4.685498377918251,-1.2633907407374194,-2.8370461434137715
1217,-0.3342295412007268,-4.689715828789598,-2.144308868357994,-2.883032220553297
1218,0.10747078278042449,-4.68175934334044,-2.6846446257214147,-3.0086133660922085
1219,0.39590402131449043,-4.653325671505486,-2.8813903074999887,-3.1736518957182263
1220,0.5341442317276022,-4.715344430689576,-2.7496525298828236,-3.3155468147420373
1221,0.5611716402068732,-4.885599427976793,-2.6807692662723044,-3.3827168124523572
1222,0.5493997754048872,-5.09857708151862,-2.8475156348428823,-3.3580775341923905
1223,0.5428486150755835,-5.271452748271013,-3.072294839989391,-3.3628224447520747
1224,0.5396053751755997,-5.3156532284224,-3.294416361695366,-3.3968294786789466
1225,0.47699230355827543,-5.330980829001999,-3.4787757645845625,-3.331717766093513
1226,0.3018372858196964,-5.360306107965474,-3.3862019638531646,-3.1673485704076274
1227,-0.05918568754360656,-5.29003244892096,-3.213034049185964,-2.964395074602691
1228,-0.5081030210665292,-4.936717349686482,-3.4471198309499114,-2.8017836381583994
1229,-0.8929856923111792,-4.264645363399922,-4.1441886342516305,-2.7401433098155414
1230,-1.1252934298626631,-3.342843336804992,-5.1262116387843735,-2.7808091079462547
1231,-1.1627547332013914,-2.3299707641805028,-6.021789123240613,-2.7703890854182944
1232,-1.1575970175621422,-1.378603710305777,-6.503979062352163,-2.740595151576069
1233,-1.181709149521223,-0.46354937976344324,-6.500988209388802,-2.8140180587390784
1234,-1.1319489728241372,0.35534741264368097,-6.422957544676064,-3.087788505497066
1235,-0.7953711608143076,1.048841821049233,-6.4065009784667994,-3.4940435050332956
1236,-0.26676964770299166,1.6031392038075696,-6.414587791600853,-3.882597012875465
1237,0.25706027340087767,2.0195137150048597,-6.379670470053776,-4.1146346403949146
1238,0.5817772709921971,2.3131724285630426,-6.315248532846961,-4.154529769171213
1239,0.6199322225084568,2.5125206206516615,-6.252142635900136,-4.101475478040057
1240,0.5999369705581792,2.6509660008926814,-6.237088147004872,-4.117600829836714
1241,0.6007823294400664,2.7742431154363847,-6.208110048039668,-4.179270792135065
1242,0.5696844462338436,2.88782059207353,-6.008011789280467,-4.087075286755249
1243,0.33132381590996723,2.978381951455554,-5.482306956276797,-3.7082939711263427
1244,-0.03505055850126801,3.027645448094058,-4.582178863878228,-2.955656445640254
1245,-0.39254990671962187,3.036922951088392,-3.376168071312329,-1.8540057687653468
1246,-0.6088497576497647,3.0365899414640403,-2.0639147727527885,-0.5360574565022139
1247,-0.6380645557533247,3.0463395752460167,-0.7913058919953664,0.8456232266507012
1248,-0.5824990531266092,3.0792463122464473,0.3903145023113166,2.277042268559412
1249,-0.6042251308187391,3.122112008835844,1.434608609849485,3.6905860017138616
1250,-0.6591672996491121,3.1299862629285697,2.3615136667089933,5.0835983490956895
1251,-0.5741230806996683,3.116261239886802,3.1701387077581957,6.434376192931117
1252,-0.2723227676621776,3.1507351588220356,3.7873012366267895,7.863700284905731
1253,0.25215116422323486,3.313955622883067,4.169381458249309,9.188957845800028
1254,0.9385371943089108,3.6496192898176956,4.334635741313023,10.177401841649452
1255,1.6960438396688229,4.14389367227844,4.350002803571281,10.710153485966211
1256,2.440564405149838,4.7605669779476125,4.314786810483815,10.797384252050149
1257,3.178904852775544,5.336788978787455,4.306102422436872,10.802180927234286
1258,3.7724694666960263,5.768856560508226,4.31130787080388,10.819603392526691
1259,4.1898126556893756,5.99514696918912,4.302855421842553,10.70504390162108
1260,4.437929920772515,6.0261067198381255,4.294402972881226,10.097626606340661
1261,4.573236397766639,6.023832156499115,4.289237587404861,8.99661038982078
1262,4.650003066458664,6.0362249647468325,4.2889558391061495,7.557039132686745
1263,4.6740823395599485,5.993281803202573,4.291773322093258,6.056256734092745
1264,4.681821743207401,5.728788410451467,4.290834161097555,4.712685492942961
1265,4.686327361417357,5.2112191482034635,4.290834161097555,3.4030451210772226
1266,4.6793631302587375,4.47317348841791,4.281258642804275,2.167460101495086
1267,4.548285031494446,3.609581929307613,4.267913303596733,1.0115614413589853
1268,4.214829195170918,2.711475331506079,4.343952950296887,-0.07321614560289064
1269,3.6446441995117906,1.7451643043255403,4.372280679745825,-1.1137481852392561
1270,2.933316040758179,0.7817795795994664,4.165036634375664,-2.109821390089934
1271,2.0179104741957374,-0.26990718577395323,3.4866459600505095,-3.2394942479385715
1272,1.0556930042300907,-1.2684619360496465,2.3578686088399423,-4.365632452722758
1273,0.27926055734983984,-2.0334336498694423,1.1512063501391987,-5.264141194449912
1274,-0.1821549929559779,-2.4633971555649072,0.28920349371699494,-5.785559602892627
1275,-0.32705098740446475,-2.5817554595251826,-0.057252387236640986,-5.9345182199214195
1276,-0.2693437380774884,-2.5216488022278067,-0.0839071263435723,-5.863000308005219
1277,-0.1923407363216503,-2.4580685041269885,0.007566641875141722,-5.784348993737539
1278,-0.22942433121900482,-2.4912695884738616,0.020364425029351218,-5.824473245492324
1279,-0.22942433121900482,-2.4912695884738616,0.0,-5.824473245492324
1280,-0.05448892494609159,-0.10506117606136617,-0.08972343088910917,-0.09879194248748152
1281,-0.24046846811752676,-0.45071319324346293,-0.41816654726437263,-0.4543519070713502
1282,-0.7029963892810535,-1.1700642305492996,-1.1975249275307207,-1.2216502688192121
1283,-1.5750618357198758,-2.3058604326673575,-2.5565168250214763,-2.4043367349626266
1284,-2.8494917921290295,-3.742325298663593,-4.507201122607652,-4.2180608882735156
1285,-4.659097809902305,-5.56737485489343,-6.976268503438834,-6.249830918553486
1286,-6.604913768026022,-7.410635337405816,-9.362921503150401,-7.941982051376862
1287,-8.177698015702639,-8.853343763873744,-11.09788567526074,-8.937011234698165
1288,-9.077969143177864,-9.662665851313449,-11.955793425546338,-9.208707876862828
1289,-9.33246082574427,-9.871579556614108,-12.016815394364402,-8.990735333888322
1290,-9.135525610189838,-9.694345083681053,-12.004190213605826,-9.036830586140228
1291,-9.17082589269628,-9.713365174811479,-12.097022544760527,-9.273359389991505
1292,-9.39146628284354,-9.895393640615952,-11.9046746059519,-8.82258648991754
1293,-9.107225965438507,-9.601138217058933,-10.76368146613996,-7.27600260744499
1294,-7.982670815797686,-8.543579830533787,-8.48014591024947,-4.518811957345446
1295,-5.8877467223831985,-6.607924739450248,-5.144661322826744,-0.9068420179721616
1296,-3.0161643452705045,-3.9849961310846407,-1.192440819376345,2.8233473279688166
1297,0.16371017507348395,-1.0871076456251905,2.814732445864089,6.341991216347534
1298,3.1166337461015607,1.725301269203499,6.7095135137187105,9.442956583740932
1299,6.047101520398456,4.476063212595518,10.239476850521546,11.608015715804871
1300,8.471122869991909,7.159130394377213,12.992596891133546,12.7042296741952
1301,10.080950061677415,9.454027438085488,14.740428530418475,12.912978840215695
1302,10.851836832010944,11.056605482258995,15.549628953835265,12.768736355154733
1303,10.992340702676128,11.872843657343594,15.658297260050974,12.759668602484288
1304,10.868980542424652,12.052221892206344,15.606529261021478,12.797945402010663
1305,10.86096655068584,11.896128074158964,15.611785268273385,12.230255031499581
1306,10.928751885800962,11.878406394084156,15.53152529234332,10.934343148851847
1307,10.618768218205311,11.998328993996518,14.893353676021187,8.960829122295445
1308,9.806917847327245,11.782348558244003,13.657068539809641,6.595930114058407
1309,8.471451078560364,11.118774230543915,11.909596964195314,4.206174900093199
1310,6.804952850805769,10.01005705038362,9.872083652835508,1.8909744304852603
1311,5.15603738708642,8.649794473093843,7.753721439184807,-0.44773170113042404
1312,3.6202913538222523,7.330833292000244,5.366499185948878,-2.4631724696997064
1313,2.3231673422776886,6.245245596295803,2.6070233019691926,-3.855966791798173
1314,1.4502717629706885,5.299222907804279,-0.03624102755069619,-4.537908571249717
1315,1.015279572616937,4.496420881009187,-2.012016509319651,-4.6084629987537005
1316,0.9455782149518025,3.870551925460586,-3.041230078477576,-4.5932033069581015
1317,0.9532944237109235,3.456433870148759,-3.151990274014145,-4.629895392952367
1318,0.9543990920736709,3.250057772030557,-3.1419608365097975,-4.484283721727763
1319,1.0232663570909313,3.1945012289127606,-3.2120820587975567,-3.7394800086910958
1320,1.4240922000626899,3.237583495052547,-2.9485957089490187,-2.397594262031432
1321,2.1542597674994797,3.259742373640435,-1.7838097824718093,-0.6419964458350373
1322,3.2304001442980153,3.2158550398974013,0.4828560558481182,1.200674742511881
1323,4.342868503862901,3.162955096906984,3.1723277626186817,2.835454359073675
1324,5.1552888629917835,3.107915323890932,5.314181385008108,4.491632824708023
1325,5.632433693933947,3.066920251749242,6.30492595368074,5.925119092773031
1326,5.76080151054825,3.0947627926650725,6.495284462694097,6.9302329404970315
1327,5.659431194651129,3.1343602568961337,6.467117134785791,7.438583897719949
1328,5.670441242507624,3.049444603453801,6.4619402798252805,7.517494173199525
1329,5.774617868747111,2.773337235480359,6.297528059802305,7.47762111105627
1330,5.637082481931451,2.252477519804998,5.35130257771209,7.502384919584354
1331,5.125363149384355,1.518901080980324,3.6488857780260826,7.476887331229621
1332,4.225719110109827,0.6730954058621899,1.4516828380561657,7.015491842115365
1333,3.052439706927096,-0.18566179627481938,-0.773154252845979,5.984213018671
1334,1.7730725119254538,-1.039933479416746,-2.6358712225146004,4.363405222708064
1335,0.5025462203380506,-1.8606190068830628,-4.407390710101293,2.3012233181462425
1336,-0.8742454720349913,-2.6703611609833318,-5.871762937620055,0.026677436265052368
1337,-2.2414628156307543,-3.4873969327593963,-6.872476915596366,-2.3386081758821917
1338,-3.619156757110697,-4.40967594917868,-7.373518194921235,-4.851011038393246
1339,-4.994437598864735,-5.304750111646308,-7.455563568378986,-7.11640657283416
1340,-6.186347348031691,-5.990872588344845,-7.42358532275102,-8.753628856462571
1341,-7.019683366823566,-6.3646204265694,-7.405907334001567,-9.609523924354178
1342,-7.418745998292713,-6.442703871027645,-7.353242929460596,-9.781908694819304
1343,-7.388882993226541,-6.406196010193114,-7.03330490187151,-9.68842601354973
1344,-7.427682118870431,-6.391105270280575,-6.448648243608323,-9.65774201183077
1345,-7.55869228080519,-6.379202699749404,-5.630439871287489,-9.654006226659204
1346,-7.344129789678509,-6.187639191123978,-4.686620398624484,-9.231032970519607
1347,-6.3551110655965335,-5.8293254964061205,-3.5523066117619866,-8.35920219806548
1348,-4.4973355523283605,-5.3630574184387,-2.337084320689708,-7.1180764880466585
1349,-2.0434918043382377,-4.900288585815138,-1.3590686034951203,-5.73307914057983
1350,0.7712303763678178,-4.4758457186184595,-0.8018104112335673,-4.431690573234286
1351,3.232735071130521,-4.09834799475914,-0.645779565784572,-3.198467059245964
1352,5.097361117396878,-3.8103660922000353,-0.7515424255241441,-2.0053638453587372
1353,6.0946773918332084,-3.6487965507599203,-0.8277543410984389,-0.8701424023876827
1354,6.253438057317896,-3.604738704795709,-0.7416636895580894,0.16739725217211776
1355,6.241217563083287,-3.6265783862046628,-0.6688999616378991,1.0340163273013943
1356,6.29236480273204,-3.6502655115303377,-0.596136233717709,1.6739831967609304
1357,6.132829835275794,-3.6395280981058815,-0.5509110439581791,2.10029281816511
1358,4.990538839321134,-3.642347753744881,-0.5507609877857468,2.3887106006676673
1359,2.677648441334669,-3.6451674093838817,-0.5747880236166527,2.634844556815878
1360,-0.6665643170794087,-3.6371160037688868,-0.5625315956798569,2.9265228332794053
1361,-4.4820250798756,-3.655501899173947,-0.5557053914051349,3.3069836664207157
1362,-8.03281468608437,-3.6765187104028354,-0.5488791871304128,3.9716804133226837
1363,-11.41336000022566,-3.63836699763553,-0.5694188429986478,4.799364058040922
1364,-14.154558537954,-3.5001518326063037,-0.5212257477883182,5.552836756260798
1365,-15.968969606583602,-3.2752390356613903,-0.47595056227603993,6.0325949593566035
1366,-16.860837642238366,-3.0226533049507656,-0.5483330496356915,6.152051963660252
1367,-17.029320877861906,-2.8139488096790943,-0.9217208600090532,6.115906234541948
1368,-16.927952688728993,-2.6804466198104278,-1.5091072062200295,6.15174663525307
1369,-16.917199955171352,-2.5480343003838524,-2.0923956876564462,6.145354256897656
1370,-16.937529914409133,-2.355945283822789,-2.4555973770187594,5.644368042506013
1371,-16.42759464257167,-2.039006347899042,-2.518424819361577,4.498813352623183
1372,-15.223876956513303,-1.52926993777047,-2.442412997822821,2.7564433492746376
1373,-13.284851965792637,-0.7886025438386179,-2.4558457830142366,0.7217318022230736
1374,-10.807731406328465,0.16368385083927467,-2.536914870075479,-1.2231949039312042
1375,-8.115004959857494,1.2366671128345499,-2.4487581252178408,-2.905336193886131
1376,-5.335840956526678,2.356781470831029,-1.9809497280253399,-4.169213192900704
1377,-2.5567576636660356,3.411650480451584,-1.2390170724339824,-4.907028701257222
1378,0.09176927177076988,4.2392685690324265,-0.49786602872018715,-5.192886376022745
1379,2.4798899033322748,4.748843644129514,-0.03166579884899949,-5.192557439115056
1380,4.450896089910666,4.955825481358364,0.05089950225216659,-5.156248634963396
1381,5.924488387709035,4.9382516631897975,-0.013533456167902292,-5.171560183223506
1382,6.919752356246952,4.935705984549842,-0.011690745392943305,-5.145455867995827
1383,7.511291623371688,4.977301238004792,-0.016767279187673817,-4.943123534676937
1384,7.812224555363672,4.900371442800817,-0.17944696443645647,-4.542580853006573
1385,7.931352342570108,4.56667379473955,-0.4149133827246167,-3.9535879147414765
1386,7.922861347835823,3.9811409403167763,-0.6315962602734255,-3.225037199642689
1387,7.890458165498348,3.1680129286641336,-0.6866688607759746,-2.4125449922476716
1388,7.920331631533738,2.3126746653454844,-0.7945377070218101,-1.5164625939434835
1389,7.997059780301141,1.6548884035364817,-0.8556637925900143,-0.5676307891061587
1390,8.080916073389986,1.219591698520752,-0.6526400570168214,0.26931439339485824
1391,8.163878747936876,1.0454444878675193,0.1352672993409968,0.8488806008614262
1392,8.11011872677908,1.0716918388406065,1.6047425796881587,1.1315752456865906
1393,8.03490769485326,1.0818587319412685,3.301170707297654,1.1863885089981665
1394,8.208354136485598,1.0413275229443717,4.6113942343544005,1.1269844109987939
1395,8.806333343095394,1.089127377704918,5.177266560238726,1.1176543737728495
1396,9.913694911863052,1.3980668263693623,5.303692135462586,1.1627217453688032
1397,11.472783042907707,1.9053194774957813,5.200036032514266,1.1186536543234211
1398,13.006036760315233,2.4270657533822577,5.164395955766291,0.9690834467117148
1399,14.07347900028832,2.7703081603803037,5.220187788129167,0.6161914635869657
1400,14.622699969591272,2.8530165354484636,5.090673711218659,0.15190719418178805
1401,14.643359568936495,2.7952997496141325,4.748175395599457,-0.25724757100424817
1402,14.662166160700298,2.806394484259302,4.185029823822827,-0.4853155871169906
1403,14.913721564549924,2.910963301188273,3.4950728930797195,-0.5609769749874352
1404,14.493815662175399,2.743794141261247,2.56393952638641,-0.5307110826818346
1405,13.199062703992766,2.3056192201825536,1.5574446353467946,-0.49148683643417396
1406,11.521908162879829,1.754545096124858,0.6685177494526812,-0.5102359272871988
1407,10.114578804824944,1.3048783728883742,0.11147127627170025,-0.5102359272871988
1408,-0.0064804009239606,-0.07664457896435847,-0.07908915426146457,-0.06209192348600298
1409,-0.09176444656412269,-0.313166448285395,-0.38330827070581264,-0.24227944908278604
1410,-0.3792272665319696,-0.7995788004209147,-1.0321662898714528,-0.6297874815047524
1411,-1.0104894233761688,-1.5686771780278717,-2.0450503272333607,-1.2842853292406997
1412,-2.063058774016174,-2.5789532966763957,-3.3121963279805224,-2.205385748948329
1413,-3.4422546190506162,-3.831030129966887,-4.668412138084877,-3.33974944744034
1414,-5.20998861314551,-5.28350212073523,-6.066348398500025,-4.572885293241028
1415,-6.986758187063274,-6.641020887318488,-7.291271410317441,-5.887352331888278
1416,-8.36293533064551,-7.618524795520948,-8.16029920234245,-7.213914320846723
1417,-9.129061969703907,-8.096563638572878,-8.609187334531255,-8.34461597701282
1418,-9.315918014202117,-8.108544894209588,-8.659809525154385,-9.105289682349133
1419,-9.196821890269572,-8.11461942641918,-8.669114592371256,-9.44685619682932
1420,-9.195008369721267,-8.195964622613795,-8.721564243942082,-9.411527913335737
1421,-9.284500900639781,-8.04083400319872,-8.618414619633842,-9.433669424810569
1422,-8.914620447444513,-7.2598485863902855,-7.947282727763006,-9.54995693247186
1423,-7.875432765400854,-5.782363805604504,-6.576248271088085,-9.38679751068445
1424,-6.114283234411351,-3.769439381301792,-4.576270920548388,-8.559298085549734
1425,-3.86262444967645,-1.5871999188334143,-2.2726394696435244,-6.938390680727246
1426,-1.5091626916043746,0.4136731909978272,-0.08531589851723348,-4.649121353435568
1427,0.7333919024183209,2.294332165608325,1.8589365913673408,-2.0357160509832544
1428,2.9624062637179653,3.947235304970451,3.3525266611713103,0.5636121480026302
1429,5.2326468886274915,5.35989304332092,4.369455526070875,3.219570204427734
1430,7.648702570557466,6.557226629960138,5.0268472565671,5.798988654353248
1431,10.222910788562446,7.574934250793455,5.520164227469191,8.170282306121704
1432,12.891389109830644,8.423956197721758,6.04486391216173,10.399343576343375
1433,15.66409404580965,9.177225426063249,6.73731607753112,12.259949758723621
1434,18.117228992346117,9.793483969227925,7.634253738120333,13.540288400517811
1435,19.84672887452556,10.218301472080405,8.679490802563748,14.18987997650807
1436,20.70955745804173,10.437301312371112,9.764371765800192,14.31849039981927
1437,20.780261757508992,10.46470469900409,10.67267852894177,14.240562279919464
1438,20.786517919511546,10.476805053919282,11.258979822919384,14.232030472100309
1439,20.899358574217807,10.503663997764509,11.514603903818664,14.244524921059112
1440,20.694201430653216,10.443203431315416,11.527973561690626,13.897486142428047
1441,19.40496086390478,10.087687103010508,11.504953453936395,13.134366279124704
1442,16.811541305752794,9.393803762542763,11.517102748462047,11.9982237192197
1443,13.089894345933168,8.424238140119112,11.487881221257389,10.672567874853513
1444,8.821975249083506,7.34214682292401,11.274098895190063,9.373146088643727
1445,4.62487673655838,6.3079841330337585,10.841693957589664,8.133723127082188
1446,0.4600586724446405,5.292765742844224,10.195215774842374,6.925968539291464
1447,-3.451168895553292,4.3228893675328735,9.39101779204173,5.78686978344493
1448,-7.061870730293169,3.3893392254360855,8.487814768439636,4.7482502690330515
1449,-10.154613801111436,2.4711167939502743,7.4412949096984,3.857403190119964
1450,-12.393674796087652,1.5532583490639822,6.259291067243357,3.141469543334699
1451,-13.645148698951967,0.6345324880127095,4.924878845453392,2.5595914645837157
1452,-14.07413188509367,-0.27407991258161823,3.398568874761045,2.0166843977045237
1453,-14.01079921931666,-1.1545106168137864,1.63617948729825,1.442754362343809
1454,-13.967087137674293,-1.9809670320698898,-0.32089019123962503,0.8490930605441144
1455,-14.026384975358233,-2.7494175425424006,-2.601964757919317,0.300881888965698
1456,-13.919362833075333,-3.436719750840057,-4.810375199866592,-0.16084767748109513
1457,-13.475776403495573,-3.967915005291316,-6.482517174597651,-0.5645242889513165
1458,-12.691809453198342,-4.295060729263249,-7.3815635010832406,-0.9733153626435818
1459,-11.617345214660373,-4.429809825264229,-7.5831565691907326,-1.4177018455281478
1460,-10.365182697540488,-4.428119772846532,-7.452051862369089,-1.8766063321007391
1461,-9.05457372165934,-4.4181794748187135,-7.40528365674458,-2.321452034526658
1462,-7.638488495382087,-4.430011879241552,-7.456047560356494,-2.7652547880194884
1463,-6.278490095277144,-4.400792111138651,-7.177745475629846,-3.2588586197455593
1464,-5.041665304976414,-4.2573604061223245,-6.577588753061393,-3.8428009904611122
1465,-3.9167749657518796,-4.050775906651229,-5.762262492419515,-4.516277596645012
1466,-2.89732566448697,-3.85099737259956,-4.962915897214176,-5.253532220482221
1467,-2.0392804920342162,-3.7363825329077898,-4.406716253756913,-6.018092927756609
1468,-1.4027543662183426,-3.7168500443651418,-4.119616275965297,-6.872238739259275
1469,-0.9576744848522936,-3.713577453937205,-3.9564635819803016,-7.693357206454698
1470,-0.5846101455977764,-3.712071438583072,-3.8241039029482686,-8.325680317095765
1471,-0.1787403393531572,-3.6923932323368716,-3.611472296312714,-8.676049707872307
1472,0.266609159361067,-3.653732998150604,-3.2628290378739386,-8.753096054707322
1473,0.7010705562253805,-3.557195120988955,-2.7857286362779283,-8.70558183606596
1474,1.1273518876485167,-3.3911316758602434,-2.2136448543629834,-8.700542392855708
1475,1.6126218122705818,-3.1566076807231673,-1.5643881711591072,-8.719819557480413
1476,2.3003830141092823,-2.8859667761236003,-0.8290060319311535,-8.545878241241757
1477,3.0700799749589156,-2.635523311910782,0.11311195594828294,-8.120099348148822
1478,3.7069219385665546,-2.4386188616567677,1.0987847516909919,-7.441353982478926
1479,4.0590305873636074,-2.321658286409466,1.8902001881323343,-6.598666786349664
1480,4.115695997200921,-2.2710296332590327,2.336882958577895,-5.726346564811637
1481,4.076581985165818,-2.2633070154193646,2.404500423678154,-4.897965592685661
1482,4.107834637141294,-2.275036593073555,2.4219718618237462,-4.1350939081280575
1483,4.244772283488571,-2.2608151869328594,2.4506046222782962,-3.4961576658073525
1484,4.348798906915163,-2.1758565585951137,2.319101860157948,-3.0425428851931784
1485,4.401654321128744,-1.9641484583405118,1.7443630747452548,-2.7843094399712047
1486,4.425776747743781,-1.6116849392815609,0.626483573830475,-2.6782967710878864
1487,4.394481574322864,-1.1340534617290257,-0.7335171924415966,-2.635956995708406
1488,4.345670314185316,-0.5671823042394909,-1.854323702103856,-2.637840503345573
1489,4.262135763545748,0.07710213106146346,-2.415534623008833,-2.6343919350478346
1490,4.145334062529756,0.798254684421809,-2.598873074470628,-2.573923487708003
1491,4.162814835435699,1.5603442265115004,-2.495040941228625,-2.4009083833078466
1492,4.238005363801707,2.359024709159479,-2.5136578011822803,-2.0722284861947404
1493,4.140904611997584,3.0646584442000826,-2.628479150065817,-1.5980275774751953
1494,3.645982383558033,3.560026728601299,-2.48261708291423,-1.0123667671891492
1495,2.776045310327506,3.8080942607796917,-1.775950906231211,-0.3643889493240352
1496,1.6626991203051862,3.840004770762266,-0.6810666780932326,0.442041424569155
