,TP9,AF7,AF8,TP10
0,-0.125336319031767,-0.11831239735291404,-0.09753651294048543,-0.028691334630235127
1,-0.4575595465543523,-0.4581692687522156,-0.39613357326524035,-0.20920595367157835
2,-1.057265572013724,-1.1212670993103808,-0.999518855375962,-0.6536919434921585
3,-2.205071556485369,-2.1164679209134425,-1.9320107133363291,-1.422639708513914
4,-3.630383069887416,-3.3407135938824473,-3.096334276022273,-2.4551974958389655
5,-4.9094288233426475,-4.812412492907265,-4.536953013959409,-3.802404884232157
6,-5.714901339995522,-6.373111753198148,-5.963598202002918,-5.168756872864698
7,-5.9688037666916935,-7.708499322397348,-7.061504040082209,-6.235149352346828
8,-5.814416125973647,-8.578527968891336,-7.665418224084251,-6.8316041659680735
9,-5.77406541244206,-8.935665611309465,-7.788205881146452,-6.978262877299674
10,-5.933494719066261,-8.856692422644956,-7.74120228720964,-6.871700261723312
11,-5.780797164301161,-8.89251395450802,-7.741060834634622,-6.868685603323368
12,-5.127358836838422,-9.04904190400486,-7.709656936244738,-6.956490398739629
13,-3.891734909944356,-8.822801342045548,-7.261312017585192,-6.719876335509369
14,-2.232176644532643,-7.801662058445837,-6.34665780423917,-5.999225006620799
15,-0.4855083255650163,-5.881255406081907,-5.046247283144377,-4.749775522697609
16,1.0452117918087571,-3.2873482732938335,-3.575218946422176,-3.1176712651669307
17,2.4291781762436546,-0.505697722000497,-2.137439727392681,-1.34508060334699
18,3.624162640603771,2.0130785773517603,-0.6856787507845524,0.414089864106146
19,4.643422492055924,4.3422986189179476,0.811693497595499,2.1903958593726087
20,5.409517534965577,6.413211504414369,2.344173519538049,3.87030782300688
21,5.871627001761341,8.091950113304897,3.873629736846821,5.356335017277022
22,6.061151923506179,9.241356955147838,5.329277443341413,6.570468113652613
23,6.104333503247004,9.841629907479353,6.633919066944186,7.482806931891611
24,6.13064542098237,10.01292252314113,7.749353339792801,8.165010284592142
25,6.201835028888855,9.96108769235513,8.664368750117942,8.642992759604088
26,6.306769447547294,9.907005629487914,9.328311865322215,8.931999571127916
27,6.331420589251301,9.927605952361263,9.723257347644415,9.064581109606824
28,6.287625154589968,9.915149744485076,9.88598858195978,9.073541000566538
29,6.163622001994059,9.884167705213741,9.887064902057183,9.072343379698752
30,6.088379355137586,9.852315676541856,9.875603271308382,9.110650591713345
31,6.047365708761091,9.812107842261716,9.891087190156524,9.096659243153658
32,5.949616542141454,9.730609860972807,9.863464992631545,8.827763848212768
33,5.6472634800092765,9.556223877258883,9.692872748254956,8.158000844599588
34,4.989058042024893,9.229748539413041,9.351244232993421,6.98773617553854
35,3.990040196882481,8.757747627890199,8.84680313630189,5.324587138617432
36,2.7557616745035425,8.165767875021086,8.233242832057615,3.2825808168597885
37,1.4830611454123657,7.487507703813907,7.57459150498421,0.9713023879025459
38,0.21548425169853896,6.746981445330948,6.860335374668396,-1.6500637279941173
39,-1.1811241499201417,5.948383303006285,6.119898229447527,-4.0999657967823
40,-2.635270130354212,5.072774425696845,5.351600378711221,-5.904082028889924
41,-3.8963130069905496,4.087544016640555,4.544324854008059,-6.853576402913928
42,-4.7274241268822905,2.9711030367277034,3.693356091695847,-6.998797486013327
43,-5.052305329102071,1.735831005855434,2.8085045794320904,-6.971203531304731
44,-4.9631835445167365,0.4313050796849412,1.9086314814017276,-6.989581000337806
45,-4.943916685824458,-0.8531779676679015,1.0033869795631811,-6.837056864837045
46,-5.088597597367392,-2.1390286950508557,0.08894283105989564,-5.9200206679490135
47,-4.9519837189382985,-3.259732577167634,-0.82994511419622,-4.159238434169938
48,-4.196205316359537,-4.055347648678796,-1.7066596700883392,-1.6736841030551635
49,-2.6907223028373117,-4.467753988738901,-2.5842772570855517,1.1528589533054863
50,-0.6192724291030699,-4.557181542856227,-3.3562064731457486,3.964570606752581
51,1.716931369946332,-4.5110283200802375,-3.9102708487744255,6.8425629320176835
52,3.683087862799372,-4.455886457011756,-4.204723886873668,9.261097399067925
53,5.06084632870469,-4.454473809624622,-4.277558164904456,10.861941708212559
54,5.733584117053667,-4.401474018963322,-4.22223034173009,11.59463529971508
55,5.834408848403632,-4.348474228302021,-4.224798245792757,11.632271405126968
56,5.778662926536507,-4.3251741709289755,-4.282603404056833,11.604700437690068
57,5.760796893529427,-4.312485822539439,-4.147608586495868,11.669607789089682
58,5.717626822403505,-4.299999406288499,-3.7879300148726847,11.508474869681116
59,5.304980117013355,-4.314124555418722,-3.3164906194605006,10.657966914422303
60,4.4647639147316704,-4.449912068698274,-2.9115235193711264,9.07163572377298
61,3.2403470860361003,-4.771730353598989,-2.71414291097748,6.929368827704984
62,1.8647218433366939,-5.188911393202289,-2.7504540843520804,4.623969450004292
63,0.6344505878657406,-5.549168802014764,-2.750959584952562,2.5310527866346386
64,-0.39500981169507543,-5.737904747412769,-2.703824422394235,0.5785380448435933
65,-1.169768528906821,-5.770420594256617,-2.766621457014228,-1.1332898166292762
66,-1.7923717387200833,-5.742880472711523,-3.0595106638385676,-2.681978716406783
67,-2.377293225899361,-5.753808390490921,-3.7621893814049683,-4.218985157145927
68,-2.947608087926462,-5.7691657228923265,-4.755213412415089,-5.8164770184306045
69,-3.6411511288335148,-5.636047282614649,-5.699041347658046,-7.628931405172399
70,-4.366304732019231,-5.29709551626702,-6.293963501108124,-9.359504684099207
71,-4.978283827747458,-4.750626946352707,-6.540030845022487,-10.650949955319174
72,-5.363669427745916,-4.06340942567308,-6.464119054770508,-11.335839997839415
73,-5.488931070023372,-3.327635211610667,-6.482033339589226,-11.455263829026268
74,-5.39445023686776,-2.5761597639116336,-6.603544809556251,-11.42984909661511
75,-5.417078743766874,-1.787977406767579,-6.427038552610082,-11.431706604134735
76,-5.548209599428272,-1.0035217868783457,-5.703659958996565,-11.342143517954947
77,-5.381838990740937,-0.1962232055420089,-4.396132325703035,-10.74306996559795
78,-4.66781682691216,0.5226255038768082,-2.7077667966272347,-9.613353753292515
79,-3.341887207623248,1.0388261542851125,-0.9699883315786493,-8.088022439307718
80,-1.4415922141787958,1.3071175402730306,0.554224411915424,-6.490708130944991
81,0.45190042007523584,1.3668131400777859,1.832574029660377,-5.0119808366304
82,1.7675684577422854,1.331528245521959,2.6703744238787794,-3.689960001924657
83,2.463390897046392,1.296181444500922,3.0525746559417732,-2.728908088204327
84,2.5711938824250082,1.3050076644980866,3.0841010917010134,-2.2025561021761333
85,2.535660455943938,1.286591777092128,3.0535317961345116,-2.042095922845568
86,2.5391144449706493,1.2681758896861692,3.0564577935997534,-2.106600063139653
87,2.448998074307228,1.2711041688477691,2.991824242103029,-2.123578081052027
88,1.8735695392384095,1.2444540740300738,2.721366963513048,-2.0595794063463417
89,0.8132914859619562,1.2220013768538827,2.322872902091912,-2.152935489532132
90,-0.5760683452135239,1.2528504418887207,1.930692688879209,-2.46128710820119
91,-2.287326744721875,1.4763093395298856,1.6829533510075008,-2.8868787858219895
92,-3.9106093549922925,1.8443301027875547,1.6124042578800346,-3.2726024741233135
93,-5.233356340940355,2.221117346893917,1.5526542892175843,-3.4589975585306894
94,-6.011361795878083,2.46636721121612,1.2960237695152241,-3.4522999438419006
95,-6.227055314022453,2.5048364758713775,0.8640581329959174,-3.433006576344795
96,-6.130288479126999,2.4855831473842542,0.40830922200725006,-3.4686391841560473
97,-6.014367024930759,2.510270858345875,0.08752611614012006,-3.5402789137496398
98,-6.04910823820266,2.5130878403225045,0.006896232922650661,-3.6118960454954525
99,-6.009346473970261,2.260675281062868,-0.0026949948649462874,-3.6268927848926342
100,-5.969584709737864,1.6428751058844697,-0.03348717233277693,-3.5878355542019267
101,-5.981838530262769,0.6363816821273539,0.02642053565180702,-3.600082562856934
102,-5.870855108787577,-0.618602353108607,0.5031303090519103,-3.8553923772277505
103,-5.895074833131789,-2.1226636688025455,1.4374404940924284,-4.333875693118152
104,-6.09169657977406,-3.604452525397121,2.8996423523609485,-4.84718702042034
105,-6.420670667776395,-4.772377947790326,4.457749843973043,-5.204792305423593
106,-6.749644755778732,-5.428972343496533,5.616276897242282,-5.244057035015416
107,-6.875912367147658,-5.5767068613446815,6.255014678350265,-5.278041472126948
108,-7.001004905564457,-5.497572227478165,6.400596812920674,-5.384036564105502
109,-7.0645069940219205,-5.517790186852981,6.31845250733441,-5.276791231985366
110,-6.905888066880035,-5.5448452531360095,6.309433364899826,-4.4105581655730255
111,-5.886734770844577,-5.0737394773136195,6.337849174058135,-2.5004364930219447
112,-3.7693658864333086,-3.9573258315680113,5.997623277834591,0.46264190075375344
113,-0.5873690929727293,-2.222198433517739,5.195791553377514,4.16645074093805
114,3.3054756369932687,-0.11248865973407984,3.9494798423510873,8.131291618320821
115,7.427742583005683,2.046454184068854,2.4395632016422355,12.369261573178719
116,11.602076705022991,4.122597067181385,0.9101527621109976,16.657680167870538
117,15.838229275174157,6.11571086745099,-0.5471919383976829,20.28991453062594
118,19.672858404449332,7.989987607333006,-1.9049331626269477,22.703819992539334
119,22.554300097057535,9.526897997846575,-3.1938352257325566,23.78588007137571
120,24.210032289872217,10.549154894967632,-4.286768975702856,23.778672595332832
121,24.75694796380229,11.034427429885238,-5.051497225051452,23.758465227248585
122,24.526040005129126,11.077340298460108,-5.444356937981332,23.92739790019727
123,24.66212478777248,11.11749263723644,-5.535906869478936,23.75339141384162
124,24.689201013053975,11.055041360614153,-5.476762875195153,21.869785499689602
125,24.078533026035032,10.857468917147544,-5.424740798866924,18.711911235842305
126,23.049784770373048,10.477479194229014,-5.454675974988589,15.44180323211955
127,22.02103651471106,10.09748947131048,-5.454675974988589,13.279216307419967
128,-0.11115387347636063,-0.12052818497373058,-0.09752961864003751,-0.10381326250563333
129,-0.4074406798558214,-0.5034127721785828,-0.4009465948916362,-0.40012249266089184
130,-1.016410498692242,-1.2975804074665773,-1.0265665817351755,-0.9606024638115351
131,-2.0138812547322447,-2.563471697744995,-2.0199396188054126,-1.78242818580478
132,-3.3521044845771346,-4.194156868855725,-3.3318330312577684,-2.7713854631154224
133,-5.135385021739051,-6.347029444066567,-4.876635484576887,-3.9489169274436593
134,-6.977636547244247,-8.582930659049335,-6.6387353865654655,-5.091127261585315
135,-8.423225960727505,-10.369125305421946,-8.285136605509113,-5.959639847087304
136,-9.219047291536421,-11.386808636255427,-9.487904123228123,-6.429806764231186
137,-9.394856256668232,-11.633089198450026,-10.107138301320662,-6.519718912287654
138,-9.25838106204493,-11.47739610447559,-10.17633374630127,-6.476274321493929
139,-9.291002623631684,-11.49206448633943,-10.169858344118992,-6.484075181958785
140,-9.384136800218156,-11.593629967616947,-10.221936166930373,-6.473161690480699
141,-8.924259230468445,-11.03293391860741,-10.095114038029998,-6.119604317621812
142,-7.693826734992312,-9.567715012995352,-9.308684333658716,-5.335491146004506
143,-5.649009929106409,-7.179237942148399,-7.738229542450481,-4.136307745544761
144,-2.9829004517083706,-4.165638158223149,-5.455677977758334,-2.671240958121744
145,-0.002534892435106295,-0.9765005842868422,-2.7443566068474956,-1.1278670050454354
146,3.150991826602282,2.1535774350166443,0.08066060371194728,0.45336609489322743
147,6.565333892983769,5.259013859798392,3.021735481905842,2.019529148095736
148,9.987583055371832,8.115364242017959,5.9331709523684655,3.493589521667861
149,13.50752889211779,10.767211449799117,8.679652102374279,4.817446423620731
150,16.64060474836038,12.948760484007074,10.888685560318711,5.93102219630795
151,18.89423859798721,14.429353647377562,12.300374626209212,6.785122826999666
152,20.071761090037484,15.168729040589975,12.91498930248266,7.366055187129841
153,20.2841366510683,15.309733005814321,12.930650004950767,7.698050200646166
154,20.195412444717867,15.212577904236733,12.893684172539535,7.898656187528414
155,20.20680906404717,15.206848109751856,12.939232088267467,8.04716518673701
156,20.14255364286167,15.235706757999896,12.816310058760822,8.170500067913864
157,19.21993524901971,14.85346091879685,12.145833983916027,8.255148798475634
158,17.255994909111653,13.980397845944529,11.13892528226597,8.268903805533961
159,14.291307501128605,12.673271759146761,10.171944316141271,8.269257585584
160,10.642225835183698,11.166685103595078,9.60071718388809,8.327890779971293
161,6.654881019854645,9.737539524454931,9.533905512087218,8.326137562593395
162,2.252776434037683,8.452032514551988,9.614225179563158,8.019752017046407
163,-2.481814802885234,7.248695550464364,9.673316384040358,7.248734454496487
164,-7.345214057890983,6.105728695234529,9.633252599181704,5.967083003396848
165,-12.08402763533168,4.980690440018638,9.624422550917986,4.2637072088439005
166,-16.45715306601896,3.8427467191531344,9.615592502654264,2.294267022749142
167,-20.435509101326193,2.6592193776692277,9.576874084745162,0.10477575377623749
168,-24.113795016530528,1.372394619481611,9.637963945405113,-2.3094065305476046
169,-27.14654516298651,-0.10558140446017339,9.70422282846961,-4.781160989064169
170,-29.1881435045154,-1.8685146350987778,9.588950377839101,-7.479966514666922
171,-30.15252495263218,-3.945918915868961,9.153322448324639,-10.015822502944786
172,-30.18413749009296,-6.3752057540696345,8.355651258066722,-11.92830076876082
173,-30.176360435444515,-9.142019518099747,7.277126080797064,-12.979047845657135
174,-30.334210059216485,-11.71510980469747,6.076689817040058,-13.23637487662372
175,-30.090778447169246,-13.569906477764851,4.857543916077313,-13.019839884124664
176,-28.59729234049667,-14.489312068702429,3.4727030850805014,-13.0862307265294
177,-25.54714926717113,-14.541925912567244,1.9371690606308747,-13.303457343354026
178,-21.002646917623736,-14.545024868898432,0.3041879218032778,-12.728923416631037
179,-15.412034581954998,-14.660022800634017,-1.311613003930756,-10.95139678750618
180,-9.293932402845003,-14.39756727481024,-2.769858090127639,-7.899803532824558
181,-2.5752370217413163,-13.070094574961423,-3.9882330411594955,-3.9947007168454363
182,4.349295644888649,-10.550177351104955,-5.012126329888175,0.0487755690336682
183,11.11867430524127,-7.042668752890323,-5.992261082558308,3.728524698330346
184,17.44105974937494,-3.0670566150906504,-7.096632938429254,7.212929811664251
185,23.0979936380718,0.8608724069818741,-8.424110671926151,10.376371503486155
186,28.24784161340397,4.784470360788726,-9.965927147571023,13.171531767980458
187,32.664732404506985,8.642077191764214,-11.639568747301833,15.857256635035766
188,35.90410585409415,11.935221230292168,-13.358666362253556,18.208107281276384
189,37.745149878524956,14.219722466339478,-15.056554270956777,19.91385567373758
190,38.36889645278882,15.372630115584672,-16.705090749447074,20.827289359910097
191,38.15945522310803,15.588855861053796,-18.264844550148688,21.01240340984323
192,38.18820145734648,15.454361734266675,-19.530710168085886,20.918349573665378
193,38.473762964309635,15.429817347719661,-20.34619753965147,20.955170146215366
194,38.0913110635354,15.434482245619549,-20.70591197992377,20.95821015155026
195,36.41495838886669,14.839840774978493,-20.712251582569046,20.228619152004278
196,33.25949981851236,13.580451469249425,-20.701643245963268,18.578142782391915
197,28.884459732352,11.744769618968315,-20.74655026796373,16.058401265287912
198,23.90445424081816,9.627947279030744,-20.663067023603286,13.012183278457464
199,18.908999899653427,7.558265583754385,-20.18889803192016,9.87905857549209
200,13.718188935801022,5.571847453033039,-19.25112351405896,6.790353851816853
201,8.674022367819079,3.6783376982752354,-17.887822075550506,3.7862298082295722
202,3.9565954121859193,1.946769256767344,-16.253440759285642,0.9974022886285092
203,-0.40488487404495244,0.38419620866411436,-14.507025754620384,-1.558097333919985
204,-4.463074839206232,-1.041246687381412,-12.584823759921656,-3.9339805894194084
205,-8.221402763817773,-2.375796772576699,-10.554320395711846,-6.187306936305426
206,-11.551596728517271,-3.6511757156622253,-8.454465242990164,-8.321506803201435
207,-14.524557931755332,-4.864211408379783,-6.328561436944206,-10.29626531258181
208,-16.89195377845115,-5.974231941324946,-4.215503437206694,-12.06085636638908
209,-18.462907519523988,-6.919161397031873,-2.139978058715765,-13.675074772802079
210,-19.24002788405152,-7.6409344668493855,-0.12008385907690322,-15.096287934750073
211,-19.40568712881472,-8.107672578266644,1.825422111996823,-16.1790870021599
212,-19.274045936550355,-8.34375543198665,3.6841379213075234,-16.825426771894655
213,-19.22976329891079,-8.421581736640345,5.462027968859673,-17.064344963893276
214,-19.323706979236402,-8.425523796078116,7.185858820737201,-17.018827414027385
215,-19.153792064008552,-8.41543959775466,8.881103189892043,-17.013128076855647
216,-18.576516233482856,-8.408940361704362,10.538918907881047,-17.074568610078053
217,-17.445158468428875,-8.41255721883463,12.122132474603633,-16.967756451380314
218,-15.734517230798293,-8.43264237803136,13.578676778438496,-16.551606233361216
219,-13.550624015485951,-8.436158068935597,15.036198596290841,-15.83192233610097
220,-11.035118032561513,-8.356381412797157,16.350841171383127,-14.897847299233876
221,-8.341675354781653,-8.119186313761173,17.32803796160647,-13.857662084550018
222,-5.412947945066077,-7.673419503514243,17.860862176829706,-12.730937088464856
223,-2.7084414386098774,-7.01868108802231,17.989393422840116,-11.315112474715333
224,-0.7114315179590033,-6.228883390926728,17.885801887674162,-9.613536406571903
225,0.3568417729928576,-5.30598196173644,17.88934382072812,-7.678085494636231
226,0.5605189553291747,-4.412897962396997,17.97810117138193,-5.600868207679199
227,0.4630563509994484,-3.7399178717644017,17.783195287713454,-3.490757910032329
228,0.519534691849924,-3.375759848686916,17.172442558005987,-1.4705136271808796
229,0.4915715757439947,-3.270006723246656,16.116436651998708,0.3313339239154616
230,-0.4538666196208858,-3.3534777057707528,14.770125407148871,1.8120976748649535
231,-2.499059198030948,-3.3960495406495794,13.421434727973198,2.9362079354615838
232,-5.400639938019154,-3.3076833366117206,12.303262890527881,3.748853182875276
233,-9.049416116281737,-3.1989852872684477,11.367603891063121,4.336757630725914
234,-12.47684286267316,-3.0799611496922163,10.568850249019295,4.82107446227589
235,-15.050127714302045,-3.0096785813892097,9.726688174315857,5.215071732389718
236,-16.513884887587373,-3.0730560778815823,8.678983521724845,5.492402830110263
237,-16.911348879174746,-3.124431236470254,7.3975342089035365,5.638072954654137
238,-16.598894263524084,-2.880267906160188,6.005052436470174,5.672500614739536
239,-16.5737762568147,-2.254337039486419,4.683968552333408,5.6406985200532365
240,-16.894725082021303,-1.2216600836754854,3.5549309772214284,5.6436471614526855
241,-16.54837358229222,0.05035365657152202,2.6187475301524166,5.671792301303743
242,-15.141400329891756,1.4753316743897829,1.7770894636838503,5.62616233559125
243,-12.541706785202202,2.7727619718890533,0.878717842419223,5.481101239474061
244,-9.086832614151955,3.760560601889289,-0.23284016830394572,5.246412442957893
245,-5.415995260671917,4.299241096044051,-1.6142042693663923,4.9717185282648275
246,-2.1188364953965175,4.435727846769174,-3.3636176697126787,4.714343722833106
247,1.3371359981899995,4.316497884573441,-5.118803080838442,4.494303671569573
248,4.470890773327671,4.317397683900276,-6.4607819740259975,4.239206201575283
249,6.790302309301483,4.433324420666097,-7.17380492437542,3.911571361502329
250,8.040399254726836,4.293449180969725,-7.315341578665385,3.492192162776491
251,8.349675639179871,3.804081724108728,-7.255862580645186,2.7006855545616113
252,8.162610862512894,2.795815992719298,-7.161043514442442,1.671507469960178
253,7.9934701498292045,1.5587244870221877,-7.115071785156143,0.707012015004636
254,8.087587153572633,0.5384747410319463,-6.955280382562718,0.07444581394619071
255,8.087587153572633,0.032412610109578244,-6.795488979969292,-0.13634321935751445
256,-0.025320083296845985,-0.09649881029380436,-0.1825062063759847,-0.05081153816505332
257,-0.11547828125357984,-0.4034124220311886,-0.7685713117538017,-0.22001971432514617
258,-0.3880438376372504,-1.0355562126859168,-1.858961767763602,-0.6122555466988072
259,-0.9842561235779934,-2.0323693761520483,-3.637475530516314,-1.2796745031619294
260,-1.9694442025682433,-3.3001433993103064,-5.623307994684873,-2.471443612662603
261,-3.4206488276948948,-4.965963586737917,-7.243643759926739,-3.9213577409430425
262,-5.122046598154348,-6.695874124590842,-8.158925860183883,-5.196518634058375
263,-6.6283239687778375,-8.08193016277174,-8.336466655881864,-5.97486829649706
264,-7.608192623144508,-8.876849014394306,-8.283171969778389,-6.178591867422504
265,-8.00295802165532,-9.090713519824789,-8.327183276730993,-6.065215916449
266,-7.933304412693487,-8.920049783419305,-8.252577084884654,-6.075692619163812
267,-7.951702619030159,-8.929005435583125,-7.3521579312185965,-6.147596121918787
268,-8.07413860856535,-9.100996181415365,-5.491331152513142,-5.698238814325162
269,-7.865596469856595,-8.83601926840755,-2.8537716464941685,-4.546504311295492
270,-6.997611690296074,-7.891050259274055,0.07309346206753098,-2.6967520055893157
271,-5.402262036869932,-6.181842805985563,2.808064863090595,-0.45799618987770196
272,-3.234884237398891,-3.8988691091724776,5.036599469408085,2.005610804075407
273,-0.8888051738338502,-1.4227395474250257,6.513718848067812,4.232405230773242
274,1.3431035630352195,0.9286917377275722,7.190236713608005,5.929403657484102
275,3.3530377344043005,3.2548469048385584,7.248886410820667,6.849908636992556
276,4.715485891530003,5.386648989105297,7.204138497002446,7.051231979773895
277,5.416278568421342,7.323200539018535,7.2156151970511315,6.923450600122624
278,5.596738203444975,8.94764637782765,7.103908964441542,6.929231721068903
279,5.598515643006388,10.105085760585805,6.568659892250251,6.988597483296454
280,5.670646267204225,10.743987135703001,5.6932471969550695,6.476876368017918
281,5.872442059646785,10.953133073202782,4.669935791538798,5.226314210668114
282,6.0093382618651665,10.89692128833779,3.840292742259839,3.3154088790174154
283,6.085467964840733,10.87426496732761,3.4204259375812027,0.8671387837750297
284,6.129960938457877,10.934039052119422,3.2230549759554212,-1.4254879006768315
285,6.105800355557984,10.863445436750217,3.195419637379378,-3.062870485076012
286,6.09863660713737,10.54191874532345,3.2149497391886426,-3.9493505421957487
287,6.086632531796828,9.935999576259313,3.1954301969091543,-4.1169258454362705
288,6.047723688447294,9.099748706838083,3.1502272894361747,-4.107764295274634
289,6.104252137356557,8.167460632571187,3.140666145463476,-3.977972677542735
290,6.181648616776166,7.271023538706503,3.148850938012432,-3.811801992479432
291,6.077703732703401,6.377723042317221,3.1826001890391975,-3.431719629268665
292,5.607174963072143,5.534379555904073,3.2080489143550244,-3.051637266057898
293,4.6640355550837125,4.738411306380017,3.203683681468889,-2.85924316662768
294,3.2320058324137357,3.977432707605974,3.222897025137222,-2.854095812782236
295,1.341706103265527,3.248316715440717,3.3300001965613575,-2.7928738680854455
296,-1.0223330338882244,2.558751104378488,3.5450890577825387,-2.6988557666257718
297,-4.110709500033647,1.9170956984923868,3.862185802505385,-3.3881089638315447
298,-8.05032455673771,1.32043862028453,4.235864088970665,-5.427803911342608
299,-12.972404541156113,0.7555306935931322,4.586278549886515,-9.185055254564169
300,-18.97929040075152,0.2148714736522727,4.881439737875592,-14.633243920515262
301,-25.94198887219926,-0.2970199207747784,5.153825668202359,-21.357650321608467
302,-33.932441507042384,-0.7767744780604173,5.388787660055491,-28.92450372714552
303,-42.497842301642635,-1.2348733601335868,5.564842038176135,-37.71734631617658
304,-50.00443169488093,-1.698466826820436,5.668362568178387,-46.10915368639082
305,-55.08446373074432,-2.2048981388887414,5.685692257600375,-52.38659399613561
306,-57.38027636632937,-2.7803297223389123,5.69575806754268,-55.721073214966516
307,-57.24338711820738,-3.4168080972881087,5.717043370679875,-56.110142748568
308,-57.315881558752714,-4.0718315051961,5.687663222595416,-56.19964331881776
309,-57.924234517577105,-4.755395748794208,5.466256686062268,-56.5515846966034
310,-57.10049631359196,-5.366034760151407,4.99320489160207,-55.700017394585714
311,-52.370351724536334,-5.80483328898111,4.274186049049268,-50.76851242633914
312,-42.34460723114667,-6.034236492130606,3.378514406900473,-41.009041224952625
313,-26.61666476189979,-6.069320673408424,2.3727216948330416,-26.935033016791387
314,-6.06711380093298,-6.066380422290935,1.2095650639311517,-10.359436932091898
315,17.83008314716868,-6.073682524417579,-0.11827114694086438,6.779929349623401
316,44.887907212411946,-6.034080649119942,-1.5821271277376785,24.778832693496263
317,73.39719464577561,-5.788461646778188,-3.1042824330025804,42.595377771986044
318,102.67359928850277,-5.301770268783178,-4.585588942573355,59.41979290352741
319,128.11284560928766,-4.615399614232234,-5.966932565711136,75.0745746573585
320,145.68370558942277,-3.7224730467433074,-7.256189031066091,89.05981382932424
321,154.20819524197924,-2.8465000972580476,-8.464285946138745,99.86661429627324
322,154.85022398157307,-2.137519554456835,-9.668240672764213,106.53024211525425
323,154.7857116106833,-1.7377832745049038,-10.726198531556252,109.2778563395052
324,155.6501626311342,-1.6347536860754353,-11.472685683539014,109.17603654566312
325,153.5885371524514,-1.6897783972871943,-11.846408234564361,109.0228326904651
326,142.32893011087884,-1.746176912026316,-11.906224904836979,109.4129170913028
327,120.88568903307437,-1.7229561354466192,-11.855759131313015,108.70283437238493
328,91.35669768161755,-1.7338406950900274,-11.885860290909534,105.24237509083265
329,58.69851381001109,-1.7447252547334355,-11.907785186795039,98.8936781793631
330,27.884497864426184,-1.719300577381607,-11.602394879216503,90.42792849573192
331,-2.5243733086876325,-1.7710852238439037,-10.821384062348843,81.32925676342249
332,-30.50255976959583,-1.8383794095304768,-9.523148651604664,72.82627094236165
333,-52.552911500359855,-1.754259826186603,-7.86468579945522,64.29548317496868
334,-66.37869127409688,-1.3196368317524294,-6.1793568493237885,56.108778164685006
335,-72.23114750603125,-0.4295776142855123,-4.7496552489752855,48.35565550574005
336,-72.31502799709511,0.8604234210274522,-3.675713762187862,41.00814000371553
337,-71.81568907607331,2.3403492714292016,-3.0289823238633318,33.90083283247655
338,-72.20767938929384,3.760931613918201,-2.7263372528234235,26.762213998850868
339,-71.10313862541157,5.0953080105616095,-2.622526620330831,19.299680576697128
340,-65.90427098317916,6.2787208130795795,-2.6426391148342816,11.302557144740572
341,-57.14653903400657,7.196614200159713,-2.5976801762267305,2.7044114431624466
342,-46.23931362278636,7.778020758263361,-2.5413520549727737,-6.422664844273543
343,-35.929474309360764,8.038112706870137,-2.62964591958122,-15.920080249397625
344,-28.922394014611367,8.059938559135606,-2.9892492656602787,-25.597163942318648
345,-24.47741095114087,8.037597424891691,-4.198033164884303,-35.24897090409027
346,-22.714895169254344,8.040567775299206,-6.001969757954988,-44.642805469418875
347,-22.827018165714396,8.01001884111842,-7.756089910399666,-53.5267580946733
348,-22.97542732019758,7.82512839323026,-8.87548296304501,-61.684349350729626
349,-22.73284973607258,7.481564522848537,-9.180813160731356,-68.9111019490485
350,-23.170651136353747,7.014698899318853,-9.22049375433769,-75.47388667276742
351,-25.17409586647133,6.503365561715508,-9.27883726041684,-81.15277237569832
352,-28.596933993510042,6.013548371833608,-9.030266138468193,-85.3886156946826
353,-33.13405012204249,5.508032713440626,-7.504018553169193,-87.86521783064362
354,-37.3705827198877,5.007148887045173,-4.724939746060168,-88.75630755075545
355,-40.084161778063226,4.504612715484632,-1.2649380107497086,-88.541484777609
356,-41.54714647073717,3.9832573107791807,2.243098142614118,-88.51221392081878
357,-41.804299194457194,3.414440806209115,4.945425959853524,-88.81742050201446
358,-41.674421441369034,2.7707128050087375,6.828820441371098,-88.43247401069995
359,-41.708758845424086,2.0533315853448,7.865744803303033,-86.62173065731739
360,-41.65789513145377,1.3082525658350006,8.166928975905728,-83.12821501809583
361,-40.517090588947056,0.6070008139744202,8.022518208056606,-78.18055286770357
362,-38.04226140929918,-0.005103736116088331,7.9216758888791485,-72.41163019426443
363,-34.301754590231845,-0.5511694292362646,8.095368662726495,-66.40623296036523
364,-29.804586087390607,-1.1114813767279275,8.269173408456568,-59.87914441479827
365,-25.249608200455558,-1.7728063435565584,8.4243914323536,-53.123952993036596
366,-20.890995610531398,-2.58460558586275,8.511732202556665,-46.39418742155764
367,-16.986618878270946,-3.5453899970412714,8.451807665184283,-39.98271286036466
368,-13.76240405079136,-4.617996102723408,8.390336967348665,-34.15573587369168
369,-11.225452207605377,-5.758023576069665,8.524422520138188,-29.083624742597284
370,-9.26603789998957,-6.9307960249934,9.002010713341512,-24.811369097547466
371,-7.760784335060263,-8.083007392021937,9.7248979073936,-21.27713382542575
372,-6.606326235768112,-9.294856197233425,10.427476049814803,-18.346462563376814
373,-5.694214712970472,-10.40942149258965,10.859694471515496,-15.83949688026423
374,-4.900229289778708,-11.238932574607176,10.92655882188076,-13.562620506799064
375,-4.12440882981948,-11.688145301215002,10.914510268848986,-11.388667767915557
376,-3.3221909099953746,-11.777972588619352,10.932522515519704,-9.076771181970328
377,-2.3394027746021124,-11.738846006970443,10.883571872820424,-6.288699003136766
378,-1.329428364300219,-11.747507850674506,10.44948015693828,-3.468077382706346
379,-0.5139631580929314,-11.785487683311528,9.622882743663693,-1.2411385660181895
380,-0.03542726611703431,-11.335053564890826,8.397945597114646,-0.006114572742258462
381,0.10299317178353704,-10.49090909792933,7.146554557401227,0.2728553031839307
382,0.0342184299483044,-9.560407658122005,6.260043029859616,0.05048132599634639
383,-0.03636191818087724,-8.895314778627375,5.7909196742860685,-0.08375673152306821
384,0.14956545274472366,-0.11330263928269374,-0.09947876140808631,0.06330732381403903
385,0.5823919971476483,-0.4875422240171775,-0.584793115716961,0.3365502356910566
386,1.3634107294460116,-1.2693876793656234,-1.680069849320497,0.8984274015117667
387,2.5221651204367492,-2.5066777138652787,-3.4272390238067434,1.9189514460834056
388,3.729617567289874,-4.072486571450625,-5.80580251911123,3.129329403055889
389,4.6571009683058575,-5.99743323951064,-8.64769973067286,4.156929035504654
390,5.1464803078372805,-7.882423865539277,-11.296274438759959,4.75436462816896
391,5.192324830010722,-9.313965427140126,-13.185285707808,4.846920005503887
392,5.227339336342993,-10.089653166801003,-14.10518640413201,4.876725761077139
393,5.291954308302913,-10.229102005392255,-14.138594861930278,4.937499330170037
394,5.126320739152417,-10.1899184166959,-14.141793995826498,4.773059772331236
395,4.288319187769135,-10.215449796086926,-14.261898054087544,3.8531984392355163
396,2.687343313076471,-10.140570967082063,-13.959799511107523,2.112279174041749
397,0.5050584898292031,-9.399375259039134,-12.61735688187194,-0.2324713254003834
398,-2.0226339766506642,-7.860925588606632,-10.202656935267186,-2.8093943381349904
399,-4.2363209668232145,-5.585344416720689,-6.99906188623284,-4.928051172935625
400,-5.889187979125355,-2.86203420784666,-3.5171945902957713,-6.416209093651375
401,-6.738361170034387,-0.033193544227518634,-0.14000012447881716,-7.139786318088722
402,-6.903961762133259,2.8779534576282426,3.464696851709709,-7.223436198989149
403,-6.770339833537507,5.70834119559429,7.110049003686113,-7.182249389708323
404,-6.740823444464758,8.402212441202883,10.756817274346101,-7.197896071036497
405,-6.79418735263087,10.83591114742193,14.062636412841485,-7.0858181706920735
406,-6.51461713562104,12.724167775987349,16.54593688174261,-6.461618941430861
407,-5.870856525086106,13.887517306909762,17.96392688458858,-5.367078126883085
408,-4.912528125012752,14.361341375245866,18.44358770056159,-4.0156339875576075
409,-3.8162877839431473,14.327760627384409,18.381550340434266,-2.6490362236840337
410,-2.6387842709297735,14.308064607897684,18.265437309137194,-1.443221666177398
411,-1.560202025259577,14.393178379227416,18.282498090399027,-0.3921511013245643
412,-0.7054732393867708,14.245544994778415,18.258705111177534,0.3365676746692696
413,-0.22201193298509292,13.563236405806576,18.166342572869397,0.6906792052651268
414,-0.12265195825155148,12.313941615667051,18.05646482741974,0.7050655993057094
415,-0.14847961455142356,10.647403170448356,17.939603587403173,0.7003128947039226
416,-0.15262615617281433,8.854736975637811,17.76776593166854,0.7410561239017064
417,-0.19648049677762036,7.178383824861794,17.39050418206746,0.6512375729717969
418,-0.5832319095860956,5.497397636010152,16.555078874247027,0.12588933350600512
419,-1.3205663146256796,3.903119518626634,15.136903665357854,-0.6875074795952307
420,-2.3339744969048155,2.439708109385477,13.114910695943932,-1.4863957879371972
421,-3.441052138137988,1.1175712214956164,10.633585862833232,-1.9756800298585186
422,-4.336233862460769,0.07175556465867527,7.961777453100765,-2.0520941831160213
423,-4.942722942192996,-0.5990126740133567,5.3855669453588995,-1.9681538581267672
424,-5.222996402717603,-0.9023260445266835,3.1118364960698632,-1.9536238590080754
425,-5.227850576530412,-0.9373694027120133,1.2387131945828778,-2.0242220795729176
426,-5.233580463634905,-0.9012873279510553,-0.22328957305935865,-1.9387945053245712
427,-5.27876215888661,-0.9037383507800895,-1.3446167397194846,-1.6432860942178276
428,-5.190035228314775,-0.8653928785254651,-2.2989579751666236,-1.1355607341631322
429,-4.727256838946515,-0.7104171501304338,-3.2913255096819256,-0.5094364859385448
430,-3.802962048630491,-0.5156157605799069,-4.723491099299092,0.16321808181758807
431,-2.4341762552574755,-0.3567448058102001,-6.3827467467956165,0.7232684807985936
432,-0.7582706447446191,-0.3156469135174344,-7.8216746766716065,1.155681665931603
433,1.058298788913542,-0.2997479533137468,-8.68405699565617,1.391140719707429
434,3.0299282573517257,-0.27382563614110444,-8.906668670556122,1.4506634831835543
435,4.968510910898546,-0.34141519999373576,-8.820578590423297,1.414690053025405
436,6.897883866708863,-0.669540019412283,-8.69550550834985,1.3809894841161123
437,8.570082409508576,-1.2851223622103993,-8.684464719491288,1.3999913220932143
438,9.747841522156788,-2.1293460149501047,-8.563409521079846,1.4089430556897464
439,10.351578112512392,-3.0867388331138863,-8.442354322668406,1.4062269202004964
440,10.462092890077605,-4.064168968823921,-8.422205279335344,1.3618007655487805
441,10.405412621370443,-5.1443517267708225,-8.330057134236398,1.1637606029269278
442,10.40677100407266,-6.3236664918803145,-8.178794473517089,0.8426774005878257
443,10.383333389327527,-7.398637772427617,-8.44633600187026,0.5110913021386125
444,9.96847634658862,-8.163162958402676,-9.338065606126703,0.2808632535885711
445,9.143845414017512,-8.538782498698367,-10.550878502165233,0.1914184848019028
446,8.00722811073353,-8.584674784900283,-11.618549963900344,0.2507859211094421
447,6.732164139447139,-8.551880950878642,-12.149499431459718,0.27509188816543106
448,5.424926535180678,-8.550382544478621,-11.988484923076951,0.18079056114837055
449,3.9468910216720205,-8.507932730304642,-11.9975977255768,0.054875997644127275
450,2.1939042961001047,-8.258108814374896,-12.19697622095375,-0.07607761341504117
451,0.16721544355107687,-7.815286109658575,-11.888145872194107,-0.14135186516927395
452,-2.1015943577167433,-7.232443314583221,-10.728074700946166,-0.08842777172446523
453,-4.531971739777465,-6.590449735550512,-8.672341019922042,-0.059961290295451886
454,-7.352056204938741,-5.937022007192389,-5.998860313819102,-0.2564293171787067
455,-10.116569033812139,-5.188683653484146,-3.213373207133776,-0.7687608847786653
456,-12.253503000191612,-4.354124876730345,-0.7816627070738711,-1.4734860797999412
457,-13.43327200561606,-3.4390198636599254,1.615209454295536,-2.112316098716482
458,-13.666697819241781,-2.4632235469966313,3.6034045290144494,-2.4707908497572966
459,-13.570997831609116,-1.464472829277662,4.939147318069815,-2.526813368693328
460,-13.590211643588425,-0.4967516009640075,5.591152586381282,-2.4898367396101286
461,-13.526658791966202,0.3862050729271675,5.724623360102268,-2.5039330042350976
462,-12.59846606970418,1.1559114375732078,5.612509538256009,-2.511720502739717
463,-10.701338137697784,1.7984378853168894,5.565276691133366,-2.2442038997938236
464,-7.995315388425324,2.426867345230647,5.639692426222906,-1.56883604494735
465,-4.88935183816421,3.007051580532865,5.5436245675860425,-0.38341717359617633
466,-1.784171496121814,3.4570045296998444,5.214911780340042,1.3135256528629093
467,1.3522068416211956,3.7186795904996193,4.610333958276175,3.3962180645908386
468,4.441914612276407,3.7838162712854095,3.816505390505513,5.764437973459364
469,7.325103664703474,3.7492765820678984,2.790853432912178,8.396533868699763
470,10.038321056944605,3.7845032143084647,1.7558730371130824,10.782307698303862
471,12.299686701867133,3.8292208530943848,0.9083514362994264,12.478641548565495
472,13.86091009335987,3.4986443546227775,0.40792706454045385,13.330301638862984
473,14.651147064817474,2.826739842142935,0.28960171039461174,13.426828744275937
474,14.742061924812186,2.050830851093613,0.2940204491041659,13.414233444064665
475,14.740165911867448,1.4652939891708194,0.2913956784406757,13.453159042923254
476,14.79477215532371,1.2546291888556789,0.4170041833141596,13.258655091123588
477,14.612143244021143,1.3544343710821904,0.8824357285081845,12.324391133857523
478,13.640734051119003,1.3688919011422154,1.49486955929523,10.67914797340112
479,11.825839373953347,1.2939052205440356,2.018974254103686,8.592197842903001
480,9.39987211385639,1.3974113189318729,2.2648448041509317,6.5106461844079915
481,6.899860045957608,1.7480535008758655,2.2019563580714796,4.772731710189707
482,4.627035372110338,2.389522042994973,2.164209630518767,3.1715297571787624
483,2.6098518592643773,3.1232949269066106,2.1959059017065847,1.7757123799806191
484,1.169823222767834,3.6849842353355977,2.1518806340384247,0.5824558356929354
485,0.3841530538266736,3.9245336875673336,2.000976997886002,-0.453126278306855
486,0.14391186385001076,3.9712835524958776,1.7442859613763686,-1.2425746439993566
487,0.21085233285246904,3.947484624747096,1.3023310279806897,-1.7588999927455695
488,0.3072566243287838,3.957088664834684,0.6168428853475066,-2.037321504986701
489,0.27291678924919405,3.9528099935316856,-0.1395621559160257,-2.103109700938349
490,0.2680282068872656,3.7305981616281683,-0.7974642318155517,-2.0446618981700833
491,0.27180035801953595,3.2141450215948524,-1.1700847517382942,-2.0798264632194328
492,0.2755725091518063,2.406795775864542,-1.2055320204780036,-2.4585515784545566
493,0.23719084944815316,1.3582467123143245,-1.2028626825580147,-3.271731737668558
494,0.31748689458668283,0.19461574355631223,-1.2435665378715166,-4.855621732004579
495,0.42463496487590113,-0.860711092631902,-1.1276477908318723,-6.766679704625955
496,0.20388726641818,-1.6036732361021149,-0.6251547253123904,-8.372956140574088
497,-0.3942088578736638,-1.9556235844275336,0.20238327589937985,-9.305882042000384
498,-1.1652295153911318,-1.9666608648399877,1.0929114752699813,-9.516621392260895
499,-1.8115538253728491,-1.960483887313845,1.7180882021441135,-9.467915124515544
500,-2.099690457218685,-2.0003227924627254,1.9139314115591497,-9.441106450904776
501,-1.981407760164228,-1.8930744811589082,1.948572579216829,-9.347324762845044
502,-1.9753400810090114,-1.4536228885835043,1.9992951451843928,-8.665402159693375
503,-2.080665934797066,-0.622241000002552,2.248009531286322,-7.440759468040739
504,-1.897843612707177,0.348152329343021,2.632019606389223,-5.890737944984657
505,-1.3875153877237592,1.1075658514485855,2.986021119671035,-4.373650947203696
506,-0.7233392079269929,1.4466902355839113,3.1955839503835852,-3.0754480720695963
507,-0.1602061436721425,1.5346523783312644,3.246094132851195,-1.862784475932912
508,0.09895776553565604,1.4789457568786406,3.214775195856456,-0.8695201871740381
509,0.04144899947262421,1.4294671945082236,3.187354314026018,-0.22495210494243978
510,-0.01695595437242944,1.4571007689824946,3.2019368011006817,0.049152933400386956
511,-0.007746074959823392,1.4571007689824946,3.2019368011006817,0.05993391682579109
512,-0.09597116416476756,-0.09003091046108691,-0.06559034909475409,-0.060085349134809174
513,-0.30086776220231803,-0.38320263833671364,-0.2924405148407083,-0.2722765195697669
514,-0.6733702259212355,-0.9795416069611554,-0.7956443273055428,-0.785148246860587
515,-1.2231008153333751,-1.8818839762879294,-1.6434385300742844,-1.7018477796502147
516,-1.917890037776986,-3.0813985709278904,-2.8208018788072264,-2.9727770823306727
517,-2.7229426738089884,-4.42200319435359,-4.2052311463837135,-4.635561988790883
518,-3.574644162923117,-5.592425393718953,-5.907485462068577,-6.305501932415151
519,-4.62224549430649,-6.362386912959371,-7.617693522979726,-7.57705199941004
520,-5.749389311038733,-6.684982512706622,-8.965535241949608,-8.259207704555177
521,-6.722220219943939,-6.656545235608226,-9.73634700449823,-8.39418545969163
522,-7.346956297190704,-6.644356277950516,-9.90744036200873,-8.332011023514713
523,-7.5710249377436964,-6.708617448288587,-9.842491354898677,-8.327696336368621
524,-7.456731770192987,-6.5989249063916,-9.884930726127635,-8.297867960060966
525,-7.467197105299697,-6.105126889970187,-9.872547276697615,-7.8413338634395116
526,-7.634839667488673,-5.200293273773634,-9.151167450558154,-6.930677817562688
527,-7.471922292102581,-3.9891915745024895,-7.548428487082246,-5.628462293815984
528,-6.623511708829406,-2.6779835379642214,-5.177552767914667,-4.0676907924785155
529,-4.860569542822262,-1.4422799291120898,-2.45035514158132,-2.336815464220775
530,-2.2130853248142777,-0.20456139997214284,0.19381616812418256,-0.32463660286156504
531,1.0226437268117141,0.9540884276449677,2.7377809633288903,1.951013207905787
532,4.4259536225711,1.9914486774859528,5.252507538005263,4.301638891565657
533,8.074296151074936,2.884453329006595,8.014196827295017,6.5162867302278
534,11.681949661396763,3.6332142695966154,10.66119728085325,8.426833062311868
535,14.663935916853625,4.261461301335977,12.686757487520145,9.966534521086901
536,16.59234720484466,4.8103002065161276,13.8021498973561,11.312941459491702
537,17.421300366559617,5.325072967452145,14.056599146532458,12.435407006270845
538,17.367941010726007,5.837240834294967,13.89713693756443,13.246138497740125
539,17.379010585857625,6.356939211449085,13.899842365456571,13.695176206274636
540,17.560381657820074,6.871707887019306,13.984154852870754,13.762419306303178
541,17.23887494308646,7.301245633804354,13.394961101825198,13.794063023876541
542,15.7615032265991,7.582464044347694,11.964651738788934,13.845017284083356
543,13.013879623733931,7.708350939917977,9.824151634460396,13.70730058024589
544,9.25452738284881,7.719911145894069,7.432569617721036,12.962633262122456
545,5.04416958591822,7.703249019157824,5.391788746545632,11.531884485804504
546,0.9566333872915207,7.70042553642055,4.004858150082604,9.548755237357321
547,-3.353397982282448,7.69645905144394,3.176662392096315,7.351887325326542
548,-7.3331188194448345,7.641347089989159,2.8450937964426974,5.289678587322342
549,-10.342809038895291,7.5171917376846435,2.7910732837172305,3.3306968589985493
550,-12.062027390643221,7.295151781954778,2.775381484940676,1.5765469176973133
551,-12.636096321177158,6.956343395694379,2.670474822852256,0.016764838631643075
552,-12.476371616844132,6.501663768296725,2.594594225232205,-1.4071901916588678
553,-12.440226004135,5.934279375610093,2.532250487796892,-2.6592805655976983
554,-12.611204664994428,5.290059825736422,2.3594134904930546,-3.5961479900018603
555,-12.36607503082764,4.586166093325329,1.9599254764801894,-4.145790092796167
556,-11.37047843937832,3.822175388526819,1.296920811694725,-4.3401805163561065
557,-9.583621379704956,2.997317910550353,0.4934345930185391,-4.351357600906612
558,-7.220415332880669,2.122719418783073,-0.262463689678913,-4.332778093845337
559,-4.695525783720625,1.2221138686353343,-0.9028344602869935,-4.392176653871616
560,-2.388364563338975,0.3286705864560939,-1.5770852575610141,-4.431222532239319
561,-0.20205050693359183,-0.5185023416818526,-2.3753245947231414,-4.431572932202322
562,1.6144335606647862,-1.2751333875636226,-3.332294314263154,-4.552990045105163
563,3.035552064713301,-1.9191150208381702,-4.590575513622603,-4.790545531592628
564,4.117145245164262,-2.3958072535072343,-5.906579702055371,-5.082794718102241
565,4.880461027144483,-2.6837265474377316,-6.9568794746277485,-5.3123214552981795
566,5.348269111297681,-2.8078446165373165,-7.548781225909074,-5.395242217609787
567,5.550708960594485,-2.821134960041345,-7.65711868612521,-5.382754107793519
568,5.550358470197002,-2.801409100773817,-7.652454302656605,-5.3915954137778375
569,5.516397619929782,-2.8027736671246797,-7.66498173963765,-5.373207865818723
570,5.5602230394019605,-2.8113799480532564,-7.563031554393056,-5.1084674178548894
571,5.64442703169332,-2.751972633963216,-6.938995192697064,-4.467973942145195
572,5.707241072883986,-2.5840478985221864,-5.760364182438737,-3.3500335333248583
573,5.7450356990384,-2.2900170466374763,-4.18067541767866,-1.7987359804467409
574,5.739811723723381,-1.7752013582716746,-2.5581356515158795,0.2898307022368968
575,5.7152703944742695,-1.167317103868764,-1.05794563512368,2.6457200650988977
576,5.706117294796798,-0.6400452895678987,0.2602604820658337,4.684046164193476
577,5.691119194141623,-0.3173684010663317,1.189567809245336,5.976131562528417
578,5.631057745046841,-0.24673666962156632,1.6767636202273017,6.4533496743340395
579,5.7148931054956975,-0.2537964007637815,1.7860663828583034,6.302622792394409
580,5.832068624320041,-0.24114208190100575,1.7409415392290046,6.321726385511603
581,5.680724691840862,-0.28274235388640584,1.70388626827737,6.527805737328195
582,4.983413509725759,-0.6363524190585133,1.6864244619843727,6.2159000341906205
583,3.6283667191898874,-1.3561556970398425,1.4857817500856052,4.983102099309596
584,1.7395592073855048,-2.396824262384349,1.1930377298721258,2.803312742357866
585,-0.40511402231129223,-3.6167252384130304,0.903272076648648,0.04838303084435769
586,-2.5207754855859212,-4.840570254065122,0.7373693791043291,-2.6503765355654982
587,-4.903436468551882,-6.260724973608438,0.7328263061337104,-4.8025318349765955
588,-7.197142199445159,-7.667506457830012,0.7548473275233125,-6.632297125474939
589,-8.960510896180052,-8.771969866650593,0.6966363348327104,-8.169080921599493
590,-9.935759882810068,-9.398349960605085,0.2542739486386071,-9.366776016157754
591,-10.18903670729691,-9.539985815558834,-0.5908369140913128,-10.167644802430154
592,-10.008024321184333,-9.474488822780222,-1.5730369813194105,-10.57033017501327
593,-9.984924220913872,-9.48132329337701,-2.33990864203051,-10.63899146491185
594,-10.126200006825933,-9.485957923853004,-2.7015892685251446,-10.608115962033155
595,-9.918393591715327,-9.05190412003389,-2.6563425237530183,-10.631767913432745
596,-9.306648159528695,-8.082209318882253,-2.637035313034049,-10.604867337519932
597,-8.392790264005388,-6.622326213186239,-2.7378798092839665,-10.232386053012732
598,-7.423429943950181,-4.902062408575733,-2.600133384954503,-9.488521532823908
599,-6.663735028996687,-3.215237171201817,-1.9063516210348868,-8.479325348908677
600,-6.236999559126911,-1.6619763154266594,-0.8254060345207695,-7.425022103078027
601,-5.903050331988518,-0.2742326398401585,0.24405458216882892,-6.534604611215828
602,-5.684912393601615,0.8701237182042141,0.9074298600822357,-5.804056861127772
603,-5.5180850811850926,1.7536377859725842,1.0220336951727875,-5.189201960215304
604,-5.258041857306607,2.4021649150008333,0.921595121598598,-4.660659436051397
605,-4.762742223693749,2.8375674383802028,0.8976706231926752,-4.123379552695286
606,-3.9972973128247067,3.0951084115179333,0.9700109618149406,-3.4640175345363784
607,-3.03731637748608,3.224738300754104,0.8814158470990618,-2.610118525751917
608,-1.9722590972194058,3.2594252020251107,0.587214578599266,-1.5525375683876184
609,-0.8241066855157557,3.247828455556531,0.0888453387098562,-0.3207230211761782
610,0.4317799645431445,3.2538278872049697,-0.5436092415197349,1.046650424417178
611,1.7774579972291407,3.333813733863367,-1.2004763417671755,2.501319707398688
612,3.084646020405532,3.5107272058967105,-1.790365936277127,3.947594599042314
613,4.3581455382927405,3.7908598790686647,-2.508290492633789,5.3706851907946564
614,5.4390953283763634,4.132814301339804,-3.228461230607512,6.571108281134595
615,6.198472330710799,4.4987209839447075,-3.8033892509891265,7.388428481183646
616,6.603033294597339,4.850774619155088,-4.139846039069249,7.793121742304797
617,6.690727646588866,5.1292095636798605,-4.2296501836989115,7.871753236800157
618,6.673777958280275,5.2983096920316095,-4.192593914682172,7.818375964979489
619,6.65629173666388,5.362064452290026,-4.166559136319778,7.794189091681198
620,6.622224819471439,5.355517111580612,-4.179243415109124,7.810351844815658
621,6.334860764208078,5.3474751764220185,-4.05458163060703,7.676661365610112
622,5.778826060504949,5.35238539691996,-3.7410511453578286,7.3820362848190415
623,5.029555445532357,5.3358586835278174,-3.174526450260055,6.960571127886211
624,4.282417752803113,5.287274904512372,-2.3337673685364555,6.518230931019336
625,3.732534654546777,5.21728707093758,-1.2508405379565475,6.17701641946222
626,3.3629681909682385,5.128361035175835,0.03771734071120514,5.971844564233719
627,3.1300722703453423,5.00187236509117,1.4158684201777647,5.886729437827185
628,2.967991433299996,4.790714072917942,2.9070412465167776,5.870975759981507
629,2.82014574632071,4.424505167642628,4.280805564502163,5.838910308910681
630,2.7302275935794342,3.8948873172576817,5.296905932596504,5.677191484176954
631,2.7266973470203584,3.2324819373543385,5.842785201912625,5.284151899051725
632,2.6456530435131023,2.476154584592986,5.9721117185974455,4.62529073840988
633,2.512701912758654,1.6329108845035458,5.867216793472524,3.7560177018099106
634,2.2564582984846457,0.8538713623594806,5.868045051682342,2.8012334308770233
635,1.9641086583745146,0.2866238068792164,6.002085893046219,1.848741287649838
636,1.6847062656308682,-0.004558622829075376,5.710722022878038,1.0171001296376845
637,1.4914953432323474,-0.06267463972250992,5.038413246671774,0.4116867547165799
638,1.3583476585306173,-0.011006849271607888,4.226555948115609,0.07170157510323766
639,1.273023587409698,0.020289742705181933,3.588314322391963,-0.04069323825067263
640,0.0,-0.09836211095453451,-0.07208033418192045,-0.08673753151941913
641,0.0,-0.39518346006769073,-0.4151786255488199,-0.3368807499702474
642,0.0,-0.99748246623621,-1.2087063111924452,-0.8244105315142692
643,-0.0009381876140380119,-1.9330472336572695,-2.4766615060816433,-1.559147832428865
644,-0.002365052756532813,-3.126369291175466,-4.379612852634837,-2.4611481943262645
645,0.0017641581786404237,-4.573821466427358,-6.457201780597696,-3.659565550054014
646,0.010034689252368952,-6.188499431221,-8.13846245084904,-4.930151057805338
647,-0.0061374536129435026,-7.648330156956204,-9.093117194018774,-5.972947438348577
648,-0.08482808317078915,-8.667590266531965,-9.277092170885822,-6.588051260434739
649,-0.23407728686522486,-9.145281782833152,-9.260669172583468,-6.750407641862483
650,-0.44234359199515594,-9.132255455939568,-9.277453823908708,-6.644658272242027
651,-0.7332821218070251,-9.146576378114608,-9.12161298557089,-6.669007704126509
652,-1.187509113824372,-9.24953245944109,-8.157940607478665,-6.7596101978548
653,-1.9002557355768204,-9.059672768964264,-6.384931533864153,-6.400363159667611
654,-2.8569685551722825,-8.176890114058496,-4.072687535612188,-5.405178849443312
655,-4.1744312931814385,-6.529157284592488,-1.7138110702149336,-3.774840466602809
656,-5.557865651056011,-4.294235341184526,0.27461279453368137,-1.7717568876527245
657,-6.661768953516897,-1.850587076637581,2.027400329418976,0.20123409608373133
658,-7.29613152859602,0.4685381676996375,3.503655331235348,1.8877858159151562
659,-7.4617300623513225,2.792093511898347,4.697502837684071,3.4422192004424472
660,-7.3620238763431525,4.978325874032571,5.633642691327353,4.820404240962026
661,-7.366045599665261,7.025203179161057,6.378982628726705,5.901520024328001
662,-7.443016596811313,8.821508885754957,7.023565101470835,6.591549275002336
663,-7.118891780291447,10.163363680061023,7.621203692548426,6.889107372186595
664,-6.224581547451815,10.946836000070336,8.219706162568043,6.882726734098664
665,-4.707658225421157,11.235118671899444,8.754031881079156,6.860248605798026
666,-2.730392100011772,11.203572727602507,9.12152486141675,6.8899537648175295
667,-0.6021381971410418,11.164626354965861,9.313984033890161,6.810303403229368
668,1.4609268549137822,11.203135758277607,9.39255786872871,6.504773870646352
669,3.4790828052824354,11.148138254213688,9.42934741123151,6.006827749056909
670,5.384044434836509,10.879452958916085,9.478557158570975,5.4249824922736645
671,6.955205588344184,10.388194511113507,9.558594405433452,4.9104513677977915
672,8.002238627755261,9.72754166838325,9.597014917965293,4.549239854816563
673,8.487349303282093,9.002012682790724,9.602305702625952,4.2259270129847195
674,8.574146977369793,8.295191439250717,9.541581178068187,3.9416925553388573
675,8.506298963980194,7.547930794729554,9.489657660705584,3.6760756342014234
676,8.534426166534685,6.786977823700535,9.507642889918227,3.413913388997378
677,8.672954563470835,6.011313587795501,9.447630503287813,3.1801535632765527
678,8.772761748225419,5.216919874438984,9.002548696271834,3.009991873364461
679,8.835089283662777,4.401723778682973,7.86518809626885,2.9153404072922044
680,8.858700669062145,3.568303653161248,5.931210949580789,2.881645581034508
681,8.856620549538974,2.728932544160342,3.3824056082412284,2.892521567921295
682,8.8414454059801,1.9138892959479061,0.6801774620479977,2.904408034294869
683,8.847101049405804,1.1754714339584615,-1.9371779795932142,2.889147155659209
684,8.834786408230665,0.5819136887210226,-4.24004049388871,2.8599222327490113
685,8.840443137806266,0.18397575346244296,-5.939328679487548,2.8286038942050435
686,8.879998201471793,-0.009634199759644389,-6.9268482039864105,2.7842825604293324
687,8.88894046218862,-0.04940776125303528,-7.2989058998953364,2.8074809294655187
688,8.701699243866196,-0.036127267317274725,-7.23952293482189,2.8685562267022062
689,8.114525612193312,-0.09587192004903994,-7.2463636199539945,2.8254827327763237
690,6.9885711519899285,-0.35387826592063826,-7.361279579440794,2.5227258451418817
691,5.319422775145246,-0.9088363954598855,-7.201355885225773,1.844374731287148
692,3.2229371488940832,-1.803355251660538,-6.418938595236233,0.7855788226385401
693,0.8384894387336159,-2.973978330903125,-4.946408082679392,-0.5172501462494975
694,-1.640192052041717,-4.3854029090301125,-2.9282691145691344,-1.844061674244251
695,-3.942339059797157,-5.8544398277412055,-0.6821395986915113,-3.089195099771457
696,-5.830547284537436,-7.077201764360035,1.1859419163762461,-4.050686135440697
697,-7.1050434934137705,-7.851568211563244,2.5075513275426133,-4.630236339205235
698,-7.763757373778857,-8.163831939677411,3.1412431724154666,-4.865033994978511
699,-7.98326340599491,-8.128416759513488,3.1779724885674514,-4.883297068466182
700,-7.988749511569697,-8.116129534337466,3.177294219480926,-4.844533853427791
701,-7.9425658244137,-8.182350976140453,3.2487350879964056,-4.826804968749802
702,-7.937027412643801,-8.068446282729763,3.0700794870240893,-4.826161921751208
703,-7.967848692299352,-7.579767875442017,2.2004022000973924,-4.8036103845511855
704,-7.939047884818858,-6.698001196415148,0.6822011138141287,-4.789709455163131
705,-7.806150780312601,-5.524925054243424,-1.4719417304131757,-4.7812980739269015
706,-7.520901554874985,-4.250560714498002,-3.6153077355328067,-4.680300950585365
707,-7.081746846436378,-3.0339298982377056,-5.107038825755424,-4.490560429483077
708,-6.53644835156105,-1.8151151348115617,-5.95213452345562,-4.263771273573356
709,-5.924897565522424,-0.5990603927941136,-6.153191685711073,-4.092390663608132
710,-5.209647219321926,0.4555651752593228,-6.039537613216502,-4.031415656602564
711,-4.3277741252953,1.197985973922763,-6.02276216831263,-4.062534228690149
712,-3.253730342298533,1.579742289954679,-6.065143158265425,-4.083428694250587
713,-2.066863106477507,1.6595343194506629,-5.663980432763822,-4.039761342573435
714,-0.9232112953109607,1.6041913347808512,-4.79695442321179,-3.996628816465476
715,0.04039826820572601,1.601343471865366,-3.552063672833951,-3.933364135099356
716,0.832237838432772,1.625726253548958,-2.3380328194774753,-3.950866535060064
717,1.4796204573109064,1.4453258163588973,-1.5513246320874936,-4.005682093609021
718,1.9694903617243775,1.0390582255366285,-1.2431520471825217,-3.958899409558469
719,2.2742745517278067,0.38859676116748004,-1.194337795937511,-3.635957530979609
720,2.394432865483285,-0.3061265455346655,-1.2380693336668525,-2.922914682188557
721,2.385281046886371,-0.8133528657665323,-1.2749246026712668,-1.7872624206650474
722,2.354771371290862,-1.0559285266746143,-1.2786162232593914,-0.3395944469949802
723,2.3763861902808396,-1.1106890705578913,-1.3248305577529065,1.2152313182000856
724,2.3732232468185,-1.0746344105625412,-1.3710448922464216,2.7583088952234007
725,2.2872338183177967,-1.0617728139312876,-1.3751791617830147,4.168643251082446
726,2.1401875531106858,-1.0767284872282294,-1.4192632521893136,5.272759251550699
727,2.006004744379313,-0.9901944676312696,-1.4548287281349426,5.975581887586035
728,1.9313752369089718,-0.7948088254964466,-1.3827829974556283,6.296909807620388
729,1.8757356129713183,-0.4430762326138601,-1.07987604735723,6.318753697056698
730,1.7321611614964914,-0.03433963223519228,-0.41491416539614046,6.317436048348669
731,1.4398067302657704,0.29431474374827277,0.42578562927408603,6.349633006363076
732,1.0507323081275908,0.4771523576276328,1.1386213105472318,6.286564644284048
733,0.6353488816571162,0.5240857841238296,1.508066496063749,5.857114290678744
734,0.19609599071413936,0.4988352947024217,1.6117010030903705,4.945204010397495
735,-0.3009389544444112,0.49914360774026606,1.519564051253587,3.543811520144705
736,-0.842375532026914,0.5111094588652813,1.538890579586051,1.859408753690926
737,-1.3892483186181237,0.40662261813373507,1.6372982685882094,-0.06445354015924448
738,-1.8319460090254973,0.16321251460270264,1.517001323085958,-1.949037328330307
739,-2.110808945591236,-0.19809383951550635,0.9442261032111481,-3.3655579255842833
740,-2.2400444015264664,-0.6039037868177373,0.05420946023175505,-4.129731615256188
741,-2.249993215636729,-0.9306346029260735,-0.8223797640484085,-4.2961428500752925
742,-2.2642808521361073,-1.1235055626915322,-1.3620838309325338,-4.205327674125932
743,-2.2772822268886674,-1.210883723228299,-1.4223996965830004,-4.200062039074089
744,-2.2248929174836536,-1.2104965427901657,-1.40687530562401,-4.218481977869178
745,-2.0029019072746546,-1.2100022772013812,-1.3983353545853767,-3.779916191687769
746,-1.60187202055368,-1.2247059214662395,-1.334193109731658,-2.8152984271574955
747,-0.9644429204526841,-1.2028566186789145,-0.9511245043046443,-1.416200230314248
748,-0.2440087785217061,-1.066612692326606,-0.2560809058141444,0.13425276833251093
749,0.3429645990783734,-0.7790013795219104,0.6549960769569285,1.513535338903265
750,0.7308306974341037,-0.32828942166895214,1.5784539593744698,2.6373244173495913
751,0.8648927803734896,0.2511518087285106,2.423828413699375,3.542827336510071
752,0.8120158254492003,0.9092937338738247,3.176296234099256,4.280751703517597
753,0.8035046639190786,1.6520846649517245,3.708948817714425,4.848807691220893
754,0.8685744030449314,2.325987027118858,3.9840216601281786,5.2299590451460585
755,0.7548820370675893,2.7988309124824977,4.044917310055208,5.427264037469861
756,0.47184472664629973,3.028066861146938,4.004290922538236,5.462544877707103
757,0.12491604676491064,3.0536359769894834,3.9964328444323476,5.454683348449309
758,-0.15098729373381556,3.0405906413364834,4.01358868640424,5.464569683036441
759,-0.250215862610765,3.0401225845898248,3.9064887706180986,5.444929173599664
760,-0.21659352575879734,2.9970166880067644,3.6714340539563124,5.237967089594583
761,-0.17994443666438517,2.8186471818741805,3.3233935453288805,4.810774929666066
762,-0.15826888929066205,2.5666603069322753,2.8913194069560166,4.210580071546571
763,-0.09292852215231534,2.336991249163543,2.418292005418435,3.59451268361927
764,-0.027588155013968666,2.2084897853689003,1.842188396168392,2.9588840863892356
765,0.012342069348354311,2.198120554919143,1.2291946888669583,2.3482553774943318
766,0.014520081586299234,2.203307660738364,0.7426048686240595,1.8597416815187326
767,-0.007260040793149623,2.2046933914588207,0.47585759981570774,1.560150656503417
768,-0.03965028175955582,-0.11222893732842637,-0.08567444658874795,-0.09579391680268795
769,-0.24159744182650456,-0.4553548240970926,-0.3543707549696664,-0.4345183935167424
770,-0.8061531085006179,-1.1657020549556143,-0.9274322026889537,-1.1536020888186949
771,-1.841386808193308,-2.2981644910175754,-1.8815473334445347,-2.226812230716497
772,-3.5333835489845913,-3.7551397072267996,-3.1754668725835753,-3.8240301298187
773,-5.522477963670028,-5.658687362054314,-4.9180775788918,-5.585864051896214
774,-7.230226925953046,-7.61766979199505,-6.731292834016935,-7.0406413895734765
775,-8.261285739505405,-9.168766421122818,-8.164694589088716,-7.894911714962589
776,-8.590950523728615,-10.04444830294403,-8.96099075685232,-8.133202783007311
777,-8.428528158232362,-10.248652623130745,-9.134432299664415,-7.939654100420112
778,-8.435648128171334,-10.121918886525405,-9.035843829079436,-7.996025718087788
779,-8.617952605292984,-10.145583336131272,-9.016594149989414,-8.216481858387501
780,-8.379628447293802,-10.21954782376617,-9.050393792807974,-7.791768023070254
781,-7.412055373161765,-9.673337283059373,-8.648518037200438,-6.337918977096883
782,-5.595876191711424,-8.28699776563713,-7.645261357754082,-3.7532258063682757
783,-3.0915221320979027,-6.056233348605716,-5.961980935829189,-0.39530092462878497
784,-0.32443486813593425,-3.2723964306546263,-3.730280559643641,2.992456434041088
785,2.2567111237233455,-0.3659803681723145,-1.2475064098484618,6.0252353334441295
786,4.702574646131014,2.4491118556618963,1.2688980330425683,8.588803301484369
787,6.971685085785388,5.150430778954473,3.650425769644762,10.304074214437588
788,8.849291353879515,7.765358488353198,5.7413881015531105,11.141104627616482
789,10.152672657456192,9.995416866567806,7.651964075489271,11.311245643248512
790,10.827411944776033,11.552117553611081,9.357052110244167,11.153124103679742
791,10.946429170183658,12.346485164591114,10.684865547125298,11.159783642479741
792,10.900341360695993,12.49976395699357,11.49713336716281,11.281692809979278
793,10.8848568583058,12.415769838683627,11.80473812706007,10.962027123170703
794,10.82280607602517,12.391243228199395,11.728916347308633,10.047892506635115
795,10.36271665581532,12.376696339153556,11.731310441007194,8.549627217299923
796,9.495406832378748,11.967049694833898,11.85968454773521,6.705637202788038
797,8.331783502953815,11.17073948183495,11.706448378092011,4.8609290984657605
798,7.105422606264092,10.103036447131766,10.952654566798667,3.2222430691149753
799,5.989973442286866,8.989359086122809,9.510783142640255,1.6788090768492272
800,4.850306922026743,8.022753181769055,7.5734126958581705,0.29870515794961205
801,3.660159567763412,7.146558600310866,5.55291974279154,-0.9273807846783724
802,2.4077169923082415,6.3015892036831085,3.840753751997578,-2.029971251145666
803,1.1720268674418395,5.474217745528437,2.416161226660826,-3.128727505430947
804,0.08559567586458627,4.6508620761075,1.3450779042425736,-4.117977403907858
805,-0.8906856061704955,3.8300812973892238,0.6375626605780208,-4.841874117195248
806,-1.702171004002468,3.035780612236107,0.2581271639793572,-5.221315039245548
807,-2.2891264070774753,2.222005510397752,0.1193183345036553,-5.28622865467813
808,-2.6164121550803197,1.4909160777654618,0.11347298549948044,-5.261892900168485
809,-2.696022996775221,0.9588623476423276,0.13706779401053223,-5.251853963484115
810,-2.6488971836662687,0.6762386506432132,0.11356020430618315,-5.215272514739323
811,-2.656001255066932,0.6045530338911842,0.13171277561316486,-4.959943693644428
812,-2.7033256351134245,0.6746974721700881,0.23945744654302248,-4.457277754795085
813,-2.514662118263196,0.7003038910201338,0.38939711584649517,-3.6766434732601745
814,-1.8781030668498566,0.6131817551984907,0.5232219121277881,-2.612561035368294
815,-0.7559562044416517,0.5144707679973418,0.5862357727726567,-1.312755577173716
816,0.4956156025461507,0.41084075434429634,0.5561715296626591,0.28977242738514586
817,1.4405166580856263,0.3643938141990871,0.5855263176394343,1.9223703232151854
818,1.8766407497705595,0.4114985269227041,0.6397328188823547,3.2214703448429214
819,1.888198918461041,0.4306438038581446,0.49755348431104574,3.981974146523812
820,1.86929929421237,0.23743697465481867,-0.011979836187611947,4.240856906675678
821,1.9139459324075805,-0.20464604971131578,-0.9235678200762683,4.193496379301468
822,1.7379741480292523,-0.8987765846835974,-1.9466663682211798,4.146570027949945
823,1.2706490835722346,-1.7513857313523564,-2.7173540334727364,4.179653928912194
824,0.7077795233320683,-2.6325872752405446,-3.0501994492459867,4.133345634692749
825,0.26825918517992897,-3.5015890604628446,-3.067279413501867,3.9416524146653735
826,0.13450771563609082,-4.418678607989541,-3.0533625240595517,3.600730063733665
827,0.1519115664126554,-5.243825144181977,-3.083847413218652,3.137136910932728
828,0.20439254910732504,-5.838412659300623,-2.9984848830255832,2.612289226214874
829,0.32561486124086236,-6.143217006428057,-2.6261593420662086,2.0664131386956366
830,0.5724230917583207,-6.182741687811507,-1.8013484697632265,1.446836456555954
831,0.8218685325554996,-6.175807599448016,-0.7492901635047932,0.7560988927665797
832,0.9769446233223857,-6.185714360513552,0.15187979208477495,0.1030295885106372
833,0.9446110062498945,-6.121761625168881,0.6309792363207335,-0.3886793901813512
834,0.9416615208569094,-5.812110498428505,0.7612321234144784,-0.6517479855843096
835,1.0613808025176854,-5.2809261014660445,0.7313678760080492,-0.7123353351984041
836,0.9246727341172176,-4.643493671628861,0.7001281177776786,-0.660984087163022
837,0.3345135094370706,-4.080707828056349,0.6606665362797733,-0.6518293860048732
838,-0.836180692532759,-3.727881692449903,0.3590171384012598,-0.7101646967030412
839,-2.4276874609238517,-3.516442845855531,-0.1821718923708192,-0.6489123235360641
840,-3.917059235034586,-3.4362236397409354,-0.9078805266085865,-0.44194973624871475
841,-4.850989676646995,-3.4229891069497738,-1.7330634210746723,-0.15430970251940795
842,-5.27868004234361,-3.3993791464204004,-2.5709459109386836,0.10405280310070317
843,-5.280961495953746,-3.3033935393524283,-3.6285546667612705,0.23823982051662324
844,-5.2589679322715375,-3.1009856644086096,-4.721891369164896,0.19543467047075114
845,-5.2883131489663615,-2.78495342747015,-5.592077304157733,0.22244830797623766
846,-5.172632605161844,-2.3678621726885174,-6.084282502651585,0.2933285223176444
847,-4.760745540506707,-1.8710561529166603,-6.213480717078152,0.1787192955245328
848,-4.015353235363146,-1.318921853237155,-6.111953437967177,-0.27411495072856906
849,-3.148000308502764,-0.7379672116903309,-6.120060205701892,-1.0670819635651347
850,-2.465025872879709,-0.10820953046317894,-6.20959657288032,-2.049389198012167
851,-2.1477136632159373,0.47391101300980587,-6.027944293202859,-2.9863289387861434
852,-2.0324421635864707,0.9040470231999413,-5.5121430284691,-3.708863953122897
853,-2.0956926915564353,1.1316641622014787,-4.7427718408019,-4.322474792374248
854,-2.0976327617862602,1.1613409813652398,-3.927890934035317,-4.816213305152897
855,-2.009079695968464,1.16464306954901,-3.2654233296480863,-5.196988723144359
856,-2.0776031966858044,1.1791460380469774,-2.7715155446690636,-5.4716111347931635
857,-2.541084688462681,1.1208441020321451,-2.155497020866924,-5.671283594374711
858,-3.297643425597605,0.8530518212095819,-1.3173996768895462,-5.81141391611416
859,-4.067100406410813,0.2918928255794597,-0.15424780097123497,-5.901511866649727
860,-4.562643246759432,-0.4024830611080505,1.0709060575721092,-5.947736868795827
861,-4.6192742496438,-0.9797978640648417,2.0356946843021233,-5.958588518307559
862,-4.631589346385981,-1.270031946503467,2.557566817745294,-5.926932160439639
863,-4.663910922472859,-1.3380491653552835,2.656949078910845,-5.958704759971197
864,-4.5404674887342695,-1.3053723067095186,2.601210506070803,-6.020996324829581
865,-3.9274177021708123,-1.3210749361107792,2.555927240867198,-5.955889134412082
866,-2.833991898325424,-1.330085064760887,2.5203412946616695,-5.592284179414636
867,-1.4505465550281682,-1.0700368991217952,2.3613639179076893,-4.804268257085831
868,-0.07050189791515316,-0.4457926081028382,2.170290209424875,-3.5694419085479416
869,1.1102067578854302,0.5445532461148724,2.02019444201387,-1.9744032562198757
870,2.2392116264842583,1.7665237999866898,1.9633402646374232,-0.1493399021969899
871,3.245700249928619,3.0820851356110137,1.9915538347904413,1.8786751879894792
872,4.0261452858486635,4.399280050406714,1.996240065391957,3.9635645958874592
873,4.510325052719837,5.526021783266186,2.0003006283609244,5.903286707733137
874,4.764796476075838,6.270344575506458,2.0135878084392695,7.686374783122901
875,4.966107533222756,6.597503357614922,1.9557240725702743,9.130014565090505
876,5.240924952095767,6.599998379200921,1.9222895566067502,10.099368922855739
877,5.606207078731886,6.573822530204029,2.0921964555085677,10.58728490188142
878,5.948366821476387,6.602529018528641,2.5759357649425834,10.702379725416833
879,6.165709020556343,6.534529191364711,3.4158708178898003,10.58889564040717
880,6.248876258969275,6.2092124795247905,4.351589920971533,10.601595482976347
881,6.233469367980009,5.624067032449206,5.056246941319376,10.726252780707982
882,6.251912812140802,4.846160119278127,5.373443199015938,10.570270599155236
883,6.296707608175242,3.9998791850053945,5.40682793981079,9.930804260519098
884,6.251195434454509,3.183577389557176,5.403280613802078,8.701267981345062
885,5.948471446634853,2.322578884342177,5.436466295885708,6.968232765753429
886,5.3197337732626115,1.4793317269483588,5.374310458208318,5.049537181162467
887,4.156247664139154,0.5527682369325235,4.987192415001946,2.761948357624287
888,2.647533736754387,-0.34099781158249926,3.9943106161756248,0.33196907883866167
889,1.2585369041457626,-1.0385077502789004,2.5514904843962682,-1.672746062910885
890,0.29087221241719796,-1.4370759657074765,1.151989987179856,-2.8783258093627206
891,-0.11618986057075999,-1.5483923233178627,0.24897819555896883,-3.2455151839080454
892,-0.09602135112753332,-1.4929812418543638,-0.12198615724967003,-3.086254686093183
893,0.03107664970135386,-1.4337679755770967,-0.09118393282449273,-2.895231516194194
894,0.016201184120003816,-1.4644213136597006,0.036353018462596094,-2.9892401511166136
895,0.0,-1.4644213136597006,0.013031951020444632,-2.9892401511166136
896,-0.07527398389064172,-0.13271090548226327,-0.10988835290271481,-0.05536067574092057
897,-0.3782275034966317,-0.5198495883473174,-0.4582801821418374,-0.25888934971025146
898,-1.061297928820517,-1.291440954813917,-1.2191473781951268,-0.7336160208932329
899,-2.185388174810086,-2.4877371840772087,-2.4895116810272926,-1.5687637075958514
900,-3.6212265653991436,-4.003271932312216,-4.357905104399575,-2.7244786937927605
901,-5.491386102816555,-6.025265026163482,-6.653825390825595,-4.325887161451718
902,-7.4369439785426525,-8.155265425404382,-8.800064335390143,-6.066650876179884
903,-9.011943195196887,-9.88186360507236,-10.287757587915017,-7.513416138843559
904,-9.945617819027172,-10.880812585100282,-10.948410171342521,-8.38427236375688
905,-10.23707186249562,-11.102552638707495,-10.924715837299562,-8.66654052050165
906,-10.042786323398243,-11.019229123900777,-10.898279686151318,-8.511189105539886
907,-10.063565912867062,-11.051485829987316,-11.006647799560023,-8.5338956342127
908,-10.303056643558854,-11.026832821492047,-10.82333611944952,-8.721244792196552
909,-10.019347642058138,-10.177776464320017,-9.890613908110833,-8.461766265035054
910,-8.832483793343311,-8.323842454377893,-8.087096161750729,-7.46631144178929
911,-6.624587939822939,-5.5834103645549,-5.525193101824972,-5.709084719531049
912,-3.6975005593125303,-2.416989915270504,-2.5528662973107914,-3.484040448261111
913,-0.6406706531717187,0.6302361296932701,0.45398057787002677,-1.2614858326075642
914,2.061486019398851,3.425809191919893,3.520405739352018,0.6258492161995731
915,4.627702679866386,5.931295658951355,6.340048451958138,2.4288766455382866
916,6.984797745819678,8.037903941664615,8.869474445854427,4.098524364042777
917,9.222283037978967,9.738094445949987,10.865585419717013,5.623882970922577
918,11.20818806776008,11.072720982607876,12.164172053501064,6.981570122842569
919,12.686490085173176,12.016297569233373,12.783372544596249,8.164408471541673
920,13.527677554452543,12.5726574615902,12.899297500521827,9.229190314440011
921,13.814576965145111,12.805563178997325,12.792345574640185,10.222532341567558
922,13.74122875825043,12.803491050493594,12.787225796945208,11.047659107910901
923,13.738616328510036,12.803221886248556,12.841525060916577,11.600062924638147
924,13.819936214051628,12.84288445882629,12.61801956929904,11.853491299685407
925,13.680401511237957,12.775154552108555,12.104813613749467,11.852477777650593
926,13.147021293954458,12.413246137475392,11.383650867458387,11.853313692352272
927,12.18199030440508,11.71801123345687,10.623528302486445,11.903328250259706
928,10.865468802948628,10.754318395913891,9.970360505623326,11.827025223535816
929,9.413739024247807,9.686537813452388,9.389883773332897,11.397477327396963
930,8.065082991894267,8.679591336868828,8.660003287208244,10.562238288826762
931,6.794761330902882,7.71270816699529,7.722103512552347,9.418834862535837
932,5.72688245289212,6.835120129516031,6.589019160088889,8.174228764913993
933,4.81484042136418,6.035812391534858,5.378511921816019,6.994205406424965
934,3.9500892115186934,5.268397196349358,4.270719689958802,5.799092130455809
935,3.081833729657096,4.4746502908179195,3.4142116661510356,4.601670165414763
936,2.226898843086398,3.60532421906534,2.846301944247666,3.414821151494905
937,1.3819537121953176,2.634583686936608,2.4926386880048073,2.2666074990635
938,0.4816844696839606,1.5719214437865552,2.2208856317232573,1.1438376509939467
939,-0.5383995950573676,0.46374391236630985,1.8881967459273206,-0.016333679940433665
940,-1.6616366626391654,-0.6134731964456712,1.3736838505350117,-1.3150517434670048
941,-2.7675769806349386,-1.6003374629688478,0.6345442625901418,-2.771045414817605
942,-3.9291973130404605,-2.432629795898209,-0.4778583630767952,-4.111113584694145
943,-5.005483652987695,-3.0328348601141357,-1.8595897193383246,-5.056862625474892
944,-5.83733085491437,-3.3775795541397096,-3.1566759425744793,-5.504684759567185
945,-6.325541512155901,-3.5080357846713044,-4.05431421391778,-5.529695876612397
946,-6.472455830192555,-3.5016336119743325,-4.4440958568539735,-5.51317345386945
947,-6.383776151694626,-3.4866433206387306,-4.410837194300931,-5.539462321806898
948,-6.353041465613613,-3.498871096434885,-4.386725346165885,-5.426690084163733
949,-6.433982904465628,-3.4779130185264338,-4.475582771280071,-4.963378609257888
950,-6.345450782039264,-3.3650502277320355,-4.266824888437433,-4.188102981949498
951,-6.021568267518902,-3.15540004255604,-3.7258271316148046,-3.2234270216848206
952,-5.440747006246238,-2.8778037910779943,-3.0669761243447566,-2.2558762945271695
953,-4.678287259828521,-2.5280535291020945,-2.5464917027878657,-1.429640837333194
954,-3.852522363445104,-2.189274653234673,-2.3602471189955714,-0.6456577054552458
955,-3.012570360672256,-1.908897019600901,-2.457239088181135,0.006174233332812806
956,-2.0050317333004375,-1.7452747529919468,-2.4830404035053935,0.5953848859652229
957,-0.8328689005061447,-1.7083620480353376,-2.471598732852286,1.1340932152874619
958,0.7236730492893397,-1.7255712505166612,-2.631021883765105,1.57814794668439
959,2.380513762137909,-1.7118347689787123,-2.9841575369197697,1.8695719403823217
960,3.728850685739986,-1.7067366352485234,-3.608708839548024,1.9855662477653364
961,4.50699575725615,-1.8645616373276488,-4.327498662836994,1.9424146175026535
962,4.699204674621441,-2.2462019148849155,-4.902574377170237,1.9506162903285034
963,4.578199073864657,-2.8536751679175416,-5.229312627368807,2.0244185177277783
964,4.607682129484609,-3.6010651766921944,-5.294414084481139,1.9460309525071025
965,4.681759159614115,-4.374758260798591,-5.286268864855115,1.5410910616681677
966,4.2026281926611695,-5.086329838009945,-5.292789012253865,0.7024829713052442
967,3.0201944163039967,-5.645049176052033,-5.234766596820387,-0.5619451626336365
968,1.1898761729486536,-5.97798036245029,-4.93274418546386,-2.131655535677585
969,-0.9833900496880745,-6.104133763327245,-4.238415070785361,-3.849363351004463
970,-3.0804173231377088,-6.0966103658458985,-3.324665025928658,-5.689963687013078
971,-4.949332381012532,-6.080845100793447,-2.5166135294430934,-7.65744215208731
972,-6.665890718311498,-6.092198618728907,-2.0633194278389397,-9.441481597688586
973,-7.973170273509665,-6.073223954025778,-1.9094865981427462,-10.729654449499638
974,-8.758153351812524,-5.968573268810522,-2.008729029514045,-11.395131849368262
975,-9.071577411458971,-5.772590665007051,-1.9788028505515483,-11.493939304648364
976,-9.047700573303747,-5.50433442839963,-1.865131879224446,-11.482603660829028
977,-9.046148133573116,-5.203336233835038,-2.040430615878015,-11.488711811836257
978,-9.106805154612747,-4.892690986772626,-2.7147015658782014,-11.356770959121047
979,-9.001006200785381,-4.528484716680099,-3.7919114560146387,-10.7197944223463
980,-8.494775051677973,-4.09580894973717,-4.892893697122056,-9.618617593529263
981,-7.5275663758789575,-3.583330037316603,-5.615962058503878,-8.236838547486812
982,-6.175832462045205,-3.00969531180588,-5.799330720539717,-6.864944904963396
983,-4.6691556419788425,-2.4219319554434753,-5.733418694309088,-5.694228610244723
984,-3.2536007086882623,-1.8647275585847558,-5.751699775007356,-4.519542018214468
985,-1.9033911967275645,-1.3524126302445931,-5.860521404591307,-3.34005414748124
986,-0.6870917843812887,-0.8659809918506199,-5.717780313598995,-2.131722017947078
987,0.43196461707939426,-0.37064560003768493,-5.048524933568735,-0.8949857460706081
988,1.4801297580613033,0.15627301401126995,-3.7638552586304472,0.34450032321687185
989,2.450883255344623,0.7080180501375201,-1.9992603870118022,1.5565915293304533
990,3.277134207918002,1.2579455369396464,-0.06770808835726516,2.729017746523167
991,3.8647284939789195,1.780498579878646,1.8237031080914718,3.858125159671057
992,4.191258283364913,2.262740800158174,3.5179051515342907,4.930440377330647
993,4.311492484451611,2.7066755463809966,4.705649437915708,5.93169027795469
994,4.299847645339666,3.1283210051863466,5.299176436789063,6.86800695741195
995,4.297953204721599,3.5545261772761494,5.367145545550271,7.761262463883211
996,4.318574462831758,4.017731217701208,5.360594517714841,8.607722269718735
997,4.281215835218546,4.527007581180692,5.440302242117046,9.442446007122996
998,4.100454037671761,5.180467550762899,5.193987141802956,10.163465636254804
999,3.7286211411803105,5.884754054477418,4.452134842052033,10.662691950455642
1000,3.155426440019159,6.475901065564815,3.5222775991442172,10.90774356762528
1001,2.4483315506838004,6.835989654547245,2.766026563099217,10.944846262847033
1002,1.7224220879633898,6.952494151540243,2.495756518839795,10.898395837715832
1003,1.031276291334932,6.8838600022415,2.570548876713323,10.944669181993042
1004,0.3941806533172895,6.887489964051639,2.5745195337361455,10.988845458842551
1005,-0.16316258777977283,6.9747597353011885,2.6213943807910525,10.731007628228106
1006,-0.5974139661438735,6.8836120368221,3.1550667327824025,9.989308516896044
1007,-0.870376400094202,6.4522616356747715,4.463849351873803,8.696935725481419
1008,-0.9757994110909233,5.586876377181237,6.195437058832106,6.965484034661654
1009,-0.9505586378878511,4.3232777544293794,7.721693327368077,5.0386746422304105
1010,-0.9412250536865209,2.8169889437823756,8.557152576521894,3.1415371159963077
1011,-0.977011087493748,1.2571059483078342,8.71643598257048,1.1744244126612355
1012,-0.9234538316784617,-0.36414548236941535,8.69190165475552,-0.5665866928048735
1013,-0.7327255389240902,-1.9545891313266273,8.727991012288017,-1.811869023731906
1014,-0.46041376603082523,-3.2778489945856726,8.6165926804723,-2.461432161408042
1015,-0.21016685737181498,-4.152452032459651,7.740905151492119,-2.5931223585586185
1016,-0.05990586066026268,-4.553747610567992,5.9997259758919315,-2.530089399121906
1017,-0.03151269088206374,-4.580801581181725,3.7030328972437636,-2.504760965174901
1018,-0.024791871234822786,-4.561101577162237,1.624720018197126,-2.4824815269523195
1019,-0.010407430642244942,-4.625321493837051,0.3980324664715063,-2.1537060227004163
1020,0.004159524091325616,-4.471205381510421,-0.08899893915114326,-1.5233481393333879
1021,0.0027003395849121673,-3.9913890214563703,-0.10693665350964841,-0.7902887733505528
1022,-0.001832124256083119,-3.3841158600937415,0.009686224883715927,-0.22222070756425152
1023,0.0,-2.88554768239689,0.030473192523744506,0.018692607651201218
1024,-0.04384199087531676,-0.08948589311026289,-0.1006783483358597,-0.0069931631539013606
1025,-0.3850629525172279,-0.40198685083136787,-0.4323996194354054,-0.16780549483680274
1026,-1.2113671825015957,-1.083233228081614,-1.1162358271288673,-0.6700426873780366
1027,-2.6032429696286843,-2.210776503555251,-2.1332216865960714,-1.720442366812407
1028,-4.490036847665315,-3.769497286054335,-3.62689311971625,-3.4557084349266747
1029,-6.759588794704232,-5.6376177570350166,-5.262217995903987,-5.899630022768262
1030,-9.374214948433917,-7.8576562421053255,-6.606228066135257,-8.978275863523226
1031,-12.392901877288452,-10.141399335632824,-7.389885782224483,-12.574314873021088
1032,-15.855216743410502,-12.024417691106501,-7.603964164937691,-16.556377556794775
1033,-19.69887368087133,-13.19008977770171,-7.418014853124718,-20.79171171366108
1034,-23.818373435594445,-13.619568525184478,-7.4711283315660015,-25.174785105254795
1035,-28.16181769459181,-13.483082623287494,-7.682217481987808,-29.6003268354834
1036,-32.60124959906806,-13.499976638462993,-7.314307613251868,-34.24175702965348
1037,-37.62654130916484,-13.708314688062037,-6.0087356457851415,-39.15888288910621
1038,-42.5130680748332,-13.453507129871848,-3.6473315673664723,-43.57705300306483
1039,-46.287027845900944,-12.247033943108878,-0.49101038685645837,-46.69667442728405
1040,-48.38401743665847,-9.885035176637134,2.8540161322020223,-48.197582912827045
1041,-48.78301583615513,-6.517966650767002,6.186801523313976,-48.168587381957025
1042,-48.61592932950419,-2.6146651038440436,9.275357404504543,-48.243136788387076
1043,-48.79953153908855,1.3180781305376486,11.52467117861173,-48.62053415707361
1044,-48.7520799538378,5.307522267011276,12.708357163963424,-48.05158362193148
1045,-46.50861458957037,9.048146691416981,12.991253611543538,-44.942849474386946
1046,-41.216603281149155,12.314929132495694,12.732591992457582,-38.62094908461451
1047,-32.64163401477217,15.189878314543671,12.724972751956999,-29.178470431413142
1048,-21.401085185080838,17.47652924509075,12.973311354011571,-17.50049066320434
1049,-8.52618629180095,19.00452319299186,12.695950219477883,-4.622379534002826
1050,5.691235799205217,19.76437890726782,11.612708776534038,9.682425096826755
1051,20.911034090985268,19.926249058901668,9.649678548006435,24.666277621024385
1052,36.411100833386,19.772819137953416,7.08753791611856,39.69925459133482
1053,51.55896042231198,19.77971327877661,4.43636690730982,54.20334773868007
1054,65.78067496142597,19.911439034232497,2.1759473983346984,67.64064336527262
1055,78.41494648268467,19.653062852768944,-0.27594007048851266,79.86033103878837
1056,89.65886126289712,18.82421182109431,-2.6165193008925844,90.73127528745792
1057,98.579463608473,17.381362779940673,-4.456687129437528,99.20501805760537
1058,104.43706325834846,15.510189405030054,-5.534272277992607,104.54598585748144
1059,107.25925995454553,13.531617149081175,-5.838425128452157,106.86776474162764
1060,107.68823799178656,11.664617789716651,-5.661184114694282,106.91195152193282
1061,107.5007558145783,9.790587028772716,-5.670092874141149,106.79763547929718
1062,107.48069142908173,7.9700598602112755,-5.802263315658741,107.02921612214499
1063,107.23518734682266,6.237977554286306,-5.281781255763121,106.50789159603549
1064,105.17153098509402,4.6428899682478315,-3.9810536543877184,103.84900581947603
1065,101.13208757060298,3.220115849273579,-2.058661491157371,98.9052660352907
1066,95.35625649036434,1.9606729231649944,0.3449916953571611,92.12188615016188
1067,88.54278935881862,0.8084478856795339,2.5401183659423467,84.43391572328613
1068,81.30941589260578,-0.3064697879701986,4.032520538167219,76.57977524016088
1069,73.21946696350426,-1.4291983064551477,4.910861568081898,67.93221313342185
1070,64.32362683009461,-2.562264442797354,5.102154630227596,58.75215073917173
1071,54.62007808735857,-3.662297164046508,5.0564311406900035,49.213878751443445
1072,44.12376117180404,-4.65050310632372,5.047616636577215,39.519289076802416
1073,32.90324058945559,-5.442922315930635,4.957497650519143,29.834089368052872
1074,21.082037271978372,-5.989756947605345,4.26172520800802,20.235927665514687
1075,8.835978390054741,-6.3114330611881515,2.962537200778569,10.701293908553673
1076,-3.619071000837266,-6.50241687002148,1.203506911764,1.1449672382670135
1077,-16.052417859475305,-6.679026435922223,-0.767406407393411,-8.51359867626297
1078,-28.2123162172874,-6.896372940797514,-2.7742468120790136,-18.295870010228814
1079,-39.784779690564754,-7.347464176243152,-4.9436927927869245,-28.130815016075566
1080,-50.33464947779956,-7.9511160663029585,-7.199821338598842,-37.844929383281794
1081,-59.73266610485295,-8.521006260190498,-9.31614738306849,-47.20047250812865
1082,-67.55457739688096,-8.899814704225681,-10.951151571688328,-55.98748829402197
1083,-73.1475248995552,-9.033173918972723,-11.926860209893686,-64.1069456385752
1084,-76.31335560465851,-8.94549469864592,-12.310334437268084,-71.451390295661
1085,-77.45870729470315,-8.95787256181711,-12.284929725771992,-78.50650664667201
1086,-77.34054451568257,-9.070570381724593,-12.281014792429795,-84.77628525819807
1087,-77.18967464790788,-8.925196767880433,-12.356611064434878,-89.43917639933905
1088,-77.33814885671354,-8.355937581242522,-12.240706898971377,-92.05375718002936
1089,-77.11826556804091,-7.30045592130524,-11.616741037315263,-92.85109002084248
1090,-76.06142226837287,-5.86846682939542,-10.398780169255923,-92.45978972205823
1091,-74.21235304257821,-4.302904117801166,-8.668116660810854,-92.43965896623257
1092,-71.86324754570938,-2.8578247369687473,-6.673072714778069,-92.86559105149618
1093,-69.4268833368249,-1.4039091609764534,-4.693953662059498,-92.3496326434928
1094,-67.12435963280022,-0.14580854418327047,-2.7460272544855906,-90.20763764773825
1095,-64.58619930398707,0.7482245006595332,-1.0061870818987255,-86.22574034325297
1096,-61.85441368733014,1.2238113824798367,0.44200584439642426,-80.80381711350748
1097,-59.00782899488476,1.3573677048365402,1.606815585924784,-74.78968178345184
1098,-56.13282590108591,1.289001203510018,2.564366671865211,-68.91699630582839
1099,-53.23439345885905,1.273141169025788,3.3833243664822974,-62.81168916722211
1100,-50.25911922361679,1.3345510469558808,4.083868974070029,-56.737308809143414
1101,-47.17665932750166,1.2643120526739844,4.666479000040651,-50.797291241760156
1102,-43.99680669867105,0.9864563000080265,5.140763117745172,-45.06565696297081
1103,-40.71017551534596,0.47833615168410315,5.533980339963456,-39.59504847338411
1104,-37.270798720856156,-0.2104838671532146,5.8953235526312415,-34.42395101822924
1105,-33.678091129053264,-0.9724964965074974,6.26408799370751,-29.57001123317431
1106,-30.05048769034453,-1.7060812300031178,6.638332585486866,-25.01678223605905
1107,-26.576266771968744,-2.4461357917156707,7.0083096864828525,-20.71114032650991
1108,-23.369595645293188,-3.1478061737404515,7.39397626286108,-16.568083036842562
1109,-20.37327036902919,-3.8275613660965897,7.823745874329928,-12.479772808863785
1110,-17.410716246555623,-4.410236232582093,8.361124740458658,-8.333378032922763
1111,-14.328946407750125,-4.819625827841525,9.020319279344978,-4.042136779918652
1112,-11.081746221821692,-5.025685418794607,9.656765340815467,0.42379318987703973
1113,-7.691140925013564,-5.046110167458931,10.1122838219938,5.0382399544083585
1114,-4.175796956734524,-5.041382863746633,10.326272227117892,9.73275879178545
1115,-0.5472571146091516,-5.058655906396662,10.294209193981091,14.388535925273596
1116,3.1432457329968058,-5.017958601654848,10.350767676748458,18.84267293901547
1117,6.7962201273766265,-4.769233358124754,10.46496044813721,22.939227766085956
1118,10.324806308664373,-4.273611397568322,10.291485897243787,26.585035650136206
1119,13.713084311555988,-3.5517358459036004,9.480070279607881,29.766088072279288
1120,16.99041629762189,-2.7035117023220945,7.996287071788185,32.51312627755535
1121,20.145188156811223,-1.8288972042639597,6.143063567078598,34.84237173103392
1122,23.086285519275684,-0.9683760654581163,4.452372267353574,36.74766058435131
1123,25.706382784201846,-0.29652006077004145,3.365947030419639,38.29659988217787
1124,27.97498652540179,0.10944702146133342,2.7562384388781043,39.44150987993388
1125,29.956396994687594,0.2875213361028328,2.4899583796186024,40.1606946813172
1126,31.730901160658455,0.3248508487070469,2.298637179055355,40.49725348654906
1127,33.304455590904276,0.3242232523297914,1.9363537555946566,40.521891956978635
1128,34.609880944184454,0.37532682847107823,1.266544700372165,40.52502789337187
1129,35.64042587932882,0.4467295732846088,0.2967555648997932,40.572815542181225
1130,36.3592957473268,0.4734268786142031,-0.8345190896903558,40.497226157848694
1131,36.780275146886126,0.5049947236394348,-2.001911256747491,39.985064974477474
1132,36.96764563760422,0.6000802055919517,-3.0059057204095136,38.929777419066326
1133,37.0007813139475,0.8314059930485761,-3.6970344454537445,37.38275564602484
1134,36.9636633261996,1.283067899828514,-4.045549657000975,35.593698954596945
1135,36.962936173999104,1.973352162710576,-4.133009251991515,33.88930049706347
1136,37.005358039378336,2.822857143882277,-4.0757921984838354,32.366192964446526
1137,36.93739221613561,3.7642088523936144,-4.082043954800273,31.155325759402288
1138,36.63314326700676,4.807640281972546,-4.132185148795623,30.249385642201762
1139,35.976069993004685,5.756573870149888,-4.069975551663635,29.562071487143577
1140,34.91960758097432,6.436209545872428,-3.76499577162571,28.989633449600984
1141,33.48164149123493,6.781047313294108,-3.2923729379652746,28.43973181888027
1142,31.687593551894928,6.818252215081696,-2.819579055733773,27.804296504197637
1143,29.540833062073524,6.816656946277019,-2.5509897511132182,26.91919739059282
1144,27.118791937707115,6.8421325241539686,-2.5181776348887843,25.587849320947925
1145,24.561326604297626,6.761163967119527,-2.524541044428549,23.670918841595082
1146,21.992172180986397,6.332777573626714,-2.449464573115243,21.164098013230333
1147,19.548132969903072,5.578139468695653,-2.2551410847399604,18.314756680447136
1148,16.771634803757962,4.39255636517969,-2.0510757380229343,14.909237834547376
1149,13.966039121416689,3.108485803660193,-1.8857193319856245,11.543019880660347
1150,11.679878659458847,2.122337115133035,-1.8020446719242507,8.91462712808213
1151,10.320495101506541,1.5212723836950877,-1.7637590375836856,7.419857173776278
1152,-0.05865537788074726,-0.11465707747643644,-0.1775754557095165,0.016962787969633727
1153,-0.2788124945530305,-0.44915311570428856,-0.6392216958416876,0.009087580738012663
1154,-0.7158371429931812,-1.1175224808862243,-1.5059775273930995,-0.08810775023036432
1155,-1.318380259765686,-2.1462001162754927,-2.75497720886285,-0.32774662656708753
1156,-2.134216492859569,-3.426502470531119,-4.496332306155603,-0.7247738040288372
1157,-2.984530047502397,-5.041173221753481,-6.497634197944116,-1.26461837775783
1158,-3.6647239208807685,-6.669689024132647,-8.27748647597738,-1.9004446455649198
1159,-4.0622571543089965,-7.944305829358664,-9.450182238046272,-2.7396284661934605
1160,-4.174074863220636,-8.658863078708936,-9.912101819451623,-3.637493132433824
1161,-4.088451532007138,-8.834506135986004,-9.793469427550734,-4.378700411040753
1162,-4.12130617357347,-8.715613834005659,-9.799098257751849,-4.81133963981262
1163,-4.231839330739143,-8.710231876146981,-9.986771722514373,-4.901366107301623
1164,-3.9997994527566387,-8.798312101713604,-9.740810958790464,-4.873868114137598
1165,-3.1646340697554103,-8.495407305831456,-8.61758214725832,-4.906956544880792
1166,-1.575414866017245,-7.646012709358768,-6.471522213760847,-4.870521710439597
1167,0.28335264329794013,-6.214981274551268,-3.507170304961379,-4.408299759608552
1168,1.7503750425804125,-4.372067860191112,-0.2652158357842126,-3.5101475416978514
1169,2.4462169461989482,-2.409539143614399,2.9365021476106508,-2.3765242599276544
1170,2.548006637125311,-0.5139736168908938,6.061375358503818,-1.3340225311359588
1171,2.521039902436262,1.3517105779389518,8.542751052634848,-0.6174505191820405
1172,2.4359898641662654,3.1083370382224196,10.06592961298891,-0.11732068400053464
1173,2.2935075454957943,4.7379089787367175,10.652706873052129,0.35399836440679866
1174,1.9803787767251733,6.246582591437477,10.585199643136477,0.8825727743367372
1175,1.667250007954552,7.649731748222891,10.520916196472019,1.5130184954027797
1176,1.50232985102279,8.937661925667774,10.600377214246015,2.278011012604513
1177,1.447097272909933,10.204710826990954,10.428956813660058,3.1779076944666906
1178,1.4925473328392673,11.31898540288017,9.833448372930727,4.376741877698554
1179,1.5034545594529178,12.119797042401876,8.91715335126004,5.655046695897815
1180,1.9422137594829354,12.53830673578909,7.900275877245736,6.698084227479825
1181,2.6925332256183387,12.608480860729188,7.046315267146121,7.301573729454445
1182,3.478722635406133,12.58696571573073,6.499129200368085,7.429232337541352
1183,4.006644266800665,12.598214941725356,6.040077227512528,7.394314818596267
1184,4.112908627656669,12.558312745550719,5.70670632046296,7.412433687171117
1185,4.077796423450677,12.1743182610291,5.4693570626403405,7.369485366876273
1186,4.088582430328051,11.369994232375232,5.270899676456561,6.812598745416647
1187,4.0768750555172275,10.156980598855506,5.062768559797306,5.646614448843029
1188,3.655187192999128,8.677977262087264,4.845629574793263,3.952834494176169
1189,2.7458869577393465,7.140880984602459,4.652829652362666,2.019193269385004
1190,1.4899249310444058,5.624801594553768,4.508683092324098,0.20491035806798705
1191,0.24116480703012283,4.280998035481168,4.41914086834397,-1.3764420275637541
1192,-0.6777645031003462,3.1984436696137433,4.373501657448489,-2.5991238238083096
1193,-1.303898516672151,2.362001736852413,4.334768831237502,-3.3728069183333753
1194,-1.8374750039789394,1.6764400206754555,4.242349741575343,-3.744106837976239
1195,-2.45597139192418,1.0227308373425157,4.025400110491007,-3.866874992308312
1196,-3.23567651872719,0.3063116851226617,3.617035772863958,-3.8613116804603753
1197,-4.131766362854735,-0.5193899485846227,2.9872767642492817,-3.829327548640268
1198,-5.059597156811111,-1.4547317977221357,2.171057135135338,-3.8732686384843436
1199,-6.005374433711379,-2.4488143826028543,1.2425402160233152,-4.063193375398003
1200,-6.906137659994596,-3.5470329470723025,0.26800369552785497,-4.7191199386211355
1201,-7.62553190087754,-4.5750899720527665,-0.7120955960187911,-5.71661914299329
1202,-8.070065192962506,-5.341456436964305,-1.684279127329766,-6.705547508006301
1203,-8.24398282131901,-5.753524294242033,-2.6425473949042098,-7.350330351724878
1204,-8.193604545746107,-5.8349995755373785,-3.542805951812297,-7.52385143745504
1205,-8.225014665017566,-5.803030813176729,-4.294231201827619,-7.459434911059871
1206,-8.330873869833852,-5.797270783391505,-4.818255422149338,-7.520223951640161
1207,-8.20854530336206,-5.768708250827905,-5.1095206893220295,-7.540630637955608
1208,-7.549328113196039,-5.488663685088325,-5.240204846975526,-6.867755114110331
1209,-6.19506044131321,-4.9734168755170165,-5.309212233519364,-5.279046174304199
1210,-4.148348354232779,-4.326774831165878,-5.372327459676107,-2.843335823712015
1211,-1.5443029854114563,-3.7204524343991396,-5.420829552042542,0.04556403567859091
1212,1.4632758947710354,-3.2760644073919356,-5.43938082284209,2.904113743459555
1213,4.932553086200892,-2.9071046271879744,-5.465079107548759,5.595489413284721
1214,8.565997231143463,-2.5248584803589385,-5.564842607752438,8.208395051722146
1215,12.36484525337212,-2.0714685363952237,-5.762974870109093,10.65693036372435
1216,15.732466005159587,-1.532088092672358,-6.004119163347258,12.924240652440567
1217,18.125382639938262,-0.9462169071341164,-6.205519243721731,15.017119217790391
1218,19.36252553459288,-0.3917688497749832,-6.316038521736639,16.71139741149294
1219,19.63971046550492,0.08496174911590693,-6.347453611856062,17.827453576176936
1220,19.41984403332615,0.4337573602441508,-6.345617736967651,18.347506464990467
1221,19.391943264840894,0.6391778423395561,-6.334336282458128,18.369515627133815
1222,19.559074377295584,0.7253516987991085,-6.333163049131943,18.36384664889729
1223,19.16422461730779,0.7365617636466154,-6.374954348040461,18.43773458691997
1224,17.975410297597588,0.7116740597284752,-6.38695335404751,18.311332068977418
1225,15.940574564096789,0.7321642819111404,-6.232653056151239,17.555639833846143
1226,13.342342281891963,0.7651545253059422,-5.789814244623585,16.045171036799502
1227,10.62479070859359,0.708711852688849,-4.995796104638361,13.858867490150466
1228,8.01308047946183,0.3975110167555711,-3.868484930282365,11.297384186359283
1229,5.311515084023136,-0.1036568894952562,-2.492625077922649,8.70635920742807
1230,2.571444789360579,-0.6110047104371237,-0.943626900870749,6.086554093752306
1231,-0.08360180116535343,-0.9397049077664503,0.7129409103949937,3.595148188945473
1232,-2.443747477097774,-1.0179667837890805,2.399820832691576,1.2919239260686903
1233,-4.46525191502702,-0.9871077506306836,4.0272411173508385,-0.8268002820556666
1234,-6.00010269119201,-0.9393232126049842,5.360390493143799,-2.807790851903958
1235,-6.988202077913662,-0.9409995690457316,6.229649020236735,-4.695159437731899
1236,-7.47273366558661,-0.9060934590669691,6.618103089997398,-6.501231642984809
1237,-7.536572823221777,-0.8711873490882067,6.605549724061265,-8.213651495299242
1238,-7.53908725983185,-0.8691600593978146,6.6195910428193026,-9.81057333269226
1239,-7.562094548105967,-0.8310215665352751,6.71290076103867,-11.251659872582007
1240,-7.454213078681697,-0.8070590648448899,6.5656690969043385,-12.64807365026334
1241,-6.899128086991521,-0.8722146825014027,5.807166224193283,-13.896688395635378
1242,-5.832860932136222,-1.1239089179411001,4.387172308669941,-14.829186734622189
1243,-4.582903671224501,-1.5581456298740486,2.470377015084949,-15.35085352600221
1244,-3.6020346125008005,-2.1516839707589077,0.4106231345434641,-15.504195148609439
1245,-3.165189661316444,-2.758631357012807,-1.2309718590704262,-15.397507547046791
1246,-3.124094470797251,-3.2089587949589045,-2.3470727601027974,-15.415486724464051
1247,-3.1096640465705856,-3.499650234926747,-2.860977855266068,-15.560243257153568
1248,-3.0426399409835314,-3.609419597068363,-2.8875346492191944,-15.415642548358196
1249,-3.1660331184673822,-3.5786675407603643,-2.8750880857725627,-14.697525145202885
1250,-3.929445200692717,-3.580893485629539,-2.9210518080456196,-13.287815107093333
1251,-5.502344109359626,-3.62851543330124,-2.8209211115562223,-11.345335773590044
1252,-7.8120851878712285,-3.5695558539860457,-2.1349740166496565,-9.232430759126807
1253,-10.561496339149912,-3.2889523155691456,-0.9982987318263216,-7.265371850177016
1254,-13.416385171650688,-2.7335306573576634,0.1838242789947609,-5.332141283099698
1255,-15.978116476861157,-1.9284324998032512,0.9754868758827373,-3.4156411948398455
1256,-17.736713380896934,-0.9806600722471004,1.1845474893495895,-1.4903860601959642
1257,-18.567550887863735,-0.025661062810941992,1.1046709715057201,0.4162174845137634
1258,-18.578977917300694,0.9735545890325398,1.0784507413984827,2.214641798701667
1259,-18.618716776607975,1.8381469315534176,1.1598693742622996,4.012926095639966
1260,-18.79219548770693,2.432140631417522,1.0461494101452231,5.613849197910981
1261,-18.508111105533406,2.7218963813529533,0.6508684516551149,6.784969599884427
1262,-16.925988383499934,2.766017778318377,-0.11854054971131817,7.412910021822534
1263,-13.791918175992848,2.7405860306713974,-1.0345865438717525,7.53505588189577
1264,-9.334328400348047,2.7277982625750985,-1.7678164004575663,7.490781944227255
1265,-4.367758990969072,2.7051172083315724,-2.112747642929663,7.493358975944954
1266,0.8523953926661965,2.5541408928898357,-2.2052361878394544,7.44955634247004
1267,5.797731414954231,2.2883399787481475,-2.147541699849356,6.963658400501371
1268,9.481700753460451,1.932639369861026,-2.148196748761344,5.993998105292167
1269,11.473027015602174,1.5285874364785075,-2.1863381741263894,4.602664148946524
1270,11.94609059535361,1.1217181656415511,-2.027503457471238,3.028532063371361
1271,11.614327955310433,0.5808074297465486,-1.495345733535844,1.0661213679490182
1272,11.566443177186079,0.0060884195628277266,-0.7206083331156083,-1.067746179992294
1273,11.786766345167651,-0.4668101361286381,0.01269861549664638,-2.8907824972205276
1274,11.15770818863034,-0.7469622622225427,0.44980081160353846,-4.005732686285153
1275,9.199102579983467,-0.8294269523321632,0.5476624071959819,-4.346706348272732
1276,6.07852921848852,-0.7915640764991765,0.49047123237672785,-4.198678628264656
1277,2.8487798481124678,-0.7483066300015452,0.4301869579890003,-4.023059386928488
1278,0.635388994281816,-0.7699250832145509,0.460986456003893,-4.109138235962153
1279,-0.17583529936334324,-0.7699250832145509,0.460986456003893,-4.109138235962153
1280,-0.11047221390011058,-0.11190848413064175,-0.14426077849971686,-0.08540813862600044
1281,-0.39215760999658106,-0.44637562592929303,-0.6149438510534362,-0.320326409105485
1282,-0.888189253426511,-1.140284783240662,-1.5436155880476325,-0.8156921566757149
1283,-1.5610028268747143,-2.219708786672622,-2.885745993177779,-1.5975750924016843
1284,-2.3270453779457125,-3.773747409064708,-4.452514001337986,-2.8391609535929527
1285,-3.311618743840884,-5.5908945375128685,-6.144542623822951,-4.263346030124131
1286,-4.356280783074185,-7.214346462046075,-7.641795651894236,-5.467945210278616
1287,-5.22727803775228,-8.285233984793294,-8.694460149720875,-6.178454400426169
1288,-5.750604476788576,-8.7167015051978,-9.227838597893486,-6.326191612528706
1289,-5.884310013321619,-8.642485651922,-9.275006577868975,-6.316952582458129
1290,-5.823384090809903,-8.624746243556809,-9.302591780208076,-6.306377846158729
1291,-5.815912661862016,-8.750424252263159,-9.371257743491052,-6.185962264747367
1292,-5.835094088087046,-8.580867802120792,-9.198273666837327,-5.540930888467843
1293,-5.530497359817899,-7.783830851795394,-8.323223338606082,-4.406203441222233
1294,-4.83436698463933,-6.260981149784678,-6.6584331366899425,-2.98661498036476
1295,-3.804372010478752,-4.139354523415733,-4.327773177861209,-1.6072576523484212
1296,-2.627551693708412,-1.738929170160351,-1.671687687156155,-0.48855294439223723
1297,-1.484565317220258,0.6281031419089335,1.0380192704437419,0.5589613958225206
1298,-0.3640697765791441,3.0257362735581763,3.8709025329855398,1.559484457420912
1299,0.8035145251025959,5.286472337580499,6.287763697841811,2.5520077141462503
1300,1.9607684540130208,7.403395158029823,7.892706652133983,3.6565876925227805
1301,2.9988171049497256,9.139115319276717,8.609094660652108,4.714252424896292
1302,3.8517140022752154,10.298618088484515,8.68403332446183,5.520338450171832
1303,4.564719405256285,10.854844201610947,8.53473084444097,5.963462181800799
1304,5.238972355993036,10.91282131706138,8.488810290934094,6.05654205209516
1305,5.921800732811693,10.897508561260919,8.539956658237115,6.021534131230183
1306,6.5706662666433475,10.927704320281503,8.538329315665987,6.0125342429621575
1307,7.124263529440233,10.823925781995024,8.564794091043069,5.978453689028726
1308,7.591576452961368,10.225351227556878,8.571211841540899,5.6936721542757365
1309,8.061198623906774,9.100853891523155,8.512336689590116,5.206368074575653
1310,8.608050423212767,7.593699184713739,8.402556627670284,4.635266288456537
1311,9.36575518266231,5.988682637532436,8.267226783406304,4.141635165443269
1312,10.231381409388392,4.572336713463517,8.195478631349562,3.8373665232286114
1313,10.988467738733526,3.4238708318804374,8.207645915837874,3.6552250661001695
1314,11.472062052154868,2.7187813427870418,8.207328159317438,3.5532495002195867
1315,11.649241883808255,2.431831672051982,8.02427981477571,3.519320601328599
1316,11.565476773970254,2.3904994121952603,7.613700469668833,3.515446999782384
1317,11.585387619855776,2.4294403774175555,6.998275024747628,3.497760925379387
1318,11.724810978040942,2.3693340962076044,6.241235076168487,3.445743466460142
1319,11.60290087502316,2.2266724200005283,5.411661236271248,3.364343321168837
1320,10.85662487238972,2.0826066700983312,4.497452451063465,3.259245718865784
1321,9.214252241891504,2.036174337640502,3.52552628534224,3.1181437980704874
1322,6.649579726398552,2.037711204527757,2.582324548138,2.9054575113349417
1323,3.436784048524062,1.9713188242939723,1.7832885921031472,2.5736584160720812
1324,-0.020229624706655347,1.7248919654785004,1.2168670523952245,2.0945893772205957
1325,-3.5977368584786236,1.2248032613486248,0.886440176094432,1.4942359660811337
1326,-7.185749731303739,0.5744032380967152,0.7089698663013214,0.7230451358484749
1327,-10.729769814819507,-0.09504398738575282,0.6027817234532811,-0.1624745713026551
1328,-13.740542632224708,-0.7493224218618626,0.511062739860955,-0.9691538353536466
1329,-15.776147685922679,-1.3664157772402608,0.45148468573784495,-1.5286387088959672
1330,-16.7172417607958,-1.8278487795461587,0.4474606466537998,-1.7816688472579911
1331,-16.72922491440403,-2.081592085999152,0.4490141699131053,-1.762780152891036
1332,-16.730979205804772,-2.1438227275946757,0.31508876735769104,-1.7623177133084207
1333,-16.87033502635706,-2.1034832882743757,-0.09846493228719932,-1.8172185420139473
1334,-16.560393066057106,-2.1059439460918137,-0.994427924179635,-1.712704079664795
1335,-15.154477496876506,-2.1449196849319425,-2.3297787313762077,-1.2579796453981533
1336,-12.674496598391496,-1.9864923282425504,-3.692569295858239,-0.5217303001120046
1337,-9.539410792278405,-1.6673686199259454,-4.6929114071122235,0.2388772863987966
1338,-6.404761697988679,-1.3038393009137041,-5.158555320198748,0.7462189008531545
1339,-3.750416484206476,-1.0350322833523,-5.18193297001519,0.8833105172746393
1340,-1.3064592606945444,-0.9582375158698668,-5.104160722855989,0.8563731881979179
1341,0.7619885648531053,-0.9817647182120227,-5.083116827085251,0.8449619782157723
1342,2.3300559228984943,-0.9955093192515097,-5.043163924189212,0.8801748956134248
1343,3.314827258985196,-1.0274674508030603,-4.9275496441438715,0.8247912331987893
1344,3.75960766155485,-1.1792722209701627,-4.841784537010576,0.584937562205624
1345,3.885816466762256,-1.4116976246900956,-4.790068657212972,0.14756465491604803
1346,3.894615807728441,-1.66174560122537,-4.736423312706244,-0.4292776979591838
1347,3.9101034999461355,-1.8579358412758757,-4.663024307957109,-1.0342232126513276
1348,4.006452365277693,-1.9694351332294446,-4.523262500276361,-1.5826521743491395
1349,4.132660469097989,-2.0660139535683273,-4.408823181528043,-2.121700088208013
1350,4.244331357428331,-2.156688095699581,-4.407715602553074,-2.6126392779041443
1351,4.320829994505049,-2.2462498610066155,-4.49010722285814,-3.0409020376197304
1352,4.318534791732822,-2.332019018518881,-4.395587643969378,-3.4027252872451963
1353,4.223025365984454,-2.4068097147535985,-4.118595624109849,-3.6977883038748596
1354,4.09047375010951,-2.468780016347668,-3.773745754147064,-3.9377354215965474
1355,3.9908965911286796,-2.5308072167911537,-3.489747717529073,-4.133348493618351
1356,4.044922036928967,-2.618738980965565,-3.369980056867977,-4.388417500758696
1357,4.08264833291868,-2.75832110503154,-3.4311574794564788,-4.686825931753463
1358,3.8254747812803593,-2.9534145286311615,-3.447146691844498,-4.964656657792445
1359,2.9957326826687214,-3.2340613818773662,-3.396044579918354,-5.154671112368912
1360,1.8437964472460753,-3.5381101938603217,-3.4533074747709938,-5.220963014603803
1361,0.7881442818565756,-3.7858633843891663,-3.6476086130959606,-5.159317683638163
1362,0.1937124128460635,-3.928568853970161,-4.1471282883315155,-5.204507430576459
1363,0.10753032774991823,-3.9628263058224547,-4.829125488227726,-5.302937712379698
1364,0.164692371866216,-3.9409980699471308,-5.45002283265395,-5.142724864155233
1365,0.23646302964508212,-3.9463438579735666,-5.815491511406316,-4.494468692289672
1366,0.24609148933382743,-3.9628367055993468,-5.912820520158942,-3.23830782504367
1367,0.3257586861730601,-3.870633903410787,-5.881237751047669,-1.4795117217927984
1368,0.4054620050980718,-3.621126676879967,-5.934943634832569,0.5781998382482694
1369,0.45912528228207994,-3.2118484393099234,-5.936777316782108,2.65035229611643
1370,0.44493421233990527,-2.7041779897772074,-5.457747207106134,4.462214156385272
1371,0.42137704350465655,-2.1862286531986443,-4.371636325665877,5.669372539497196
1372,0.46857560644348273,-1.695126037513328,-2.767196900003444,6.207401716723629
1373,0.4968154347292575,-1.2021832971880595,-0.9313704558419644,6.203375244157158
1374,0.5306295957007384,-0.7022028144054661,0.8235076772490687,6.19200878857578
1375,0.5179467619476859,-0.19421585756980797,2.4408214893946996,6.269354935676518
1376,0.43363072371983985,0.31372234377569086,4.0442707538948275,6.104707818091832
1377,0.2951618226598365,0.8144044366052031,5.69326993900046,5.349389278222727
1378,0.23327734979039608,1.3037246335720245,7.167786650531533,3.9900343673792973
1379,0.19026888893232508,1.7713409326518914,8.225332564023422,2.2136865874071527
1380,0.11554684794348996,2.193093059949038,8.764357467516994,0.3477412406646461
1381,-0.02987969309186997,2.527687988858742,8.81541829989507,-1.3192608958570835
1382,-0.3459742458616721,2.745022241747574,8.818537657944843,-3.114574463243387
1383,-0.7976957082370969,2.8492465794071693,8.880641729401326,-4.861444834622608
1384,-1.3749299586861077,2.8731572737832827,8.749544147646843,-6.273543558732206
1385,-1.935391426763772,2.869045830400859,8.03840914702502,-7.1434319039261265
1386,-2.39422303135746,2.8843946462897487,6.41901429570194,-7.4611328090396665
1387,-2.6402709354620963,2.9430507468403824,4.338079165719045,-7.343922766968705
1388,-2.680935359308485,3.0427530026025313,2.547707560985569,-7.373623819432011
1389,-2.6679998206251403,3.1746206746763943,1.5980518574009734,-7.545826990693335
1390,-2.6690727763274817,3.330542886350765,1.350648413119225,-7.299095845299028
1391,-2.6238951247023525,3.5104475132144963,1.462714448579379,-6.294405166277969
1392,-2.4292291162327246,3.720709447768476,1.5373336983046049,-4.485969783427738
1393,-2.161865329686554,3.958323325437873,1.5414980196059331,-2.1435791889085154
1394,-1.8991116022415444,4.236239034447832,1.8781483188389383,0.2643642897388636
1395,-1.6511416242693928,4.503903219131535,2.42598154117421,2.364950929559853
1396,-1.3422099333661077,4.704904671616052,3.0071655977322385,4.310182864014892
1397,-0.826734772200479,4.8122859917983325,3.417905078976977,6.09448733491661
1398,-0.14284042252457135,4.8304924090626535,3.55599761701364,7.549998987711147
1399,0.6916888438569575,4.824511148743832,3.563103958766319,8.524516280643152
1400,1.4890808151265897,4.823618291536999,3.563932171389634,8.999418077726428
1401,2.0910709691897966,4.8129404437016134,3.5573173009120853,9.06716810935459
1402,2.4314618165933566,4.725898962440329,3.566700707337981,9.029024607807642
1403,2.5311814742425103,4.573599409385461,3.5963330220451004,9.134468074256077
1404,2.4854697076368857,4.181255807744547,3.5574569178126216,8.980642645954013
1405,2.431872265354868,3.62846938467845,3.4403648824559805,8.379738857409672
1406,2.4589878244496326,3.098518240665223,3.2867699035384756,7.57603534912994
1407,2.4589878244496326,2.727647018863963,3.1564033617502476,6.882083485445826
1408,-0.21788242965706617,-0.1173707821860363,-0.12795991942127727,-0.09653829216165821
1409,-0.7847154610014051,-0.4875808093579065,-0.527429673665038,-0.33848882792717816
1410,-1.796549219469225,-1.2526705793974886,-1.3527126199285697,-0.8591805990180301
1411,-3.1386114419002755,-2.445565698738179,-2.6387640447581386,-1.740664786294671
1412,-4.80499471748012,-4.022466560182235,-4.2352116925090435,-2.9384467885941175
1413,-6.509415242957918,-5.910060063880142,-6.119193286695525,-4.522331061892009
1414,-7.888601314256832,-7.687169054463268,-7.901342847756922,-6.1368561815213996
1415,-8.722738914017134,-8.967204253193657,-9.213995745743986,-7.382677215052166
1416,-9.007502160200723,-9.59854043089532,-9.905000033737064,-8.058546673190486
1417,-8.886788033539665,-9.636130401037944,-10.022544770885007,-8.159970762337686
1418,-8.873656959906503,-9.637380995915434,-9.99392924053728,-8.163699931588734
1419,-9.029178711212356,-9.715942685384816,-10.000353477358189,-8.220389139713761
1420,-8.865041552651485,-9.543455299537637,-9.916134587327933,-8.085665687457844
1421,-8.089659950089715,-8.634536469439505,-9.294617998255923,-7.187782932061813
1422,-6.583300782602123,-6.897270943107519,-8.071379283006351,-5.425915297635495
1423,-4.473739629408773,-4.487549426180444,-6.314093115495144,-2.9927291200485957
1424,-2.065087228073485,-1.7942958512519354,-4.22631791851488,-0.35199084893072663
1425,0.3862795287510692,0.7999532943626106,-1.9891591791221335,2.0456028482770447
1426,3.011712065247976,3.362025510782576,0.5133386569297214,4.2123083731831015
1427,5.652899828244665,5.690373083330457,3.14176403557573,6.150761020498926
1428,8.315818888178724,7.823886576251057,6.096841703704211,7.697825175012292
1429,10.688833798455182,9.56553745169456,8.922436634782617,8.717974331402708
1430,12.41666108818726,10.740738221176027,11.07185707322613,9.204517288213477
1431,13.362072434790088,11.32188011561967,12.254616636027315,9.282798976666015
1432,13.652221940159299,11.446562112025925,12.533970934896942,9.205071976866474
1433,13.515232552605271,11.32098293122245,12.393723719261311,9.224698069205537
1434,13.531211471243955,11.313010606670918,12.329245837605567,9.258459113807737
1435,13.686521972805721,11.423627265973078,12.342121024397926,8.978148046090231
1436,13.464949473965607,11.30416783997244,11.876144087951987,8.30281449626889
1437,12.602848277554838,10.845008783819768,11.019706588976343,7.261199647442983
1438,11.040919226386034,10.016035883362491,10.00315275474868,6.021402561778833
1439,8.974444549152409,8.934274514192655,9.172607617910208,4.806939556254664
1440,6.805672274770044,7.8008739442508945,8.77104054134996,3.721284197573889
1441,4.901838830527871,6.763616978017971,8.6706249976185,2.756427636648931
1442,3.1456596480558714,5.716220113637817,8.62225372145345,1.9812779999463326
1443,1.653101562555241,4.696280841835759,8.498389574371664,1.4418062923934862
1444,0.28673636843173084,3.7205127355793373,8.192411248820825,1.135886582406931
1445,-0.8851957509057267,2.8165168522566426,7.678370924831734,1.011499969215796
1446,-1.7351659428758106,2.020538946378677,7.000492951853065,0.9915513702687869
1447,-2.1876154083866117,1.364688817364969,6.229722109218373,1.0116989448901454
1448,-2.2858076052258367,0.8882875990621236,5.42289508543493,1.020782731173803
1449,-2.2186945553658624,0.6030237367923301,4.594383749723511,1.0083988465211273
1450,-2.2000252686280137,0.4737593266935237,3.7055766944010022,0.9971918552882004
1451,-2.2383616917835254,0.4446122858596711,2.6822938582275713,0.9736389706776492
1452,-2.0575476828458994,0.45551810802303955,1.4450825229136306,0.9829222826419111
1453,-1.7172568448866496,0.4570243539743937,-0.04646832461439443,1.0202049625651664
1454,-1.3421121131399998,0.41496364920379347,-1.7853280993894962,1.000294138706946
1455,-1.0746612825022654,0.30583725933634326,-3.696957902550401,0.8066893965217635
1456,-1.0002377191880765,0.09674438575071158,-5.4049709979772365,0.367422862145004
1457,-1.049681867077282,-0.23316614759025744,-6.583464481782015,-0.32705176577571554
1458,-1.0418982404534298,-0.6966380889535766,-7.13712126459867,-1.1858623088998137
1459,-1.0220987699756685,-1.3044973093259844,-7.1910506737889515,-2.2097705465754274
1460,-1.1567054121963602,-2.0398523017941583,-7.139447180336356,-3.2277218371072314
1461,-1.441383875756785,-2.838469279562195,-7.13749430414184,-4.023238933340469
1462,-1.8615413088028756,-3.7084719042303558,-7.0790787227568455,-4.466806430211093
1463,-2.282662461493927,-4.524436136865421,-6.704061946663478,-4.579547360407348
1464,-2.564763162528199,-5.1424984905721205,-6.133566110113465,-4.489003090523582
1465,-2.676843795668528,-5.4916738167357755,-5.540498525331767,-4.481641317484234
1466,-2.709559519543466,-5.598254577419488,-5.14052590626906,-4.566472839277887
1467,-2.693246488060408,-5.549499330936874,-5.000846651458329,-4.450427273290146
1468,-2.673381914775962,-5.536736175487317,-4.966656316532632,-4.027298286406935
1469,-2.6839739546930983,-5.5801782119581524,-4.986884024379907,-3.2717991602597327
1470,-2.681750776520658,-5.519481154192587,-4.9187042717016825,-2.306658150515792
1471,-2.6843647593614754,-5.317443512687609,-4.666862056702348,-1.3517493962270934
1472,-2.6958644609392506,-4.993728149070914,-4.111164688517565,-0.5813708706310159
1473,-2.6824203154878807,-4.618193499471981,-3.2827809721070764,0.06082117472819462
1474,-2.64010617771516,-4.269321804441148,-2.302345196787921,0.5639428760847842
1475,-2.5835976090746824,-3.9778537648076995,-1.3756900712787923,1.0708530938066438
1476,-2.5264757947705396,-3.6538319987635535,-0.6252416361660934,1.5702203796850511
1477,-2.516941714371757,-3.2915257190782063,-0.013693598522301953,1.982596186293724
1478,-2.541600547744573,-2.881902999117988,0.44022732305072476,2.2357255790726436
1479,-2.526361463199314,-2.43309590966867,0.7344032727400642,2.3004829639942237
1480,-2.409947029863583,-1.971929373233136,0.8854260119591193,2.2951490939441115
1481,-2.1855250605518255,-1.5337349371971687,0.9015655454996603,2.2877940708869544
1482,-1.8572488757896424,-1.1464312392625238,0.9215697509246334,2.2532063237037043
1483,-1.4313465928904028,-0.8202316219462268,0.9567480957045351,2.0419601588811194
1484,-1.0185948772828959,-0.5505186298827658,0.8998739712208799,1.6650047036182307
1485,-0.6928260965238622,-0.33040300728172695,0.5733975250081023,1.1618538460232712
1486,-0.5131256750209942,-0.15698687284442917,-0.1552681451507537,0.5800710426142521
1487,-0.4748590758490538,-0.022192570539102684,-1.0793599521568644,-0.0396949961584086
1488,-0.4976666383538314,0.09436908082695668,-1.8636010814136856,-0.8612608054688984
1489,-0.5202059139241358,0.2246733850252231,-2.2674449206349436,-1.735530346935324
1490,-0.5185157616617101,0.3552226907317114,-2.3655189731075614,-2.4402489832634435
1491,-0.536563105427387,0.46132809795714125,-2.289475230517627,-2.8382199887828747
1492,-0.554610449193064,0.5332669714502939,-2.2848788809199254,-2.939667073824985
1493,-0.5599815711282131,0.5542042278312852,-2.3232973107508736,-2.8546795359058215
1494,-0.567588099431611,0.5415998511542479,-2.1811373896562603,-2.8544407028782963
1495,-0.589780417827811,0.5747086892260166,-1.924162705409051,-2.935507848634006
