,TP9,AF7,AF8,TP10
0,-3.739467562562343e-11,-1.0291480710218296e-10,-7.200168526276935e-11,-4.162332815490649e-11
1,-8.342707294693281e-10,-2.1875988254750823e-09,-1.5366304430028176e-09,-9.006041841194546e-10
2,-9.286506928401242e-09,-2.430527485064941e-08,-1.7257469512005054e-08,-9.692682278133513e-09
3,-6.839627961337063e-08,-1.782790232218305e-07,-1.2786546862362567e-07,-6.903346657350474e-08
4,-3.765618490099024e-07,-9.79882067620436e-07,-7.098110666123387e-07,-3.6770286670717337e-07
5,-1.6589272643401662e-06,-4.317927166014647e-06,-3.1582484591322373e-06,-1.5690722811080163e-06
6,-6.113592476557845e-06,-1.5942573864098627e-05,-1.1770216886183613e-05,-5.6124065473102935e-06
7,-1.9453844234283662e-05,-5.0889949631813527e-05,-3.790893838075316e-05,-1.7383639906631606e-05
8,-5.474615584915918e-05,-0.00014378746838644162,-0.00010802527716882222,-4.7789601208687956e-05
9,-0.00013883704723294086,-0.00036628568713860805,-0.00027740878406854743,-0.00011888048570572786
10,-0.0003221300870017729,-0.0008537874225140206,-0.0006515426662398537,-0.00027172629138102003
11,-0.0006923165668911535,-0.001843183436172835,-0.001416613180246805,-0.0005777267424975196
12,-0.0013924029367417684,-0.0037225604256823303,-0.002880135603830455,-0.0011538805481826743
13,-0.0026430422326837403,-0.007092986955288255,-0.0055219268548767795,-0.002182257241978966
14,-0.0047687835168704,-0.012841602423019061,-0.010054860472583832,-0.003933561351845087
15,-0.008227413183415341,-0.022224322550542283,-0.017493995660323065,-0.006794332401157092
16,-0.013641083553565332,-0.03695540769184991,-0.029231710723374,-0.011297011680158462
17,-0.02182742597205856,-0.059299797955802265,-0.04711532745957847,-0.018151781951732764
18,-0.033828364401942326,-0.09216247169392058,-0.07352237894720356,-0.028278692273554885
19,-0.050933939301759025,-0.1391672774547535,-0.11142725769014009,-0.042838135708606034
20,-0.07469819318350909,-0.20471602393395777,-0.164451691939365,-0.06325736929200897
21,-0.10694412821636604,-0.2940174671123582,-0.23689059284700345,-0.09125059529636176
22,-0.1497549694483025,-0.4130755678155962,-0.33370454166413094,-0.12883022944194764
23,-0.20544946640733094,-0.5686272250798861,-0.4604707091164749,-0.1783073234409646
24,-0.27653972380444714,-0.7680216726279515,-0.6232853919633434,-0.24227958865428548
25,-0.36567103096452963,-1.0190367284084532,-0.8286135809212436,-0.32360601245451
26,-0.4755443041878313,-1.3296308879396488,-1.0830839431028296,-0.42536765336735816
27,-0.6088229901994827,-1.7076345808461355,-1.3932311548499385,-0.5508148515207899
28,-0.7680275105756962,-2.1603885222882755,-1.7651914726136813,-0.7033017816591993
29,-0.9554214620836926,-2.6943417554725215,-2.2043615472734213,-0.8862099571820756
30,-1.1728947371625325,-3.3146264635240072,-2.7150344941237243,-1.102862894192245
31,-1.4218494069053742,-4.024630646298013,-3.300030811353541,-1.3564345848486674
32,-1.7030945232655386,-4.825592944557627,-3.9603445576718412,-1.6498546295655332
33,-2.016755849640457,-5.716245839650089,-4.694826949863887,-1.9857127777842716
34,-2.3622058421452694,-6.69253374759252,-5.499929967609179,-2.3661652130290487
35,-2.7380179759264323,-7.747430866353689,-6.3695314979745925,-2.792844238635431
36,-3.141947857630145,-8.870879903612742,-7.294860950417824,-3.2667721849795006
37,-3.570941709514032,-10.049867130865582,-8.264540175277876,-3.7882795241894986
38,-4.021171007822683,-11.268641902088175,-9.264749063357796,-4.356926532627971
39,-4.488090508559461,-12.509080332870852,-10.27951863570301,-4.971427573194809
40,-4.96651570516273,-13.751183838490686,-11.291147086998999,-5.629577315784248
41,-5.450714969962617,-14.973694293952953,-12.280726573745271,-6.328179005139064
42,-5.934511244044801,-16.154799341089173,-13.228761080444361,-7.062976126087851
43,-6.411388167527743,-17.272894439311955,-14.11584903790275,-7.828590325253676
44,-6.874595994979469,-18.307363216765815,-14.923399070013973,-8.618470030368362
45,-7.317253519252405,-19.239334996182414,-15.63434376206869,-9.424855704023287
46,-7.732443511009009,-20.052378372335337,-16.233814987367168,-10.238768950288923
47,-8.113300804234283,-20.733092518730956,-16.709745227683126,-11.050033629506057
48,-8.453093970525085,-21.271563401740394,-17.053362440750632,-11.847337575830624
49,-8.745303274776065,-21.66165994761102,-17.259551163744355,-12.618343293786898
50,-8.98369897754354,-21.90115492274005,-17.327059386495755,-13.349854988262916
51,-9.162424765460534,-21.991666160061115,-17.2585388778331,-14.028047337533554
52,-9.276090996057746,-21.938424991341353,-17.06041564245242,-14.6387584720764
53,-9.319881535125996,-21.74988946882726,-16.742596492641223,-15.167845678502738
54,-9.289676352980164,-21.437229336254237,-16.318026750913113,-15.60159755776771
55,-9.182189897690204,-21.013717021682332,-15.802122242002278,-15.927191061743292
56,-8.995122770751244,-20.494063643235577,-15.212105405449897,-16.13317649939983
57,-8.72732160682207,-19.89374087676185,-14.566280114532796,-16.209968803058338
58,-8.378939535624104,-19.22832850098537,-13.883282347138115,-16.150319615816155
59,-7.95158742254987,-18.512923700530038,-13.181344147213897,-15.949742559634757
60,-7.44846448569262,-17.761642128642155,-12.47760644364062,-15.606863714221987
61,-6.874456095759626,-16.9872328232676,-11.787512505539613,-15.123671086540956
62,-6.236186767331353,-16.200819978657265,-11.12430846487436,-14.505640718180866
63,-5.542017655314794,-15.411775031132482,-10.49867084362748,-13.76172291711517
64,-1.61892221384492e-11,-8.53579731575048e-11,-6.274422455234498e-11,-2.517221786548048e-11
65,-3.5914117973337234e-10,-1.8335633898949216e-09,-1.3161534287041823e-09,-5.670752812873814e-10
66,-4.1054452948419075e-09,-2.06042585993898e-08,-1.4805207777808613e-08,-7.022529818127304e-09
67,-3.123925214971369e-08,-1.53235370439425e-07,-1.1010419769666389e-07,-5.707465555877646e-08
68,-1.7891835211890677e-07,-8.542008847554812e-07,-6.140806999738344e-07,-3.455713562692919e-07
69,-8.248690014220092e-07,-3.818729535765527e-06,-2.7476446100332253e-06,-1.6665650940101833e-06
70,-3.196513462743835e-06,-1.4307406610290987e-05,-1.0306182450975068e-05,-6.687390561828946e-06
71,-1.0732467966169074e-05,-4.635087712067696e-05,-3.343311177373275e-05,-2.3032317100008685e-05
72,-3.193268854254204e-05,-0.00013292251883890042,-9.601889328552023e-05,-6.97055305790019e-05
73,-8.567772983854935e-05,-0.0003436675566162207,-0.00024864200854672863,-0.00018884287534900692
74,-0.00021021914948992506,-0.000812940258973221,-0.0005891192574793963,-0.00046493142179464795
75,-0.00047713460899199257,-0.0017806363417528976,-0.001292590920994176,-0.0010533444593382305
76,-0.0010114766923370075,-0.0036476357554520726,-0.002652644959801086,-0.0022193226300444113
77,-0.0020191448742579578,-0.007046700705923621,-0.005134350319687694,-0.004387536622432592
78,-0.0038222063205186107,-0.012928513186933121,-0.0094392725912219,-0.008201274961350362
79,-0.006902480515006558,-0.022661249325381494,-0.01658160545402751,-0.014589254749281196
80,-0.011953136473019923,-0.038140663219306696,-0.027973444845596177,-0.02483711167321724
81,-0.019937278390440853,-0.061906053112900934,-0.045515938623212994,-0.040659760284195545
82,-0.03215151654811241,-0.09725568411161088,-0.07169156250652346,-0.06426994112371513
83,-0.05029140803908289,-0.1483533022437011,-0.10965116857956635,-0.09843731306495182
84,-0.07651452311766399,-0.22031546028656995,-0.16328786608504983,-0.14653143621444456
85,-0.11349587072264025,-0.3192677625309485,-0.2372884410149096,-0.21254111670779757
86,-0.16446961667730592,-0.45235717795077246,-0.3371521699011142,-0.3010621908946537
87,-0.23325056022441062,-0.627707616105716,-0.4691667900585601,-0.41724628061680274
88,-0.3242288013103623,-0.854307277862485,-0.6403322494703125,-0.5667046068990672
89,-0.44233150908860486,-1.1418189951800108,-0.8582247455317267,-0.7553636258068779
90,-0.5929467328156713,-1.5003088040600867,-1.1307964261761778,-0.9892728228842355
91,-0.7818057855932229,-1.9398931239160169,-1.4661098165503323,-1.2743690615236491
92,-1.0148228538400816,-2.4703107968294304,-1.872010351805077,-1.6162059442685182
93,-1.2978930693921527,-3.1004324350151617,-2.355745113837085,-2.0196602679945004
94,-1.636653189716831,-3.837725564926641,-2.923540734817233,-2.4886304981618443
95,-2.036212053506881,-4.68769948358407,-3.5801581457821694,-3.0257440684997468
96,-2.5008608489842215,-5.653358138638915,-4.328446056136356,-3.6320911598044123
97,-3.0337756723983347,-6.734692360107406,-5.168918359972839,-4.307002401934766
98,-3.6367266178659983,-7.928244117118692,-6.0993826770504525,-5.0478866181514475
99,-4.3098085550371446,-9.226774928261152,-7.11464760362933,-5.850142203592113
100,-5.051208748551933,-10.619067961800832,-8.20633471569995,-6.707151956404961
101,-5.8570255867670875,-12.089888659206911,-9.362817839721611,-7.610366273938102
102,-6.7211510078950365,-13.620121944462683,-10.569306662224239,-8.549473889653562
103,-7.635226826341707,-15.187095447306984,-11.808084651674749,-9.512653218454608
104,-8.588682125594605,-16.76508806454467,-13.058902906503185,-10.48689143685386
105,-9.568855265426816,-18.32601222350462,-14.299522417267596,-11.458353208317961
106,-10.561200006723077,-19.840247188129478,-15.506387897652047,-12.412777011718509
107,-11.549571066708628,-21.277590547077384,-16.65540740346843,-13.335874797531444
108,-12.516580444364669,-22.608286512625497,-17.722804056942714,-14.213710495347422
109,-13.444012463404556,-23.804083560513032,-18.68599994082976,-15.033034838345255
110,-14.313282949507323,-24.839270757556996,-19.524488179814742,-15.78155796360925
111,-15.105926438217864,-25.69164208160731,-20.22064780322936,-16.4481470006612
112,-15.804094810851323,-26.343341103832834,-20.760457427179645,-17.022942906696127
113,-16.39105117571503,-26.781544305900766,-21.13406812474136,-17.497398508968505
114,-16.85164397769106,-26.998949609279276,-21.336202872699538,-17.86424731898382
115,-17.17274801665398,-26.99404683672377,-21.366359255405325,-18.11741941277174
116,-17.343661051359582,-26.771158167514006,-21.228803084266875,-18.251925834072992
117,-17.356446723356168,-26.34024848977374,-20.932352530938015,-18.263736049400467
118,-17.20621643814835,-25.71651718163989,-20.48996446958026,-18.149673627969044
119,-16.891344425466105,-24.919793582263587,-19.91814614538308,-17.9073534021165
120,-16.4136113972179,-23.973767621693263,-19.23622522200493,-17.535178975708998
121,-15.778273077586947,-22.905094254263773,-18.46551900440438,-17.032412943022873
122,-14.994050537831447,-21.742415097671497,-17.628448643413886,-16.399324139143992
123,-14.073039911024297,-20.51534280516326,-16.747646097797375,-15.63740738163468
124,-13.030539846742972,-19.253453169836902,-15.845100505355985,-14.74966222327054
125,-11.884796094974815,-17.985326966183223,-14.941386588997274,-13.740908940651066
126,-10.656663939925672,-16.73767845070542,-14.05501118305964,-12.618113048054793
127,-9.36919088189871,-15.534600781050608,-13.20190542347521,-11.3906847459949
128,-7.772702791556369e-11,-7.314350404921898e-11,-7.888299360174573e-11,-7.273065361264868e-11
129,-1.696861080408562e-09,-1.3089286186192954e-09,-1.7113187558825605e-09,-1.5458510913080704e-09
130,-1.8507234258521374e-08,-1.5004829910228493e-08,-1.8917146464918634e-08,-1.6619939143983077e-08
131,-1.3363396676398558e-07,-1.1210809328857786e-07,-1.3841539031431428e-07,-1.1819206167793212e-07
132,-7.21887619675619e-07,-6.283236375590336e-07,-7.588891759385358e-07,-6.292027235829486e-07
133,-3.123656804786163e-06,-2.8232191706419364e-06,-3.3366508200640345e-06,-2.6853738162632426e-06
134,-1.1321233995651992e-05,-1.062615131540298e-05,-1.2296597109361119e-05,-9.610478085825895e-06
135,-3.5482714277386414e-05,-3.456502131762092e-05,-3.919610511765172e-05,-2.9782683970349017e-05
136,-9.851460952651707e-05,-9.94714206001256e-05,-0.00011064614951963263,-8.188244206843096e-05
137,-0.0002469123427148862,-0.0002579429996947713,-0.00028175676335428384,-0.00020354003179641041
138,-0.0005671645223367091,-0.0006116693243586389,-0.0006568744465877045,-0.0004644094751659751
139,-0.0012087442156626404,-0.0013425476049426554,-0.001419099397074572,-0.000984578728705396
140,-0.0024143286303870597,-0.0027550496206439857,-0.002869569884562663,-0.001958997594707827
141,-0.004557366432764197,-0.005330655320675291,-0.00547687675487995,-0.003688303652752845
142,-0.008186501280268684,-0.009794396840863197,-0.009936287680086676,-0.006616090126832168
143,-0.014075689860683964,-0.01719267977954583,-0.017237726160602037,-0.011372288779938804
144,-0.023278119811764225,-0.028980490482670943,-0.028740606586263515,-0.018821867753407506
145,-0.03718121625768511,-0.047114801321712405,-0.046252595955880944,-0.030117374568556364
146,-0.05755912868090206,-0.07414941954235152,-0.07210810663009608,-0.04675294429125445
147,-0.08661818796565392,-0.11332478392311138,-0.1092408747981686,-0.07061631262226666
148,-0.12703007299166535,-0.1686444898535056,-0.161243525623481,-0.1040342854779365
149,-0.18194701220422504,-0.24492887716164444,-0.2324058503777663,-0.14980620105065987
150,-0.25499340725531466,-0.34783514036950697,-0.3277229339665318,-0.21121932171649166
151,-0.3502288410202989,-0.4838333391207237,-0.45286450912355874,-0.29203990748791225
152,-0.47207847026659994,-0.6601285638248323,-0.6140980780814385,-0.39647402081525274
153,-0.625228221587927,-0.8845213837290412,-0.8181603773320462,-0.5290929357825622
154,-0.8144839557889892,-1.1652015524234596,-1.0720745059139585,-0.6947193806754891
155,-1.0445958213180369,-1.5104736470983946,-1.3829132921591132,-0.898272697596267
156,-1.3200513459229277,-1.928417714496378,-1.757513067323943,-1.144573300137079
157,-1.644843302884916,-2.4264928442266136,-2.2021458078328076,-1.4381094683549112
158,-2.0222208321521005,-3.011096602014076,-2.7221614562769525,-1.7827724293232028
159,-2.4544344615307234,-3.6870981212244955,-3.321615924703239,-2.181568692099012
160,-2.9424873605641237,-4.457367034028331,-4.002903514724302,-2.6363216000020535
161,-3.4859062488694086,-5.322324015229649,-4.766414888523457,-3.1473769019854227
162,-4.082545812428922,-6.279541165333897,-5.610242918995539,-3.713329660085136
163,-4.728440229190781,-7.323421457897957,-6.529958436713691,-4.330791731477549
164,-5.417714452708977,-8.44498570145563,-7.518475890647464,-4.9942200111445825
165,-6.142566249145989,-9.631792723194119,-8.56602522074876,-5.6958252142243415
166,-6.893327665996222,-10.868013696386857,-9.660240948331767,-6.425578984429224
167,-7.658611742691717,-12.134674857676583,-10.786372959870592,-7.171333560360476
168,-8.425547051528723,-13.410074607247639,-11.92761617657374,-7.919063359229493
169,-9.18009932247527,-14.670371640529735,-13.065548835857102,-8.653231989179057
170,-9.907476140299604,-15.890330887739744,-14.180662022048113,-9.357281682641002
171,-10.592607548435211,-17.044204226228704,-15.252956857835311,-10.01423519351609
172,-11.220692254851524,-18.106713785327656,-16.26258080130238,-10.607393047363711
173,-11.777795880442433,-19.054097737459724,-17.190471110832508,-11.121101965409402
174,-12.251484285445962,-19.865172300125362,-18.018972045387894,-11.541563680400841
175,-12.631471577469306,-20.522359681776173,-18.732393040802574,-11.857647667053342
176,-12.910259188727977,-21.01263022200078,-19.317478154412463,-12.061666991492256
177,-13.083739675978281,-21.328308163151362,-19.76376252284074,-12.150073996087954
178,-13.151736864427948,-21.46769440252369,-20.063799171946098,-12.124032277040323
179,-13.118452784611948,-21.4354661020746,-20.213248670901542,-11.989823651851955
180,-12.992791662547111,-21.242821957602988,-20.21083399113437,-11.7590536306091
181,-12.788532135810712,-20.907352843137595,-20.058172542196598,-11.44862615216713
182,-12.524321022634952,-20.452629914481882,-19.75950576494451,-11.080467703254227
183,-12.22346554823173,-19.907515405228967,-19.321353109527088,-10.680991984688777
184,-11.91350614763719,-19.305214568028617,-18.75212123169366,-10.280308563619297
185,-11.625559014100716,-18.682099821973004,-18.06170063002261,-9.911191944739926
186,-11.393426548215894,-18.07634953641662,-17.26108076759632,-9.607840627962707
187,-11.252484714228297,-17.526453510050324,-16.36201114904034,-9.404468341959392
188,-11.238368732437316,-17.069644660011992,-15.376730082960863,-9.333781042881542
189,-11.385491988067,-16.740321400311228,-14.317775244987669,-9.425402716012076
190,-11.725446729610734,-16.56852741353804,-13.197881113710253,-9.704319818893955
191,-12.28534807736255,-16.578554852547203,-12.029958556046964,-10.189417790469934
192,-3.7087737303930304e-11,-1.275092488301113e-10,-3.629264403529418e-11,-2.3119552618291833e-11
193,-7.800502177240888e-10,-2.3615493704114023e-09,-8.163415507628435e-10,-5.522492932353937e-10
194,-8.917447137615233e-09,-2.6745906757782598e-08,-9.284810607576696e-09,-6.584053214020675e-09
195,-6.750146731029922e-08,-1.9735880437755182e-07,-7.007666523052734e-08,-5.1638006201925664e-08
196,-3.8388441810361786e-07,-1.0931553844284203e-06,-3.9643489097290137e-07,-3.011028667602084e-07
197,-1.7536431149464093e-06,-4.858302745856554e-06,-1.798183667018047e-06,-1.3971375375962441e-06
198,-6.720344213420787e-06,-1.810328819334386e-05,-6.831750005032104e-06,-5.392763759555122e-06
199,-2.2277734319616578e-05,-5.835477677930039e-05,-2.2423358199800457e-05,-1.787330017181929e-05
200,-6.536493113779376e-05,-0.00016657157799705193,-6.507761307114986e-05,-5.210410666876731e-05
201,-0.00017281855899338496,-0.00042880196172715747,-0.0001700690747082015,-0.00013616929120142208
202,-0.0004176940335322753,-0.001010161475391777,-0.00040611586692072425,-0.00032400220081560074
203,-0.0009338556619483765,-0.0022038752438306637,-0.0008969022309111704,-0.0007109603125104987
204,-0.0019504302066998282,-0.004497168994844551,-0.001850474806924058,-0.0014542374115176972
205,-0.00383715877245584,-0.008654485707600936,-0.003597053205976456,-0.0027980212476848157
206,-0.007160923657245149,-0.01581698315254668,-0.0066352280219403705,-0.005102947230715394
207,-0.012752817518857052,-0.027615646331147083,-0.01168588775511949,-0.008879078058865496
208,-0.0217840738133458,-0.04629359313262104,-0.01975249704857727,-0.014821335955069287
209,-0.0358479905081812,-0.07483120881902608,-0.03218550589333971,-0.023845984567328397
210,-0.057043654058532976,-0.11706558152646308,-0.05074768811839158,-0.037126337680137705
211,-0.08805583869041894,-0.17779341226783993,-0.07767612877604567,-0.05612531471742257
212,-0.13222399433260668,-0.2628444293705512,-0.1157355172897207,-0.08262180133073313
213,-0.19359189206756477,-0.3791107308795712,-0.16825653308788205,-0.1187271542601215
214,-0.27692849899177713,-0.5345168967767528,-0.23915263399908696,-0.16688782954165107
215,-0.3877102804058163,-0.7379165281611056,-0.3329086385114245,-0.22987019079225604
216,-0.5320556394102346,-0.9989033537739256,-0.45453520863758706,-0.3107241285361568
217,-0.7166037640268611,-1.3275292028687453,-0.6094846701046304,-0.4127231281263633
218,-0.9483327835013007,-1.733926834076652,-0.8035254690244873,-0.5392797361247814
219,-1.2343157021647888,-2.227842466773054,-1.042574856463799,-0.6938368549282584
220,-1.5814168173722396,-2.818090448280051,-1.3324920057481708,-0.879736809321323
221,-1.9959358891808794,-3.5119502515572583,-1.6788365640191487,-1.1000715556374763
222,-2.4832118656671636,-4.314533347244161,-2.0866004325665153,-1.3575186677866975
223,-3.0472021999267676,-5.22815384246908,-2.559923135912246,-1.654168835478754
224,-3.6900575161497473,-6.251741536201574,-3.1018032598323066,-1.9913516043687138
225,-4.411714408300615,-7.380338735845717,-3.7138199465790915,-2.3694670049929067
226,-5.209531241053463,-8.60472237926868,-4.395879222973764,-2.787831478245114
227,-6.0779926586396655,-9.911190436027113,-5.145999931545113,-3.244546926597518
228,-7.00850776644437,-11.28154601548957,-5.9601531710265565,-3.7364016106954794
229,-7.989324404889733,-12.69330410778404,-6.832167379632242,-4.258810885061133
230,-9.005577533373511,-14.120134624939393,-7.7537085186646095,-4.805804478898376
231,-10.039483651188396,-15.532541934532771,-8.714341352374923,-5.370065314237772
232,-11.070685752356544,-16.898766170688006,-9.701673817932889,-5.943022843236796
233,-12.07674503100162,-18.185876331142083,-10.701582279330273,-6.5150016660503365
234,-13.033766990710802,-19.36101070866423,-11.698511427003647,-7.075423824733568
235,-13.917141359637668,-20.3927077386808,-12.675839032635592,-7.613060740354988
236,-14.702367843573372,-21.252260953229513,-13.616292907207812,-8.116328391797357
237,-15.365933751917067,-21.91502621312767,-14.502405348420355,-8.573617180480671
238,-15.886205299256813,-22.36160831662501,-15.316989140207506,-8.973646144745642
239,-16.244292191937156,-22.57885767714423,-16.043618780164596,-9.305829893914542
240,-16.42484511455974,-22.560616007995407,-16.667101027723522,-9.560645843970486
241,-16.416747960610163,-22.30816246651807,-17.1739200108711,-9.729988970609973
242,-16.213670998302927,-21.83032783496715,-17.552643870479823,-9.807501227901056
243,-15.81445738081425,-21.14326303509218,-17.79428206510219,-9.788862946406056
244,-15.223323139015857,-20.26986832513693,-17.892584764483463,-9.672033976331834
245,-14.449859576471383,-19.238909496126112,-17.844277976815654,-9.457433214358101
246,-13.50883630047278,-18.08386579328068,-17.649229977742078,-9.14804656479841
247,-12.419812417799669,-16.84156983691586,-17.31054612872639,-8.749455353403608
248,-11.206572148608311,-15.550711407845682,-16.834590285525554,-8.26977965521377
249,-9.896408767675611,-14.250283894537818,-16.230931782272204,-7.719533803110201
250,-8.519286959049042,-12.978054088911238,-15.512217547721535,-7.111394421497309
251,-7.106918093326972,-11.769132863475043,-14.693969393578387,-6.459884611925226
252,-5.691785471226973,-10.654716354753774,-13.794307040302936,-5.780981321581004
253,-4.306157210966633,-9.661055212955599,-12.833598148474525,-5.091656320784946
254,-2.981123275089468,-8.80869414194438,-11.834037642147694,-4.409364423946374
255,-1.74569031325822,-8.112006483405322,-10.819160078851903,-3.7514954146095745
256,-4.4499103230063906e-11,-1.1216255102100158e-10,-3.7989757024953065e-11,-1.6227420714296866e-11
257,-9.352079189535896e-10,-2.3905620569719364e-09,-8.280169464950046e-10,-3.329153763513293e-10
258,-1.0160184745477621e-08,-2.660633469415577e-08,-9.174550152169694e-09,-3.510098728521288e-09
259,-7.302399652110154e-08,-1.9595155428858453e-07,-6.7330314366715e-08,-2.4415288924183828e-08
260,-3.9327701851038634e-07,-1.08170890921679e-06,-3.701601091357059e-07,-1.2717377046844322e-07
261,-1.6993571949000065e-06,-4.789822087107407e-06,-1.6321130691100267e-06,-5.318131344125594e-07
262,-6.161177029981548e-06,-1.7782360444215125e-05,-6.034560682020227e-06,-1.8694951470081524e-06
263,-1.9350979932902343e-05,-5.711808886955505e-05,-1.9313220346650698e-05,-5.709271054651749e-06
264,-5.393210031060585e-05,-0.00016252810523975915,-5.479422151302492e-05,-1.552308120773058e-05
265,-0.00013591042809814273,-0.00041731077190110304,-0.00014039491672654064,-3.8284809438037445e-05
266,-0.00031436495784050356,-0.000981245605416677,-0.0003297090583472922,-8.68920990044179e-05
267,-0.0006755746589573363,-0.002138499865103418,-0.0007182529467692669,-0.000183543729855772
268,-0.0013623726498451353,-0.004362839727355128,-0.0014657506847055046,-0.00036412102524561687
269,-0.0025993858099277872,-0.008401439507107176,-0.0028250170375154235,-0.0006835704674461044
270,-0.0047245560699145425,-0.015377277037239779,-0.005177609890531031,-0.0012223361745636256
271,-0.008226980471258355,-0.026908547130192542,-0.009076005654091782,-0.00209406363521092
272,-0.013790618288719969,-0.04524169636572155,-0.015291579004595133,-0.003455029577283335
273,-0.02234275639326193,-0.07339256265275035,-0.02486708275800481,-0.005515939014816582
274,-0.03510528903884486,-0.11528771640326368,-0.039171576982393645,-0.00855677524173158
275,-0.05364591933504662,-0.17589558069160352,-0.05995487082348252,-0.012945246665410134
276,-0.07992544865501815,-0.26133450462210295,-0.08939761856153977,-0.019159031807694835
277,-0.11633650541491235,-0.3789430187203358,-0.13015240536680628,-0.02781148180774467
278,-0.1657284429334284,-0.537296399676886,-0.1853706226254141,-0.039679732698683925
279,-0.23141273266239815,-0.7461537603337848,-0.2587097797285333,-0.05573341187735388
280,-0.3171430462826035,-1.016321422455964,-0.3543161772283473,-0.07716145055002117
281,-0.4270644683292587,-1.3594214402424722,-0.4767785564398035,-0.1053940608671464
282,-0.5656270545487999,-1.7875587944646618,-0.6310493904010767,-0.14211671668641412
283,-0.7374603487859314,-2.312886786969037,-0.8223318460762252,-0.18927289907970551
284,-0.9472074998607095,-2.94707723381169,-1.0559321188496884,-0.24905233543949237
285,-1.1993201849846087,-3.700709770013105,-1.3370788165048864,-0.32386147121220743
286,-1.4978184864548907,-4.582602436417943,-1.6707133031745867,-0.4162730812548859
287,-1.8460229798963748,-5.599113137229006,-2.0612572649977485,-0.5289524260891568
288,-2.246269357673983,-6.753447898398317,-2.5123660122958142,-0.6645583405956871
289,-2.6996187255623143,-8.045016502070396,-3.0266779548532012,-0.8256191881111635
290,-3.205579098565255,-9.468878464152727,-3.605572090424872,-1.0143856986669177
291,-3.7618554286268715,-11.015322047358298,-4.248946126182922,-1.2326651847515755
292,-4.364146539263315,-12.669615810211617,-4.955027975471841,-1.4816442096791136
293,-5.006007381935533,-14.411966041921616,-5.7202328522333765,-1.76170911188709
294,-5.67879379908581,-16.217704481276954,-6.539077041008786,-2.072275524277723
295,-6.371704286226993,-18.057719342645118,-7.404157643666083,-2.411638947030362
296,-7.0719290644222506,-19.899129439870386,-8.306205158005818,-2.776858447857439
297,-7.764911291181584,-21.70618685782779,-9.234212618638999,-3.1636846901509625
298,-8.434718808774377,-23.44137906044373,-10.175641322982663,-3.5665417935030286
299,-9.064517915635646,-25.066687534811635,-11.116699128526376,-3.978570114216145
300,-9.637133744438051,-26.544948102568938,-12.042683318293493,-4.39173402801058
301,-10.135675419840265,-27.84124889022799,-12.93837647989518,-4.796995362342749
302,-10.544198684239396,-28.924296512784867,-13.788481010326311,-5.184549429453863
303,-10.848374488235697,-29.767679881842593,-14.578075847232785,-5.544116828158629
304,-11.036129455435276,-30.350964440528085,-15.293077800722722,-5.8652805115309965
305,-11.09822341397688,-30.66055739319141,-15.92068934135046,-6.1378543086321224
306,-11.02873056757406,-30.690296141469954,-16.449814877735516,-6.352266442360431
307,-10.825394503092205,-30.441726879900074,-16.87142850331929,-6.499939911509423
308,-10.489833101718514,-29.924057178434737,-17.178877996752842,-6.573651159710329
309,-10.027577323141646,-29.15378428696323,-17.36811252844632,-6.567849382032416
310,-9.447937321004892,-28.154018682629644,-17.437824920918064,-6.478921116913653
311,-8.763699762803798,-26.953538899756417,-17.389503175657662,-6.305388249411283
312,-7.990670756317534,-25.585627863175727,-17.22739001139854,-6.048031841419964
313,-7.147088557294045,-24.086751880127,-16.95835308212954,-5.70993880907422
314,-6.252938442853003,-22.495150446328307,-16.591672142204175,-5.29647288515117
315,-5.329208160802282,-20.84940770902092,-16.138752538319316,-4.81517514536389
316,-4.397125823138407,-19.187074759197188,-15.612776899248702,-4.275602413040096
317,-3.4774228342757962,-17.543406182146725,-15.028308654664011,-3.6891139903031807
318,-2.5896624236197057,-15.95026504107319,-14.400861989132192,-3.068618382753516
319,-1.7516697187920336,-14.43523847005389,-13.746453060358057,-2.428292037838369
320,-3.8577806387601483e-10,-7.868494108656136e-11,-8.165091884633739e-11,-3.974565834450555e-10
321,-8.287565666815952e-09,-1.675565149066554e-09,-1.6971206986381785e-09,-8.562248277175962e-09
322,-9.383627243508027e-08,-1.8896090908230755e-08,-1.9058148788190586e-08,-9.710703848080248e-08
323,-7.031992990103679e-07,-1.410172372287105e-07,-1.414198257486647e-07,-7.288483270048012e-07
324,-3.952178706729641e-06,-7.893403152366725e-07,-7.870992178332981e-07,-4.101543931969886e-06
325,-1.7824151274137518e-05,-3.5455472743989283e-06,-3.515220145472213e-06,-1.8514088311369355e-05
326,-6.741054683065826e-05,-1.3355218933322614e-05,-1.3164865383237386e-05,-7.004914707652086e-05
327,-0.00022057735286769585,-4.3524628937538536e-05,-4.26583962541742e-05,-0.00022919372725251243
328,-0.0006392611860397137,-0.00012563633043113546,-0.00012243526638203796,-0.0006638637719362896
329,-0.0016711143296931406,-0.00032714138266970883,-0.0003170099974830195,-0.0017337334312816917
330,-0.003998406374535485,-0.0007797612282176313,-0.0007513996740353988,-0.004142787414390781
331,-0.008861233586977024,-0.0017218395069618783,-0.0016500422324589523,-0.009166986504895157
332,-0.018369925823502657,-0.003557397802281558,-0.0033903002036485205,-0.01897168639687947
333,-0.03591731091002131,-0.006933923783973897,-0.006571767121953018,-0.03702921047870784
334,-0.06669557242836946,-0.012839912885947078,-0.01210143001268473,-0.06864102083968401
335,-0.11831509829769407,-0.022721919343694774,-0.021293359037601597,-0.12156142243501916
336,-0.20151389675793513,-0.0386193009521562,-0.03598002674395484,-0.20671057129495132
337,-0.3309356080888102,-0.06331289345806793,-0.0586306333731776,-0.33895357587086955
338,-0.5259416528406129,-0.10048148332236455,-0.09246995371772103,-0.5379096275276518
339,-0.8114088809627216,-0.15485723642698662,-0.14158928729677064,-0.8287407856939055
340,-1.2184491582927408,-0.23236840031287012,-0.21103920433614415,-1.2428553154787767
341,-1.7849733279853681,-0.3402549608316923,-0.30689213250959285,-1.8184470126297876
342,-2.5560111620533768,-0.4871408932111379,-0.436261717124545,-2.600781896502719
343,-3.5836936077244514,-0.683045574926542,-0.607265651830085,-3.6421391782500057
344,-4.92680585748947,-0.9393171461378207,-0.8289196584193165,-5.00131640213977
345,-6.6498307728579515,-1.26847233690021,-1.110952710676022,-6.742620310966754
346,-8.821422335737932,-1.6839306473423263,-1.463537487799449,-8.934285729472986
347,-11.512277512240729,-2.1996357373206656,-1.896935214440325,-11.646294117377124
348,-14.79241090211291,-2.8295632820774475,-2.421060127798543,-14.947600161448724
349,-18.727877894687506,-3.5871220527707615,-3.04497532174589,-18.902816860120563
350,-23.377036436062387,-4.484463153385176,-3.776338153119341,-23.568454476492754
351,-28.78648223767956,-5.531720679758551,-4.620819302428145,-28.988853606783657
352,-34.98683436837376,-6.73621502331844,-5.58152456019486,-35.19199429014637
353,-41.98858450519019,-8.101657070488749,-6.658452115065363,-42.185398342259205
354,-49.778250355395826,-9.627397082095042,-7.848020211926284,-49.952367637092586
355,-58.3150886814815,-11.307765514283222,-9.142700218150386,-58.448813808981555
356,-67.52862306954118,-13.131553921795957,-10.530788105639328,-67.6009321359536
357,-77.31722401049038,-15.081681927429447,-11.996342956186592,-77.30395237395608
358,-87.54794309524908,-17.13509077795634,-13.519314304744489,-87.42216130773708
359,-98.05774977150003,-19.2628952261944,-15.075871148366431,-97.79033647910126
360,-108.65625033147964,-21.430813649781122,-16.638934683626943,-108.21666016466757
361,-119.12988830500619,-23.599882006831955,-18.178904925918093,-118.48710099165855
362,-129.24753815060362,-25.727441256259773,-19.66455910230317,-128.3711626619108
363,-138.76731592185712,-27.768371264821447,-21.064087983945715,-137.6288111085447
364,-147.4443476924426,-29.676528125068977,-22.34622605047426,-146.01830943234015
365,-155.03916509361824,-31.406327366648814,-23.481423385928082,-153.30462038172493
366,-161.32634290660738,-32.914403819954735,-24.443002157110634,-159.26798450274765
367,-166.10296072681066,-34.16127076999163,-25.208238816050212,-163.71225274893484
368,-169.19646239939695,-35.11289718548081,-25.759314936448334,-166.47254820050588
369,-170.471504675882,-35.74212260973883,-26.084084738569654,-167.42185372797377
370,-169.8354301123628,-36.02983485428316,-26.17661562811744,-166.4761703148961
371,-167.24206655312625,-35.965845735754414,-26.037469080065417,-163.59796189082846
372,-162.6936428751805,-35.549414267863774,-25.67370240869953,-158.79769289055324
373,-156.2407126783548,-34.789384230113264,-25.09858665945265,-152.13336886656788
374,-147.98008775717594,-33.70392292950473,-24.331051147331703,-143.70810172882906
375,-138.0508941283542,-32.319869083029,-23.394880073094217,-133.66583222659494
376,-126.62896755009767,-30.67171876062321,-22.317700213114552,-122.18544554236301
377,-113.91989572706615,-28.800297872159103,-21.12981007430087,-109.4736042082666
378,-100.15108464735732,-26.75118646331149,-19.862909454216286,-95.75668986142969
379,-85.56327223376634,-24.57297302103098,-18.548793553548183,-81.2722871329191
380,-70.40193106853195,-22.315425287491493,-17.218077343186323,-66.26065667976022
381,-54.90899272892767,-20.027667281113384,-15.8990137033824,-50.956629634784285
382,-39.31529054594075,-17.75645019709325,-14.616463083817218,-35.582314274891175
383,-23.83405842803129,-15.544597807399358,-13.391063471759251,-20.34094106765168
384,1.742474182607812e-10,-9.009952196638312e-11,-6.359708666856703e-11,2.0838803233044908e-10
385,3.5183636596523836e-09,-1.785766313724935e-09,-1.2879371429067942e-09,4.21200762843084e-09
386,3.990151979664993e-08,-1.9798336823554065e-08,-1.420443999140434e-08,4.763904342422428e-08
387,2.970955447652424e-07,-1.4399653755662426e-07,-1.0348584139255653e-07,3.538726116826093e-07
388,1.6591111074566667e-06,-7.847650080098739e-07,-5.65833024383325e-07,1.9714528100780094e-06
389,7.431384664293601e-06,-3.4282232282486372e-06,-2.484689711273361e-06,8.808280054016613e-06
390,2.7897397607272228e-05,-1.2548431202898606e-05,-9.160593500704325e-06,3.2977514495610753e-05
391,9.055331597825139e-05,-3.972257664890276e-05,-2.926794539163985e-05,0.00010673374419201874
392,0.0002601597681421718,-0.00011136792151519493,-8.29893316994468e-05,0.0003057012824664776
393,0.0006737353675057675,-0.00028175301338234177,-0.00021275869690683396,0.0007891237053737395
394,0.0015958765273863561,-0.0006529509329609144,-0.0005005256787259606,0.0018630559195768177
395,0.0034991389670271764,-0.0014032117535260134,-0.001093561341394623,0.004071633790455036
396,0.007172696705303388,-0.002824865884567214,-0.002240666463816202,0.008319874628671035
397,0.013860380879410867,-0.005372375579659478,-0.00434014434210924,0.016029171633568408
398,0.02542673179409514,-0.009720511350032898,-0.008000030324479358,0.029323936841376835
399,0.04454700959124544,-0.01683181495308393,-0.014109892803531305,0.051244811903034176
400,0.0749141068717113,-0.028031465786771077,-0.02392215361789506,0.085980408308698
401,0.12145187279726666,-0.04508639692233892,-0.03913945363195635,0.13910557502292634
402,0.19052044314853964,-0.0702840571582341,-0.062003197345844405,0.21780973966443928
403,0.2900950081702591,-0.10650472028062963,-0.09537708152159768,0.3310941831807203
404,0.4298955365681052,-0.15727988433979767,-0.14281818027786403,0.48991277930319427
405,0.6214420004023453,-0.22682828406018998,-0.20862710011927574,0.7072275483158182
406,0.8780083973088088,-0.3200605617337782,-0.2978680015892478,0.9979492565338873
407,1.2144499933283264,-0.44254384587131435,-0.4163491257144875,1.3787349451232294
408,1.6468821717522977,-0.6004184796881268,-0.5705550891480898,1.8676191249379046
409,2.192196156082091,-0.8002609514390376,-0.7675237730440855,2.483463405333608
410,2.8674064722325423,-1.0488897065215987,-1.014663182137913,3.245220208618968
411,3.688836780925684,-1.3531138911923157,-1.3195071174809274,4.171019301723491
412,4.671163918558613,-1.719429071254117,-1.6894127142376354,5.277100359887544
413,5.826353713410948,-2.153668376018743,-2.1312075705860045,6.576629719147429
414,7.162535394412238,-2.660622055665755,-2.650798990418577,8.078453882327164
415,8.682873165475256,-3.243642761252617,-3.252762392399382,9.785855178076892
416,10.384502767022424,-3.904257559641003,-3.9399297996263187,11.695385096311224
417,12.257606685029918,-4.641810404756072,-4.713002160510402,13.795857111715767
418,14.284703238242779,-5.453160155033407,-5.570210754272153,16.067582154443308
419,16.440221408931116,-6.3324590216694805,-6.507052870599865,18.48192549248745
420,18.69042451381064,-7.271034406506249,-7.516125147181632,21.00125321361243
421,20.99373159588482,-8.257393428145718,-8.58707433128527,23.57931986980584
422,23.301466131222853,-9.27736410435326,-9.706679869931042,26.162126788509674
423,25.559038196453134,-10.314380351044067,-10.859075902056018,28.68925423449182
424,27.707539941962793,-11.349909967282295,-12.026112383903204,31.095641583587238
425,29.68570677463052,-12.364016046494367,-13.187846811506201,33.313759887470546
426,31.432170037713032,-13.336033344474274,-14.323149902394873,35.276092800430476
427,32.887903255744796,-14.245332676598338,-15.410401172843251,36.91781695266193
428,33.998745197887416,-15.07213907586963,-16.428244017893064,38.179553496812254
429,34.717870760954526,-15.798363824730089,-17.35636502911026,39.010050342215386
430,35.0080762062477,-16.408407107724823,-18.176259240885855,39.36865074498215
431,34.843749201525256,-16.88988727375365,-18.871942138701154,39.22740907622848
432,34.21240646298492,-17.23425472724757,-19.430570881568183,38.572728829136906
433,33.11570195888972,-17.437253231536943,-19.842941373342956,37.406420609792946
434,31.5698355049689,-17.499198675327225,-20.10383439429054,35.74610773273987
435,29.60532348107298,-17.425054703230355,-20.212192526425017,33.624942197389004
436,27.26612831224733,-17.224295499731298,-20.17111942874961,31.09063192278219
437,24.608179001792855,-16.910557760781444,-19.987703371269404,28.203818508457417
438,21.697349045659085,-16.501095729792155,-19.672677019399202,25.035880784429704
439,18.60698826943349,-16.016064336869107,-19.239934518619958,21.666270575343365
440,15.41512950457912,-15.477665214805077,-18.70593431709005,18.179511440821564
441,12.20150799166985,-14.909198055150902,-18.089021419015804,14.662007329954912
442,9.044539882612401,-14.33406492978755,-17.408705618330856,11.19881532134533
443,6.018405777803309,-13.774777554262185,-16.68493266841768,7.870534721964489
444,3.1903760722632692,-13.2520169057618,-15.937383428201334,4.7504541044192194
445,0.618497822098516,-12.783791211945426,-15.184832075591935,1.902079301406263
446,-1.6502607364545017,-12.384732344039257,-14.44458890596276,-0.6228595456933093
447,-3.5813401474244793,-12.06556247861507,-13.732046521358201,-2.7858531162243274
448,-8.164079840733485e-12,-9.795536838052573e-11,-1.0463163293702006e-10,-1.5225907398228636e-12
449,5.73857448317704e-11,-1.9191329856267756e-09,-1.5371682483175914e-09,-4.107520255421229e-11
450,1.847841424297964e-10,-2.1699860972349464e-08,-1.7858100386161042e-08,-9.707587530442936e-10
451,-9.002504623759481e-10,-1.6145952005714174e-07,-1.3175534471898286e-07,-1.0499111315692132e-08
452,-1.9656421159813742e-08,-9.013859807508822e-07,-7.318504393894091e-07,-7.561579060666218e-08
453,-1.5803591024283147e-07,-4.0375243290636905e-06,-3.26590628479412e-06,-4.0819382650678025e-07
454,-8.694104079977809e-07,-1.5162120603280572e-05,-1.2231529040870487e-05,-1.7673301457773793e-06
455,-3.743611220906332e-06,-4.9249683430267276e-05,-3.965871313428771e-05,-6.413404032276326e-06
456,-1.3425670822689377e-05,-0.00014165114687404024,-0.00011391424418851679,-2.012407547150236e-05
457,-4.16283663358881e-05,-0.0003674207346629327,-0.0002950980393493025,-5.589709810764799e-05
458,-0.00011450269306900308,-0.0008722051485423885,-0.0006993584502821927,-0.0001399897591858385
459,-0.0002847932778162798,-0.0019178205275303252,-0.0015340478041691171,-0.00032083428601627353
460,-0.0006501544330608276,-0.00394511727472942,-0.003144763941194852,-0.0006811446353533013
461,-0.0013787421457257519,-0.007655863839063343,-0.006074199279087701,-0.0013532437913890331
462,-0.0027427512521501036,-0.014114214652952223,-0.011131520610511007,-0.0025373289161037104
463,-0.005159994777613757,-0.02486688479517631,-0.01946991973155701,-0.004522076629712018
464,-0.009242954191181532,-0.04207937614213999,-0.03266897281958008,-0.0077066895886158905
465,-0.01585399499528412,-0.0686834474611971,-0.05281746205642366,-0.012623216269162038
466,-0.026164609086824733,-0.1085284891271325,-0.08259117227514119,-0.019957738026696727
467,-0.04171556872039264,-0.16652667441526162,-0.12531884589088108,-0.030568780053777594
468,-0.06447370438545454,-0.24877895568092678,-0.18502807506258057,-0.045501025752579166
469,-0.0968797039047443,-0.36266650166823355,-0.2664617300170989,-0.06599209145869891
470,-0.14188005886709237,-0.5168904579994132,-0.37505505018387264,-0.09346981890390962
471,-0.20293535206964955,-0.7214423648886162,-0.5168641413177726,-0.1295374081828631
472,-0.28399680834016744,-0.987488557749842,-0.6984386033932682,-0.17594393850922604
473,-0.3894436272024527,-1.3271546274326902,-0.9266342646991583,-0.23453857835556616
474,-0.523975155648678,-1.7532005894036795,-1.2083662367671235,-0.30720812918868723
475,-0.6924543570425277,-2.27858363281667,-1.5503072447509312,-0.3957993343738802
476,-0.899702137617324,-2.9159128534241945,-1.958540962096241,-0.5020292773281426
477,-1.1502456947861304,-3.6768087342812135,-2.438184531658388,-0.6273887766233978
478,-1.448027948541068,-4.5711887890008,-2.9929983029024627,-0.7730446549415557
479,-1.7960890804875862,-5.606509175739275,-3.6250039307459527,-0.9397470508592373
480,-2.1962350013246397,-6.786999650868801,-4.334134160072006,-1.127747711878031
481,-2.6487109527193415,-8.112935381722048,-5.117938692397019,-1.3367346982802704
482,-3.151901145628051,-9.579993248743017,-5.971370191635758,-1.5657883164215787
483,-3.702077062394771,-11.178741746467859,-6.886672528160006,-1.8133624249330014
484,-4.293217487003688,-12.89431190450113,-7.853389590368935,-2.077294411863829
485,-4.916922202840386,-14.70629145461612,-8.858507475632418,-2.3548459414067873
486,-5.56243838578833,-16.588875652534057,-9.88673578961573,-2.642774838471818
487,-6.216813948824536,-18.51129594086325,-10.920925556179451,-2.937436164157707
488,-6.865185546669925,-20.438532544517066,-11.942612405349672,-3.234907787317679
489,-7.491200948013774,-22.332300000736065,-12.932664886194912,-3.5311329483167557
490,-8.077566538771807,-24.15227669306704,-13.872009674087895,-3.8220699467551302
491,-8.60670150606856,-25.857532011379508,-14.742398748196214,-4.103837643520162
492,-9.061471494378818,-27.408089191703038,-15.527178942051544,-4.372845263764155
493,-9.425966931132225,-28.76654946889461,-16.212022004975786,-4.62589610203019
494,-9.686285457952172,-29.899694959067144,-16.78557372428627,-4.860257042298399
495,-9.83127453394927,-30.779984379862718,-17.239983713656173,-5.073689036125555
496,-9.853189729214813,-31.386857679500835,-17.571283029753495,-5.264437453455255
497,-9.748226683353126,-31.707772869210356,-17.779584447232146,-5.431185105703565
498,-9.516890103976394,-31.73891054564521,-17.86908957251841,-5.572974349721538
499,-9.164171192283645,-31.485498161731268,-17.84789744112674,-5.689107737526648
500,-8.699515028402494,-30.961726232993676,-17.727620229080216,-5.7790390287493345
501,-8.136571137082756,-30.190251242427856,-17.52282260698142,-5.842267956035197
502,-7.492733056941529,-29.201303660375483,-17.25031139903314,-5.878252842587973
503,-6.788485535082071,-28.031442644204905,-16.928310996343775,-5.886354882324103
504,-6.046590152833873,-26.722019936044404,-16.57556679799969,-5.865826435847214
505,-5.291150869695246,-25.317432659809796,-16.21042338120715,-5.815852937133089
506,-4.546609241745459,-23.863256816933227,-15.849925768143992,-5.7356539161680455
507,-3.836724129917742,-22.40435943006279,-15.508990956819568,-5.6246433509909535
508,-3.18359198487332,-20.983087119338677,-15.199692912361078,-5.482643388180787
509,-2.606761060488581,-19.637622565193773,-14.930697818727452,-5.310138947873215
510,-2.1224863765947704,-18.400588428614054,-14.706878097064598,-5.108554569241075
511,-1.7431625202340646,-17.29796185633759,-14.52912411161351,-4.88052980906806
512,1.43603210988132e-11,-7.688979332376165e-11,-1.0301429369507114e-10,4.010354200279456e-12
513,3.474982709588316e-10,-1.572000620701468e-09,-2.191834804906542e-09,7.439018422980581e-11
514,4.1627432753959625e-09,-1.7710798983387574e-08,-2.430361669102754e-08,9.808701907520378e-10
515,3.282107945882931e-08,-1.3154390502357452e-07,-1.7832686362179305e-07,8.322180905749724e-09
516,1.9248055371449633e-07,-7.320905457264934e-07,-9.806393337228285e-07,5.1623283925349606e-08
517,8.989062419488852e-07,-3.2657735879305904e-06,-4.325167855377517e-06,2.504167218549413e-07
518,3.49462844667814e-06,-1.2203516171597326e-05,-1.599246894837349e-05,9.91387411396139e-07
519,1.1671382365962403e-05,-3.941694323853587e-05,-5.115731561784928e-05,3.3043045405959332e-06
520,3.429015500183181e-05,-0.00011267399021117483,-0.00014496021943705684,9.493428783621335e-06
521,9.02849422938976e-05,-0.0002903534129145944,-0.0003706490323420845,2.394897730691457e-05
522,0.0002162669741150361,-0.0006846033210918409,-0.0008679277991142884,5.3821320104919105e-05
523,0.00047719942838242175,-0.0014949892937572349,-0.001883925076291783,0.00010894711856471226
524,0.0009801556526305092,-0.0030542195987423026,-0.003828649635783811,0.0002001762172106691
525,0.0018908145964304755,-0.005886875630100133,-0.007346026688546637,0.0003351624844143622
526,0.00345206275487502,-0.010781255895591601,-0.01340066120555935,0.0005108042576241825
527,0.006003867437539945,-0.01887346319227064,-0.02337935720897025,0.0007018282393822984
528,0.010003412333468431,-0.031741665987716106,-0.03920504944246529,0.000845410065645132
529,0.01604428899863477,-0.05150699403582591,-0.06345907364390593,0.0008220797321490747
530,0.024873291689007603,-0.08093577349509024,-0.09950556516036647,0.0004333565601594652
531,0.03740307757412273,-0.12353586999738164,-0.15160934507937865,-0.0006234185537274233
532,0.05471867253707799,-0.18363799903073896,-0.22503622258563954,-0.002782620350867038
533,0.07807560089773762,-0.2664512674406716,-0.3261226321582025,-0.006639708361162311
534,0.10888739265381722,-0.37808124417950695,-0.4623003742208187,-0.01298148995094652
535,0.14870045376659521,-0.5254987929692736,-0.6420622734733333,-0.022815640177343794
536,0.1991547937340117,-0.7164489444995363,-0.874855999295764,-0.03739701747059602
537,0.26192983864335356,-0.9592913329007995,-1.1708961263529558,-0.05824763156724416
538,0.33867542262233513,-1.2627671543094126,-1.540888643667013,-0.0871668140818195
539,0.43092895135226017,-1.6356920669566144,-1.9956673212916212,-0.12622832885016544
540,0.540020600696018,-2.086579686018289,-2.5457473113904494,-0.17776182284988168
541,0.666969216162526,-2.6232059858583807,-3.2008077319767576,-0.24431702912676376
542,0.8123723032936249,-3.2521306232854483,-3.969121390625574,-0.3286102881289065
543,0.9762941441355774,-3.97819654529771,-4.856955908169825,-0.4334540431351054
544,1.1581566324490196,-4.804033845729651,-5.867975943050967,-0.5616708565224913
545,1.3566378605109228,-5.729597308238073,-7.002680578126141,-0.7159941911437613
546,1.5695837620149595,-6.751769031954095,-8.257912681084854,-0.8989588219443401
547,1.7939381658962745,-7.8640576313744335,-9.626477608382833,-1.1127844251275818
548,2.0256964164919355,-9.056423428745438,-11.096906476050586,-1.3592566961224282
549,2.2598872754410517,-10.315254641791977,-12.653394089727412,-1.6396112131044105
550,2.490587176070431,-11.623512807964794,-14.275933564202367,-1.9544260305043581
551,2.7109700937161305,-12.961056828106692,-15.940659114383863,-2.303529464159341
552,2.9133953590875765,-14.305144550619007,-17.620396231334468,-2.685929548154493
553,3.0895346986756507,-15.631099474705762,-19.28540544026209,-3.0997711078418355
554,3.230538643987415,-16.913118783549955,-20.904293078576817,-3.5423253021711734
555,3.3272411965395117,-18.125188415647262,-22.445050950289005,-4.010014940279553
556,3.3704002314347807,-19.242062094537886,-23.876177097865146,-4.498477038533937
557,3.3509695277828846,-20.240254888037637,-25.167822937020023,-5.002662135581719
558,3.260396521776815,-21.09899853525419,-26.292908164723766,-5.516967959506562
559,3.09093795496679,-21.801105816641392,-27.228144557253575,-6.035403208607491
560,2.835983688710885,-22.333694763886577,-27.954913208060834,-6.551775484859541
561,2.4903772775140465,-22.68873034178088,-28.459946839362463,-7.05989582115613
562,2.0507206197766923,-22.863350978580897,-28.73577923133893,-7.553790819562288
563,1.515649233342542,-22.85995935698571,-28.780936972673103,-8.027912254967767
564,0.8860644430032588,-22.68607045353026,-28.59986386032833,-8.477333211866695
565,0.16530898176381972,-22.353924059644058,-28.202584374740603,-8.897919533407904
566,-0.6407268100212434,-21.87988298787732,-27.604128579228092,-9.286465691676396
567,-1.5235797830042803,-21.283650882303395,-26.8237553108407,-9.640785231191266
568,-2.472279466586129,-20.587354057832506,-25.884022465015217,-9.959747741911773
569,-3.473511193029757,-19.81453928035924,-24.80976156884608,-10.243256864493713
570,-4.511880137048834,-18.98914329058206,-23.627018055111364,-10.492167044629007
571,-5.570275033759718,-18.134489932733242,-22.362018458177303,-10.70814051271123
572,-6.63032522486899,-17.27236709625008,-21.04022130376095,-10.893450091248944
573,-7.672939347479885,-16.42222876070546,-19.68550025245144,-11.05073766451424
574,-8.678908817351275,-15.600557931337214,-18.3194968576614,-11.18274214230498
575,-9.629554600311254,-14.820414968256738,-16.961167084249716,-11.292014140879465
576,-6.254813688399692e-11,-9.977600744476345e-11,-1.3693599430476813e-10,-1.732944610540278e-10
577,-1.0811725634769058e-09,-2.0320548380787687e-09,-2.5277961791466237e-09,-2.4141387789756485e-09
578,-1.2419526747127587e-08,-2.2653844904732562e-08,-2.869293544808393e-08,-2.818379259205986e-08
579,-9.278528197571382e-08,-1.6659122992911277e-07,-2.1197661976789803e-07,-2.080522108530902e-07
580,-5.204479461605572e-07,-9.184078934259454e-07,-1.1740366181447282e-06,-1.1517657425034181e-06
581,-2.341722295331655e-06,-4.060965809294112e-06,-5.210971700831635e-06,-5.102460464322301e-06
582,-8.829661386490811e-06,-1.5053240876120216e-05,-1.9370144227875353e-05,-1.890232607157412e-05
583,-2.8780728679727274e-05,-4.827106850151768e-05,-6.222545295219639e-05,-6.0433717593492e-05
584,-8.300685922173604e-05,-0.0001371045616988263,-0.0001768778818773658,-0.00017075378346257538
585,-0.00021571570351628635,-0.0003513449383302007,-0.0004531860625431687,-0.0004344088167569328
586,-0.0005125682837045065,-0.0008244257349140408,-0.0010622500036862363,-0.0010101999586998487
587,-0.0011270090313781622,-0.0017928556638526242,-0.0023057035159450173,-0.002174065686617377
588,-0.0023159868306754385,-0.003649612439776455,-0.0046814689960567755,-0.004374800804121777
589,-0.004485528550982787,-0.007012442846273781,-0.00896646224344563,-0.008302246922543503
590,-0.008245857931650407,-0.012806990371105428,-0.016315378172314498,-0.014966365319767179
591,-0.014474917874828692,-0.02236347719519977,-0.028373179592715164,-0.025784329744672457
592,-0.02438820246262659,-0.03752426888321319,-0.04739716058114333,-0.04267138521666765
593,-0.03961168901939715,-0.060758018144190996,-0.07638241635767316,-0.06812972903800625
594,-0.06225333892304503,-0.09527420771435555,-0.11918225103477201,-0.10532807634324858
595,-0.09496717626868038,-0.14512987893373291,-0.18061265596114726,-0.15816292716080216
596,-0.14100252493670024,-0.21531833704549636,-0.26652782774254874,-0.23129114045653743
597,-0.20422984210973094,-0.31182795589006507,-0.3838521248666319,-0.3301225348453045
598,-0.28913403460683174,-0.4416582013722795,-0.5405533115223137,-0.46076134886507736
599,-0.40076641435807836,-0.6127799399632606,-0.7455427199769136,-0.6298867387742075
600,-0.5446476964719905,-0.8340282071714733,-1.0084903388847546,-0.8445652610733346
601,-0.7266166668659605,-1.114917964635044,-1.339546841044429,-1.1119923279579267
602,-0.9526222662567231,-1.4653769667390022,-1.7489701019806265,-1.4391647416755686
603,-1.228460662375362,-1.8953945616848933,-2.246660483604011,-1.8324921778436223
604,-1.5594631953819833,-2.4145908558198617,-2.841616630637237,-2.297361427008464
605,-1.950145607516578,-3.0317168552747598,-3.5413312090861946,-2.8376728607893855
606,-2.403833414650704,-3.7541025773566745,-4.3511533787404035,-3.4553734846932964
607,-2.9222823359611354,-4.587076260958222,-5.273651335360808,-4.1500148184777705
608,-3.505316024620542,-5.533383229571084,-6.3080134381955455,-4.918366356848239
609,-4.150505615589934,-6.592637214700798,-7.449529726738575,-5.7541162758329225
610,-4.852916492910686,-7.7608395810519895,-8.689196431104405,-6.647689937605679
611,-5.60494693343143,-9.030002535248501,-10.01348394623142,-7.586213357788341
612,-6.396280732297068,-10.387910757436593,-11.40430338590207,-8.553642904746468
613,-7.213971542677431,-11.818051835983999,-12.839198337530043,-9.531074292971454
614,-8.042670550202804,-13.299739420328704,-14.291777126340753,-10.497233773458284
615,-8.865001483249669,-14.808444335474912,-15.732387395135612,-11.429143013376077
616,-9.662078164092131,-16.316338374574297,-17.129019871116878,-12.302937299122755
617,-10.414150334800796,-17.793043625403552,-18.448412769034427,-13.0948052336021
618,-11.101353994492529,-19.206567657185182,-19.657313407504237,-13.782007949906287
619,-11.704533719363425,-20.524392488470074,-20.72384037567376,-14.343927743159279
620,-12.206097204335355,-21.714673869667326,-21.618879080943067,-14.763090662660852
621,-12.590857250315437,-22.747497944125953,-22.3174366810295,-15.026105444098949
622,-12.846814156264347,-23.596135632875537,-22.799880065084498,-15.124462595166124
623,-12.965832218713631,-24.238231741808516,-23.05298315385724,-15.05514249985686
624,-12.94416781664219,-24.656866176968396,-23.070717466299353,-14.820989971831047
625,-12.782813106279052,-24.841428807939945,-22.854732286396704,-14.430824240340538
626,-12.487628235744015,-24.788257212044755,-22.414487141933048,-13.899267267235365
627,-12.06924563107192,-24.500997298451153,-21.76701856246543,-13.24628867020033
628,-11.542741721839075,-23.99066005714724,-20.9363439353333,-12.49648138497425
629,-10.92708389150087,-23.275362693941585,-19.952526315157808,-11.678097515511762
630,-10.244372907029296,-22.37975842945207,-18.85044390400984,-10.821887521519923
631,-9.518913025167262,-21.334175400470773,-17.668325370754754,-9.959797202185554
632,-8.77615270388136,-20.173500491354403,-16.44612609953664,-9.12358519059208
633,-8.041547626107654,-18.935857609032077,-15.223829961462876,-8.343428594341834
634,-7.339403791701102,-17.661141010068118,-14.039765587362906,-7.646585729791758
635,-6.69176112262139,-16.389472053970977,-12.929025043371478,-7.05618256998009
636,-6.117376987406253,-15.159651668249442,-11.922066306373019,-6.590183547151291
637,-5.630864297813705,-14.007680627839939,-11.043569455609804,-6.260598049940045
638,-5.242030771377871,-12.965415553805148,-10.311600867438573,-6.072961888261642
639,-4.9554553035970965,-12.059420709954368,-9.737121040648526,-6.0261189799660375
640,-7.950474299753546e-11,-1.0049221830387804e-10,-1.0853073747264376e-10,-1.179948275894064e-11
641,-1.6590635842687144e-09,-2.0678958837009096e-09,-2.2212163778175968e-09,-1.6555532004955953e-10
642,-1.824324650625983e-08,-2.326663303990484e-08,-2.4898672944792386e-08,-1.6679431665576277e-09
643,-1.325528537309876e-07,-1.7232333062171975e-07,-1.83509672012697e-07,-1.0970673873826452e-08
644,-7.229909326140345e-07,-9.579039040447267e-07,-1.0139167612652537e-06,-5.55053840864598e-08
645,-3.167630596396191e-06,-4.274041762987748e-06,-4.491569502520899e-06,-2.3346347544982988e-07
646,-1.16512956351431e-05,-1.5993863915660588e-05,-1.6670411740746713e-05,-8.610392179741737e-07
647,-3.712359787235586e-05,-5.178203431959695e-05,-5.3483605091555924e-05,-2.875686077060718e-06
648,-0.0001048908302974619,-0.00014846818981433977,-0.00015185049853301216,-8.842128622915307e-06
649,-0.00026763892738998376,-0.00038388892372193584,-0.00038861012530909845,-2.52028736316725e-05
650,-0.0006257469344408767,-0.0009082741739676929,-0.000909781407950597,-6.678727783241117e-05
651,-0.0013564983560092254,-0.0019899174969506698,-0.00197222988080525,-0.00016497282984963055
652,-0.002753241683266766,-0.004077041639284151,-0.003999103090009335,-0.00038119413740338154
653,-0.005274788574644343,-0.00787659545816195,-0.0076495439474685385,-0.0008276577359641226
654,-0.009604487721027873,-0.014449341826173972,-0.013902265103363563,-0.0016971008820115467
655,-0.01671756969960378,-0.025319130578787027,-0.024151535357563054,-0.0033032100176481256
656,-0.027954511024541117,-0.042592687257492934,-0.0403128568423911,-0.006132874778437355
657,-0.04509721475218067,-0.06908452767579089,-0.06493400809718158,-0.01091079414813052
658,-0.07044361973287795,-0.1084396525670587,-0.10130518791129922,-0.01867605386621798
659,-0.10687490404336766,-0.16524452034692771,-0.15355987640120988,-0.030869118509381434
660,-0.1579078854154845,-0.24511462478797086,-0.2267560044477806,-0.04942616916555832
661,-0.22772385381526114,-0.35474515838515397,-0.32692541187677004,-0.07687586597442579
662,-0.3211642984086665,-0.501910174388709,-0.461078702461068,-0.11643154970605575
663,-0.4436841633294495,-0.6953958030058845,-0.6371527147446299,-0.17206989223229915
664,-0.6012545987305125,-0.9448547773600179,-0.8638891168891432,-0.24858541511158325
665,-0.8002096619652631,-1.2605729121522342,-1.1506351909245998,-0.3516094193808619
666,-1.0470348734760917,-1.6531431671109373,-1.5070617188331468,-0.487581893989907
667,-1.3480996004902328,-2.1330491824955384,-1.9427979000422644,-0.6636659670895387
668,-1.7093395629233288,-2.71016721562657,-2.466989183067344,-0.8875964614224078
669,-2.1359000163021236,-3.393202669378133,-3.0877904021488303,-1.1674571099855453
670,-2.631754154300981,-4.189084344961349,-3.81181320735731,-1.511384937020141
671,-3.1993148451974087,-5.102345704522244,-4.643552960762307,-1.9272050774199576
672,-3.8390608180260215,-6.134527381540271,-5.584825526286036,-2.4220046747939525
673,-4.549200640465904,-7.283638568972231,-6.634248251137507,-3.001660171027733
674,-5.325398990205438,-8.543716357730908,-7.786801507859705,-3.670337935758196
675,-6.160589487588467,-9.90452121814159,-9.033507132713394,-4.429993386014295
676,-7.044896403459335,-11.351403264719226,-10.361257716392009,-5.279898048023174
677,-7.965683661926345,-12.86536753297827,-11.752825846582214,-6.216226903873838
678,-8.907743679283762,-14.42335725014625,-13.187075013458095,-7.231739331225864
679,-9.853630947523886,-15.998762345161174,-14.639384084197255,-8.315585558828204
680,-10.784136382308738,-17.56214685668614,-16.08228534008004,-9.453266561623991
681,-11.678889032202175,-19.082174393113707,-17.486302658028123,-10.62676870377563
682,-12.517062596600868,-20.526696486932007,-18.82096240838879,-11.81488550349279
683,-13.278156087573235,-21.86395573563966,-20.05593616038407,-12.993728233748984
684,-13.94281152911106,-23.063845143817915,-21.162262549589535,-14.137415463465862
685,-14.493627266007252,-24.099157984487903,-22.11358673181294,-15.218919911692563
686,-14.915923548253783,-24.94675945614847,-22.88735054085437,-16.211039903828325
687,-15.19841770264794,-25.58861277776662,-23.465865264236783,-17.08745297835945
688,-15.333769416603623,-26.01259820258383,-23.83720208210696,-17.823801442051085
689,-15.318962316159856,-26.213073479814263,-23.99584264647836,-18.39875450711993
690,-15.155495886079498,-26.191138025743523,-23.94304375243873,-18.79498958061247
691,-14.849371492034871,-25.95457967804142,-23.68688500282993,-19.000036670002537
692,-14.410867354271645,-25.51750139725816,-23.24198595759272,-19.006934878333645
693,-13.854109191108552,-24.89964445856511,-22.62889839083745,-18.81465850163128
694,-13.196455186132859,-24.12544325657726,-21.87319870789365,-18.428281960140918
695,-12.457725131401004,-23.222863522061317,-21.00432401186732,-17.858867033564355
696,-11.659313222806716,-22.222089286043683,-20.054211500820166,-17.123071688968203
697,-10.823231281979387,-21.154133302365747,-19.0558137211909,-16.242496057140706
698,-9.971133579449365,-20.049450107773914,-18.04157076530118,-15.242796666372161
699,-9.123375637406081,-18.9366301026784,-17.041924099816672,-14.152613813970145
700,-8.298157371324292,-17.84124701937519,-16.08395495395335,-13.0023680314682
701,-7.5107958981426455,-16.78492035112046,-15.190223060438205,-11.822989236679005
702,-6.773165678011252,-15.784639538056783,-14.377869433999551,-10.6446458266948
703,-6.09333387933275,-14.852379022370622,-13.65803061459951,-9.495540384573982
704,-8.199189978326155e-11,-1.0994200443529318e-10,-1.117883082676586e-10,-1.3501801103886424e-10
705,-1.7184238156494816e-09,-2.253013694297344e-09,-2.0854148410722786e-09,-2.6797378336787916e-09
706,-1.921324686195924e-08,-2.5251358534892502e-08,-2.3624861937447067e-08,-2.9454093495746504e-08
707,-1.4166155716640224e-07,-1.8606951302045627e-07,-1.743464199765676e-07,-2.1249695147733087e-07
708,-7.826705117202981e-07,-1.0279093430117285e-06,-9.645665344662774e-07,-1.1480096066833707e-06
709,-3.465894051073074e-06,-4.5539576547457226e-06,-4.2771726274255115e-06,-4.969790490330537e-06
710,-1.2853684944126953e-05,-1.6910414105220982e-05,-1.5887138957784585e-05,-1.802488317963973e-05
711,-4.118608313367167e-05,-5.431153365760115e-05,-5.10085882258858e-05,-5.6539802689304234e-05
712,-0.00011672084460932538,-0.00015447017802593986,-0.000144936628903014,-0.00015709836094923572
713,-0.00029797266430192903,-0.0003962888135433206,-0.0003712264755158258,-0.0003939511108381439
714,-0.0006954058847969957,-0.0009306890621732387,-0.0008698153227878138,-0.0009050194560163479
715,-0.0015017485629837365,-0.0020251512472133607,-0.0018870027492105914,-0.001927937456468426
716,-0.003031395145040943,-0.004123835144481963,-0.0038283159161024865,-0.003846626363812685
717,-0.00576864029799232,-0.00792419592198188,-0.007324177750761455,-0.00724783421189631
718,-0.010423850261484192,-0.014469896032077219,-0.013307090514277758,-0.012985905056406056
719,-0.017996122513011515,-0.02525858378820877,-0.023097823806988,-0.02225289698028138
720,-0.02984036470613741,-0.04236166759160234,-0.038496804030509264,-0.03665011852178529
721,-0.0477358598251204,-0.06855143920471647,-0.06187549495246942,-0.05825619123567319
722,-0.07395214091324008,-0.107428705346712,-0.09626103202402249,-0.08968581693022794
723,-0.11130640467538541,-0.16354157347625264,-0.14540582535882124,-0.13413245899300358
724,-0.16320498394305247,-0.24248349948438033,-0.21383251205411652,-0.19538721023637054
725,-0.23365998791214185,-0.350956580747722,-0.3068437685180673,-0.2778254276383465
726,-0.3272715837931207,-0.49678485552688595,-0.43048638636750136,-0.3863526435407276
727,-0.44916688569968377,-0.688862430232236,-0.5914598897417571,-0.5263021700260644
728,-0.6048881592863342,-0.9370228432893764,-0.7969620289679491,-0.7032789612058462
729,-0.8002258930133984,-1.2518192196385367,-1.05446677215338,-0.9229476930299775
730,-1.0409959184648387,-1.644209362834325,-1.3714348574530273,-1.190767433046992
731,-1.3327638189982953,-2.1251457146253814,-1.7549622716212212,-1.5116802263369693
732,-1.6805240595778697,-2.705076776007003,-2.2113777577713725,-1.8897658380806648
733,-2.088345403453517,-3.393373762422223,-2.745806136370154,-2.327879238019388
734,-2.5589981382729596,-4.197703568967745,-3.3617193289789378,-2.827290817159771
735,-3.093582325039566,-5.123376121539094,-4.060501062435913,-3.3873516637572205
736,-3.6911795590403496,-6.172700387414439,-4.8410538668293555,-4.005207465019294
737,-4.348553330810132,-7.344388178827497,-5.6994778485209805,-4.675584737790707
738,-5.059924566396875,-8.633047809112444,-6.628849570857809,-5.390671987493778
739,-5.816848789637115,-10.0288100929638,-7.619126156674176,-6.1401158504637
740,-6.608219085910967,-11.517126621965595,-8.657194493991605,-6.911148057670621
741,-7.420414363590549,-13.078774407209817,-9.72707841083897,-7.688853077360557
742,-8.237605301792048,-14.690091838502104,-10.810308173558113,-8.456578637106174
743,-9.042221182666758,-16.32345881899873,-11.886447062486337,-9.196482362100296
744,-9.815570155261364,-17.94801957874795,-12.933759590332885,-9.890198117382065
745,-10.538594200341217,-19.530631033980452,-13.92999577487389,-10.51959611058196
746,-11.192729077651117,-21.037003788357815,-14.85325653090174,-11.06760227922641
747,-11.760829714770926,-22.432988159368655,-15.6828975018087,-11.519035726472259
748,-12.228113586081847,-23.685945099796896,-16.400423320590566,-11.861418612697497
749,-12.583069179276388,-24.76613253717308,-16.990322007265345,-12.085711343931361
750,-12.818274038832735,-25.648032256872536,-17.440790427553875,-12.186927317008687
751,-12.93106735182184,-26.31154153255227,-17.744306555452248,-12.164585829621812
752,-12.924025775866625,-26.74295756856252,-17.89801248777963,-12.022968814491374
753,-12.805198293807464,-26.935691487238152,-17.9038831363627,-11.771156395464892
754,-12.588066298561266,-26.890661828550243,-17.768668409431626,-11.422827405686284
755,-12.291208621241957,-26.61633472817431,-17.50361042602338,-10.995823392021856
756,-11.937667285345599,-26.128398158676546,-17.12395081879673,-10.511487646708225
757,-11.554027528717194,-25.449079555662486,-16.6482555200875,-9.99380377907672
758,-11.169243922574637,-24.60613826317762,-16.097594788907855,-9.468370503902793
759,-10.81326188756669,-23.63158487526611,-15.494624039060987,-8.96125992027971
760,-10.515499177712478,-22.560197123317504,-14.862615797675748,-8.497814825802035
761,-10.303263748550862,-21.427915107877144,-14.22449459483126,-8.101445897121348
762,-10.200191900609127,-20.27020638248646,-13.601924666990545,-7.792491306606317
763,-10.224793138435702,-19.12049311161493,-13.014495254159455,-7.587199229533451
764,-10.389185629555023,-18.008729151102976,-12.47904042724474,-7.496887736622295
765,-10.698098657420951,-16.96020479506765,-12.009120446344907,-7.527327197776101
766,-11.148206472609322,-15.994641854116693,-11.614680398343065,-7.678378305116426
767,-11.727842096151505,-15.12562276743588,-11.30189014334619,-7.943905092684588
768,-5.5990039021928515e-11,-1.0858838080637139e-10,-6.60781417619789e-11,-6.338459443307495e-11
769,-1.0881143336094546e-09,-2.273623408425384e-09,-1.3710172353141618e-09,-1.3754351320310096e-09
770,-1.1925696804078334e-08,-2.520990840128781e-08,-1.530700213595688e-08,-1.5373253546872707e-08
771,-8.601313729609822e-08,-1.842362016749262e-07,-1.1281468172930137e-07,-1.135927453737761e-07
772,-4.6533230390216673e-07,-1.0088232534050157e-06,-6.23083070728748e-07,-6.286867834899969e-07
773,-2.0207378154795367e-06,-4.428813725866069e-06,-2.7598692291950832e-06,-2.7886253021819316e-06
774,-7.364759757313037e-06,-1.6294143910195514e-05,-1.0249236279566294e-05,-1.0360125365088367e-05
775,-2.3254155028745573e-05,-5.18497919115916e-05,-3.293884004435896e-05,-3.3263387076128294e-05
776,-6.514549679615769e-05,-0.0001461293175961981,-9.381978205031352e-05,-9.449901994989444e-05
777,-0.00016495493713565356,-0.00037158438306094353,-0.00024129635845824375,-0.00024196432863020565
778,-0.0003831385879581474,-0.0008652956121693266,-0.0005688142557771762,-0.00056671946737591
779,-0.0008261234771294374,-0.0018677861837538055,-0.0012440642512464152,-0.001228971997147727
780,-0.0016698733501044247,-0.0037748315222078167,-0.002549883293037573,-0.002492543921475178
781,-0.003190010154709196,-0.007202830393379201,-0.004938637824730548,-0.004767986588428236
782,-0.005798475600596304,-0.013067336508927493,-0.009101218103498575,-0.008663912302081469
783,-0.010086242187539937,-0.022673259363028633,-0.016050736259199245,-0.015045549749537285
784,-0.016871035370633634,-0.03781396419384245,-0.027219596158409753,-0.02509894634513499
785,-0.02724833884676869,-0.06087497422682575,-0.04456687886063773,-0.040398528493062344
786,-0.04264304897638147,-0.0949361846721005,-0.07069110087367068,-0.06297478220512767
787,-0.0648580341208375,-0.14386454215057412,-0.10894149513288787,-0.09537759352259567
788,-0.09611466442310423,-0.2123872542490084,-0.16351914209672738,-0.14072936904721986
789,-0.13907932351134683,-0.30613409826398386,-0.23955763919172665,-0.2027606587776486
790,-0.1968692471157794,-0.43163666672607426,-0.3431716998322413,-0.2858199583092599
791,-0.273030953578391,-0.59627272462876,-0.4814613540137893,-0.3948490236334457
792,-0.3714851665780584,-0.8081454546023854,-0.6624595780632645,-0.5353156419353038
793,-0.49643349468127707,-1.0758902407960205,-0.8950124672991466,-0.7130974207349153
794,-0.6522241482571212,-1.4084056545971406,-1.1885836368599698,-0.9343126524630203
795,-0.8431764774104565,-1.8145101901841088,-1.552978387459285,-1.205097431574009
796,-1.0733669391904601,-2.3025317553128852,-1.9979881538522348,-1.531331692614263
797,-1.3463821168427816,-2.879842631757902,-2.5329615655734585,-1.918320497056467
798,-1.6650475364350994,-3.552358260022627,-3.166314680981952,-2.3704405849598635
799,-2.031144166679899,-4.3240234319004065,-3.9049991290430497,-2.8907658191827297
800,-2.445127468667693,-5.19631389590736,-4.7539525149012665,-3.4806885631324564
801,-2.9058664101781706,-6.1677845713495305,-5.71556006502587,-4.139557067270073
802,-3.4104216119967465,-7.233697070710127,-6.789159695137308,-4.86435130595312
803,-3.953882392684409,-8.38575864578246,-7.970624123405903,-5.649421026230355
804,-4.529281612518633,-9.612001694413628,-9.252053005234218,-6.486309635815114
805,-5.127604706270162,-10.896827494219925,-10.621605109146353,-7.363685654293778
806,-5.737905108924929,-12.22122999696238,-12.063495195955213,-8.267399644550364
807,-6.347532601699587,-13.563205722209183,-13.55817263645071,-9.180678930127687
808,-6.942474311781147,-14.89834462960248,-15.082689272516529,-10.08446530124034
809,-7.5078007211266184,-16.20058508485677,-16.61125318731327,-10.957892804243631
810,-8.028201656055991,-17.443104503460106,-18.115953643305392,-11.778894182924086
811,-8.488590365704034,-18.599306820732735,-19.56763127350123,-12.524916200886505
812,-8.874747890194422,-19.64385944104472,-20.936857470026798,-13.173716476397008
813,-9.17397532148517,-20.553726488806095,-22.194978550247072,-13.704208056408662
814,-9.375718619344042,-21.309142580031576,-23.315174383397444,-14.097313126278909
815,-9.472129702739474,-21.89447225432547,-24.273478302848,-14.336784356110918
816,-9.45852891011499,-22.2989047045864,-25.049705706005106,-14.409951804339142
817,-9.333737783992948,-22.516941308476316,-25.628242856292154,-14.308355352826553
818,-9.100257443089783,-22.548644307715925,-25.998654815047306,-14.028227451079642
819,-8.764276219569476,-22.399628201616704,-26.156081572650415,-13.570798272365783
820,-8.33550017093021,-22.080790248287773,-26.101403516500124,-12.942404664842767
821,-7.826810755330057,-21.6077919286339,-25.841170445471892,-12.154394722185934
822,-7.2537645685783,-21.00031821879732,-25.387301485986065,-11.222830554518328
823,-6.633959815199655,-20.281154904194867,-24.756575610665845,-10.168002150285936
824,-5.986302453003448,-19.47513492279623,-23.969943217369895,-9.013774474530065
825,-5.33021116406763,-18.608012069430455,-23.051697728154522,-7.78679771472895
826,-4.6848040316696204,-17.705323845262768,-22.028551884107287,-6.515616559240605
827,-4.068110769704029,-16.791304656491228,-20.92866600010115,-5.2297183551869395
828,-3.4963524612682404,-15.8879061107745,-19.780674779069983,-3.9585617534840116
829,-2.9833261154730892,-15.013973246400198,-18.61275551301837,-2.7306268665027194
830,-2.5399242465968834,-14.184614782158642,-17.451774061790626,-1.5725250246479265
831,-2.173810625735367,-13.410792678947262,-16.322536629440304,-0.5082011388326553
832,-4.873395759641782e-11,-6.114235252293352e-11,-1.0877036169065603e-10,-8.680896230305152e-11
833,-1.1139471645862099e-09,-1.3027930248994586e-09,-2.211249452433195e-09,-1.8578913668455548e-09
834,-1.2635993568485249e-08,-1.4506519053242767e-08,-2.47177131376788e-08,-2.0354506885168188e-08
835,-9.474734385974169e-08,-1.0666992777174599e-07,-1.8161832008567672e-07,-1.475486275241397e-07
836,-5.298649774925503e-07,-5.878679289450485e-07,-1.0011649316465021e-06,-7.998201576818755e-07
837,-2.364560983750103e-06,-2.598011419395264e-06,-4.428884267254667e-06,-3.4707951853790092e-06
838,-8.798740034544513e-06,-9.622516792190824e-06,-1.6431679506980654e-05,-1.2600925870706812e-05
839,-2.8171904742949642e-05,-3.082064258446765e-05,-5.2756030899927495e-05,-3.9497037282867425e-05
840,-7.948808827842549e-05,-8.740520352986381e-05,-0.00015005573998885192,-0.00010945089965536635
841,-0.000201416169477336,-0.000223554442926954,-0.0003850886450562781,-0.00027319377677856223
842,-0.00046547464352433366,-0.0005233757408946475,-0.0009047798420530764,-0.00062355623077068
843,-0.00099375093963006,-0.0011352615353633013,-0.001969573729558977,-0.0013177834932234722
844,-0.0019811562188664657,-0.002304620421550134,-0.004011662400832193,-0.0026055492076082084
845,-0.0037219635919175827,-0.004415496778213994,-0.007708519218479155,-0.004862428292342446
846,-0.006640199282513664,-0.008041038399939271,-0.014070817505162186,-0.00862842284286422
847,-0.0113232557258916,-0.01400212092927497,-0.02454239215965192,-0.01465095924050707
848,-0.018557778343882916,-0.02343264181027969,-0.04110841939569539,-0.02393141772140713
849,-0.02936641065166367,-0.03784902613177351,-0.06640642155826017,-0.03777359676188374
850,-0.04504340536112899,-0.05922035254405951,-0.10383299327574369,-0.05783154350094615
851,-0.06718651513994184,-0.09003428594373429,-0.15763732696276198,-0.08615303878348883
852,-0.09772208422690257,-0.13335282546916177,-0.23299085599320382,-0.1252139643868558
853,-0.13891998757292903,-0.19285091125006698,-0.33602094386793135,-0.17793807273260515
854,-0.1933950935107,-0.2728303707257017,-0.4737959442310503,-0.24769651456025024
855,-0.26409229035610665,-0.37820169071295073,-0.654249514909863,-0.33828190245114215
856,-0.354252789552339,-0.5144268016897249,-0.8860340639288473,-0.45385264345766463
857,-0.4673603284550082,-0.6874175103593162,-1.1782966809769126,-0.5988446655248861
858,-0.6070669574849047,-0.9033864032199765,-1.5403757008601169,-0.7778494047312134
859,-0.7770992199829067,-1.1686498668188163,-1.981421773466713,-0.9954589195879409
860,-0.9811466361481316,-1.4893861554313346,-2.5099534833902113,-1.2560811452250886
861,-1.2227354170086997,-1.8713549421028857,-3.1333636641319464,-1.5637304705784807
862,-1.5050912125882256,-2.319588249566146,-3.8573981247086713,-1.9218009210540108
863,-1.8309954062486151,-2.8380658258945934,-4.685633200129483,-2.332831204265
864,-2.202639968150321,-3.429390691845375,-5.618982037425318,-2.798272672201455
865,-2.6214861340007567,-4.0944825682311095,-6.655261563566098,-3.318272765782712
866,-3.088132156181437,-4.832308021252945,-7.788852339762778,-3.8914875529242137
867,-3.6021951010114512,-5.639666275187606,-9.010481713105984,-4.514937331214932
868,-4.1622111972397695,-6.5110485675132965,-10.307156608710441,-5.183918727606081
869,-4.765558644876345,-7.4385865406058675,-11.662265934693366,-5.891985129328071
870,-5.40840611115085,-8.412101433335648,-13.055864069408948,-6.6310045298405145
871,-6.085689382475169,-9.419260854787602,-14.465136702950522,-7.391300008392806
872,-6.791117823465678,-10.445843954543957,-15.8650390455538,-8.161873291907161
873,-7.517211481823191,-11.476109288658781,-17.22908492266531,-8.930706573217165
874,-8.255368994688844,-12.493253170279019,-18.530254475673978,-9.685132486644337
875,-8.995966029625649,-13.47994035885634,-19.741978991319538,-10.41225735987338
876,-9.728483894541123,-14.418884073200557,-20.83915458287342,-11.099418947316677
877,-10.44166811908859,-15.293448846731057,-21.799132581727633,-11.734657026279857
878,-11.123717078311921,-16.088247863611066,-22.602633886024403,-12.307173603323488
879,-11.762500874248138,-16.78970617629632,-23.234537222545228,-12.807759044003255
880,-12.34581049793407,-17.38656259241071,-23.684497213310124,-13.2291611870111
881,-12.861636606375523,-17.870285956089397,-23.947356987755743,-13.566376421449888
882,-13.29847599480695,-18.235385910093537,-24.02333135096586,-13.816844819959435
883,-13.645662044381345,-18.479603789504093,-23.917949484671325,-13.980535749238767
884,-13.89371318134731,-18.60397573884688,-23.641759934825284,-14.059915866667799
885,-14.034690856434041,-18.612767018255536,-23.209814265179716,-14.059797836837435
886,-14.062555931463297,-18.513283255099413,-22.640958277205453,-13.987075062382923
887,-13.973509842135483,-18.315570580097557,-21.956970293609515,-13.850354678226322
888,-13.766304703262673,-18.032021692268128,-21.181593989793733,-13.659507413420986
889,-13.442504874586973,-17.676908589450992,-20.339518165378813,-13.425158149024695
890,-13.006681669973432,-17.26586480860582,-19.455357401156565,-13.1581446993245
891,-12.466523105195837,-16.81534055514378,-18.552685729553534,-12.868974311367305
892,-11.83284201106053,-16.342053221513364,-17.653170474427235,-12.56730757635771
893,-11.119468588594772,-15.862453755165866,-16.775845723838547,-12.261497955175576
894,-10.343017589312634,-15.392226427868625,-15.936555095778274,-11.958212071471563
895,-9.522525726281431,-14.945836083896822,-15.147582279339428,-11.66215147194239
896,-4.9870283924461596e-11,-7.555132948825866e-11,-6.258036231552458e-11,-3.049490884155477e-11
897,-1.0769342994565134e-09,-1.5384883999473653e-09,-1.3264131983188588e-09,-6.768098602208817e-10
898,-1.1946617648934877e-08,-1.7509087185511928e-08,-1.5026488340982174e-08,-7.609286318911353e-09
899,-8.793517471807875e-08,-1.3079990356083494e-07,-1.1253711951275976e-07,-5.687903787239214e-08
900,-4.862801837587776e-07,-7.329887659610817e-07,-6.31821150412342e-07,-3.194176733483731e-07
901,-2.1608987603509542e-06,-3.2944091013562845e-06,-2.8446735090013866e-06,-1.4418193510260318e-06
902,-8.059621084912092e-06,-1.2406850121671814e-05,-1.0732513459050896e-05,-5.464936822033489e-06
903,-2.6016921706296308e-05,-4.038768562181922e-05,-3.5006479205529374e-05,-1.7937012503015822e-05
904,-7.437193070146786e-05,-0.00011632245306371311,-0.00010105122991594213,-5.216444545178723e-05
905,-0.00019165620737634028,-0.00030186959861891325,-0.00026291977197226565,-0.00013683701484103894
906,-0.00045166940319256004,-0.0007162668980818755,-0.0006257015752947164,-0.00032842804962418065
907,-0.0009849620606597234,-0.0015726853282315033,-0.0013784489102480926,-0.0007297404507200256
908,-0.0020072501774581193,-0.003227396940163867,-0.0028393929357307403,-0.0015157401291840066
909,-0.0038547444356474597,-0.006242290587186173,-0.005514511760672099,-0.0029674214080213203
910,-0.0070259054031216305,-0.011460201142273854,-0.010169716462695157,-0.005513908168889841
911,-0.012228744122273314,-0.020091387807084672,-0.017916013068272764,-0.009782306233151246
912,-0.020432358104608327,-0.033808265346924195,-0.03030588502457543,-0.01665397861109911
913,-0.0329207665442134,-0.05484408547289683,-0.04943770511531418,-0.027324948154349434
914,-0.05134619379415381,-0.0860896224611362,-0.07806318661007304,-0.0433671246554088
915,-0.07777780946524077,-0.13118010861167848,-0.11969084350645845,-0.06678610672939005
916,-0.11474077518670588,-0.19456291083189295,-0.17867641369648674,-0.10007050564149987
917,-0.1652395481694199,-0.2815350736162272,-0.26028953096863683,-0.14622713870947454
918,-0.23275900022478133,-0.39823925079567113,-0.37074491317174985,-0.20879610949257388
919,-0.32123718113789024,-0.5516069934919242,-0.517186182435748,-0.2918398153271204
920,-0.4350045325498502,-0.7492400255283028,-0.7076112927395396,-0.3999003919944205
921,-0.5786859827789689,-0.9992230180421888,-0.9507304703034329,-0.5379210958648484
922,-0.7570644891987564,-1.3098653576207444,-1.2557505679770233,-0.7111286887470306
923,-0.9749070566562019,-1.6893742440271053,-1.6320837059001627,-0.9248760487388503
924,-1.2367568501894808,-2.145466848753761,-2.0889828570998885,-1.184446926538953
925,-1.546697563674478,-2.6849348392465093,-2.6351123945200867,-1.4948278127810488
926,-1.9080985765830443,-3.3131799342649484,-3.2780672264425625,-1.8604549514091786
927,-2.3233515639333806,-4.033743915013816,-4.023859625770007,-2.284947246517132
928,-2.7936110833713776,-4.8478602751387525,-4.876397777415617,-2.770837857415116
929,-3.3185531893998235,-5.754057067225236,-5.836984008468002,-3.3193184990988516
930,-3.8961671667980604,-6.747841101362669,-6.90386323471521,-3.9300108299599255
931,-4.522595778542191,-7.821492166485082,-8.07185302085793,-4.600778846217854
932,-5.192038680286627,-8.963992193938141,-9.332085534700186,-5.327594961653242
933,-5.89673163395942,-10.16110830955002,-10.671888406867444,-6.104470493493386
934,-6.627010823488578,-11.395640766758246,-12.074826049728463,-6.923458673255924
935,-7.371467159575143,-12.647837264175214,-13.520915499919015,-7.7747351282585
936,-8.117190377455099,-13.895964685670615,-14.98702168745744,-8.646757106724664
937,-8.850097476514092,-15.117018536727526,-16.44742676265116,-9.526498657006519
938,-9.55533506196123,-16.287540047039347,-17.874557440837048,-10.399754731052493
939,-10.217740741272044,-17.384501884593483,-19.239844049533986,-11.25150311012248
940,-10.822345096819937,-18.386216510166616,-20.51467588754528,-12.066309584523005
941,-11.354893012771898,-19.27321710058676,-21.67141033938612,-12.828759374605143
942,-11.80236136542605,-20.029060203558224,-22.68438846700867,-13.523896630872699
943,-12.153449381350022,-20.641002066932376,-23.530907816265685,-14.1376540514742
944,-12.399018433171317,-21.1005068279357,-24.192104008430913,-14.657256041402064
945,-12.532459761322665,-21.40355405688114,-24.653696260092037,-15.071581083303386
946,-12.549971591097178,-21.550724914326636,-24.906558133550508,-15.37147170528618
947,-12.450731238814033,-21.547059607463673,-24.947083320317823,-15.549983270417034
948,-12.236952823914073,-21.40169302491302,-24.777326732464225,-15.602565560577546
949,-11.913826792244892,-21.127289435313195,-24.40491305590214,-15.527173721682809
950,-11.489343251496555,-20.739309973753322,-23.842717449306647,-15.324307609650052
951,-10.97400677705819,-20.25515739539805,-23.10833536369669,-14.996980953207498
952,-10.380455539566906,-19.693250427200915,-22.223369593513336,-14.550623974336022
953,-9.723002041457802,-19.07208439002692,-21.212571838023205,-13.99292503722592
954,-9.017116188892615,-18.409335229754408,-20.10288263294128,-13.333618355097109
955,-8.278873721415861,-17.72106064136168,-18.92241716393664,-12.584225634623037
956,-7.524394133053588,-17.021044856922348,-17.699445147912797,-11.757759746872235
957,-6.769292192383082,-16.320323457313414,-16.461410887905863,-10.868398196977434
958,-6.028166103282592,-15.626912059620219,-15.23403519206362,-9.931133595279817
959,-5.314143356167395,-14.945748883367253,-14.040534616115512,-8.96140788425923
960,-1.2198536296015052e-10,-8.568412514058816e-11,-1.618449556944944e-10,-9.863061599511653e-11
961,-1.905613977177197e-09,-1.8867013250889055e-09,-2.2937146358972817e-09,-2.0862275822111395e-09
962,-2.2157904327968346e-08,-2.1019099890440676e-08,-2.643444302904281e-08,-2.3073562169016575e-08
963,-1.6298578415813429e-07,-1.5511306710494733e-07,-1.9302236885215403e-07,-1.6820271572049587e-07
964,-9.004195540184948e-07,-8.575880837006033e-07,-1.0583802266539484e-06,-9.173367134258707e-07
965,-3.9853741100636066e-06,-3.801415187444392e-06,-4.651131665653392e-06,-4.0049726435673695e-06
966,-1.4761526866998378e-05,-1.4118858312772133e-05,-1.7119121405660824e-05,-1.4631251722729977e-05
967,-4.720176548996308e-05,-4.5334884550965355e-05,-5.446370031130296e-05,-4.61632419315953e-05
968,-0.00013337158703981202,-0.00012884059875281785,-0.00015334923182324511,-0.00012882384163654588
969,-0.0003391412417214998,-0.00033009282045360337,-0.0003892531464335415,-0.000323965785535858
970,-0.0007876006507022343,-0.0007737251443708813,-0.0009040726831048552,-0.000745293194387981
971,-0.001690866899382416,-0.0016793809129641945,-0.0019447940482213318,-0.0015878305552368647
972,-0.0033899667755985397,-0.0034094154749848135,-0.003914015354009385,-0.0031646167936320137
973,-0.006401500976376325,-0.006528811446496961,-0.007432221068025941,-0.005950139117132627
974,-0.011468995459866266,-0.011876811210747108,-0.013410755600948128,-0.010628553798295337
975,-0.019616225962194582,-0.020648904758210514,-0.023133473029279157,-0.01814388317803176
976,-0.03219925439465413,-0.03448683378537892,-0.038343879064172484,-0.029748668362380108
977,-0.05095329586690923,-0.055573083709730756,-0.061333161626863114,-0.047046913237158414
978,-0.07802977257062178,-0.0867248909355418,-0.09502283079839047,-0.07202647161876158
979,-0.11601805655424623,-0.13148117056470224,-0.14303390815831057,-0.10707529068516485
980,-0.16794574915096333,-0.1941741734201509,-0.20973309943329188,-0.15497532195541486
981,-0.2372511911460096,-0.2799764069548516,-0.3002454675937964,-0.21886777073873842
982,-0.32772261801740354,-0.39491272528091304,-0.42042318063328127,-0.30218400319972516
983,-0.4434000583262774,-0.5458277669092068,-0.5767610487088155,-0.4085380248092381
984,-0.588438664394779,-0.7403002224647948,-0.7762518739837106,-0.5415789564347866
985,-0.7669353381985697,-0.9864977103836537,-1.0261779431705338,-0.7048051748068842
986,-0.982723903605845,-1.2929691604298077,-1.3338391702872128,-0.9013454928147955
987,-1.2391473626578893,-1.6683753168408832,-1.7062231758675819,-1.1337166157056748
988,-1.5388186618005837,-2.121162038116946,-2.149627689259852,-1.4035697772533482
989,-1.883383759280776,-2.6591852706346675,-2.6692507630987627,-1.7114425912574878
990,-2.273302432651494,-3.2893007008971265,-3.2687689337600276,-2.0565344342689027
991,-2.7076630997191233,-4.016934919123901,-3.949927283878306,-2.436524859243275
992,-3.1840477156373557,-4.8456581846934945,-4.712167899328663,-2.847454419339116
993,-3.698461422393219,-5.776781271898794,-5.552324212026041,-3.2836857085188944
994,-4.245338885843774,-6.809000090741926,-6.464407895060348,-3.737959307289974
995,-4.817635235689934,-7.938111574814715,-7.439512270113893,-4.201554679635037
996,-5.4070044001999635,-9.156822551221673,-8.465851494421482,-4.66456004211521
997,-6.004061810557732,-10.454669933586795,-9.528948240965109,-5.116248114196116
998,-6.598722387694011,-11.818065727663221,-10.611974312600173,-5.545546879817502
999,-7.180598844391105,-13.230474276737057,-11.696239073410386,-5.941586589122269
1000,-7.7394401079358435,-14.672722282895394,-12.761810382338437,-6.294296825867675
1001,-8.265585457503574,-16.123434881642748,-13.788242716383944,-6.595021194590873
1002,-8.750407226791497,-17.559583910933473,-14.755378384550836,-6.837112630758145
1003,-9.186713929172722,-18.95712798163883,-15.644180952241925,-7.016469982540621
1004,-9.569086696705037,-20.291718471023728,-16.437555891960482,-7.13197672162281
1005,-9.894125006663902,-21.53944150546915,-17.1211122914709,-7.185805628017739
1006,-10.1605827647123,-22.67756366943725,-17.68382131006055,-7.1835591070954115
1007,-10.369382602049631,-23.685248745182975,-18.118531800231203,-7.134223236108171
1008,-10.523504315704173,-24.544214279928468,-18.42231094129198,-7.049924260115441
1009,-10.62775209106907,-25.239300062585517,-18.596587428394933,-6.94548839288155
1010,-10.688413789839563,-25.75892540072878,-18.64708622730153,-6.837818606472617
1011,-10.712833484041202,-26.095418034431418,-18.583556350992534,-6.745114703413992
1012,-10.708924904076202,-26.24520415497218,-18.419305643557898,-6.685974401421275
1013,-10.684658089051046,-26.208855837589507,-18.170568256071583,-6.67842250968921
1014,-10.647553831130864,-25.990998799479062,-17.855740437372706,-6.738921739915674
1015,-10.60422028244233,-25.60008936954274,-17.4945277682922,-6.881421721532599
1016,-10.5599632135759,-25.048074595476887,-17.107051427258753,-7.116502114229617
1017,-10.518496103411746,-24.349953301796713,-16.712962233624417,-7.450661391308574
1018,-10.481768907906941,-23.523258530323876,-16.330608968530708,-7.885795230114037
1019,-10.449925717671912,-22.5874831328546,-15.976302113929222,-8.41889806305335
1020,-10.421392363126031,-21.563470440069846,-15.663706213673763,-9.042008962132503
1021,-10.393086147823105,-20.472791094278755,-15.40338432974414,-9.742409526790452
1022,-10.360731956831286,-19.337125571008734,-15.202507447370857,-10.503067716135766
1023,-10.319262532677698,-18.177669923698332,-15.064731084771749,-11.303308457757257
1024,-5.62741440571525e-10,-1.4787891428995389e-10,-6.202594695181131e-11,-5.566404570981675e-10
1025,-1.2158169538797896e-08,-3.1992922391751794e-09,-1.2846389364287764e-09,-1.1985507009481525e-08
1026,-1.3573681336036387e-07,-3.537252598007851e-08,-1.4497881603922663e-08,-1.3413251931837986e-07
1027,-1.0039385729257704e-06,-2.58807231423299e-07,-1.0819756802508554e-07,-9.94243421043597e-07
1028,-5.56747972798514e-06,-1.4190388970411618e-06,-6.062316715398661e-07,-5.526142390288725e-06
1029,-2.4772696267448305e-05,-6.239996755184408e-06,-2.727404396427683e-06,-2.4643109028438036e-05
1030,-9.242782524130216e-05,-2.30014618507294e-05,-1.0293266421351373e-05,-9.213600627413585e-05
1031,-0.0002983524623293493,-7.334372674337207e-05,-3.3612264286536506e-05,-0.00029797335474949724
1032,-0.0008529863373551783,-0.00020714640769613508,-9.719572160442372e-05,-0.0008533091112688464
1033,-0.002199811360118425,-0.0005278736687429697,-0.00025342345482133767,-0.002203686355204605
1034,-0.005193065065584762,-0.0012318780522522937,-0.0006044874271164373,-0.005207976643682911
1035,-0.011356738920696417,-0.002664778553288203,-0.0013348088530368415,-0.0113989753758034
1036,-0.023236892748829306,-0.005397263170165471,-0.002755654516625627,-0.023337467124630723
1037,-0.04485353748853817,-0.010321644954013347,-0.005362976880562099,-0.04506570109417931
1038,-0.0822513645556172,-0.018769275694175285,-0.009908674559962891,-0.08265921098443041
1039,-0.14414067865279515,-0.03264743636583975,-0.01748455337135453,-0.14486800063049252
1040,-0.24261071573666823,-0.05459242610880518,-0.029617184290197024,-0.2438289534357622
1041,-0.39388661606866227,-0.08813313952293907,-0.048370481907076504,-0.39582041074223856
1042,-0.6190884509808807,-0.13785646415501956,-0.07645108873670563,-0.6220169696947149
1043,-0.9449364316763005,-0.2095625792822163,-0.1173096191872626,-0.9491882259999354
1044,-1.4043322233721813,-0.3103951260954507,-0.17522872192684888,-1.4102708855736468
1045,-2.036734327934495,-0.44892877923772523,-0.2553870980867117,-2.0447315889894537
1046,-2.8882382636853676,-0.6351954768367891,-0.36388742834343074,-2.8986304839694306
1047,-4.011271962146877,-0.8806307973035961,-0.5077359022080978,-4.024295335172141
1048,-5.463824984713976,-1.1979238738111009,-0.6947618909330123,-5.479524414652602
1049,-7.30814743696463,-1.6007578250447696,-0.9334683167407819,-7.326254167844022
1050,-9.608880492416786,-2.1034328824625135,-1.232806418963498,-9.62865430458143
1051,-12.430614000519268,-2.720371045796686,-1.6018727973717466,-12.450647194551784
1052,-15.834905899384168,-3.465508942360138,-2.0495316678796294,-15.852888314069624
1053,-19.876840756321915,-4.351594210581468,-2.5839709626312617,-19.889287589704505
1054,-24.601248098084902,-5.389409661346287,-3.2122069334437704,-24.603195141225143
1055,-30.03874242668469,-6.586958083170043,-3.9395578793587864,-30.023416298317773
1056,-36.20178290812215,-7.948648171512091,-4.769113038968536,-36.16025686969204
1057,-43.08097858305666,-9.474527984047937,-5.701227049188701,-43.00182748220339
1058,-50.64188151374618,-11.159615859357249,-6.733073142608592,-50.51085236858254
1059,-58.82251282654961,-12.99337927355565,-7.858288979035886,-58.62223051862781
1060,-67.53185299263869,-14.959409174804014,-9.066747365401566,-67.24158336568831
1061,-76.64949679696842,-17.035330711894,-10.34448001766172,-76.24499189161995
1062,-86.0266254208168,-19.19298105720646,-11.673776077680863,-85.48007720016132
1063,-95.48838458833929,-21.398871680335514,-13.033468621149172,-94.76851384207181
1064,-104.83768197133095,-23.614936722810686,-14.399412281693312,-103.9099876736453
1065,-113.86033357382374,-25.799552042384708,-15.745143858648222,-112.68752451531786
1066,-122.33140321722045,-27.90879213512348,-17.042705959413468,-120.87402819448147
1067,-130.02249766866478,-29.89787566571205,-18.26360208679099,-128.23978313796346
1068,-136.70970860850937,-31.722735945645915,-19.379841010073548,-134.56060393077746
1069,-142.18183717211622,-33.341641564882,-20.365019723460584,-139.6262578731696
1070,-146.24850191133825,-34.71678553649794,-21.195388732751667,-143.24875115594037
1071,-148.74771993431324,-35.815759480518324,-21.850841552663617,-145.27005796909523
1072,-149.55256529533602,-36.612832886129475,-22.31577254048037,-145.56888623399428
1073,-148.5765481745868,-37.08996624717981,-22.579753478877677,-144.06611350601545
1074,-145.7774210253888,-37.23750038990666,-22.63798915475936,-140.72859003330413
1075,-141.15920000022496,-37.05448180966846,-22.49152472007277,-135.57108938626124
1076,-134.7722865435189,-36.54860426841141,-22.14719188361946,-128.65628553078864
1077,-126.71167887885417,-35.73576901417236,-21.617296001039257,-120.09274260532605
1078,-117.11336935522863,-34.63928832621441,-20.919061035501173,-110.03101312885003
1079,-106.14912416975716,-33.288778115939145,-20.07386336067984,-98.65804471502057
1080,-94.0199300434157,-31.71880349027038,-19.106297664471747,-86.19018751404043
1081,-80.9484620384271,-29.967355172783154,-18.043127938744796,-72.86516824638841
1082,-67.1709731758356,-28.074243476136978,-16.9121828608727,-58.93344681430775
1083,-52.929026860189325,-26.079499580861473,-15.741257126057922,-44.64939488539173
1084,-38.461486301909524,-24.021871112259767,-14.557078177955477,-30.262731392171975
1085,-23.99714217143975,-21.937490727970225,-13.384391482770672,-16.010618579082372
1086,-9.748303637124584,-19.858783244619534,-12.245207612214548,-2.1107670617613365
1087,4.094396533376668,-17.813659608167892,-11.158241867310254,11.244175959208171
1088,1.289251594593124e-10,-6.862990290069077e-11,-1.0424443968481769e-10,1.0627973658707787e-10
1089,2.708014020204705e-09,-1.2610281107625673e-09,-2.186063235601014e-09,2.323462201157145e-09
1090,3.0185857208458455e-08,-1.4175708450834527e-08,-2.38799068332379e-08,2.6662252295841403e-08
1091,2.2249286146743868e-07,-1.0441653319276697e-07,-1.7210622201400021e-07,2.0189479853654702e-07
1092,1.2295471724503573e-06,-5.776616849625841e-07,-9.289027253853647e-07,1.1448660204913297e-06
1093,5.450984609763882e-06,-2.566379957258123e-06,-4.0189510118382274e-06,5.1994790604718835e-06
1094,2.0261911749159693e-05,-9.568405919861059e-06,-1.4574672243167736e-05,1.9757624450675986e-05
1095,6.515961081853395e-05,-3.08897507076108e-05,-4.573633220912274e-05,6.479721976857412e-05
1096,0.0001856055955631856,-8.839090193850783e-05,-0.00012721279362892723,0.00018773991670810005
1097,0.00047697702560518194,-0.0002283168012677038,-0.00031957239017115576,0.0004894174158957737
1098,0.0011222553107857272,-0.0005401790327950931,-0.0007360614953804253,0.0011650297743747982
1099,0.0024467746352884734,-0.0011845950634298873,-0.0015735623733763823,0.0025633872661267798
1100,0.004992556681613071,-0.0024316529545255765,-0.0031539348962028313,0.005266581867738124
1101,0.009613590752700013,-0.004710811613214665,-0.005976497559241354,0.010190797374023236
1102,0.017591972469124095,-0.008672600734144133,-0.01078181406422071,0.018707414499311837
1103,0.030773120558092715,-0.015261481631746374,-0.018626236747423464,0.03278191892749745
1104,0.05171628972702857,-0.02579813344533361,-0.03096571841417863,0.055126250307104614
1105,0.08385422856013872,-0.04206810769029343,-0.049746153567270794,0.08935801272038722
1106,0.13165308847673046,-0.06641222810480645,-0.07749593756438944,0.1401573495128353
1107,0.20076070784513778,-0.1018123852097123,-0.11741466185815795,0.2134093685130021
1108,0.2981284550575082,-0.15196466432550287,-0.17345010845707026,0.3163170589992938
1109,0.4320893265961124,-0.22133030282334032,-0.250354208718493,0.45746712275975365
1110,0.6123734650845996,-0.31515408680357365,-0.3537076315315965,0.6468296476846576
1111,0.850042180365811,-0.4394397042361254,-0.489902374113159,0.8956726766099555
1112,1.1573233263434064,-0.6008724538733818,-0.6660723319621956,1.2163749063326634
1113,1.5473346866987543,-0.8066816234948159,-0.8899634284324265,1.6221241159262203
1114,2.0336877900584214,-1.064437774730904,-1.1697375091855478,2.126495282325434
1115,2.6299719952837535,-1.3817839718300111,-1.5137077611391452,2.7429102420857787
1116,3.349127299118103,-1.7661044967767239,-1.9300077369548474,3.483989626800667
1117,4.2027235647738115,-2.2241395685762635,-2.426200913418752,4.360817012943377
1118,5.200173159374857,-2.7615597544320343,-3.0088427826631765,5.3821441852809535
1119,6.347912705511138,-3.38251879210901,-3.6830124228080403,6.5535745581675995
1120,7.64859715218085,-4.0892080239401265,-4.451834963235475,7.876768591261151
1121,9.100355012229514,-4.881439140853051,-5.316020044019509,9.34871994482518
1122,10.696156750211834,-5.756283996329734,-6.273443996118272,10.961153571900452
1123,12.42334834774463,-6.70780051303879,-7.318804791000883,12.70009638028935
1124,14.263398521573755,-7.726871906190339,-8.443378547497007,14.545667033752887
1125,16.191900636209322,-8.80118251211461,-9.634904270202654,16.472123652605617
1126,18.17885904331367,-9.915347513869486,-10.877619308794925,18.44819667923795
1127,20.189274800431075,-11.051206070360525,-12.152461721574943,20.43771942213629
1128,22.18402826021888,-12.188278189352616,-13.437447471282763,22.40055153212097
1129,24.121037013450835,-13.304375695122603,-14.708220622343026,24.293771961032856
1130,25.95664847435262,-14.376347472013178,-15.938764107971501,26.07309912788721
1131,27.64720847395399,-15.380929505215745,-17.102248007505196,27.694478556637286
1132,29.150732018113054,-16.295661802926077,-18.17198247002752,29.115763650134795
1133,30.428591156302108,-17.099827728948398,-19.122434231934076,30.298404826634975
1134,31.447128749425566,-17.775367204265454,-19.930259763615354,31.209056959199152
1135,32.179106523260316,-18.30771408406014,-20.575304881427826,31.82101550143785
1136,32.60490146175339,-18.68651003657197,-21.04152036142652,32.11539800957279
1137,32.71337618311372,-18.906152423204087,-21.317745599640862,32.081999672367466
1138,32.502365877001814,-18.96614175433773,-21.39831741432173,31.71976823573819
1139,31.978745676154148,-18.87120476166154,-21.28346834495382,31.036864332439656
1140,31.158066693298903,-18.631181312635093,-20.97948799822248,30.05029648725581
1141,30.063774822626854,-18.2606764902539,-20.498631885211704,28.785144599007133
1142,28.72605207522479,-17.77849232840565,-19.85877449902448,27.273409997424874
1143,27.180343911254855,-17.206866101364145,-19.082816595634124,25.55255260800971
1144,25.465656004971493,-16.570552918613227,-18.197869979057515,23.66379468576702
1145,23.622718596012554,-15.895798976906525,-17.23425553139369,21.650284560933464
1146,21.692124844556247,-15.2092575759577,-16.22436066321518,19.55522181517402
1147,19.712550718021713,-14.536902523345187,-15.201409846893808,17.420046716383027
1148,17.71915774817865,-13.902992693981624,-14.198205855875601,15.28279151741847
1149,15.742266944066305,-13.329137421030326,-13.245899676228738,13.176679767460831
1150,13.806373201724744,-12.833505500535525,-12.372844147659674,11.129042922928376
1151,11.929546146070008,-12.430211499767722,-11.603580870839323,9.1606024939726
1152,-3.7640540091921906e-11,-9.207279124064218e-11,-1.1111735687603511e-10,-1.4751803055131964e-11
1153,-8.00081492654312e-10,-1.7575881310708735e-09,-1.988431771775697e-09,-3.4425872199982234e-10
1154,-8.98359031744016e-09,-1.972043683587027e-08,-2.270342288392304e-08,-4.10667808942488e-09
1155,-6.651658104573929e-08,-1.4456837623850755e-07,-1.6818156123130142e-07,-3.2253837586124733e-08
1156,-3.688380389693732e-07,-7.951875081363768e-07,-9.345495189291544e-07,-1.883086135811394e-07
1157,-1.6382365886973455e-06,-3.509040352363513e-06,-4.162655104965154e-06,-8.741949142448291e-07
1158,-6.0892187377842125e-06,-1.2983108944060974e-05,-1.5528758100834022e-05,-3.370713549481241e-06
1159,-1.953629865902943e-05,-4.155892067052212e-05,-5.005761320769411e-05,-1.1135598396878406e-05
1160,-5.537063740416317e-05,-0.00011782923344098189,-0.00014273988796151065,-3.227139105038507e-05
1161,-0.0001411587481854975,-0.0003013788294737682,-0.00036671818451860274,-8.35863793076793e-05
1162,-0.00032839903451723943,-0.0007057086409342304,-0.0008614830542106696,-0.00019646203034858487
1163,-0.0007054967637061461,-0.0015310982274906785,-0.0018730890241122982,-0.00042438578432502853
1164,-0.0014133624715231797,-0.0031085646945878116,-0.003807634472338056,-0.0008516268053056303
1165,-0.002662341669923241,-0.0059552881351229384,-0.007298309170334618,-0.0016022561203793981
1166,-0.0047485653909087044,-0.01084095771272531,-0.013285228660948816,-0.002848604340909262
1167,-0.008067316376439626,-0.0188634912941853,-0.023106027619948802,-0.004818266693182482
1168,-0.013120615665409964,-0.031531452810165485,-0.03859367797751629,-0.00779879507920657
1169,-0.02051592484910362,-0.050849212517909345,-0.06217624890187623,-0.012139158020171468
1170,-0.03095267881666944,-0.07939944697917314,-0.09697146658587726,-0.018246873143339355
1171,-0.04519342853251798,-0.1204160391135067,-0.1468671873671286,-0.026579488403629174
1172,-0.0640168207045908,-0.1778389819649765,-0.21657754187097888,-0.03762894565990314
1173,-0.08815055116822089,-0.2563417580481656,-0.3116637025677103,-0.05189746552318712
1174,-0.11818381257762219,-0.36132116225906263,-0.4385081213635206,-0.06986407178923199
1175,-0.15446056994987958,-0.49883990779146375,-0.6042317656532684,-0.09194175617364025
1176,-0.19695717870376825,-0.6755137993012218,-0.8165455444622155,-0.11842647664563076
1177,-0.2451503162660733,-0.898337816857217,-1.0835299260793594,-0.14944049786733934
1178,-0.2978837733924658,-1.1744490626929727,-1.4133408468871014,-0.18487381013441828
1179,-0.3532450935909852,-1.5108289467954739,-1.81384528535925,-0.2243283392511904
1180,-0.408465020004147,-1.9139519172175645,-2.29219601044062,-0.2670702927611543
1181,-0.4598538482302965,-2.3893930834777284,-2.8543614464900626,-0.3119962532129145
1182,-0.502788772952989,-2.941411846188476,-3.504632676638456,-0.3576185431259981
1183,-0.5317649581822055,-3.572532780698265,-4.2451347021535835,-0.4020749819704251
1184,-0.5405203049316021,-4.283148200481835,-5.075372630145706,-0.4431674445978661
1185,-0.5222398447976105,-5.071168789456927,-5.991845137483537,-0.47843257005497464
1186,-0.46984057598141027,-5.931749175709298,-6.9877571431376335,-0.5052464552166805
1187,-0.376331679828196,-6.8571141187414915,-8.052861096300015,-0.5209630947859835
1188,-0.23523875512651618,-7.836507916728951,-9.173451656590172,-0.5230836955964221
1189,-0.04107437586900069,-8.856284662993732,-10.332531910171864,-0.5094509803784633
1190,0.21016862786664275,-9.900150159896532,-11.510160752675375,-0.4784595558475259
1191,0.5205297435420347,-10.949557918239385,-12.68398098665356,-0.42927076730035924
1192,0.8896313133227909,-11.984252178929122,-13.829916474536276,-0.36201854500593683
1193,1.314300770658576,-12.982940937573225,-14.923015039093155,-0.2779917684444169
1194,1.7882976737623175,-13.924072294061189,-15.938402536906775,-0.1797786926337446
1195,2.3021755111364004,-14.786678894466348,-16.852303557512442,-0.07135996080318653
1196,2.8433025900238604,-15.551248564128771,-17.643076484612934,0.04186140685232738
1197,3.3960582660298484,-16.200575060768372,-18.292206032594297,0.15310199280592596
1198,3.9422107201674517,-16.720541638050957,-18.785195535683247,0.25431748511108143
1199,4.461471071344481,-17.10079195380792,-19.112304528020807,0.33640122308349574
1200,4.9322066479940965,-17.335247719727786,-19.269084450321824,0.38945873762743527
1201,5.332284650079335,-17.422440057182904,-19.256676107348387,0.40315034474772726
1202,5.6400071332844925,-17.365631353296582,-19.08184595662921,0.36708896788254775
1203,5.835090072854414,-17.172715914103186,-18.75675340671179,0.2712759397102336
1204,5.89963390354748,-16.855900252536365,-18.29845701663983,0.1065540485507708
1205,5.819030865757287,-16.431176698641334,-17.728182855318064,-0.13494503950100997
1206,5.582755962756947,-15.917616384939354,-17.07039235998307,-0.4593823749681971
1207,5.184993336220778,-15.33651869851597,-16.351698980937563,-0.8708445907260711
1208,4.625058146835231,-14.710463147458869,-15.599691885801706,-1.3710476630102992
1209,3.907585137068462,-14.062315551608163,-14.841730390816876,-1.9591274062940442
1210,3.0424683079491075,-13.414243026977962,-14.103774141065273,-2.6315280019712572
1211,2.0445507394429536,-12.7867912159912,-13.409311260937024,-3.3819949185607237
1212,0.9330785574487039,-12.198072759797046,-12.778439921775187,-4.201673479730018
1213,-0.2690526714798235,-11.663108531754526,-12.227148520902963,-5.079309256837548
1214,-1.5362183238850966,-11.193353262128912,-11.766826702884497,-6.001541602720331
1215,-2.8411012809270035,-10.796425597488176,-11.404024759430419,-6.953277258358462
1216,-2.1608704120466518e-11,-8.564529185780249e-11,-1.0783828074352629e-10,-6.556169238819762e-11
1217,-4.662749206934792e-10,-1.7255815226731387e-09,-2.206943658837168e-09,-1.350037701569419e-09
1218,-5.022894739926593e-09,-1.940668974571151e-08,-2.479765486868801e-08,-1.490715824803716e-08
1219,-3.5774101890349056e-08,-1.437915175780889e-07,-1.838265843202089e-07,-1.0851229676728582e-07
1220,-1.9012050385484996e-07,-7.98665767558043e-07,-1.021711878727454e-06,-5.923247833371538e-07
1221,-8.066013537993154e-07,-3.5569852903087873e-06,-4.554498487483087e-06,-2.5942694335871512e-06
1222,-2.853945179661924e-06,-1.3274627746819641e-05,-1.701693505239823e-05,-9.528792289460554e-06
1223,-8.6871811122604e-06,-4.283421299313397e-05,-5.498579126119246e-05,-3.0285909454247478e-05
1224,-2.328915865022752e-05,-0.00012235079310085354,-0.00015731350159367303,-8.527111744443978e-05
1225,-5.6018364102600756e-05,-0.000315109605426687,-0.0004059012541867638,-0.00021658526271244873
1226,-0.00012274363871633324,-0.0007426270049942072,-0.0009585904010561205,-0.0005035294942439267
1227,-0.00024813352451508235,-0.0016209951109624635,-0.0020972792024194697,-0.0010842185135869818
1228,-0.00046785347640156995,-0.0033101132341734896,-0.004293783495911983,-0.0021834434025396277
1229,-0.0008305321216456156,-0.006376621387528613,-0.00829501410517511,-0.004146193624837609
1230,-0.001399547730194914,-0.011670402434247815,-0.01522775088659283,-0.0074755822513994695
1231,-0.0022548755178550105,-0.02041344232589136,-0.02672164397668399,-0.012873388450687953
1232,-0.003495343158388435,-0.03429858524417061,-0.045047043355672924,-0.02128096074839812
1233,-0.005241620142453921,-0.0555942375032583,-0.07326189368182144,-0.033917641999957546
1234,-0.007640119842507148,-0.08724932710331072,-0.11535935106838932,-0.052313047508625345
1235,-0.01086776974904892,-0.13299089288573385,-0.1764051649932299,-0.07832850722417846
1236,-0.015137381854293381,-0.1974047583991795,-0.2626514560405208,-0.11416203838347154
1237,-0.02070321042080237,-0.2859881435644886,-0.3816115464724456,-0.16233071998697585
1238,-0.02786626717911468,-0.40516213518328764,-0.5420792513666345,-0.22562462569900057
1239,-0.03697906488919068,-0.5622319672532818,-0.754075824312324,-0.3070276937275452
1240,-0.04844960784671748,-0.7652842523716314,-1.0287089343643352,-0.4096030401661452
1241,-0.0627445391753591,-1.0230127007621181,-1.3779309246694504,-0.5363430375196762
1242,-0.08039130581783809,-1.3444674065364004,-1.8141883165099848,-0.6899876574849386
1243,-0.10197899160419766,-1.738727306834122,-2.3499609427754815,-0.8728177598312752
1244,-0.12815714842850925,-2.2145007091397373,-2.997196839073603,-1.086432922106599
1245,-0.15963163155916765,-2.7796645362710835,-3.7666575158878475,-1.3315259077432653
1246,-0.1971562432011419,-3.4407587989029285,-4.667196867123403,-1.6076679146525594
1247,-0.2415190130322915,-4.202458365661367,-5.7050051609834345,-1.9131202877374207
1248,-0.2935222439100904,-5.067048918361678,-6.8828567433917085,-2.2446892576446893
1249,-0.3539560002160745,-6.033937634500789,-8.199405684650934,-2.5976402214485095
1250,-0.4235654304786418,-7.099231228601213,-9.648576972194647,-2.965686799061628
1251,-0.5030130842636549,-8.25541418944842,-11.219101396964307,-3.3410671594607972
1252,-0.592838104420155,-9.491158124488654,-12.894239541394752,-3.714715836794924
1253,-0.6934147747359235,-10.791288946175586,-14.651734095944066,-4.076533582582484
1254,-0.8049133327026126,-12.136932199843502,-16.464020244858972,-4.415751069138848
1255,-0.9272661978378439,-13.505848311340364,-18.298711493233164,-4.721375025159548
1256,-1.0601428272214057,-14.872959285575199,-20.119363656695725,-4.982698323381192
1257,-1.2029363241035056,-16.211057013382383,-21.886503567561082,-5.189849322269946
1258,-1.3547647203850512,-17.49167163153582,-23.558892270341342,-5.334350942691574
1259,-1.5144895168223809,-18.68606721771289,-25.094976129400838,-5.409656911705282
1260,-1.6807535260466482,-19.76632237366472,-26.454464523370092,-5.411631571238383
1261,-1.8520392211358356,-20.70644570892935,-27.599960845105855,-5.338940757583947
1262,-2.026747567230093,-21.48347147909176,-28.498565486341068,-5.193324555184615
1263,-2.203295705563746,-22.078479033117482,-29.123366236848284,-4.979728133804417
1264,-2.38022997619852,-22.4774814722615,-29.45473360188285,-4.706274180280459
1265,-2.5563488145666424,-22.672133983843686,-29.48134600792698,-4.384069266549528
1266,-2.730828297558973,-22.660220467159387,-29.200882357399262,-4.026846360907779
1267,-2.90334179562677,-22.44588787954911,-28.620336120761827,-3.6504559575336715
1268,-3.074164486841378,-22.039610594608643,-27.75592505076191,-3.272228228245779
1269,-3.2442534854367273,-21.457881212957457,-26.632592394037356,-2.9102374002480733
1270,-3.4152950164816773,-20.72263882774542,-25.283117792254966,-2.582506500340455
1271,-3.5897113556522107,-19.860459800132045,-23.74687752662026,-2.3061951332035524
1272,-3.7706220575258396,-18.90154872166654,-22.06831303503937,-2.096814756183375
1273,-3.961756238293544,-17.87857761259202,-20.295182545597896,-1.9675148877242923
1274,-4.167315296970714,-16.825428864521623,-18.476682235023222,-1.9284799203000593
1275,-4.391788385601334,-15.775901568009084,-16.661529822883935,-1.9864699347700197
1276,-4.639726067323554,-14.762441508464535,-14.896104546295431,-2.144530492288616
1277,-4.915480756122993,-13.81495235126157,-13.222732985124294,-2.4018863276083784
1278,-5.22292545858172,-12.959739659023812,-11.678200561835585,-2.7540228351388008
1279,-5.565164723168608,-12.218630853842118,-10.292554410691237,-3.192947981828149
1280,-1.3160490137482272e-11,-7.547722195673074e-11,-4.530401659779824e-11,-2.4959835840260896e-11
1281,-2.9670261858368823e-10,-1.6033296512702264e-09,-9.36125125296028e-10,-5.487076260801543e-10
1282,-3.4123968700979355e-09,-1.7986322701483706e-08,-1.0640378473465946e-08,-6.574153688464959e-09
1283,-2.606349989289837e-08,-1.3353504974464168e-07,-8.00126280300771e-08,-5.17107932271154e-08
1284,-1.4943772364772434e-07,-7.435853677282552e-07,-4.520742262305416e-07,-3.030558299991927e-07
1285,-6.880220246166249e-07,-3.3228010594759007e-06,-2.0518797222902017e-06,-1.415126570234026e-06
1286,-2.6567128791223574e-06,-1.2452024063351228e-05,-7.813479066036369e-06,-5.50167384635566e-06
1287,-8.870773991203782e-06,-4.037336606309368e-05,-2.5739008236474737e-05,-1.8377581471780417e-05
1288,-2.6202408050219262e-05,-0.00011593892823543951,-7.50460948508204e-05,-5.402068235053517e-05
1289,-6.969106526003901e-05,-0.00030030423818443386,-0.0001971489051471632,-0.00014241030200667375
1290,-0.00016930086970722464,-0.0007119199376801654,-0.00047337546679884096,-0.00034193225307426383
1291,-0.00038010065909779405,-0.0015632011046025347,-0.0010511478472091057,-0.0007573940944733486
1292,-0.0007965170229235425,-0.0032107090992393424,-0.0021798275678342706,-0.0015644279109982013
1293,-0.0015711169551569744,-0.006219864928467162,-0.004256634714694545,-0.003040742727102302
1294,-0.002938147900431642,-0.011444232088882626,-0.007882094991352971,-0.005604347001374015
1295,-0.00524180791846827,-0.02011832084395262,-0.013923461528774227,-0.00985846748454566
1296,-0.008968930548540434,-0.033961642502176044,-0.023583570832450145,-0.016642396319266076
1297,-0.014785444869994344,-0.05529030345385749,-0.03847166068670496,-0.02708687788832092
1298,-0.023575607765337018,-0.0871307071855462,-0.0606718095700709,-0.04267189356226998
1299,-0.036482581934436535,-0.13332796251059031,-0.09280382880417434,-0.06528382518679239
1300,-0.05494841700604011,-0.19863954960447316,-0.13807064021783638,-0.0972680062644283
1301,-0.08075088367718165,-0.28880297289945794,-0.20028544116918248,-0.14147168557861461
1302,-0.11603399608744693,-0.41056490546758084,-0.2838714459987983,-0.20127159082556137
1303,-0.16332860031831284,-0.5716590465870975,-0.3938269506566591,-0.2805797966456225
1304,-0.2255592870725927,-0.7807208193599918,-0.5356491981413385,-0.38382167637138426
1305,-0.30603421005378867,-1.0471292166908823,-0.7152122418939852,-0.5158804815650595
1306,-0.4084151411645743,-1.3807695063910967,-0.938596741695225,-0.6820045781410238
1307,-0.5366661481474769,-1.791714942167129,-1.2118731668746592,-0.887675477933637
1308,-0.6949804840189574,-2.2898308359220416,-1.5408438176159274,-1.1384373395055587
1309,-0.8876865037102291,-2.884310022857979,-1.9307529149088793,-1.4396913052776261
1310,-1.1191345970669504,-3.583154579953162,-2.385977299514381,-1.796460648533349
1311,-1.3935682111187297,-4.39262431660597,-2.909712724773629,-2.2131350785260526
1312,-1.7149830012939196,-5.316677683991882,-3.5036722233582713,-2.693204661431538
1313,-2.0869789678212505,-6.356434946363362,-4.167813643533828,-3.2389956706940697
1314,-2.5126110508018145,-7.509696273932219,-4.900113308273997,-3.8514222190007183
1315,-2.9942440107191426,-8.770548420524426,-5.696401920400081,-4.5297685567142425
1316,-3.5334174405196346,-10.129092486155336,-6.550277246337672,-5.271517163828169
1317,-4.130726389030707,-11.571321755659675,-7.45310557874433,-6.0722369468331605
1318,-4.785722306711022,-13.079172768436743,-8.394120306944668,-6.925543811418554
1319,-5.496837875827771,-14.630764836815237,-9.36062107328506,-7.823142602100221
1320,-6.261337814471789,-16.200833571132044,-10.338271183992125,-8.754955016363098
1321,-7.075296047979345,-17.761353105800907,-11.311484680310738,-9.70933290392529
1322,-7.933597888818398,-19.282330289317493,-12.263888430097742,-10.673350777324146
1323,-8.829964295766443,-20.732742852134216,-13.17883943348066,-11.63316590310716
1324,-9.75699416714025,-22.081583333177583,-14.039973753412033,-12.574429535083462
1325,-10.70622018244013,-23.298962154703055,-14.831761341186738,-13.48272912060476
1326,-11.668174035362515,-24.35721741644385,-15.5400405640471,-14.34403894186177
1327,-12.632457937686311,-25.231976256071857,-16.152507317629617,-15.14515577076004
1328,-13.587820843990144,-25.903113272723257,-16.6591359996723,-15.874096721404152
1329,-14.52223973232319,-26.3555555483707,-17.052513081556118,-16.52043849482103
1330,-15.42300826054266,-26.579891021178767,-17.328068322776662,-17.075580501998473
1331,-16.276836998387566,-26.572746948462637,-17.484193649727526,-17.53291877101141
1332,-17.069971006441534,-26.336917356350952,-17.522245216317085,-17.887922912804697
1333,-17.78833158928806,-25.881231963584987,-17.446429993863873,-18.138114488331084
1334,-18.41768940518212,-25.220173236212986,-17.26358412367948,-18.28295152961854
1335,-18.943875627430867,-24.373262073291755,-16.982855816851362,-18.323630251270167
1336,-19.353036437771948,-23.36424523578102,-16.615310336196266,-18.262820624892534
1337,-19.631933764872457,-22.220128178322284,-16.173478115938874,-18.10435699475819
1338,-19.76829190839825,-20.970104712126993,-15.67086907329825,-17.852907896895008
1339,-19.751185646638838,-19.644439398922266,-15.121476578595558,-17.51365042475528
1340,-19.57146084568539,-18.273359475274113,-14.539293529963114,-17.091973695126367
1341,-19.22217379301993,-16.88601043309642,-13.937860819526932,-16.59323319798856
1342,-18.6990308663595,-15.509523404788203,-13.329865502182022,-16.022573267231703
1343,-18.0008061810269,-14.168233730430442,-12.72680245121963,-15.38482901389861
1344,-2.3121620083369547e-10,-1.1200172028821272e-10,-8.100257738302589e-11,-2.5115891869225634e-10
1345,-3.31045815555252e-09,-2.3329247508587294e-09,-1.695995939176486e-09,-2.9559182634893485e-09
1346,-3.850239926450641e-08,-2.6124915588676662e-08,-1.91191360577228e-08,-3.498128541884539e-08
1347,-2.844079769791967e-07,-1.9325287676394242e-07,-1.4199168014554916e-07,-2.5681212326584686e-07
1348,-1.578013404589366e-06,-1.0716178075233314e-06,-7.905839350150469e-07,-1.4185651889307513e-06
1349,-7.0190362365625576e-06,-4.7655927381410525e-06,-3.5296641264257128e-06,-6.284175009577466e-06
1350,-2.6152899267556372e-05,-1.7762261209279437e-05,-1.3203543345218753e-05,-2.332943775705246e-05
1351,-8.423381411603054e-05,-5.7250366359209045e-05,-4.269306139994237e-05,-7.490926530592848e-05
1352,-0.000240097450216986,-0.0001633676960353858,-0.00012215079802143627,-0.00021299475484658776
1353,-0.0006169022126157311,-0.0004203788781916756,-0.00031496212395321473,-0.000546267383773566
1354,-0.0014500496180594655,-0.0009899355983459175,-0.0007427482032832828,-0.0012824524955835762
1355,-0.0031559298535319756,-0.002159255181352656,-0.0016214437650306393,-0.0027892587404482723
1356,-0.006423743158111408,-0.004406316470514542,-0.003309924194459075,-0.005676046600392074
1357,-0.012330824842060287,-0.00848314268207564,-0.006371953117100936,-0.010896649053560374
1358,-0.022479776492081858,-0.015517008196941946,-0.01165141440353523,-0.019871671002015555
1359,-0.039153484477240284,-0.027127992013442143,-0.020359816134706197,-0.03462636626630564
1360,-0.06548165943215668,-0.045559627530221955,-0.03417375900738625,-0.05793775109719054
1361,-0.10560982170975107,-0.07381738056296597,-0.05533836401896766,-0.09348198279644283
1362,-0.16485853509873724,-0.11580728779405992,-0.08677060757962075,-0.14597019380180165
1363,-0.24985733313746292,-0.17646442340249843,-0.13215435411580295,-0.2212580310641957
1364,-0.36863458738850574,-0.2618582194284712,-0.19601695116054346,-0.32641158508034807
1365,-0.5306421296281787,-0.3792594701468367,-0.28377591062987667,-0.469710603155883
1366,-0.7466925469060411,-0.5371525881281742,-0.40174371906011336,-0.6605695586661853
1367,-1.0287882380375322,-0.7451767613753179,-0.5570793298115063,-0.9093586379960809
1368,-1.3898250102544163,-1.0139813630718657,-0.7576764179296263,-1.2271104356862672
1369,-1.8431591661508646,-1.3549843504696266,-1.0119809749390751,-1.6251040456250765
1370,-2.402035522975391,-1.7800273454562265,-1.3287342563468263,-2.1143262376979095
1371,-3.0788840169879603,-2.3009273402494896,-1.716641434772437,-2.7048189539357113
1372,-3.8845038615013,-2.928932162014246,-2.1839714881288073,-3.404932929809679
1373,-4.8271658162211395,-3.6740945448657754,-2.7380996570911824,-4.220518021971447
1374,-5.911674197399962,-4.544587463316498,-3.3850098660016474,-5.154090983678682
1375,-7.138440067264652,-5.54599082247842,-4.128780301116401,-6.2040301539400815
1376,-8.502624723782436,-6.680586167375737,-4.971080282005705,-7.363852837674505
1377,-9.993417450097114,-7.9467012115122495,-5.910710072850762,-8.621634379307169
1378,-11.593512591070056,-9.33814907959141,-6.943216860745327,-9.959627302974216
1379,-13.278847817484563,-10.843807632838704,-8.060619451454837,-11.354134121233368
1380,-15.018657389841295,-12.447381616459724,-9.25127116028612,-12.775678211175268
1381,-16.775881351574235,-14.127384385393217,-10.499884985644613,-14.18950378415398
1382,-18.50795408792965,-15.857366650094432,-11.787737666484448,-15.556418762232086
1383,-20.167974402882425,-17.606407409286593,-13.09305998776814,-16.833974260330947
1384,-21.70623524814507,-19.33986767271679,-14.391610140082683,-17.97795239365113
1385,-23.072066033051957,-21.020391652797446,-15.657415626096924,-18.944111759495367
1386,-24.215915822672585,-22.60912389150904,-16.863657840525264,-19.6901187370864
1387,-25.091583585391675,-24.06709541254275,-17.983662837425285,-20.177574292338896
1388,-25.65848396682081,-25.356718564781442,-18.99195276997289,-20.374031991130693
1389,-25.883825444416054,-26.44331976855652,-19.865305781432138,-20.254894749668907
1390,-25.744573521680206,-27.29663276384839,-20.58376835918925,-19.80507671619284
