timestamps,TP9,AF7,AF8,TP10,Right AUX
1728649849.777,-18.066,-14.160,-37.598,-29.297,0.000
1728649849.781,0.488,-10.254,-36.621,-31.250,0.000
1728649849.785,-6.836,-13.184,-35.156,-29.785,0.000
1728649849.788,-26.855,-15.137,-32.715,-38.086,0.000
1728649849.792,-41.016,-9.766,-38.086,-41.016,0.000
1728649849.796,-22.461,-10.742,-35.645,-32.715,0.000
1728649849.800,3.418,-9.277,-30.273,-18.555,0.000
1728649849.804,-4.395,-11.230,-31.738,-10.742,0.000
1728649849.808,-31.250,-20.508,-32.227,-9.766,0.000
1728649849.812,-41.016,-19.043,-28.320,-17.090,0.000
1728649849.816,-13.184,-18.555,-28.320,-19.531,0.000
1728649849.820,-3.906,-23.438,-33.203,-13.184,0.000
1728649849.823,-28.320,-24.902,-30.273,-18.066,0.000
1728649849.827,-38.086,-24.414,-28.809,-32.715,0.000
1728649849.831,-45.410,-19.531,-28.320,-35.156,0.000
1728649849.835,-32.715,-14.648,-25.879,-23.926,0.000
1728649849.839,-10.742,-16.602,-26.367,-19.531,0.000
1728649849.843,-5.371,-20.508,-27.344,-24.414,0.000
1728649849.847,-12.695,-16.602,-25.391,-18.066,0.000
1728649849.851,-40.039,-15.625,-25.879,-17.090,0.000
1728649849.855,-37.109,-17.578,-26.367,-19.043,0.000
1728649849.858,-9.766,-14.648,-27.832,-33.691,0.000
1728649849.862,-12.695,-18.555,-34.668,-25.391,0.000
1728649849.866,-21.973,-22.461,-36.133,-20.020,0.000
1728649849.870,-36.621,-16.602,-31.738,-27.832,0.000
1728649849.873,-33.691,-16.113,-34.180,-27.832,0.000
1728649849.877,-10.742,-17.578,-36.133,-23.438,0.000
1728649849.881,1.465,-14.648,-30.273,-25.391,0.000
1728649849.885,-15.625,-20.020,-32.715,-38.574,0.000
1728649849.889,-46.387,-20.020,-42.969,-40.527,0.000
1728649849.893,-39.551,-20.508,-39.551,-26.855,0.000
1728649849.897,-9.766,-20.996,-31.250,-16.113,0.000
1728649849.901,2.441,-22.949,-27.344,-23.926,0.000
1728649849.905,-13.672,-27.344,-30.762,-21.973,0.000
1728649849.909,-40.039,-25.879,-39.551,-28.809,0.000
1728649849.913,-40.527,-23.926,-41.016,-28.809,0.000
1728649849.916,-14.160,-21.973,-27.832,-8.301,0.000
1728649849.920,-3.906,-19.043,-24.902,-5.371,0.000
1728649849.924,-13.672,-25.879,-30.762,-13.672,0.000
1728649849.928,-35.645,-29.785,-31.738,-20.020,0.000
1728649849.931,-44.434,-31.250,-29.297,-25.391,0.000
1728649849.935,-13.672,-31.250,-25.879,-11.230,0.000
1728649849.939,6.348,-28.320,-24.414,-8.301,0.000
1728649849.943,-8.301,-29.297,-28.809,-16.113,0.000
1728649849.947,-39.062,-27.344,-30.273,-24.414,0.000
1728649849.951,-47.852,-23.926,-26.855,-38.086,0.000
1728649849.955,-35.156,-26.855,-29.297,-28.809,0.000
1728649849.959,-18.555,-30.273,-33.203,-22.949,0.000
1728649849.962,-17.090,-32.715,-31.250,-21.484,0.000
1728649849.966,-48.340,-28.320,-25.879,-24.414,0.000
1728649849.970,-56.641,-22.461,-27.832,-31.738,0.000
1728649849.973,-25.879,-27.344,-29.785,-13.672,0.000
1728649849.977,-10.742,-30.273,-25.879,-10.742,0.000
1728649849.981,-16.602,-28.809,-26.855,-18.555,0.000
1728649849.985,-34.180,-27.344,-25.879,-19.043,0.000
1728649849.989,-49.316,-28.809,-24.414,-23.438,0.000
1728649849.993,-37.109,-27.344,-25.879,-29.297,0.000
1728649849.997,-22.949,-30.273,-25.391,-29.297,0.000
1728649850.001,-22.949,-30.762,-24.414,-26.855,0.000
1728649850.005,-35.156,-25.391,-26.855,-28.809,0.000
1728649850.010,-50.293,-25.391,-26.855,-30.273,0.000
1728649850.014,-34.668,-28.320,-26.855,-32.227,0.000
1728649850.018,-16.602,-27.344,-28.320,-29.785,0.000
1728649850.022,-21.484,-25.879,-27.344,-20.508,0.000
1728649850.026,-29.297,-24.902,-20.996,-21.484,0.000
1728649850.030,-50.293,-19.043,-20.508,-37.109,0.000
1728649850.034,-38.086,-18.555,-24.902,-32.715,0.000
1728649850.037,-21.484,-28.809,-24.902,-22.461,0.000
1728649850.041,-25.391,-29.785,-24.902,-31.738,0.000
1728649850.045,-40.039,-22.461,-25.391,-29.297,0.000
1728649850.049,-59.570,-19.043,-28.320,-38.574,0.000
1728649850.053,-47.363,-16.602,-29.785,-60.059,0.000
1728649850.058,-26.367,-16.113,-28.809,-46.387,0.000
1728649850.062,-18.555,-17.090,-26.855,-27.832,0.000
1728649850.066,-30.273,-16.602,-24.414,-28.320,0.000
1728649850.069,-51.270,-16.113,-25.879,-39.551,0.000
1728649850.073,-42.969,-13.184,-24.902,-39.062,0.000
1728649850.077,-19.531,-19.531,-22.461,-27.344,0.000
1728649850.081,-19.531,-23.926,-28.320,-20.508,0.000
1728649850.085,-28.320,-19.531,-34.668,-25.391,0.000
1728649850.089,-34.180,-16.113,-33.691,-16.602,0.000
1728649850.093,-5.859,-14.160,-19.043,14.160,0.000
1728649850.097,1.465,-25.879,-6.348,-4.883,0.000
1728649850.101,-26.367,-32.227,-15.137,-56.641,0.000
1728649850.105,-41.992,-26.367,-19.043,-42.480,0.000
1728649850.109,-70.312,-29.297,-21.973,-51.270,0.000
1728649850.113,-77.148,-34.668,-20.508,-80.078,0.000
1728649850.117,-59.082,-44.434,-15.625,-73.730,0.000
1728649850.121,-60.059,-46.875,-16.602,-78.125,0.000
1728649850.125,-83.496,-50.781,-12.695,-91.797,0.000
1728649850.128,-113.281,-57.129,-9.277,-106.934,0.000
1728649850.132,-121.582,-55.176,-2.930,-110.352,0.000
1728649850.136,-105.957,-61.035,6.348,-100.098,0.000
1728649850.140,-92.773,-62.988,6.348,-90.332,0.000
1728649850.144,-99.609,-62.012,4.883,-88.867,0.000
1728649850.148,-131.836,-69.336,2.930,-116.211,0.000
1728649850.152,-148.926,-72.266,-0.977,-118.652,0.000
1728649850.156,-123.047,-73.242,5.371,-107.910,0.000
1728649850.160,-99.121,-69.336,7.812,-106.445,0.000
1728649850.164,-104.492,-64.453,8.789,-84.961,0.000
1728649850.168,-115.723,-63.965,12.207,-84.961,0.000
1728649850.172,-124.023,-63.477,13.672,-87.891,0.000
1728649850.175,-103.516,-64.453,11.719,-81.055,0.000
1728649850.179,-82.520,-65.430,5.371,-67.871,0.000
1728649850.183,-78.613,-59.082,2.441,-57.617,0.000
1728649850.187,-90.332,-53.223,0.000,-68.848,0.000
1728649850.191,-102.539,-59.082,-0.977,-60.059,0.000
1728649850.195,-74.707,-59.082,-1.953,-50.781,0.000
1728649850.199,0.000,-57.129,-5.859,-57.617,0.000
1728649850.203,0.000,-59.570,-6.836,-43.945,0.000
1728649850.207,0.000,-53.223,0.000,-39.062,0.000
1728649850.210,0.000,-48.340,-1.953,-40.039,0.000
1728649850.214,0.000,-49.316,-7.812,-38.574,0.000
1728649850.218,0.000,-49.316,-12.207,-43.945,0.000
1728649850.222,0.000,-50.781,-14.160,-25.879,0.000
1728649850.226,0.000,-49.316,-10.742,-27.832,0.000
1728649850.230,0.000,-47.363,-10.254,-35.645,0.000
1728649850.234,0.000,-47.363,-12.695,-24.902,0.000
1728649850.238,0.000,-39.551,-14.160,-26.855,0.000
1728649850.242,0.000,-35.645,-9.277,-10.254,0.000
1728649850.238,-51.758,-34.180,-5.859,-8.301,0.000
1728649850.242,-55.176,-30.762,-9.277,-27.832,0.000
1728649850.246,-69.336,-35.645,-10.742,-26.367,0.000
1728649850.250,-88.867,-40.527,-16.602,-25.391,0.000
1728649850.254,-66.895,-38.086,-24.902,-17.090,0.000
1728649850.258,-36.621,-38.086,-24.414,-28.320,0.000
1728649850.262,-38.574,-41.016,-22.949,-56.152,0.000
1728649850.265,-50.293,-35.156,-25.391,-37.109,0.000
1728649850.269,-70.312,-31.738,-23.926,-25.879,0.000
1728649850.273,-62.500,-37.598,-19.531,-32.715,0.000
1728649850.277,-37.109,-40.039,-21.973,-27.832,0.000
1728649850.281,-29.785,-32.715,-22.949,-24.414,0.000
1728649850.285,-30.762,-32.715,-25.391,-25.879,0.000
1728649850.289,-11.719,-33.203,-25.391,-16.602,0.000
1728649850.293,-9.766,-24.902,-23.438,-5.371,0.000
1728649850.297,-17.578,-25.879,-25.391,-20.020,0.000
1728649850.301,-44.434,-28.809,-25.879,-35.156,0.000
1728649850.305,-45.410,-24.414,-26.367,-26.855,0.000
1728649850.309,-16.602,-20.996,-24.902,-15.625,0.000
1728649850.313,-2.930,-22.461,-27.344,-14.648,0.000
1728649850.317,-8.301,-20.508,-30.762,-14.648,0.000
1728649850.320,-37.109,-17.578,-25.879,-31.738,0.000
1728649850.324,-41.504,-20.020,-26.367,-37.598,0.000
1728649850.328,-9.766,-19.531,-26.367,-16.602,0.000
1728649850.332,-3.418,-16.602,-25.879,-12.695,0.000
1728649850.336,-15.137,-20.020,-27.832,-14.160,0.000
1728649850.340,-33.203,-22.949,-23.926,-20.508,0.000
1728649850.344,-39.062,-21.484,-19.531,-20.996,0.000
1728649850.348,-15.625,-20.508,-21.973,-16.602,0.000
1728649850.352,-0.488,-19.043,-22.461,-15.137,0.000
1728649850.356,-9.277,-22.461,-25.879,-14.648,0.000
1728649850.359,-32.715,-35.645,-29.297,-27.832,0.000
1728649850.363,-47.852,-33.691,-26.855,-39.062,0.000
1728649850.367,-20.508,-19.043,-23.438,-23.926,0.000
1728649850.371,0.488,-17.578,-21.484,-18.555,0.000
1728649850.375,-9.766,-22.949,-21.973,-21.484,0.000
1728649850.381,-29.785,-25.879,-24.414,-31.738,0.000
1728649850.385,-51.270,-27.344,-33.203,-57.617,0.000
1728649850.389,-36.133,-26.367,-37.109,-40.039,0.000
1728649850.393,-12.695,-19.531,-30.273,-9.277,0.000
1728649850.397,-17.578,-24.902,-29.785,-22.461,0.000
1728649850.401,-28.320,-31.250,-25.391,-27.832,0.000
1728649850.404,-47.363,-29.785,-23.438,-28.320,0.000
1728649850.408,-40.527,-27.832,-28.809,-20.996,0.000
1728649850.412,-18.066,-22.461,-30.762,-20.996,0.000
1728649850.416,-12.695,-23.926,-28.809,-31.738,0.000
1728649850.420,-28.320,-25.391,-24.902,-31.738,0.000
1728649850.424,-52.246,-24.414,-23.438,-33.691,0.000
1728649850.429,-41.992,-24.414,-24.414,-32.227,0.000
1728649850.433,-13.184,-21.973,-25.391,-27.832,0.000
1728649850.437,-11.230,-20.020,-30.762,-27.832,0.000
1728649850.441,-26.367,-21.973,-31.738,-37.109,0.000
1728649850.445,-47.363,-24.902,-30.762,-38.574,0.000
1728649850.449,-41.016,-17.090,-27.832,-36.621,0.000
1728649850.453,-15.137,-14.648,-21.973,-26.367,0.000
1728649850.457,-17.090,-21.484,-26.367,-26.367,0.000
1728649850.461,-31.250,-21.973,-33.691,-29.297,0.000
1728649850.464,-50.293,-19.531,-33.691,-28.320,0.000
1728649850.468,-38.574,-19.043,-29.785,-37.598,0.000
1728649850.472,-11.719,-18.555,-26.367,-10.254,0.000
1728649850.477,-4.883,-11.719,-25.391,5.859,0.000
1728649850.481,-15.137,-10.254,-28.809,-15.625,0.000
1728649850.485,-40.527,-14.648,-31.738,-34.668,0.000
1728649850.489,-40.527,-11.230,-28.320,-32.715,0.000
1728649850.493,-16.113,-14.648,-33.203,-22.461,0.000
1728649850.497,-8.789,-20.508,-29.785,-31.738,0.000
1728649850.500,-20.508,-14.160,-25.879,-35.156,0.000
1728649850.504,-42.480,-2.930,-37.109,-36.621,0.000
1728649850.508,-59.570,-14.160,-36.621,-40.039,0.000
1728649850.512,-46.387,-25.391,-31.738,-54.688,0.000
1728649850.516,-36.133,-33.203,-33.691,-61.523,0.000
1728649850.520,-49.316,-28.809,-32.715,-59.570,0.000
1728649850.524,-98.145,-20.020,-31.250,-82.031,0.000
1728649850.528,-129.883,-27.832,-31.250,-106.934,0.000
1728649850.532,-113.770,-32.227,-20.020,-108.398,0.000
1728649850.536,-115.723,-39.062,-21.484,-105.469,0.000
1728649850.540,-142.578,-43.945,-23.926,-124.512,0.000
1728649850.544,-182.129,-38.086,-23.438,-164.551,0.000
1728649850.548,-206.543,-37.109,-19.043,-186.035,0.000
1728649850.552,-182.617,-40.527,-15.625,-168.457,0.000
1728649850.556,-159.668,-41.992,-13.672,-148.438,0.000
1728649850.560,-175.293,-37.109,-10.742,-160.645,0.000
1728649850.563,-204.102,-31.250,-10.742,-182.617,0.000
1728649850.567,-212.402,-24.414,-14.648,-187.012,0.000
1728649850.572,-207.520,-35.156,-15.137,-189.941,0.000
1728649850.575,-188.965,-40.527,-16.602,-183.105,0.000
1728649850.579,-166.992,-36.133,-16.113,-167.969,0.000
1728649850.583,-175.293,-29.785,-11.719,-167.969,0.000
1728649850.587,-197.266,-32.715,-16.602,-173.828,0.000
1728649850.591,-174.316,-37.109,-17.090,-181.152,0.000
1728649850.595,-134.766,-31.738,-17.090,-149.414,0.000
1728649850.599,-119.629,-25.879,-20.020,-125.000,0.000
1728649850.603,-134.277,-31.738,-14.160,-130.371,0.000
1728649850.607,-156.738,-27.344,-10.742,-132.812,0.000
1728649850.611,-125.488,-20.996,-11.230,-115.234,0.000
1728649850.614,-92.773,-23.926,-10.254,-105.957,0.000
1728649850.618,-101.074,-24.414,-13.672,-103.027,0.000
1728649850.622,-110.840,-23.438,-20.020,-86.914,0.000
1728649850.626,-124.512,-22.949,-26.367,-90.820,0.000
1728649850.630,-107.910,-25.879,-26.367,-89.844,0.000
1728649850.634,-68.359,-27.832,-17.090,-63.965,0.000
1728649850.638,-57.129,-29.297,-5.371,-65.430,0.000
1728649850.642,-68.848,-30.273,-17.578,-66.406,0.000
1728649850.646,-69.824,-29.785,-64.941,-37.109,0.000
1728649850.650,-56.152,-32.227,-48.828,-27.344,0.000
1728649850.653,-27.344,-35.156,-19.531,-20.996,0.000
1728649850.657,7.324,-32.715,-24.414,3.418,0.000
1728649850.661,-5.859,-36.621,9.277,10.742,0.000
1728649850.667,-23.438,-36.621,-1.465,-0.488,0.000
1728649850.671,-2.930,-36.133,-1.953,11.230,0.000
1728649850.675,16.602,-47.363,21.484,35.645,0.000
1728649850.679,20.020,-51.270,15.625,30.762,0.000
1728649850.683,21.484,-46.387,11.230,41.992,0.000
1728649850.687,1.953,-46.875,-13.184,39.551,0.000
1728649850.690,1.953,-47.363,-15.137,31.738,0.000
1728649850.694,32.715,-44.922,11.230,44.922,0.000
1728649850.698,41.992,-48.828,23.438,41.504,0.000
1728649850.702,41.992,-46.387,17.578,41.992,0.000
1728649850.706,31.738,-42.480,8.301,43.457,0.000
1728649850.710,20.996,-42.969,-23.926,40.039,0.000
1728649850.713,52.246,-41.016,-45.410,55.176,0.000
1728649850.717,75.684,-39.062,-43.457,60.547,0.000
1728649850.721,52.246,-41.992,-51.758,55.664,0.000
1728649850.725,20.996,-43.457,-11.230,38.086,0.000
1728649850.728,18.555,-41.016,-25.879,40.039,0.000
1728649850.732,42.480,-38.086,-46.875,54.688,0.000
1728649850.736,49.805,-41.504,7.812,49.316,0.000
1728649850.740,33.691,-48.340,29.785,47.363,0.000
1728649850.744,19.531,-43.457,21.484,57.617,0.000
1728649850.748,19.043,-34.668,20.996,50.293,0.000
1728649850.752,49.316,-32.715,7.812,46.875,0.000
1728649850.756,70.801,-33.691,9.766,63.965,0.000
1728649850.761,65.430,-32.715,10.742,62.988,0.000
1728649850.765,47.852,-35.156,-3.418,58.105,0.000
1728649850.769,24.902,-32.715,-17.578,55.664,0.000
1728649850.773,36.621,-23.438,-34.180,50.293,0.000
1728649850.777,58.105,-28.320,-6.836,49.316,0.000
1728649850.781,53.223,-32.227,1.465,47.852,0.000
1728649850.784,38.574,-30.273,-12.207,42.969,0.000
1728649850.788,17.090,-29.785,-11.230,36.621,0.000
1728649850.792,27.832,-27.832,-34.180,43.457,0.000
1728649850.796,52.734,-22.949,-56.641,56.641,0.000
1728649850.800,49.805,-23.926,-33.203,40.039,0.000
1728649850.804,32.715,-29.785,-6.836,30.273,0.000
1728649850.809,8.301,-28.320,-16.602,26.855,0.000
1728649850.813,18.555,-26.855,-21.973,41.992,0.000
1728649850.817,46.387,-23.926,-11.230,44.434,0.000
1728649850.820,46.875,-29.297,-17.578,17.578,0.000
1728649850.824,32.227,-28.809,-42.969,26.855,0.000
1728649850.828,2.441,-23.926,-40.039,27.832,0.000
1728649850.832,6.836,-24.414,-20.996,8.301,0.000
1728649850.836,33.203,-22.949,-20.996,12.695,0.000
1728649850.840,35.645,-26.855,-33.691,20.996,0.000
1728649850.844,14.648,-32.227,-62.012,22.461,0.000
1728649850.848,-12.207,-28.320,-52.734,15.137,0.000
1728649850.852,3.906,-28.320,-33.691,20.996,0.000
1728649850.856,34.180,-38.574,-32.715,19.531,0.000
1728649850.860,30.762,-38.574,-22.949,10.254,0.000
1728649850.864,14.160,-33.203,-27.344,16.602,0.000
1728649850.868,-5.371,-29.297,-25.391,13.184,0.000
1728649850.871,0.977,-25.879,-20.020,12.695,0.000
1728649850.875,23.438,-24.902,-27.344,18.555,0.000
1728649850.879,31.738,-25.879,-39.551,15.137,0.000
1728649850.883,20.020,-23.926,-39.062,17.090,0.000
1728649850.887,-3.418,-20.020,-28.809,3.906,0.000
1728649850.891,-8.789,-17.578,-47.363,-2.441,0.000
1728649850.895,14.648,-17.090,-78.613,11.230,0.000
1728649850.899,29.785,-20.020,-62.500,16.113,0.000
1728649850.903,11.719,-29.297,-33.203,2.930,0.000
1728649850.906,-10.742,-35.156,-18.066,-0.977,0.000
1728649850.910,-9.766,-30.273,-14.160,5.371,0.000
1728649850.914,13.672,-25.879,-21.484,4.883,0.000
1728649850.918,24.902,-25.879,-31.738,7.812,0.000
1728649850.922,16.602,-26.855,-37.598,8.789,0.000
1728649850.926,-3.418,-22.461,-36.621,1.465,0.000
1728649850.930,-20.020,-20.020,-27.832,-5.859,0.000
1728649850.934,-10.254,-24.414,-26.855,2.930,0.000
1728649850.938,2.930,-25.879,-27.832,-7.812,0.000
1728649850.942,4.883,-22.949,-32.227,-18.066,0.000
1728649850.946,-21.484,-25.391,-39.062,-10.742,0.000
1728649850.949,-37.598,-24.902,-27.344,-20.996,0.000
1728649850.953,-6.348,-21.973,-34.180,-6.836,0.000
1728649850.957,15.625,-21.484,-41.016,5.371,0.000
1728649850.961,1.953,-24.902,-35.156,0.488,0.000
1728649850.965,-22.949,-28.320,-28.809,-12.207,0.000
1728649850.969,-45.898,-32.227,-26.367,-26.367,0.000
1728649850.973,-27.344,-29.297,-17.578,-23.926,0.000
1728649850.976,-0.977,-25.391,-2.441,-26.367,0.000
1728649850.980,-18.066,-26.855,-11.230,-27.344,0.000
1728649850.984,-33.203,-25.879,-45.410,-33.691,0.000
1728649850.988,-39.551,-22.461,-61.523,-32.715,0.000
1728649850.992,-32.715,-23.926,-27.344,-26.855,0.000
1728649851.000,-11.719,-24.414,-13.184,-24.902,0.000
1728649851.004,-8.789,-25.391,-21.484,-11.230,0.000
1728649851.008,-22.949,-27.344,-21.484,-3.906,0.000
1728649851.012,-41.016,-23.926,-34.180,-27.344,0.000
1728649851.016,-21.484,-21.484,-30.762,-28.809,0.000
1728649851.020,2.930,-24.902,-14.160,-19.043,0.000
1728649851.024,-4.883,-25.879,-18.555,-10.742,0.000
1728649851.027,-27.832,-25.391,-30.762,-5.371,0.000
1728649851.031,-47.852,-25.879,-44.922,-37.109,0.000
1728649851.035,-32.715,-31.738,-43.945,-38.086,0.000
1728649851.039,-1.465,-31.250,-32.227,-21.484,0.000
1728649851.043,1.953,-22.949,-31.250,-13.672,0.000
1728649851.045,-22.949,-23.926,-33.691,-13.184,0.000
1728649851.049,-44.434,-24.414,-23.926,-20.996,0.000
1728649851.053,-31.250,-25.879,-27.832,-21.484,0.000
1728649851.057,-5.371,-26.367,-48.828,-24.414,0.000
1728649851.061,4.883,-24.902,-49.316,-19.531,0.000
1728649851.065,-7.324,-22.949,-41.016,-8.789,0.000
1728649851.069,-34.668,-25.391,-22.949,-26.367,0.000
1728649851.073,-35.156,-29.297,-9.277,-32.227,0.000
1728649851.077,-12.207,-29.297,-23.438,-21.973,0.000
1728649851.080,-2.441,-28.809,-35.156,-24.902,0.000
1728649851.084,-13.672,-23.926,-28.320,-20.508,0.000
1728649851.088,-35.156,-22.461,-27.832,-20.020,0.000
1728649851.091,-33.691,-24.902,-38.086,-16.113,0.000
1728649851.095,-6.836,-18.066,-58.105,-12.207,0.000
1728649851.098,-3.418,-16.113,-40.039,-23.926,0.000
1728649851.102,-18.066,-21.484,-8.789,-19.531,0.000
1728649851.106,-35.645,-18.066,-7.812,-22.461,0.000
1728649851.110,-44.922,-20.020,-16.602,-31.250,0.000
1728649851.114,-17.578,-23.926,-18.066,-28.809,0.000
1728649851.118,-4.883,-18.066,-21.973,-25.879,0.000
1728649851.122,-12.207,-15.625,-26.855,-15.137,0.000
1728649851.126,-31.250,-19.531,-25.879,-17.578,0.000
1728649851.130,-45.410,-20.508,-32.715,-27.344,0.000
1728649851.134,-20.020,-21.973,-41.504,-23.438,0.000
1728649851.138,-6.836,-25.391,-44.434,-16.113,0.000
1728649851.142,-18.555,-22.461,-44.922,-20.020,0.000
1728649851.146,-34.180,-21.484,-40.039,-34.180,0.000
1728649851.150,-42.480,-19.531,-42.480,-46.875,0.000
1728649851.154,-17.090,-15.137,-34.180,-44.922,0.000
1728649851.158,-0.488,-19.043,-10.254,-17.578,0.000
1728649851.162,-10.254,-21.484,-1.465,-16.113,0.000
1728649851.166,-26.367,-14.160,-12.207,-24.902,0.000
1728649851.170,-41.992,-13.184,-24.902,-20.020,0.000
1728649851.173,-28.809,-18.555,-35.645,-23.438,0.000
1728649851.177,-4.883,-19.531,-32.715,-13.184,0.000
1728649851.181,0.977,-22.949,-19.531,1.465,0.000
1728649851.185,-18.066,-20.996,-11.230,-10.742,0.000
1728649851.189,-50.781,-20.996,-17.090,-41.504,0.000
1728649851.193,-39.062,-27.344,-20.508,-35.156,0.000
1728649851.197,-13.672,-28.809,-25.391,-14.160,0.000
1728649851.201,-25.879,-32.227,-31.738,-18.555,0.000
1728649851.205,-43.457,-26.855,-25.391,-32.227,0.000
1728649851.209,-47.363,-20.996,-22.461,-17.578,0.000
1728649851.213,-34.180,-25.391,-29.785,-9.766,0.000
1728649851.217,-12.695,-26.367,-39.551,-15.625,0.000
1728649851.221,-8.301,-28.320,-41.504,-19.531,0.000
1728649851.224,-29.785,-28.809,-27.344,-15.137,0.000
1728649851.228,-46.875,-27.832,-16.113,-14.160,0.000
1728649851.232,-38.574,-27.344,-20.508,-22.949,0.000
1728649851.236,-11.230,-22.461,-23.438,-26.855,0.000
1728649851.240,-2.441,-19.531,-30.762,-28.809,0.000
1728649851.244,-17.090,-22.949,-36.621,-29.785,0.000
1728649851.248,-37.598,-24.902,-41.992,-24.414,0.000
1728649851.252,-31.250,-21.484,-45.410,-27.832,0.000
1728649851.256,-3.418,-15.137,-48.340,-25.391,0.000
1728649851.260,0.000,-12.695,-50.293,-22.461,0.000
1728649851.264,-14.648,-16.113,-21.484,-16.113,0.000
1728649851.268,-38.086,-15.625,-6.348,-13.672,0.000
1728649851.271,-25.391,-15.137,-25.391,-22.949,0.000
1728649851.275,5.859,-18.066,-21.484,-25.391,0.000
1728649851.279,5.371,-17.578,-24.902,-21.484,0.000
1728649851.283,-0.488,-10.254,-43.457,-12.207,0.000
1728649851.287,-17.090,-8.789,-35.156,-26.367,0.000
1728649851.291,-30.273,-15.625,-31.250,-39.062,0.000
1728649851.294,-17.578,-17.578,-28.320,-26.855,0.000
1728649851.298,-8.789,-18.066,-28.809,-25.879,0.000
1728649851.302,-14.648,-17.578,-42.969,-19.043,0.000
1728649851.306,-28.320,-14.648,-25.879,-23.438,0.000
1728649851.310,-31.738,-13.184,-6.836,-39.551,0.000
1728649851.314,-7.812,-15.625,-9.277,-30.273,0.000
1728649851.318,-1.953,-16.113,-1.465,-31.250,0.000
1728649851.322,-9.277,-17.578,-6.348,-29.297,0.000
1728649851.325,-33.691,-25.879,-20.508,-29.785,0.000
1728649851.329,-50.293,-22.949,-23.926,-36.133,0.000
1728649851.333,-27.344,-20.020,-28.809,-15.625,0.000
1728649851.337,-4.395,-19.531,-35.156,-2.930,0.000
1728649851.341,-10.742,-20.020,-36.621,-18.066,0.000
1728649851.345,-32.227,-20.020,-25.391,-29.297,0.000
1728649851.349,-41.504,-20.020,-20.020,-30.273,0.000
1728649851.352,-15.625,-19.531,-50.293,-12.695,0.000
1728649851.356,3.418,-19.043,-65.430,-19.531,0.000
1728649851.360,-5.859,-18.066,-41.504,-19.043,0.000
1728649851.364,-30.762,-19.531,-31.738,-17.090,0.000
1728649851.368,-51.270,-20.508,-47.363,-29.297,0.000
1728649851.371,-30.273,-20.020,-33.691,-35.645,0.000
1728649851.375,-3.906,-18.555,-15.625,-35.645,0.000
1728649851.379,0.000,-14.160,-25.391,-23.438,0.000
1728649851.383,-17.578,-15.625,-7.812,-16.113,0.000
1728649851.387,-41.992,-22.461,-2.930,-26.367,0.000
1728649851.391,-23.438,-24.414,-17.578,-29.297,0.000
1728649851.395,4.395,-22.461,-9.277,-14.648,0.000
1728649851.399,-2.930,-21.484,-9.277,-13.672,0.000
1728649851.402,-18.066,-21.484,-33.691,-22.461,0.000
1728649851.406,-32.715,-20.996,-30.273,-22.461,0.000
1728649851.410,-23.926,-13.672,-20.996,-21.973,0.000
1728649851.414,2.930,-8.789,-40.039,-26.855,0.000
1728649851.417,1.953,-9.277,-40.039,-31.250,0.000
1728649851.421,-18.066,-18.555,-20.020,-43.945,0.000
1728649851.425,-36.133,-20.020,-11.230,-45.410,0.000
1728649851.429,-28.809,-10.742,-19.531,-24.902,0.000
1728649851.433,-3.906,-12.207,-33.691,-19.531,0.000
1728649851.437,-6.348,-20.996,-30.273,-18.066,0.000
1728649851.441,-27.832,-26.855,-28.809,-18.066,0.000
1728649851.444,-46.875,-25.879,-45.898,-20.020,0.000
1728649851.448,-43.457,-24.414,-45.898,-30.273,0.000
1728649851.452,-20.508,-23.438,-41.016,-31.250,0.000
1728649851.456,-14.160,-24.902,-33.691,-23.438,0.000
1728649851.460,-26.367,-25.879,-25.879,-42.969,0.000
1728649851.463,-45.410,-27.344,-11.719,-55.176,0.000
1728649851.467,-45.410,-27.344,-5.859,-32.715,0.000
1728649851.471,-16.602,-25.391,-19.531,-21.973,0.000
1728649851.474,-2.930,-21.973,-32.715,-20.508,0.000
1728649851.478,-9.277,-18.555,-36.133,-18.555,0.000
1728649851.482,-35.156,-19.531,-32.227,-30.762,0.000
1728649851.486,-42.969,-19.531,-30.273,-26.855,0.000
1728649851.490,-18.555,-21.973,-31.250,-22.949,0.000
1728649851.494,-9.277,-20.508,-28.320,-18.555,0.000
1728649851.498,-20.508,-24.414,-30.762,-22.461,0.000
1728649851.502,-42.969,-25.391,-35.156,-43.457,0.000
1728649851.506,-48.828,-24.902,-32.227,-39.062,0.000
1728649851.511,-23.438,-28.320,-40.527,-30.273,0.000
1728649851.515,-2.441,-26.367,-52.246,-35.645,0.000
1728649851.519,-16.602,-28.320,-52.246,-28.809,0.000
1728649851.523,-50.781,-35.156,-37.109,-27.832,0.000
1728649851.527,-54.688,-36.133,-19.531,-26.367,0.000
1728649851.530,-26.367,-32.227,-28.809,-18.066,0.000
1728649851.534,-12.207,-31.738,-36.621,-23.926,0.000
1728649851.538,-14.160,-31.738,-23.438,-31.738,0.000
1728649851.542,-32.715,-27.832,-9.766,-24.414,0.000
1728649851.546,-38.574,-24.414,-7.324,-14.160,0.000
1728649851.550,-13.184,-23.926,-13.672,-11.230,0.000
1728649851.554,0.977,-22.461,-26.367,-16.113,0.000
1728649851.558,-1.953,-20.996,-22.461,-16.113,0.000
1728649851.562,-26.367,-24.414,-34.180,-17.090,0.000
1728649851.566,-42.480,-18.066,-51.270,-26.855,0.000
1728649851.570,-11.230,-11.230,-17.090,-40.527,0.000
1728649851.574,3.418,-19.043,-3.906,-35.645,0.000
1728649851.578,-18.555,-29.785,-20.996,-26.855,0.000
1728649851.582,-41.504,-30.273,-27.832,-35.645,0.000
1728649851.586,-46.875,-26.367,-25.879,-41.992,0.000
1728649851.590,-23.926,-22.949,-34.180,-26.367,0.000
1728649851.594,-6.836,-23.438,-45.410,-14.648,0.000
1728649851.597,-3.418,-23.438,-30.762,-22.949,0.000
1728649851.601,-20.508,-23.926,-33.203,-20.996,0.000
1728649851.606,-44.922,-26.367,-33.203,-37.109,0.000
1728649851.610,-32.715,-25.879,-20.996,-47.852,0.000
1728649851.613,-12.695,-25.391,-23.438,-31.738,0.000
1728649851.617,-11.230,-21.973,-21.484,-23.926,0.000
1728649851.621,-25.879,-19.043,-28.809,-36.133,0.000
1728649851.625,-45.898,-18.555,-38.574,-48.340,0.000
1728649851.629,-35.645,-19.043,-29.785,-29.297,0.000
1728649851.633,-5.859,-20.508,-24.902,-14.648,0.000
1728649851.637,-5.371,-23.438,-24.902,-11.719,0.000
1728649851.641,-37.109,-25.879,-24.902,-19.043,0.000
1728649851.645,-48.340,-23.926,-26.367,-31.738,0.000
1728649851.649,-35.156,-22.949,-37.109,-24.902,0.000
1728649851.652,-20.020,-26.855,-40.039,-35.156,0.000
1728649851.656,-17.090,-29.785,-41.016,-27.344,0.000
1728649851.660,-24.902,-28.320,-46.387,-18.555,0.000
1728649851.664,-48.828,-30.762,-42.969,-31.250,0.000
1728649851.668,-47.363,-29.785,-36.621,-39.551,0.000
1728649851.672,-23.926,-26.367,-25.391,-33.691,0.000
1728649851.676,-21.973,-28.809,-15.137,-27.832,0.000
1728649851.680,-27.832,-27.344,-15.137,-30.273,0.000
1728649851.684,-56.152,-30.762,-23.438,-35.156,0.000
1728649851.688,-60.547,-36.133,-26.855,-31.250,0.000
1728649851.691,-24.902,-32.227,-34.668,-25.391,0.000
1728649851.695,-6.836,-27.344,-36.621,-21.973,0.000
1728649851.699,-14.648,-23.438,-34.180,-27.832,0.000
1728649851.703,-44.434,-22.461,-35.156,-34.668,0.000
1728649851.707,-55.664,-20.508,-38.574,-22.949,0.000
1728649851.711,-35.156,-21.484,-42.480,-26.367,0.000
1728649851.714,-27.344,-25.391,-38.086,-37.598,0.000
1728649851.718,-38.086,-23.438,-23.438,-27.832,0.000
1728649851.722,-46.875,-20.020,-14.648,-37.598,0.000
1728649851.726,-61.035,-21.973,-19.043,-26.855,0.000
1728649851.730,-35.156,-21.484,-52.734,-24.414,0.000
1728649851.734,-8.301,-21.484,-56.152,-35.645,0.000
1728649851.738,-13.184,-22.461,-34.180,-15.137,0.000
1728649851.742,-38.574,-24.902,-22.461,-22.949,0.000
1728649851.745,-65.430,-29.785,-14.160,-33.691,0.000
1728649851.749,-44.922,-29.297,-16.602,-29.297,0.000
1728649851.753,-22.461,-26.367,-12.695,-32.715,0.000
1728649851.757,-19.531,-23.438,-15.137,-31.738,0.000
1728649851.761,-42.969,-21.973,-14.648,-30.273,0.000
1728649851.765,-66.895,-22.949,-16.602,-37.109,0.000
1728649851.769,-33.203,-29.785,-20.020,-29.785,0.000
1728649851.773,-1.465,-30.762,-20.508,-9.277,0.000
1728649851.776,-5.371,-20.020,-30.273,-14.648,0.000
1728649851.780,-44.922,-13.184,-36.621,-36.621,0.000
1728649851.784,-65.918,-15.625,-41.504,-52.734,0.000
1728649851.788,-33.203,-19.043,-38.086,-48.340,0.000
1728649851.794,-1.465,-14.648,-27.832,-41.016,0.000
1728649851.798,2.441,-8.301,-41.016,-25.391,0.000
1728649851.802,-20.020,-13.184,-45.898,-24.414,0.000
1728649851.805,-42.480,-15.625,-25.879,-39.062,0.000
1728649851.809,-27.832,-15.625,-22.461,-38.086,0.000
1728649851.813,-5.371,-15.625,-31.738,-22.949,0.000
1728649851.817,-5.859,-12.695,-32.715,-6.836,0.000
1728649851.821,-18.555,-13.184,-23.438,-13.184,0.000
1728649851.825,-39.062,-14.160,-25.879,-33.691,0.000
1728649851.829,-29.297,-14.160,-37.598,-29.297,0.000
1728649851.833,-10.254,-18.555,-41.016,-24.902,0.000
1728649851.837,0.977,-20.996,-36.621,-26.855,0.000
1728649851.839,-10.254,-22.949,-31.738,-19.531,0.000
1728649851.843,-42.969,-28.809,-31.250,-25.391,0.000
1728649851.847,-31.250,-28.320,-24.902,-48.340,0.000
1728649851.851,-22.949,-25.391,-19.043,-42.480,0.000
1728649851.855,-11.719,-23.926,-27.344,-15.137,0.000
1728649851.859,-3.418,-20.996,-40.039,-9.766,0.000
1728649851.863,-40.039,-23.438,-43.457,-33.691,0.000
1728649851.867,-45.898,-25.879,-37.109,-62.012,0.000
1728649851.870,-19.043,-26.855,-37.598,-39.062,0.000
1728649851.874,-9.277,-26.367,-33.691,-16.602,0.000
1728649851.878,-15.137,-26.855,-32.227,-27.344,0.000
1728649851.882,-31.738,-25.391,-35.156,-34.668,0.000
1728649851.887,0.000,-21.484,-29.297,-18.555,0.000
1728649851.891,0.000,-17.090,-20.020,-10.742,0.000
1728649851.895,0.000,-16.113,-18.555,-14.648,0.000
1728649851.899,0.000,-20.020,-21.973,-10.254,0.000
1728649851.903,0.000,-19.531,-32.227,-32.227,0.000
1728649851.907,0.000,-18.555,-30.762,-42.969,0.000
1728649851.911,0.000,-19.043,-31.250,-27.832,0.000
1728649851.915,0.000,-19.043,-39.062,-21.973,0.000
1728649851.918,0.000,-17.578,-38.574,-30.762,0.000
1728649851.922,0.000,-17.578,-40.527,-38.086,0.000
1728649851.926,0.000,-15.625,-47.852,-35.156,0.000
1728649851.930,0.000,-16.602,-49.805,-27.344,0.000
1728649851.935,-8.789,-19.531,-37.598,-23.926,0.000
1728649851.939,-20.020,-21.484,-20.508,-25.879,0.000
1728649851.943,-39.062,-20.508,-15.137,-37.598,0.000
1728649851.946,-55.176,-19.043,-21.484,-38.574,0.000
1728649851.950,-51.270,-18.066,-23.926,-33.691,0.000
1728649851.954,-23.438,-20.508,-30.273,-38.574,0.000
1728649851.958,-6.348,-22.461,-34.180,-47.363,0.000
1728649851.962,-19.043,-20.020,-26.367,-39.551,0.000
1728649851.966,-39.551,-24.902,-23.438,-26.367,0.000
1728649851.970,-28.809,-27.344,-27.344,-30.273,0.000
1728649851.974,-17.578,-24.414,-31.738,-28.809,0.000
1728649851.978,-18.066,-25.879,-30.762,-27.344,0.000
1728649851.982,-30.762,-29.785,-32.227,-11.230,0.000
1728649851.985,-50.293,-30.273,-39.551,-18.066,0.000
1728649851.989,-38.086,-28.809,-34.668,-39.062,0.000
1728649851.993,-15.137,-27.344,-32.227,-32.227,0.000
1728649851.997,-11.230,-30.273,-33.203,-39.551,0.000
1728649852.001,-28.320,-31.250,-26.855,-35.156,0.000
1728649852.005,-52.734,-27.832,-28.809,-31.250,0.000
1728649852.009,-42.969,-27.344,-28.809,-27.832,0.000
1728649852.013,-22.461,-24.414,-36.133,-19.531,0.000
1728649852.017,0.000,-24.414,-46.875,-25.879,0.000
1728649852.021,-2.441,-24.414,-46.387,-33.691,0.000
1728649852.025,-28.320,-22.461,-34.668,-27.344,0.000
1728649852.028,-21.484,-22.461,-17.578,-21.484,0.000
1728649852.032,2.930,-20.020,-20.996,-17.578,0.000
1728649852.036,3.418,-21.973,-20.020,-17.090,0.000
1728649852.040,-17.578,-23.926,-12.207,-12.207,0.000
1728649852.044,-44.434,-25.879,-12.695,-22.949,0.000
1728649852.048,-31.738,-26.855,-9.766,-36.621,0.000
1728649852.052,-4.395,-20.996,-10.254,-22.949,0.000
1728649852.055,-3.418,-22.949,-19.043,-10.254,0.000
1728649852.059,-16.113,-23.926,-34.668,-12.207,0.000
1728649852.063,-46.875,-23.438,-41.992,-22.461,0.000
1728649852.067,-42.969,-25.391,-24.414,-31.738,0.000
1728649852.071,-1.465,-21.484,-16.113,-24.414,0.000
1728649852.075,2.930,-22.949,-27.344,-10.742,0.000
1728649852.079,-10.742,-26.367,-25.879,-4.395,0.000
1728649852.082,-32.227,-23.438,-18.066,-22.461,0.000
1728649852.086,-30.762,-22.949,-20.020,-31.250,0.000
1728649852.090,-21.973,-31.250,-23.926,-25.879,0.000
1728649852.094,-7.324,-36.621,-25.391,-23.926,0.000
1728649852.098,-12.695,-35.645,-25.391,-25.879,0.000
1728649852.102,-47.363,-33.203,-23.926,-21.973,0.000
1728649852.106,-55.664,-28.320,-22.461,-30.273,0.000
1728649852.110,-32.715,-27.832,-25.391,-30.762,0.000
1728649852.114,-21.484,-30.273,-27.832,-21.484,0.000
1728649852.118,-22.461,-28.809,-21.973,-22.949,0.000
1728649852.121,-41.992,-28.320,-19.531,-25.391,0.000
1728649852.125,-53.223,-25.391,-26.367,-34.180,0.000
1728649852.129,-20.996,-21.973,-23.926,-23.438,0.000
1728649852.132,-2.930,-26.855,-19.531,-22.949,0.000
1728649852.136,-13.184,-27.832,-18.066,-23.438,0.000
1728649852.140,-33.203,-26.367,-14.648,-17.578,0.000
1728649852.144,-43.945,-25.391,-21.973,-4.883,0.000
1728649852.148,-21.484,-22.949,-29.297,9.277,0.000
1728649852.152,-5.859,-22.949,-29.785,0.488,0.000
1728649852.156,-10.254,-20.996,-23.926,-8.789,0.000
1728649852.160,-41.504,-21.484,-21.973,-20.508,0.000
1728649852.164,-54.688,-19.531,-28.809,-33.691,0.000
1728649852.167,-21.973,-16.602,-32.715,-22.461,0.000
1728649852.171,-1.953,-18.555,-28.809,-1.953,0.000
1728649852.174,-2.930,-20.508,-22.949,-9.277,0.000
1728649852.178,-30.762,-21.973,-26.367,-21.484,0.000
1728649852.182,-44.922,-16.602,-25.879,-20.996,0.000
1728649852.186,-24.414,-18.555,-28.809,-13.184,0.000
1728649852.190,-10.742,-20.020,-37.109,-3.906,0.000
1728649852.194,-16.113,-19.531,-29.785,-15.137,0.000
1728649852.198,-31.738,-25.391,-21.973,-42.969,0.000
1728649852.202,-47.363,-23.438,-21.484,-49.316,0.000
1728649852.206,-36.621,-22.461,-16.602,-31.250,0.000
1728649852.210,-12.207,-24.414,-18.066,-35.156,0.000
1728649852.212,-15.625,-25.879,-22.461,-41.016,0.000
1728649852.216,-27.344,-27.344,-23.926,-23.926,0.000
1728649852.220,-43.457,-25.391,-25.879,-21.484,0.000
1728649852.224,-28.809,-27.344,-24.902,-22.461,0.000
1728649852.228,-2.930,-27.832,-32.715,-24.902,0.000
1728649852.232,-2.930,-29.785,-44.434,-32.715,0.000
1728649852.236,-14.160,-30.273,-43.945,-24.902,0.000
1728649852.240,-35.156,-26.855,-38.574,-23.926,0.000
1728649852.244,-27.832,-26.855,-36.621,-19.531,0.000
1728649852.248,-3.418,-20.508,-32.715,-9.277,0.000
1728649852.252,6.836,-17.578,-36.133,-7.324,0.000
1728649852.255,-9.277,-22.949,-42.969,-26.855,0.000
1728649852.261,-36.621,-23.438,-37.598,-35.156,0.000
1728649852.265,-37.109,-23.438,-37.109,-28.320,0.000
1728649852.269,-5.371,-21.484,-35.645,-21.973,0.000
1728649852.272,11.719,-19.531,-28.320,-8.301,0.000
1728649852.276,-8.789,-23.926,-21.973,-16.113,0.000
1728649852.280,-27.344,-28.809,-21.484,-20.996,0.000
1728649852.284,-38.574,-26.367,-26.367,-9.277,0.000
1728649852.288,-33.203,-25.879,-26.367,-21.484,0.000
1728649852.292,-0.488,-25.879,-28.809,-22.949,0.000
1728649852.296,-1.465,-23.438,-32.227,-13.672,0.000
1728649852.300,-27.832,-21.484,-33.691,-21.484,0.000
1728649852.304,-42.480,-23.438,-34.180,-35.645,0.000
1728649852.308,0.000,-25.391,-28.809,-34.180,0.000
1728649852.312,0.000,-21.973,-24.414,-25.879,0.000
1728649852.316,0.000,-21.484,-22.461,-31.738,0.000
1728649852.320,0.000,-24.902,-30.273,-37.598,0.000
1728649852.324,0.000,-20.996,-36.621,-47.852,0.000
1728649852.328,0.000,-15.625,-33.203,-37.109,0.000
1728649852.332,0.000,-17.578,-34.180,-20.996,0.000
1728649852.336,0.000,-17.578,-33.691,-8.789,0.000
1728649852.340,0.000,-12.207,-28.320,-6.836,0.000
1728649852.344,0.000,-14.160,-31.738,-26.855,0.000
1728649852.347,0.000,-14.648,-43.945,-31.250,0.000
1728649852.351,0.000,-15.137,-41.016,-13.184,0.000
1728649852.348,-33.691,-16.602,-21.484,-18.555,0.000
1728649852.352,-21.973,-12.695,-13.184,-42.480,0.000
1728649852.356,-21.973,-18.066,-18.555,-43.945,0.000
1728649852.360,-46.875,-23.926,-21.484,-29.297,0.000
1728649852.364,-54.199,-20.996,-19.531,-18.066,0.000
1728649852.368,-19.043,-23.926,-24.414,-19.043,0.000
1728649852.372,-18.066,-30.273,-33.203,-26.855,0.000
1728649852.376,-28.809,-29.785,-26.367,-25.391,0.000
1728649852.380,-37.109,-23.438,-20.508,-6.348,0.000
1728649852.384,-55.664,-13.672,-35.156,-8.301,0.000
1728649852.387,-30.762,-9.277,-44.434,-20.020,0.000
1728649852.391,-6.348,-11.230,-32.715,-22.461,0.000
1728649852.396,-45.898,-17.090,-27.344,-38.574,0.000
1728649852.400,-38.574,-21.973,-36.133,-54.688,0.000
1728649852.404,-27.832,-22.949,-36.621,-36.621,0.000
1728649852.408,-32.227,-23.438,-30.762,-38.574,0.000
1728649852.412,-45.898,-28.320,-30.762,-48.828,0.000
1728649852.416,-60.547,-28.320,-29.297,-29.297,0.000
1728649852.420,-46.387,-22.949,-25.879,-25.391,0.000
1728649852.424,-25.879,-24.414,-25.879,-24.902,0.000
1728649852.428,-19.043,-22.461,-29.785,-29.785,0.000
1728649852.432,-28.320,-20.020,-34.180,-32.227,0.000
1728649852.435,-55.664,-22.461,-30.273,-43.945,0.000
1728649852.439,-53.711,-25.879,-31.250,-46.387,0.000
1728649852.444,-26.855,-28.320,-39.062,-31.738,0.000
1728649852.448,-17.090,-27.832,-34.668,-35.156,0.000
1728649852.452,-20.508,-25.879,-28.809,-28.320,0.000
1728649852.456,-43.945,-27.344,-28.320,-34.180,0.000
1728649852.460,-47.363,-24.414,-31.738,-36.133,0.000
1728649852.463,-22.949,-26.855,-28.320,-24.902,0.000
1728649852.467,-17.578,-32.715,-17.090,-33.691,0.000
1728649852.471,-14.648,-25.879,-22.949,-22.461,0.000
1728649852.475,-38.574,-23.438,-26.855,-21.973,0.000
1728649852.479,-44.434,-27.344,-30.273,-26.367,0.000
1728649852.483,-13.672,-24.902,-34.180,-9.277,0.000
1728649852.487,-7.812,-21.973,-28.320,-10.254,0.000
1728649852.491,0.000,-21.973,-27.832,-27.344,0.000
1728649852.495,0.000,-23.926,-34.180,-31.738,0.000
1728649852.499,0.000,-20.508,-30.762,-32.715,0.000
1728649852.503,0.000,-21.484,-24.902,-17.578,0.000
1728649852.507,0.000,-26.855,-25.879,-17.578,0.000
1728649852.511,0.000,-27.344,-19.531,-21.973,0.000
1728649852.515,0.000,-25.391,-18.555,-25.879,0.000
1728649852.518,0.000,-20.508,-27.832,-23.438,0.000
1728649852.522,0.000,-20.996,-30.273,-10.742,0.000
1728649852.526,0.000,-18.555,-22.949,-27.344,0.000
1728649852.530,0.000,-20.508,-24.902,-40.527,0.000
1728649852.534,0.000,-24.414,-26.855,-30.273,0.000
1728649852.538,-49.805,-25.391,-27.344,-36.621,0.000
1728649852.542,-33.691,-24.414,-37.598,-41.504,0.000
1728649852.546,-12.207,-22.949,-35.156,-20.508,0.000
1728649852.550,-16.113,-29.785,-29.297,-14.160,0.000
1728649852.554,-41.992,-35.156,-30.762,-32.715,0.000
1728649852.558,-52.246,-30.762,-27.344,-50.293,0.000
1728649852.561,-28.320,-20.508,-20.508,-39.062,0.000
1728649852.565,-11.719,-16.113,-19.043,-19.043,0.000
1728649852.569,-11.719,-19.531,-22.949,-20.020,0.000
1728649852.573,-23.438,-21.484,-24.414,-20.508,0.000
1728649852.577,-41.504,-24.414,-19.043,-13.184,0.000
1728649852.581,-34.668,-24.414,-21.484,-16.602,0.000
1728649852.587,-20.996,-30.762,-28.809,-28.320,0.000
1728649852.591,-17.578,-28.809,-24.414,-28.320,0.000
1728649852.595,-30.273,-24.414,-28.809,-28.320,0.000
1728649852.599,-63.965,-27.832,-39.062,-41.016,0.000
1728649852.603,-40.527,-23.438,-38.574,-44.434,0.000
1728649852.607,-10.254,-21.973,-32.715,-33.203,0.000
1728649852.610,-9.766,-21.484,-20.996,-20.020,0.000
1728649852.614,-15.625,-21.973,-20.020,-27.344,0.000
1728649852.618,-42.480,-30.273,-20.508,-44.434,0.000
1728649852.622,-35.645,-29.297,-19.531,-35.156,0.000
1728649852.626,-5.371,-24.902,-20.508,-4.395,0.000
1728649852.630,3.906,-22.949,-23.926,-9.766,0.000
1728649852.635,-9.766,-17.578,-27.832,-21.973,0.000
1728649852.639,-35.645,-18.066,-30.273,-15.137,0.000
1728649852.643,-33.691,-24.902,-31.250,-17.578,0.000
1728649852.647,-6.348,-23.926,-32.227,-27.832,0.000
1728649852.651,-3.906,-21.973,-35.156,-12.695,0.000
1728649852.655,-22.949,-22.461,-29.785,-13.184,0.000
1728649852.659,-44.434,-30.273,-26.855,-38.086,0.000
1728649852.663,-46.875,-36.621,-26.855,-38.574,0.000
1728649852.667,-15.137,-31.738,-30.762,-19.531,0.000
1728649852.670,2.930,-25.879,-26.855,-17.090,0.000
1728649852.674,-10.742,-23.438,-21.973,-24.414,0.000
1728649852.678,-41.504,-21.484,-27.832,-25.879,0.000
1728649852.683,0.000,-19.531,-27.344,-23.926,0.000
1728649852.687,0.000,-17.090,-26.367,-20.020,0.000
1728649852.691,0.000,-16.113,-23.438,-23.438,0.000
1728649852.695,0.000,-17.578,-23.438,-24.414,0.000
1728649852.699,0.000,-21.484,-23.926,-23.926,0.000
1728649852.703,0.000,-18.066,-23.438,-20.508,0.000
1728649852.707,0.000,-15.625,-21.484,-7.812,0.000
1728649852.710,0.000,-17.090,-19.531,-9.766,0.000
1728649852.714,0.000,-12.207,-21.973,-17.090,0.000
1728649852.718,0.000,-12.695,-26.855,-16.602,0.000
1728649852.722,0.000,-17.090,-25.391,-22.949,0.000
1728649852.726,0.000,-17.578,-23.438,-20.508,0.000
1728649852.730,-4.883,-19.531,-25.879,-14.160,0.000
1728649852.734,-5.371,-24.414,-26.367,-16.113,0.000
1728649852.738,-26.855,-24.414,-27.832,-19.531,0.000
1728649852.742,-42.480,-22.461,-28.809,-20.996,0.000
1728649852.746,-29.297,-27.344,-35.645,-21.484,0.000
1728649852.750,-16.113,-28.809,-37.598,-22.461,0.000
1728649852.754,-18.555,-30.273,-36.133,-23.438,0.000
1728649852.758,-40.039,-29.297,-33.691,-35.645,0.000
1728649852.762,-60.059,-30.273,-27.344,-41.992,0.000
1728649852.766,-34.668,-29.785,-29.297,-37.109,0.000
1728649852.770,-10.254,-26.855,-33.691,-29.297,0.000
1728649852.773,-4.883,-27.832,-25.391,-21.973,0.000
1728649852.777,-21.973,-27.832,-29.785,-32.227,0.000
1728649852.781,-49.316,-24.902,-27.344,-41.016,0.000
1728649852.785,-31.250,-23.438,-20.508,-34.180,0.000
1728649852.789,-5.859,-22.949,-23.438,-29.297,0.000
1728649852.793,-10.254,-23.926,-22.949,-22.461,0.000
1728649852.797,-30.273,-23.438,-21.484,-28.809,0.000
1728649852.801,-51.758,-24.414,-21.484,-50.293,0.000
1728649852.805,-44.922,-27.832,-27.344,-36.621,0.000
1728649852.809,-29.297,-31.738,-25.879,-24.414,0.000
1728649852.813,-18.066,-28.809,-31.738,-27.344,0.000
1728649852.817,-22.949,-28.320,-46.387,-29.297,0.000
1728649852.820,-46.875,-31.738,-43.945,-36.133,0.000
1728649852.824,-39.062,-28.320,-30.273,-29.297,0.000
1728649852.828,-8.301,-19.531,-27.344,-14.648,0.000
1728649852.832,-10.254,-23.438,-32.715,-13.184,0.000
1728649852.836,-24.902,-26.855,-29.785,-20.996,0.000
1728649852.840,-36.133,-20.508,-27.832,-24.902,0.000
1728649852.844,-32.227,-16.113,-38.086,-30.762,0.000
1728649852.848,-12.207,-15.625,-31.738,-25.391,0.000
1728649852.851,-12.695,-22.461,-19.043,-23.438,0.000
1728649852.855,-25.879,-21.484,-16.113,-27.344,0.000
1728649852.859,-48.340,-23.438,-17.578,-27.344,0.000
1728649852.863,-51.758,-25.879,-25.879,-26.855,0.000
1728649852.867,-14.648,-19.531,-34.180,-31.738,0.000
1728649852.870,3.418,-16.602,-45.410,-17.090,0.000
1728649852.874,-19.043,-18.066,-42.480,-9.766,0.000
1728649852.878,-49.805,-23.438,-32.227,-20.996,0.000
1728649852.882,-51.270,-27.832,-29.785,-25.391,0.000
1728649852.886,-31.738,-28.320,-28.320,-26.855,0.000
1728649852.890,-20.020,-28.809,-30.762,-30.762,0.000
1728649852.894,-19.531,-24.902,-26.367,-23.926,0.000
1728649852.898,-37.598,-21.484,-24.414,-17.578,0.000
1728649852.902,-39.062,-21.973,-33.203,-22.949,0.000
1728649852.906,-11.230,-24.902,-30.762,-16.602,0.000
1728649852.909,-5.371,-26.367,-28.809,-11.230,0.000
1728649852.913,-16.602,-29.297,-28.809,-20.996,0.000
1728649852.916,-28.320,-31.738,-29.785,-20.508,0.000
1728649852.920,-28.809,-26.367,-33.203,-20.020,0.000
1728649852.924,-7.812,-25.879,-25.879,-16.602,0.000
1728649852.928,-4.395,-28.320,-23.438,-4.883,0.000
1728649852.932,-13.184,-29.785,-30.762,-13.184,0.000
1728649852.936,-30.762,-26.855,-28.809,-27.832,0.000
1728649852.940,-44.434,-22.949,-24.902,-20.996,0.000
1728649852.944,-20.996,-18.555,-20.020,-15.137,0.000
1728649852.948,-4.883,-20.020,-16.602,-23.438,0.000
1728649852.952,-12.695,-23.926,-27.832,-25.879,0.000
1728649852.955,-27.344,-23.438,-29.785,-18.555,0.000
1728649852.959,-51.270,-24.902,-24.902,-22.461,0.000
1728649852.962,-32.715,-23.438,-20.996,-19.043,0.000
1728649852.966,-5.371,-27.832,-19.531,-10.742,0.000
1728649852.970,-9.766,-30.762,-34.668,-18.555,0.000
1728649852.974,-23.438,-25.391,-47.852,-25.879,0.000
1728649852.978,-34.180,-20.020,-41.016,-19.043,0.000
1728649852.982,-23.926,-21.484,-27.344,-19.043,0.000
1728649852.986,-1.953,-19.531,-22.461,-12.207,0.000
1728649852.989,-1.953,-23.438,-24.902,-14.160,0.000
1728649852.993,-20.996,-26.855,-25.879,-23.926,0.000
1728649852.997,-39.551,-20.996,-22.949,-29.297,0.000
1728649853.001,-31.250,-23.438,-16.602,-26.367,0.000
1728649853.005,-13.672,-29.785,-20.020,-22.949,0.000
1728649853.010,-1.953,-23.438,-32.715,-20.020,0.000
1728649853.014,-8.789,-22.949,-32.715,-27.344,0.000
1728649853.018,-37.598,-29.297,-20.508,-42.969,0.000
1728649853.022,-35.645,-29.785,-17.578,-51.270,0.000
1728649853.026,-10.742,-26.367,-23.926,-49.316,0.000
1728649853.030,-3.906,-25.879,-29.297,-37.598,0.000
1728649853.034,-18.066,-28.809,-30.273,-33.203,0.000
1728649853.038,-45.898,-27.832,-25.391,-35.156,0.000
1728649853.042,-44.922,-25.879,-20.508,-32.227,0.000
1728649853.046,-15.625,-28.809,-24.902,-23.926,0.000
1728649853.050,-5.859,-24.902,-28.320,-24.414,0.000
1728649853.053,-22.461,-28.809,-27.344,-24.902,0.000
1728649853.058,-46.387,-32.227,-30.762,-33.203,0.000
1728649853.062,-45.410,-31.250,-27.832,-40.527,0.000
1728649853.066,-18.066,-27.832,-25.879,-29.785,0.000
1728649853.070,-10.742,-25.391,-22.949,-23.438,0.000
1728649853.074,-19.531,-28.320,-14.648,-22.461,0.000
1728649853.078,-41.016,-32.715,-15.625,-24.902,0.000
1728649853.082,-46.387,-30.762,-17.090,-36.621,0.000
1728649853.085,-14.160,-22.949,-16.113,-26.855,0.000
1728649853.089,-5.371,-22.461,-21.484,-19.043,0.000
1728649853.093,-21.484,-26.367,-19.531,-26.855,0.000
1728649853.097,-39.551,-16.113,-15.137,-48.340,0.000
1728649853.101,-47.363,-19.531,-21.973,-41.504,0.000
1728649853.105,-26.855,-25.879,-19.043,-30.273,0.000
1728649853.109,-16.602,-25.391,-20.996,-25.391,0.000
1728649853.113,-30.762,-29.297,-21.973,-34.180,0.000
1728649853.117,-61.523,-28.320,-16.602,-52.246,0.000
1728649853.121,-69.336,-36.621,-9.277,-46.387,0.000
1728649853.125,-56.152,-32.227,-14.160,-42.480,0.000
1728649853.129,-66.895,-20.020,-18.555,-65.918,0.000
1728649853.133,-88.867,-21.973,-17.090,-90.820,0.000
1728649853.136,-123.535,-28.320,-9.766,-113.770,0.000
1728649853.140,-159.668,-28.809,-7.812,-137.207,0.000
1728649853.144,-158.691,-19.043,-26.367,-155.762,0.000
1728649853.148,-147.949,-19.043,-24.902,-161.133,0.000
1728649853.152,-160.645,-23.438,-22.949,-174.805,0.000
1728649853.156,-188.965,-26.855,-31.250,-194.336,0.000
1728649853.160,-206.543,-32.227,-31.738,-205.078,0.000
1728649853.164,-186.035,-17.090,-35.156,-198.242,0.000
1728649853.168,-169.922,-2.930,-34.180,-187.988,0.000
1728649853.172,-172.363,-6.348,-40.527,-190.918,0.000
1728649853.175,-192.383,-18.555,-47.363,-208.496,0.000
1728649853.179,-208.984,-20.996,-45.410,-200.684,0.000
1728649853.183,-188.965,-20.996,-43.945,-188.965,0.000
1728649853.187,-155.273,-12.695,-38.086,-172.852,0.000
1728649853.191,-149.414,-11.719,-36.621,-153.809,0.000
1728649853.195,-159.668,-17.090,-36.133,-161.133,0.000
1728649853.199,0.000,-10.742,-34.180,-172.852,0.000
1728649853.203,0.000,-6.348,-36.621,-167.969,0.000
1728649853.207,0.000,-5.371,-33.203,-150.391,0.000
1728649853.210,0.000,-6.836,-36.621,-146.484,0.000
1728649853.214,0.000,-6.348,-45.898,-140.625,0.000
1728649853.218,0.000,-8.301,-50.781,-145.020,0.000
1728649853.222,0.000,-11.230,-45.898,-136.230,0.000
1728649853.226,0.000,-7.324,-44.922,-108.398,0.000
1728649853.230,0.000,-3.418,-48.828,-107.422,0.000
1728649853.234,0.000,-7.812,-40.039,-113.770,0.000
1728649853.238,0.000,-12.695,-36.133,-106.934,0.000
1728649853.242,0.000,-11.719,-42.480,-88.867,0.000
1728649853.245,-78.125,-15.625,-36.621,-79.590,0.000
1728649853.249,-67.383,-21.484,-33.203,-73.730,0.000
1728649853.253,-56.641,-11.719,-34.180,-59.570,0.000
1728649853.257,-64.941,-13.672,-27.344,-42.480,0.000
1728649853.261,-60.547,-18.066,-49.805,-31.250,0.000
1728649853.265,-23.438,-14.648,-63.965,-41.992,0.000
1728649853.269,-4.883,-19.043,-52.734,-30.273,0.000
1728649853.272,-2.930,-21.973,-23.926,10.742,0.000
1728649853.276,-25.391,-27.832,6.836,1.465,0.000
1728649853.280,-23.438,-33.203,-11.719,-1.465,0.000
1728649853.284,23.926,-24.414,-20.996,25.391,0.000
1728649853.288,38.086,-22.949,-0.977,24.902,0.000
1728649853.291,18.066,-33.691,-6.836,17.578,0.000
1728649853.295,-8.301,-38.574,-4.883,7.812,0.000
1728649853.299,0.000,-36.133,1.465,12.207,0.000
1728649853.303,36.621,-35.645,-12.695,32.227,0.000
1728649853.307,46.875,-37.109,-22.461,48.828,0.000
1728649853.311,40.039,-36.133,-19.043,46.387,0.000
1728649853.315,24.414,-33.691,-8.789,45.898,0.000
1728649853.319,12.695,-41.016,-17.578,49.316,0.000
1728649853.323,36.621,-42.969,-35.156,65.918,0.000
1728649853.326,63.965,-35.645,-25.391,75.195,0.000
1728649853.330,56.152,-37.109,-7.812,60.547,0.000
1728649853.334,26.855,-45.410,17.578,56.152,0.000
1728649853.337,1.953,-50.781,29.785,58.105,0.000
1728649853.341,20.996,-49.805,-13.672,61.035,0.000
1728649853.345,48.340,-48.340,-52.734,52.246,0.000
1728649853.349,42.969,-48.340,-22.949,56.152,0.000
1728649853.353,33.691,-40.039,-15.137,68.848,0.000
1728649853.357,25.391,-39.062,-13.672,58.105,0.000
1728649853.361,22.949,-52.246,24.414,40.527,0.000
1728649853.364,41.016,-58.594,38.086,42.480,0.000
1728649853.368,48.340,-53.223,27.344,42.480,0.000
1728649853.372,30.273,-47.852,-0.977,43.457,0.000
1728649853.376,6.836,-49.316,-23.926,41.016,0.000
1728649853.380,20.996,-49.805,-7.812,26.367,0.000
1728649853.385,0.000,-42.969,-10.254,29.785,0.000
1728649853.389,0.000,-36.133,-22.461,46.387,0.000
1728649853.393,0.000,-35.645,-13.672,48.828,0.000
1728649853.397,0.000,-39.062,-25.391,31.250,0.000
1728649853.401,0.000,-37.598,-51.758,29.785,0.000
1728649853.405,0.000,-36.621,-45.410,45.410,0.000
1728649853.409,0.000,-36.133,-24.414,38.574,0.000
1728649853.413,0.000,-36.133,-12.207,18.066,0.000
1728649853.417,0.000,-34.668,-18.066,12.207,0.000
1728649853.421,0.000,-32.715,-22.461,13.184,0.000
1728649853.424,0.000,-28.809,-22.461,16.113,0.000
1728649853.428,0.000,-28.809,-37.598,18.066,0.000
1728649853.426,47.852,-32.227,-45.898,20.508,0.000
1728649853.430,48.340,-32.715,-43.457,9.277,0.000
1728649853.434,36.133,-29.297,-50.781,10.742,0.000
1728649853.438,10.742,-25.391,-36.621,26.367,0.000
1728649853.442,16.602,-22.949,-24.414,23.926,0.000
1728649853.445,41.504,-24.414,-26.855,13.672,0.000
1728649853.449,45.410,-32.227,-36.133,14.160,0.000
1728649853.453,21.973,-25.391,-52.734,19.531,0.000
1728649853.457,0.000,-22.461,-47.363,22.461,0.000
1728649853.461,14.160,-27.344,-33.691,19.043,0.000
1728649853.465,34.180,-24.902,-27.344,7.812,0.000
1728649853.469,35.156,-23.438,-36.133,6.348,0.000
1728649853.474,-9.766,-30.762,-41.992,16.113,0.000
1728649853.478,17.578,-29.297,-31.250,18.066,0.000
1728649853.482,24.414,-21.973,-21.484,9.277,0.000
1728649853.486,21.973,-19.531,-20.996,5.371,0.000
1728649853.490,2.441,-22.461,-27.344,0.977,0.000
1728649853.494,-11.230,-24.414,-32.715,-3.906,0.000
1728649853.498,21.973,-18.066,-44.922,14.160,0.000
1728649853.502,38.086,-15.137,-51.270,18.066,0.000
1728649853.506,22.949,-19.531,-35.156,8.301,0.000
1728649853.510,-4.883,-29.297,-23.926,-9.766,0.000
1728649853.513,-21.484,-31.250,-30.762,-12.695,0.000
1728649853.517,5.859,-26.855,-40.527,6.836,0.000
1728649853.522,22.461,-24.902,-42.480,0.000,0.000
1728649853.526,13.672,-22.461,-42.969,-5.859,0.000
1728649853.530,-4.883,-22.461,-26.367,-8.301,0.000
1728649853.534,-19.531,-25.879,-8.301,0.977,0.000
1728649853.538,-3.418,-32.227,-4.395,18.066,0.000
1728649853.542,21.484,-24.902,-7.812,17.090,0.000
1728649853.546,18.555,-23.438,-7.812,13.672,0.000
1728649853.550,3.418,-23.438,-15.625,11.719,0.000
1728649853.554,-11.230,-12.207,-47.363,0.977,0.000
1728649853.558,3.418,-12.695,-50.781,0.488,0.000
1728649853.561,21.973,-20.508,-38.574,-2.441,0.000
1728649853.565,19.531,-20.996,-48.828,-6.348,0.000
1728649853.570,-8.789,-23.926,-30.762,-0.977,0.000
1728649853.574,-42.480,-23.926,-13.672,-10.254,0.000
1728649853.578,-28.809,-19.531,-51.270,-8.789,0.000
1728649853.582,-1.953,-17.578,-43.457,-6.836,0.000
1728649853.586,-5.371,-21.484,-9.277,-20.508,0.000
1728649853.589,-20.508,-18.555,-19.043,-20.508,0.000
1728649853.593,-38.086,-16.602,-26.855,-19.043,0.000
1728649853.597,-35.645,-24.902,-24.414,-12.695,0.000
1728649853.601,-7.324,-26.855,-41.992,3.418,0.000
1728649853.605,11.719,-17.090,-56.641,7.812,0.000
1728649853.609,-1.465,-20.996,-31.250,-6.348,0.000
1728649853.613,-24.902,-30.273,-9.277,-22.949,0.000
1728649853.617,-16.113,-28.320,-1.465,-28.320,0.000
1728649853.621,3.418,-25.879,-4.395,-13.672,0.000
1728649853.625,10.742,-20.508,-6.836,-1.465,0.000
1728649853.629,-4.395,-18.066,-14.648,-9.277,0.000
1728649853.633,-38.086,-18.066,-22.461,-25.391,0.000
1728649853.636,-26.855,-19.043,-34.668,-17.578,0.000
1728649853.640,11.230,-14.648,-48.828,0.977,0.000
1728649853.644,19.043,-11.719,-35.645,8.301,0.000
1728649853.648,2.930,-18.555,-8.789,6.836,0.000
1728649853.652,-27.832,-29.297,0.488,-4.883,0.000
1728649853.656,-30.273,-26.855,-20.508,-13.672,0.000
1728649853.660,2.930,-16.602,-30.273,-23.926,0.000
1728649853.664,1.953,-19.043,-30.762,-27.344,0.000
1728649853.668,-10.742,-18.555,-30.762,-20.996,0.000
1728649853.671,-19.531,-11.230,-20.996,-36.621,0.000
1728649853.675,-26.855,-17.578,-25.879,-33.691,0.000
1728649853.679,-6.836,-21.973,-33.691,-20.020,0.000
1728649853.683,11.230,-15.137,-25.879,-21.973,0.000
1728649853.687,2.441,-14.160,-13.672,-6.836,0.000
1728649853.691,-21.484,-18.555,-12.695,-3.418,0.000
1728649853.695,-33.203,-25.879,-21.973,-12.695,0.000
1728649853.699,-12.695,-31.250,-29.297,-17.578,0.000
1728649853.703,0.488,-31.738,-35.156,-15.625,0.000
1728649853.707,-6.836,-27.344,-43.457,-15.625,0.000
1728649853.710,-28.320,-23.926,-28.809,-20.020,0.000
1728649853.714,-47.852,-28.320,-31.250,-35.645,0.000
1728649853.718,-20.996,-24.902,-46.875,-31.738,0.000
1728649853.722,2.930,-20.020,-28.809,-11.230,0.000
1728649853.725,-3.418,-23.438,-16.602,-3.906,0.000
1728649853.729,-22.949,-25.391,-17.090,-14.648,0.000
1728649853.733,-37.109,-23.438,-25.391,-19.043,0.000
1728649853.737,-15.137,-21.484,-37.109,-16.602,0.000
1728649853.741,9.766,-25.391,-40.039,-15.137,0.000
1728649853.745,4.395,-25.391,-30.273,-8.789,0.000
1728649853.749,-19.531,-26.855,-20.508,-16.113,0.000
1728649853.753,-42.969,-30.273,-19.043,-30.273,0.000
1728649853.758,-34.668,-32.715,-23.438,-28.320,0.000
1728649853.762,-11.230,-37.598,-27.344,-19.043,0.000
1728649853.766,-7.324,-36.133,-30.273,-10.742,0.000
1728649853.770,-20.020,-29.297,-37.598,-26.855,0.000
1728649853.774,-40.039,-26.367,-49.316,-43.457,0.000
1728649853.778,-24.414,-33.203,-42.480,-14.648,0.000
1728649853.782,-3.906,-39.062,-13.184,1.953,0.000
1728649853.786,0.977,-30.762,0.000,-11.719,0.000
1728649853.790,-8.301,-22.949,-12.695,-15.137,0.000
1728649853.793,-33.203,-22.949,-24.902,-7.324,0.000
1728649853.797,-29.785,-26.855,-28.320,-20.508,0.000
1728649853.801,-7.324,-26.855,-30.762,-26.367,0.000
1728649853.806,3.418,-25.391,-32.227,-13.672,0.000
1728649853.810,-2.441,-24.414,-29.297,-9.766,0.000
1728649853.814,-32.227,-25.391,-26.855,-16.602,0.000
1728649853.818,-35.645,-24.902,-27.344,-17.090,0.000
1728649853.822,-2.930,-22.949,-42.969,-12.695,0.000
1728649853.826,3.906,-25.391,-44.922,-14.648,0.000
1728649853.830,-10.742,-24.414,-21.973,-17.090,0.000
1728649853.834,-35.156,-21.973,-13.672,-21.973,0.000
1728649853.838,-36.621,-28.809,-14.648,-15.625,0.000
1728649853.841,0.488,-29.785,-17.090,-6.836,0.000
1728649853.845,9.277,-26.367,-23.438,-14.160,0.000
1728649853.849,-10.254,-27.344,-26.367,-10.254,0.000
1728649853.854,-32.715,-30.273,-35.645,-3.418,0.000
1728649853.858,-29.297,-27.832,-41.504,-10.254,0.000
1728649853.862,0.977,-26.855,-49.805,-10.254,0.000
1728649853.866,9.277,-24.414,-63.477,-4.395,0.000
1728649853.869,-16.113,-28.320,-37.598,-17.578,0.000
1728649853.873,-38.574,-33.691,-15.137,-27.832,0.000
1728649853.877,-38.086,-33.203,-20.996,-27.344,0.000
1728649853.881,-13.184,-31.250,-9.766,-22.949,0.000
1728649853.885,-8.301,-30.273,0.977,-11.719,0.000
1728649853.889,-23.438,-32.227,-3.418,-4.883,0.000
1728649853.893,-44.922,-35.645,-16.602,-8.789,0.000
1728649853.897,-56.641,-30.762,-24.902,-16.602,0.000
1728649853.901,-26.855,-26.855,-19.043,-17.578,0.000
1728649853.905,-4.883,-23.926,-18.066,-6.348,0.000
1728649853.909,-12.207,-21.484,-22.461,2.441,0.000
1728649853.913,-32.227,-20.020,-30.762,-12.695,0.000
1728649853.917,-48.828,-19.043,-36.621,-27.832,0.000
1728649853.921,-28.809,-19.531,-28.320,-20.020,0.000
1728649853.925,0.000,-19.531,-20.508,-16.602,0.000
1728649853.928,7.324,-15.137,-32.227,-3.906,0.000
1728649853.932,-14.160,-16.113,-48.340,-1.465,0.000
1728649853.936,-42.480,-22.949,-34.668,-26.855,0.000
1728649853.940,-28.320,-23.438,-14.160,-27.344,0.000
1728649853.944,-19.043,-22.461,-20.020,-17.090,0.000
1728649853.948,-20.020,-20.508,-22.461,-26.367,0.000
1728649853.952,-22.461,-21.973,-17.090,-25.879,0.000
1728649853.956,-40.039,-23.438,-11.230,-17.090,0.000
1728649853.960,-28.809,-22.461,-10.742,-24.414,0.000
1728649853.964,-11.230,-25.391,-17.578,-19.531,0.000
1728649853.968,-8.789,-25.391,-50.781,-15.137,0.000
1728649853.971,-21.973,-24.902,-60.059,-18.555,0.000
1728649853.975,-52.734,-22.949,-39.062,-20.996,0.000
1728649853.979,-35.645,-24.902,-36.133,-25.391,0.000
1728649853.983,-4.395,-30.762,-26.855,-35.645,0.000
1728649853.987,-3.418,-27.344,-26.855,-21.484,0.000
1728649853.991,-21.484,-20.996,-23.438,-23.926,0.000
1728649853.994,-47.852,-22.949,-10.254,-51.270,0.000
1728649853.998,-33.203,-22.949,-14.648,-43.457,0.000
1728649854.002,-3.906,-19.043,-23.438,-22.949,0.000
1728649854.006,0.977,-17.578,-30.762,-20.508,0.000
1728649854.010,-12.207,-18.555,-36.133,-20.508,0.000
1728649854.014,-40.039,-23.438,-38.574,-17.090,0.000
1728649854.018,-40.527,-33.203,-22.461,-20.508,0.000
1728649854.022,-6.348,-35.645,-9.766,-13.184,0.000
1728649854.026,2.441,-27.832,-21.484,-11.719,0.000
1728649854.030,-17.578,-19.531,-34.668,-26.855,0.000
1728649854.033,-40.039,-16.113,-39.551,-37.598,0.000
1728649854.037,-41.992,-20.508,-35.645,-47.363,0.000
1728649854.041,-17.090,-20.508,-29.297,-37.598,0.000
1728649854.045,2.441,-17.090,-38.574,-20.996,0.000
1728649854.048,-2.441,-15.137,-50.293,-37.109,0.000
1728649854.052,-40.039,-16.602,-47.363,-35.645,0.000
1728649854.056,-39.551,-19.043,-36.133,-22.949,0.000
1728649854.060,-3.906,-27.832,-28.809,-27.832,0.000
1728649854.064,-1.953,-25.391,-26.367,-22.461,0.000
1728649854.068,-16.602,-19.043,-26.367,-18.066,0.000
1728649854.072,-39.551,-22.461,-39.551,-27.344,0.000
1728649854.076,-45.410,-20.020,-52.734,-34.180,0.000
1728649854.080,-25.879,-17.090,-53.711,-33.203,0.000
1728649854.084,-14.648,-19.531,-35.645,-28.320,0.000
1728649854.086,-16.602,-21.484,-14.160,-13.184,0.000
1728649854.090,-37.109,-18.066,-13.184,-18.066,0.000
1728649854.094,-42.969,-16.113,-24.414,-32.715,0.000
1728649854.098,-15.137,-18.066,-20.020,-22.461,0.000
1728649854.102,-5.859,-20.996,-19.043,-19.043,0.000
1728649854.106,-20.508,-24.902,-24.902,-23.438,0.000
1728649854.110,-44.434,-26.367,-35.156,-24.414,0.000
1728649854.114,-49.805,-20.020,-71.289,-28.809,0.000
1728649854.118,-20.508,-16.602,-70.801,-29.785,0.000
1728649854.122,-1.953,-22.949,-29.297,-20.508,0.000
1728649854.126,-20.996,-28.809,-6.836,-13.184,0.000
1728649854.129,-46.387,-24.902,-5.859,-13.184,0.000
1728649854.135,-52.246,-20.996,-9.766,-12.207,0.000
1728649854.139,-35.156,-27.344,-16.113,-33.203,0.000
1728649854.143,-12.207,-23.926,-27.344,-41.992,0.000
1728649854.146,-13.672,-22.949,-23.926,-31.250,0.000
1728649854.150,-37.598,-25.391,-24.414,-23.438,0.000
1728649854.154,-51.270,-16.602,-32.227,-14.160,0.000
1728649854.158,-30.762,-15.625,-30.762,-27.344,0.000
1728649854.162,-12.207,-22.461,-20.508,-24.414,0.000
1728649854.166,-12.695,-23.926,-14.648,-9.277,0.000
1728649854.170,-31.738,-25.391,-17.090,-18.555,0.000
1728649854.174,-50.781,-24.414,-31.738,-39.062,0.000
1728649854.178,-34.668,-27.344,-32.715,-34.180,0.000
1728649854.183,-11.719,-29.297,-28.809,-26.367,0.000
1728649854.187,-16.113,-29.785,-42.480,-33.691,0.000
1728649854.190,-27.344,-26.855,-39.551,-25.391,0.000
1728649854.194,-42.969,-24.414,-27.344,-24.902,0.000
1728649854.198,-36.133,-27.344,-16.113,-31.250,0.000
1728649854.202,-14.648,-28.320,-21.484,-26.367,0.000
1728649854.206,-11.719,-28.809,-42.480,-18.066,0.000
1728649854.210,-25.879,-32.715,-35.156,-20.508,0.000
1728649854.214,-45.898,-35.156,-26.367,-24.414,0.000
1728649854.218,-44.922,-26.367,-21.973,-20.508,0.000
1728649854.222,-18.555,-23.438,-17.090,-15.625,0.000
1728649854.226,-4.883,-29.297,-23.438,-22.461,0.000
1728649854.230,-17.090,-27.344,-32.715,-18.555,0.000
1728649854.234,-44.434,-28.320,-29.785,-29.297,0.000
1728649854.238,-42.969,-29.297,-31.250,-33.691,0.000
1728649854.242,-14.648,-32.715,-33.691,-33.691,0.000
1728649854.246,-7.324,-36.621,-37.109,-28.809,0.000
1728649854.249,-19.043,-28.809,-47.363,-19.531,0.000
1728649854.253,-36.621,-24.902,-45.898,-23.438,0.000
1728649854.257,-45.898,-32.227,-19.531,-41.992,0.000
1728649854.261,-21.973,-33.203,-2.441,-30.273,0.000
1728649854.265,-8.789,-25.879,-11.230,-19.043,0.000
1728649854.269,-17.578,-21.973,-32.715,-30.273,0.000
1728649854.273,-35.156,-20.508,-28.809,-34.180,0.000
1728649854.277,-37.598,-20.020,-37.598,-35.156,0.000
1728649854.281,-9.277,-22.949,-68.848,-29.297,0.000
1728649854.285,-6.348,-25.391,-32.715,-38.574,0.000
1728649854.288,-16.602,-25.391,5.859,-47.852,0.000
1728649854.292,-36.133,-29.297,-2.441,-34.668,0.000
1728649854.296,-55.664,-34.180,-2.441,-36.621,0.000
1728649854.300,-36.621,-28.809,-1.953,-38.086,0.000
1728649854.304,-14.648,-25.879,-16.113,-28.809,0.000
1728649854.308,-14.648,-21.973,-19.043,-27.832,0.000
1728649854.312,-29.297,-20.020,-21.484,-34.668,0.000
1728649854.316,-39.551,-21.484,-33.691,-37.109,0.000
1728649854.320,-12.207,-19.531,-27.832,-33.691,0.000
1728649854.323,0.000,-17.578,-22.461,-14.648,0.000
1728649854.327,-5.859,-17.578,-23.438,-10.742,0.000
1728649854.331,-21.484,-19.531,-16.113,-27.344,0.000
1728649854.335,-40.527,-20.996,-17.090,-27.344,0.000
1728649854.339,-17.090,-20.020,-26.855,-20.020,0.000
1728649854.343,2.930,-20.020,-34.668,-20.020,0.000
1728649854.347,-6.836,-21.484,-23.438,-16.113,0.000
1728649854.351,-28.809,-22.949,-27.344,-16.113,0.000
1728649854.354,-47.363,-25.391,-32.715,-29.785,0.000
1728649854.358,-32.227,-31.250,-20.508,-28.809,0.000
1728649854.362,-13.672,-28.320,-21.973,-26.855,0.000
1728649854.366,-10.254,-20.996,-40.527,-14.648,0.000
1728649854.370,-27.832,-24.414,-36.621,-16.602,0.000
1728649854.373,-51.758,-29.785,-30.762,-32.227,0.000
1728649854.377,-32.715,-24.414,-46.875,-18.066,0.000
1728649854.381,-8.301,-24.414,-44.922,-28.320,0.000
1728649854.385,-11.719,-26.367,-34.180,-23.438,0.000
1728649854.389,-28.809,-24.902,-26.367,-16.113,0.000
1728649854.393,-51.270,-26.367,-20.020,-33.691,0.000
1728649854.397,-37.598,-25.391,-18.555,-33.691,0.000
1728649854.401,-8.301,-22.461,-25.391,-35.156,0.000
1728649854.405,-11.230,-22.949,-37.598,-27.832,0.000
1728649854.409,-34.668,-29.297,-44.434,-24.902,0.000
1728649854.413,-61.035,-28.809,-48.828,-37.109,0.000
1728649854.416,-49.316,-24.902,-45.410,-39.551,0.000
1728649854.420,-19.531,-26.367,-43.945,-39.551,0.000
1728649854.424,-10.254,-24.902,-47.363,-23.926,0.000
1728649854.427,-20.996,-26.367,-41.992,-5.371,0.000
1728649854.431,-46.387,-33.691,-32.227,-17.090,0.000
1728649854.435,-41.992,-33.203,-26.367,-21.973,0.000
1728649854.439,-16.602,-30.762,-22.949,-3.906,0.000
1728649854.443,-17.578,-28.320,-20.996,-7.812,0.000
1728649854.447,-27.832,-27.344,-29.297,-22.461,0.000
1728649854.451,-49.805,-26.855,-34.180,-41.016,0.000
1728649854.455,-54.688,-29.297,-29.297,-52.246,0.000
1728649854.459,-21.973,-28.809,-25.879,-35.156,0.000
1728649854.462,-3.418,-25.391,-26.367,-19.531,0.000
1728649854.466,-13.184,-26.367,-28.320,-6.348,0.000
1728649854.469,-35.156,-27.832,-26.367,-10.742,0.000
1728649854.473,-45.898,-28.809,-24.414,-20.020,0.000
1728649854.477,-25.391,-29.785,-26.367,-17.578,0.000
1728649854.481,-9.766,-29.297,-35.645,-14.160,0.000
1728649854.485,-16.602,-28.320,-34.180,-11.230,0.000
1728649854.489,-46.875,-24.902,-29.297,-17.578,0.000
1728649854.493,-51.758,-23.926,-33.203,-21.484,0.000
1728649854.497,-25.879,-26.855,-34.668,-27.344,0.000
1728649854.501,-10.742,-29.785,-37.109,-24.902,0.000
1728649854.505,-14.160,-33.203,-24.414,-27.832,0.000
1728649854.513,-34.180,-29.785,-20.996,-41.504,0.000
1728649854.517,-49.805,-26.855,-21.973,-33.691,0.000
1728649854.520,-32.715,-36.133,-19.531,-24.902,0.000
1728649854.524,-12.207,-38.574,-18.555,-18.066,0.000
1728649854.528,-14.648,-32.227,-21.484,-17.578,0.000
1728649854.532,-33.691,-29.297,-29.297,-27.344,0.000
1728649854.536,-51.270,-26.855,-34.180,-27.832,0.000
1728649854.540,-39.062,-27.344,-34.668,-21.484,0.000
1728649854.544,-18.066,-26.855,-28.320,-20.020,0.000
1728649854.548,-18.555,-24.414,-19.043,-9.766,0.000
1728649854.552,-42.480,-28.320,-25.391,-18.555,0.000
1728649854.556,-56.641,-34.180,-28.809,-35.645,0.000
1728649854.560,-29.785,-30.762,-21.973,-26.855,0.000
1728649854.564,-17.090,-29.785,-29.785,-19.043,0.000
1728649854.568,-9.766,-27.832,-42.480,-18.555,0.000
1728649854.572,-17.090,-25.879,-41.992,-24.902,0.000
1728649854.575,-47.852,-27.344,-32.227,-32.715,0.000
1728649854.579,-33.203,-30.273,-26.855,-27.344,0.000
1728649854.583,-11.230,-23.438,-22.461,-25.879,0.000
1728649854.587,-15.625,-24.414,-21.973,-14.160,0.000
1728649854.591,-33.203,-31.250,-23.438,-18.066,0.000
1728649854.595,-52.246,-26.367,-34.180,-30.762,0.000
1728649854.599,-40.527,-20.996,-42.969,-18.066,0.000
1728649854.603,-11.230,-25.391,-40.039,-12.695,0.000
1728649854.607,-1.465,-27.832,-24.902,-10.254,0.000
1728649854.611,-16.602,-24.902,-14.160,-9.766,0.000
1728649854.615,-38.086,-27.832,-15.137,-19.531,0.000
1728649854.619,-26.367,-23.438,-20.996,-12.695,0.000
1728649854.622,-4.395,-20.020,-32.715,-11.719,0.000
1728649854.626,-5.859,-26.855,-36.621,-10.254,0.000
1728649854.630,-9.277,-23.438,-32.715,-13.184,0.000
1728649854.634,-23.926,-17.578,-35.645,-37.598,0.000
1728649854.638,-23.926,-22.461,-30.273,-28.320,0.000
1728649854.642,3.418,-27.832,-15.625,-22.461,0.000
1728649854.646,3.418,-28.320,-10.742,-35.156,0.000
1728649854.650,-16.113,-27.344,-18.555,-19.043,0.000
1728649854.654,-46.387,-25.391,-27.344,-16.602,0.000
1728649854.657,-42.480,-29.785,-25.879,-28.320,0.000
1728649854.661,-3.418,-32.715,-31.250,-28.809,0.000
1728649854.665,9.277,-28.809,-39.062,-11.719,0.000
1728649854.669,-3.418,-26.367,-35.156,-8.301,0.000
1728649854.673,-26.367,-26.855,-27.832,-25.879,0.000
1728649854.677,-38.574,-27.344,-21.973,-32.715,0.000
1728649854.681,-20.020,-26.855,-24.902,-18.555,0.000
1728649854.685,-8.301,-26.367,-41.992,-5.859,0.000
1728649854.689,-9.277,-26.367,-46.387,-17.090,0.000
1728649854.693,-25.391,-24.902,-29.785,-19.043,0.000
1728649854.697,-39.062,-26.855,-15.625,-20.020,0.000
1728649854.700,-11.719,-29.297,-16.113,-29.297,0.000
1728649854.704,2.441,-28.809,-22.461,-19.043,0.000
1728649854.708,-12.207,-26.855,-39.551,-14.160,0.000
1728649854.712,-33.203,-30.762,-45.898,-16.113,0.000
1728649854.715,-41.016,-34.180,-26.855,-23.438,0.000
1728649854.719,-23.926,-32.227,-15.137,-30.762,0.000
1728649854.723,-3.906,-31.738,-27.832,-27.832,0.000
1728649854.727,-5.371,-30.273,-36.133,-23.926,0.000
1728649854.731,-30.762,-27.832,-22.461,-20.996,0.000
1728649854.735,-38.574,-22.949,-22.461,-23.438,0.000
1728649854.739,-23.438,-22.461,-32.715,-38.574,0.000
1728649854.743,-19.043,-28.809,-38.086,-29.785,0.000
1728649854.746,-13.184,-33.203,-34.180,-19.531,0.000
1728649854.750,-29.785,-28.320,-33.203,-27.832,0.000
1728649854.754,-41.504,-23.438,-23.438,-26.855,0.000
1728649854.758,-15.137,-22.949,-14.160,-18.066,0.000
1728649854.762,1.465,-18.555,-16.602,-9.766,0.000
1728649854.766,-0.977,-17.090,-36.133,-18.066,0.000
1728649854.770,-18.066,-20.508,-38.574,-18.066,0.000
1728649854.773,-45.898,-21.973,-42.969,-23.926,0.000
1728649854.777,-30.762,-23.438,-54.199,-35.156,0.000
1728649854.781,-5.859,-25.391,-21.484,-26.367,0.000
1728649854.785,-4.883,-25.879,5.859,-20.508,0.000
1728649854.789,-31.738,-25.391,0.000,-24.414,0.000
1728649854.792,-46.387,-22.461,-18.555,-24.902,0.000
1728649854.796,-22.949,-20.020,-23.438,-27.832,0.000
1728649854.800,4.395,-19.531,-18.555,-24.414,0.000
1728649854.804,3.418,-22.949,-15.625,-26.367,0.000
1728649854.808,-20.996,-23.926,-19.043,-34.180,0.000
1728649854.812,-41.504,-23.438,-20.996,-32.715,0.000
1728649854.815,-30.762,-23.438,-19.531,-21.484,0.000
1728649854.819,-4.395,-22.461,-20.996,-11.230,0.000
1728649854.823,0.488,-21.484,-22.461,-6.836,0.000
1728649854.827,-15.625,-22.949,-20.996,-7.812,0.000
1728649854.831,-39.062,-25.391,-27.832,-17.578,0.000
1728649854.835,-34.668,-25.879,-41.992,-18.066,0.000
1728649854.838,-11.719,-25.879,-35.156,-20.020,0.000
1728649854.842,-15.137,-27.832,-22.461,-25.879,0.000
1728649854.846,-29.785,-28.809,-17.090,-31.738,0.000
1728649854.850,-52.246,-33.203,-12.207,-38.086,0.000
1728649854.854,-48.340,-29.785,-14.648,-26.855,0.000
1728649854.857,-12.695,-24.414,-20.020,-6.836,0.000
1728649854.861,1.953,-27.832,-33.691,-9.766,0.000
1728649854.865,-5.371,-22.949,-42.969,-18.066,0.000
1728649854.869,-32.227,-22.461,-32.715,-22.949,0.000
1728649854.873,-35.645,-26.855,-33.691,-38.574,0.000
1728649854.877,-7.324,-20.020,-33.691,-23.438,0.000
1728649854.881,-1.953,-15.625,-19.531,-11.230,0.000
1728649854.886,-11.719,-17.578,-5.371,-18.066,0.000
1728649854.890,-32.715,-21.484,-9.766,-25.879,0.000
1728649854.894,-39.551,-25.391,-10.254,-29.297,0.000
1728649854.898,-8.301,-22.949,-8.789,-16.113,0.000
1728649854.902,7.324,-20.508,-17.578,-15.137,0.000
1728649854.906,4.395,-15.625,-20.508,-15.137,0.000
1728649854.910,-14.160,-13.672,-14.160,-11.230,0.000
1728649854.914,-40.039,-17.578,-17.090,-23.926,0.000
1728649854.917,-18.555,-20.020,-26.367,-21.973,0.000
1728649854.921,-0.488,-19.531,-23.438,-4.883,0.000
1728649854.925,-11.719,-16.602,-21.973,-8.789,0.000
1728649854.929,-24.414,-11.719,-28.809,-12.207,0.000
1728649854.934,-38.574,-15.625,-37.598,-20.996,0.000
1728649854.938,-20.508,-25.391,-32.227,-28.320,0.000
1728649854.942,-5.859,-27.832,-26.855,-30.273,0.000
1728649854.946,-13.672,-28.320,-26.855,-29.297,0.000
1728649854.949,-23.926,-28.320,-18.066,-25.391,0.000
1728649854.953,-40.039,-25.879,-14.160,-23.926,0.000
1728649854.957,-24.414,-25.879,-24.902,-16.602,0.000
1728649854.961,4.883,-21.484,-31.250,-10.254,0.000
1728649854.965,2.441,-22.461,-34.180,-18.066,0.000
1728649854.969,-19.531,-30.273,-36.621,-24.902,0.000
1728649854.973,-44.922,-33.691,-39.551,-29.297,0.000
1728649854.977,-38.574,-30.762,-46.387,-39.062,0.000
1728649854.981,-8.789,-27.832,-40.039,-28.809,0.000
1728649854.985,-1.465,-27.344,-32.227,-19.531,0.000
1728649854.989,-18.555,-29.785,-33.203,-23.438,0.000
1728649854.993,-39.551,-26.367,-35.645,-41.016,0.000
1728649854.997,-25.391,-20.996,-36.621,-43.457,0.000
1728649855.001,-5.859,-22.461,-38.574,-23.926,0.000
1728649855.004,-3.418,-22.461,-36.133,-20.020,0.000
1728649855.008,-14.160,-22.461,-30.762,-27.832,0.000
1728649855.012,-59.082,-25.879,-30.273,-29.785,0.000
1728649855.016,-49.316,-23.926,-33.203,-22.461,0.000
1728649855.020,-8.789,-24.902,-29.297,-21.973,0.000
1728649855.024,-10.254,-24.902,-31.738,-18.555,0.000
1728649855.028,-15.625,-24.414,-35.645,-15.625,0.000
1728649855.032,-50.781,-33.203,-29.785,-27.832,0.000
1728649855.036,-52.734,-33.203,-31.738,-31.738,0.000
1728649855.040,-18.066,-28.809,-37.109,-28.809,0.000
1728649855.043,-11.230,-28.320,-30.762,-27.832,0.000
1728649855.047,-18.555,-28.320,-27.344,-26.855,0.000
1728649855.051,-39.551,-30.762,-35.645,-28.320,0.000
1728649855.055,-43.457,-31.738,-37.109,-28.320,0.000
1728649855.059,-15.137,-28.320,-29.297,-14.648,0.000
1728649855.063,-12.207,-33.691,-22.461,-11.230,0.000
1728649855.067,-24.902,-35.156,-30.273,-10.742,0.000
1728649855.071,-41.504,-30.762,-40.039,-29.297,0.000
1728649855.074,-47.363,-32.715,-41.992,-39.062,0.000
1728649855.078,-21.484,-29.785,-44.434,-36.133,0.000
1728649855.082,-14.160,-29.785,-37.109,-33.691,0.000
1728649855.086,-22.461,-29.297,-31.738,-25.391,0.000
1728649855.090,-37.598,-25.391,-40.039,-22.949,0.000
1728649855.094,-50.781,-27.344,-36.621,-29.785,0.000
1728649855.098,-36.621,-27.832,-30.762,-28.320,0.000
1728649855.102,-20.020,-29.785,-31.250,-7.324,0.000
1728649855.105,-16.602,-28.809,-31.738,-5.859,0.000
1728649855.109,-40.039,-26.367,-27.832,-22.461,0.000
1728649855.113,-55.664,-26.367,-25.391,-28.809,0.000
1728649855.117,-26.367,-21.484,-30.273,-20.508,0.000
1728649855.120,-4.883,-20.996,-34.180,-13.184,0.000
1728649855.124,-12.207,-27.832,-32.227,-20.996,0.000
1728649855.128,-46.875,-32.227,-33.203,-42.480,0.000
1728649855.132,-71.289,-31.250,-29.297,-44.434,0.000
1728649855.136,-33.203,-38.086,-23.438,-35.645,0.000
1728649855.140,-8.789,-34.180,-28.809,-26.855,0.000
1728649855.144,-10.254,-29.785,-32.227,-26.855,0.000
1728649855.148,-18.555,-32.227,-40.039,-27.344,0.000
1728649855.152,-42.480,-26.855,-36.133,-24.902,0.000
1728649855.156,-29.785,-26.367,-24.414,-27.832,0.000
1728649855.159,3.906,-24.902,-32.227,-28.320,0.000
1728649855.163,3.418,-26.367,-33.203,-16.602,0.000
1728649855.166,-18.555,-25.879,-23.926,-21.973,0.000
1728649855.170,-41.016,-24.414,-21.484,-27.832,0.000
1728649855.174,-34.180,-25.879,-27.344,-27.832,0.000
1728649855.178,-14.648,-22.949,-29.297,-32.715,0.000
1728649855.182,-5.371,-27.344,-27.344,-29.785,0.000
1728649855.186,-18.555,-26.367,-43.945,-28.320,0.000
1728649855.190,-35.645,-20.020,-57.129,-18.066,0.000
1728649855.194,-17.090,-20.020,-36.621,-20.020,0.000
1728649855.198,5.859,-22.949,-32.227,-25.391,0.000
1728649855.202,7.324,-24.902,-39.551,-27.832,0.000
1728649855.205,-6.836,-26.367,-24.414,-32.715,0.000
1728649855.209,-32.227,-27.832,-9.766,-24.902,0.000
1728649855.212,-20.508,-25.879,-10.742,-14.160,0.000
1728649855.216,11.719,-22.949,-20.508,3.906,0.000
1728649855.220,7.812,-27.344,-27.344,-2.930,0.000
1728649855.224,-11.719,-26.367,-27.832,-19.531,0.000
1728649855.228,-32.227,-24.902,-20.508,-29.297,0.000
1728649855.232,-29.297,-29.785,-20.996,-35.645,0.000
1728649855.236,-14.160,-28.809,-31.738,-32.227,0.000
1728649855.240,-10.742,-24.902,-32.227,-20.996,0.000
1728649855.244,-14.160,-29.785,-25.879,-21.973,0.000
1728649855.248,-46.875,-33.691,-29.297,-29.785,0.000
1728649855.251,-58.105,-32.227,-31.250,-20.508,0.000
1728649855.255,-21.973,-27.832,-41.992,-21.973,0.000
1728649855.261,-10.254,-25.879,-42.969,-27.344,0.000
1728649855.265,-13.672,-25.391,-24.902,-16.602,0.000
1728649855.269,-34.668,-23.926,-33.691,-20.508,0.000
1728649855.272,-38.574,-24.414,-44.922,-29.297,0.000
1728649855.276,-11.719,-26.367,-31.738,-24.414,0.000
1728649855.280,-4.883,-29.785,-24.902,-26.367,0.000
1728649855.284,-16.602,-31.738,-32.227,-18.066,0.000
1728649855.288,-38.086,-27.344,-31.738,-25.879,0.000
1728649855.292,-45.898,-25.879,-29.297,-52.246,0.000
1728649855.296,-22.461,-30.273,-28.320,-27.344,0.000
1728649855.300,-9.766,-31.738,-30.273,-7.812,0.000
1728649855.304,-20.020,-33.691,-27.832,-25.879,0.000
1728649855.309,-43.457,-29.297,-23.438,-29.785,0.000
1728649855.312,-50.293,-25.391,-23.926,-28.809,0.000
1728649855.316,-20.996,-24.902,-34.668,-25.879,0.000
1728649855.320,-3.906,-29.785,-38.574,-22.949,0.000
1728649855.324,0.488,-30.762,-33.691,-7.324,0.000
1728649855.328,-27.832,-30.762,-33.203,-14.160,0.000
1728649855.332,-55.664,-37.109,-24.902,-32.715,0.000
1728649855.336,-24.902,-32.715,-19.043,-28.320,0.000
1728649855.340,-8.301,-29.297,-18.066,-15.625,0.000
1728649855.344,-14.648,-30.762,-17.090,-0.977,0.000
1728649855.348,-22.461,-23.926,-21.973,-10.742,0.000
1728649855.352,-39.062,-21.973,-41.504,-25.879,0.000
1728649855.356,-28.320,-23.438,-41.992,-27.344,0.000
1728649855.360,-17.090,-20.508,-22.461,-16.602,0.000
1728649855.364,-13.672,-20.508,-31.250,-16.602,0.000
1728649855.367,-21.973,-21.484,-39.062,-23.926,0.000
1728649855.371,-44.434,-18.066,-32.715,-27.832,0.000
1728649855.375,-26.367,-20.020,-28.320,-20.508,0.000
1728649855.379,4.883,-19.043,-24.902,-6.836,0.000
1728649855.383,-6.836,-19.531,-33.203,-20.508,0.000
1728649855.387,-20.996,-23.926,-36.133,-25.879,0.000
1728649855.391,-41.016,-24.414,-36.133,-23.926,0.000
1728649855.395,-40.039,-20.996,-34.180,-29.297,0.000
1728649855.399,-6.836,-18.555,-16.602,-22.949,0.000
1728649855.403,-3.906,-23.926,-9.277,-29.297,0.000
1728649855.407,-28.809,-30.762,-15.625,-27.832,0.000
1728649855.410,-44.434,-28.809,-27.344,-19.531,0.000
1728649855.414,-40.039,-27.832,-28.320,-31.738,0.000
1728649855.418,-20.996,-33.203,-32.715,-39.062,0.000
1728649855.422,-14.648,-31.250,-40.039,-33.203,0.000
1728649855.426,-22.461,-27.344,-41.992,-31.250,0.000
1728649855.430,-41.992,-28.320,-38.086,-37.109,0.000
1728649855.434,-43.945,-31.250,-33.203,-25.391,0.000
1728649855.438,-24.414,-36.621,-22.949,-3.418,0.000
1728649855.442,-14.648,-34.668,-14.160,0.000,0.000
1728649855.446,-26.367,-35.645,-19.531,-11.719,0.000
1728649855.449,-44.434,-33.203,-27.344,-19.043,0.000
1728649855.453,-39.062,-29.297,-37.598,-22.949,0.000
1728649855.457,-13.672,-31.738,-36.133,-24.414,0.000
1728649855.461,-4.883,-25.879,-25.391,-20.508,0.000
1728649855.465,-17.090,-20.508,-17.090,-18.066,0.000
1728649855.469,-43.945,-23.926,-14.160,-31.250,0.000
1728649855.473,-55.176,-28.809,-20.996,-39.551,0.000
1728649855.477,-25.391,-30.273,-24.902,-24.902,0.000
1728649855.481,-7.324,-31.738,-23.438,-18.066,0.000
1728649855.484,-15.625,-29.297,-28.809,-18.555,0.000
1728649855.488,-40.527,-26.855,-28.320,-28.320,0.000
1728649855.492,-49.805,-31.738,-30.273,-38.086,0.000
1728649855.496,0.000,-32.227,-34.668,-25.879,0.000
1728649855.500,0.000,-26.367,-38.086,-22.461,0.000
1728649855.503,0.000,-30.273,-44.434,-25.391,0.000
1728649855.507,0.000,-29.297,-41.992,-28.320,0.000
1728649855.511,0.000,-24.902,-33.203,-33.203,0.000
1728649855.515,0.000,-26.855,-29.297,-24.902,0.000
1728649855.519,0.000,-29.785,-28.809,-16.113,0.000
1728649855.523,0.000,-34.668,-33.203,-20.020,0.000
1728649855.527,0.000,-35.156,-27.344,-20.996,0.000
1728649855.531,0.000,-28.320,-22.949,-22.949,0.000
1728649855.535,0.000,-24.414,-31.250,-20.508,0.000
1728649855.539,0.000,-30.762,-32.227,-15.625,0.000
1728649855.544,-8.301,-32.227,-30.273,-25.879,0.000
1728649855.548,-39.551,-28.320,-29.785,-30.762,0.000
1728649855.552,-59.082,-31.250,-28.809,-32.715,0.000
1728649855.556,-39.062,-34.180,-31.250,-35.645,0.000
1728649855.560,-18.066,-31.250,-29.297,-24.902,0.000
1728649855.564,-17.578,-33.203,-26.855,-26.855,0.000
1728649855.568,-44.434,-33.691,-25.879,-31.738,0.000
1728649855.572,-64.941,-29.785,-25.879,-40.527,0.000
1728649855.575,-41.504,-26.855,-26.367,-41.016,0.000
1728649855.579,-19.043,-25.879,-19.043,-20.020,0.000
1728649855.583,-24.902,-30.762,-24.902,-25.879,0.000
1728649855.587,-36.621,-28.809,-31.738,-37.109,0.000
1728649855.590,-56.641,-27.344,-29.785,-47.363,0.000
1728649855.594,-66.406,-40.039,-19.043,-56.152,0.000
1728649855.597,-49.316,-37.109,-11.719,-52.246,0.000
1728649855.601,-58.105,-29.297,-6.348,-65.918,0.000
1728649855.605,-88.379,-34.180,-5.371,-95.703,0.000
1728649855.609,-112.305,-29.785,-13.184,-114.746,0.000
1728649855.613,-142.578,-36.621,-13.672,-121.582,0.000
1728649855.617,-172.363,-42.480,-14.648,-137.207,0.000
1728649855.621,-162.109,-30.762,-13.184,-166.992,0.000
1728649855.625,-163.086,-23.926,-8.789,-175.293,0.000
1728649855.629,-200.195,-26.855,-9.277,-167.969,0.000
1728649855.633,-198.242,-31.250,-9.277,-177.246,0.000
1728649855.637,-166.504,-30.273,-1.465,-181.641,0.000
1728649855.641,-155.762,-27.344,6.836,-174.805,0.000
1728649855.645,-174.316,-37.109,0.488,-167.969,0.000
1728649855.649,-191.895,-42.969,-2.930,-166.992,0.000
1728649855.653,-180.664,-41.504,7.324,-165.039,0.000
1728649855.657,-143.555,-41.016,4.883,-146.973,0.000
1728649855.661,-122.559,-39.551,-6.836,-129.395,0.000
1728649855.665,-130.371,-39.551,-13.184,-124.512,0.000
1728649855.669,-158.691,-43.457,-4.395,-133.301,0.000
1728649855.673,-149.902,-36.133,-11.230,-121.582,0.000
1728649855.676,-105.957,-26.855,-29.785,-107.422,0.000
1728649855.680,-88.867,-28.320,-14.648,-107.910,0.000
1728649855.685,-98.633,-30.273,7.324,-91.309,0.000
1728649855.689,-110.840,-35.156,22.949,-85.449,0.000
1728649855.693,-106.445,-36.621,25.879,-94.727,0.000
1728649855.697,-76.172,-39.551,14.648,-90.820,0.000
1728649855.701,-59.570,-42.969,5.859,-72.754,0.000
1728649855.704,-61.523,-34.180,5.859,-56.641,0.000
1728649855.708,-85.449,-31.738,-10.254,-61.523,0.000
1728649855.712,-93.750,-34.668,-37.598,-65.918,0.000
1728649855.716,-60.547,-35.156,-55.176,-44.434,0.000
1728649855.720,-41.016,-35.645,-56.641,-19.043,0.000
1728649855.724,-41.992,-36.621,-8.301,-23.438,0.000
1728649855.728,-49.805,-34.180,24.414,-38.086,0.000
1728649855.732,-62.500,-36.133,27.344,-39.062,0.000
1728649855.736,-41.016,-41.504,13.184,-27.344,0.000
1728649855.740,-11.719,-35.156,-0.977,-18.555,0.000
1728649855.744,-3.906,-27.832,-4.395,-16.113,0.000
1728649855.748,-18.555,-30.273,-21.973,-9.766,0.000
1728649855.751,-25.879,-25.879,-21.973,5.859,0.000
1728649855.755,-3.418,-24.414,-18.555,8.301,0.000
1728649855.759,22.949,-26.855,-26.855,19.531,0.000
1728649855.763,29.297,-26.367,-40.527,37.109,0.000
1728649855.767,22.461,-23.926,-75.684,31.250,0.000
1728649855.771,19.531,-14.648,-70.312,18.555,0.000
1728649855.775,32.227,-12.695,-31.250,32.715,0.000
1728649855.778,48.828,-18.555,-14.160,44.434,0.000
1728649855.782,46.387,-20.020,-14.160,35.156,0.000
1728649855.786,36.133,-21.484,-1.465,29.297,0.000
1728649855.790,19.043,-23.438,-1.465,22.461,0.000
1728649855.794,27.344,-19.531,-19.531,31.250,0.000
1728649855.798,57.617,-12.695,-34.180,49.316,0.000
1728649855.802,62.012,-13.184,-53.711,49.316,0.000
1728649855.806,51.758,-12.695,-68.848,45.410,0.000
1728649855.810,23.438,-13.184,-63.477,43.945,0.000
1728649855.814,38.086,-14.160,-81.543,46.875,0.000
1728649855.818,71.289,-12.207,-68.359,55.176,0.000
1728649855.821,63.477,-20.508,-13.184,46.875,0.000
1728649855.825,52.246,-26.855,7.812,35.645,0.000
1728649855.829,26.367,-28.320,-13.672,34.668,0.000
1728649855.833,23.438,-33.203,-31.250,36.621,0.000
1728649855.837,52.246,-27.344,-50.293,41.504,0.000
1728649855.840,62.500,-19.531,-81.543,51.758,0.000
1728649855.844,49.316,-21.484,-72.754,43.945,0.000
1728649855.848,19.043,-27.832,-30.273,32.715,0.000
1728649855.852,12.695,-27.344,-15.625,31.738,0.000
1728649855.856,47.363,-21.973,-28.809,43.945,0.000
1728649855.860,64.941,-21.973,-35.156,46.875,0.000
1728649855.864,50.781,-23.926,-45.898,37.598,0.000
1728649855.868,18.555,-24.414,-52.246,35.156,0.000
1728649855.874,0.000,-20.020,-31.250,29.785,0.000
1728649855.878,0.000,-19.043,-17.578,36.133,0.000
1728649855.881,0.000,-22.949,-24.414,41.992,0.000
1728649855.885,0.000,-26.367,-34.180,34.668,0.000
1728649855.889,0.000,-17.090,-59.570,38.086,0.000
1728649855.893,0.000,-10.254,-68.848,33.691,0.000
1728649855.897,0.000,-17.090,-44.434,37.598,0.000
1728649855.901,0.000,-23.926,-32.715,43.945,0.000
1728649855.905,0.000,-22.949,-20.996,33.203,0.000
1728649855.909,0.000,-23.438,-15.137,23.438,0.000
1728649855.913,0.000,-28.809,-22.461,16.113,0.000
1728649855.917,0.000,-33.691,-32.715,19.043,0.000
1728649855.919,43.945,-27.344,-35.645,26.855,0.000
1728649855.923,39.551,-20.996,-40.527,32.715,0.000
1728649855.927,21.484,-21.973,-55.664,27.832,0.000
1728649855.931,3.906,-15.625,-55.176,20.020,0.000
1728649855.935,16.113,-13.672,-35.156,9.766,0.000
1728649855.939,34.668,-19.043,-31.250,9.766,0.000
1728649855.942,34.180,-19.531,-29.785,21.973,0.000
1728649855.946,6.836,-25.879,-23.926,18.066,0.000
1728649855.950,-21.973,-34.668,-21.973,-1.465,0.000
1728649855.954,4.395,-29.297,-35.156,9.766,0.000
1728649855.958,24.414,-22.949,-53.223,19.043,0.000
1728649855.962,17.090,-20.508,-32.715,4.395,0.000
1728649855.965,12.207,-23.438,-18.555,5.371,0.000
1728649855.968,-11.230,-26.855,-36.621,4.883,0.000
1728649855.972,-5.371,-23.926,-48.828,1.465,0.000
1728649855.976,19.531,-18.066,-50.293,8.301,0.000
1728649855.980,19.531,-21.973,-55.664,5.859,0.000
1728649855.984,2.441,-25.879,-53.223,1.465,0.000
1728649855.988,-19.531,-26.855,-29.297,1.953,0.000
1728649855.992,-10.742,-29.785,-11.719,2.930,0.000
1728649855.996,11.230,-27.344,-13.672,3.906,0.000
1728649856.000,15.137,-22.461,-25.879,9.277,0.000
1728649856.004,-0.488,-20.996,-27.832,4.883,0.000
1728649856.008,-25.879,-24.902,-20.508,-5.859,0.000
1728649856.012,-20.996,-25.391,-26.367,-5.859,0.000
1728649856.016,11.230,-24.902,-26.367,-8.301,0.000
1728649856.020,14.648,-22.461,-27.832,-9.766,0.000
1728649856.024,-0.977,-18.555,-31.250,-6.348,0.000
1728649856.028,-25.879,-24.902,-23.926,-9.277,0.000
1728649856.032,-27.832,-26.367,-26.855,-16.113,0.000
1728649856.036,2.930,-22.949,-29.785,-7.812,0.000
1728649856.040,8.301,-23.438,-20.996,-3.906,0.000
1728649856.044,0.977,-19.531,-23.926,0.488,0.000
1728649856.047,-17.090,-14.160,-41.016,9.277,0.000
1728649856.051,-24.414,-18.066,-36.621,-2.930,0.000
1728649856.055,5.371,-17.090,-26.367,-8.301,0.000
1728649856.060,0.000,-13.184,-40.039,-0.977,0.000
1728649856.064,0.000,-14.160,-33.691,3.906,0.000
1728649856.068,0.000,-18.066,-15.137,-6.348,0.000
1728649856.072,0.000,-21.973,2.930,-17.578,0.000
1728649856.076,0.000,-23.926,-2.441,-8.789,0.000
1728649856.079,0.000,-22.949,-17.090,-0.977,0.000
1728649856.083,0.000,-27.832,-11.719,-8.301,0.000
1728649856.087,0.000,-31.250,-13.184,-13.672,0.000
1728649856.091,0.000,-22.949,-11.230,-8.301,0.000
1728649856.095,0.000,-20.996,-15.137,3.418,0.000
1728649856.099,0.000,-23.438,-9.277,-1.465,0.000
1728649856.103,0.000,-23.438,-11.230,-6.836,0.000
1728649856.107,-20.996,-19.531,-32.715,0.977,0.000
1728649856.111,-35.645,-20.020,-40.527,-9.277,0.000
1728649856.115,-15.137,-28.320,-53.711,-14.160,0.000
1728649856.119,3.906,-27.832,-46.387,-14.648,0.000
1728649856.122,-11.230,-31.250,-26.367,-26.855,0.000
1728649856.126,-33.203,-31.738,-23.926,-21.973,0.000
1728649856.130,-39.551,-29.297,-44.922,-20.020,0.000
1728649856.134,-13.184,-29.297,-41.504,-15.625,0.000
1728649856.138,8.301,-30.273,-11.719,-4.883,0.000
1728649856.142,-6.348,-37.598,-4.883,-12.695,0.000
1728649856.146,-29.785,-39.551,-14.160,-15.625,0.000
1728649856.150,-43.945,-35.645,-14.160,-9.766,0.000
1728649856.154,-33.203,-29.785,-41.016,-5.371,0.000
1728649856.157,0.000,-21.973,-55.176,6.836,0.000
1728649856.161,-0.977,-25.391,-36.621,-5.859,0.000
1728649856.165,-23.438,-30.762,-27.832,-20.020,0.000
1728649856.169,-37.109,-29.297,-18.555,-13.184,0.000
1728649856.173,-25.879,-26.855,-20.508,-14.648,0.000
1728649856.177,1.953,-24.414,-22.949,-8.301,0.000
1728649856.181,9.766,-23.438,-20.020,-2.441,0.000
1728649856.185,-19.043,-32.715,-12.207,-11.230,0.000
1728649856.189,-48.340,-42.969,-17.090,-20.996,0.000
1728649856.193,-25.391,-35.156,-39.062,-19.531,0.000
1728649856.197,4.883,-29.785,-42.969,-18.555,0.000
1728649856.200,9.766,-32.715,-41.504,-12.207,0.000
1728649856.204,-3.906,-29.785,-32.715,-4.883,0.000
1728649856.208,-28.320,-21.484,-35.156,-3.906,0.000
1728649856.212,-21.484,-12.207,-65.918,-15.137,0.000
1728649856.216,-1.465,-14.160,-46.387,-26.855,0.000
1728649856.219,-1.465,-20.508,-19.531,-22.949,0.000
1728649856.223,-14.648,-29.297,-25.391,-14.160,0.000
1728649856.227,-40.039,-29.785,-18.555,-27.344,0.000
1728649856.231,-39.551,-26.367,-12.695,-34.668,0.000
1728649856.235,-13.672,-24.902,-28.809,-27.832,0.000
1728649856.239,-10.742,-25.391,-46.387,-19.531,0.000
1728649856.243,-21.484,-25.391,-48.828,-15.137,0.000
1728649856.246,-35.645,-25.391,-33.691,-51.270,0.000
1728649856.250,-40.039,-26.855,-23.438,-65.430,0.000
1728649856.254,-20.020,-29.297,-26.855,-41.992,0.000
1728649856.258,1.465,-24.902,-30.273,-21.484,0.000
1728649856.262,-6.348,-26.367,-31.738,-14.160,0.000
1728649856.266,-37.109,-31.738,-47.363,-31.250,0.000
1728649856.270,-43.945,-28.809,-60.059,-35.156,0.000
1728649856.274,-15.625,-27.832,-49.316,-16.113,0.000
1728649856.277,3.906,-27.832,-33.203,-12.695,0.000
1728649856.281,-1.953,-27.344,-28.809,-17.090,0.000
1728649856.285,-26.855,-23.926,-23.438,-28.320,0.000
1728649856.289,-38.574,-20.508,-19.043,-21.484,0.000
1728649856.292,-15.137,-20.996,-15.625,-13.184,0.000
1728649856.296,-5.371,-25.879,-17.578,-20.508,0.000
1728649856.300,-12.695,-30.273,-27.832,-24.902,0.000
1728649856.304,-35.645,-33.691,-27.344,-20.508,0.000
1728649856.308,-49.316,-32.715,-20.996,-6.836,0.000
1728649856.312,-32.715,-36.621,-25.391,-9.766,0.000
1728649856.316,-12.695,-33.691,-31.738,-28.809,0.000
1728649856.320,-9.766,-28.809,-38.086,-36.133,0.000
1728649856.323,-28.320,-29.297,-40.039,-36.621,0.000
1728649856.327,-40.039,-27.344,-43.457,-40.527,0.000
1728649856.331,-20.508,-24.414,-49.805,-22.949,0.000
1728649856.335,-3.418,-22.949,-32.715,-19.531,0.000
1728649856.338,-12.695,-22.949,-22.461,-24.902,0.000
1728649856.342,-31.250,-25.391,-27.344,-38.086,0.000
1728649856.346,-49.316,-25.879,-26.855,-34.180,0.000
1728649856.350,-29.297,-24.902,-37.598,-13.672,0.000
1728649856.353,-7.812,-28.809,-60.059,-23.926,0.000
1728649856.357,-5.371,-29.785,-48.340,-27.832,0.000
1728649856.361,-23.926,-27.344,-34.180,-30.273,0.000
1728649856.365,-44.922,-22.949,-51.758,-41.016,0.000
1728649856.369,-29.785,-23.926,-55.176,-48.340,0.000
1728649856.373,-8.301,-30.762,-36.621,-34.180,0.000
1728649856.377,-16.602,-30.762,-24.902,-29.785,0.000
1728649856.381,-32.227,-25.391,-34.180,-34.180,0.000
1728649856.386,-50.781,-26.855,-48.340,-24.902,0.000
1728649856.390,-39.062,-26.367,-34.668,-29.785,0.000
1728649856.394,-10.254,-21.484,-20.508,-32.715,0.000
1728649856.398,-4.883,-23.438,-29.297,-28.809,0.000
1728649856.402,-19.043,-25.879,-39.062,-41.016,0.000
1728649856.406,-45.410,-23.438,-41.016,-44.434,0.000
1728649856.409,-43.945,-18.555,-28.320,-48.340,0.000
1728649856.413,-20.508,-24.902,-13.672,-50.293,0.000
1728649856.417,-15.625,-33.203,-19.043,-37.598,0.000
1728649856.421,-23.438,-27.344,-48.828,-33.203,0.000
1728649856.425,-49.316,-24.902,-53.711,-42.969,0.000
1728649856.429,-50.293,-28.809,-21.484,-40.527,0.000
1728649856.434,-25.391,-25.391,-12.207,-34.180,0.000
1728649856.437,-13.184,-26.855,-29.297,-28.320,0.000
1728649856.441,-18.555,-22.949,-41.016,-20.996,0.000
1728649856.445,-43.457,-18.066,-45.410,-35.156,0.000
1728649856.449,-52.246,-24.902,-57.617,-37.598,0.000
1728649856.453,-24.902,-27.344,-47.363,-19.043,0.000
1728649856.457,-13.672,-28.320,-28.320,-17.090,0.000
1728649856.461,-27.832,-30.273,-19.043,-29.785,0.000
1728649856.465,-53.223,-29.297,-14.648,-39.551,0.000
1728649856.469,-54.199,-29.297,-18.066,-26.367,0.000
1728649856.473,-30.273,-31.738,-30.762,-27.344,0.000
1728649856.477,2.441,-34.180,-45.898,-15.137,0.000
1728649856.481,13.672,-23.926,-35.645,1.465,0.000
1728649856.485,-32.227,-13.672,-19.043,-21.484,0.000
1728649856.489,-51.270,-19.531,-19.531,-38.086,0.000
1728649856.493,-22.949,-27.344,-18.066,-33.203,0.000
1728649856.496,-12.207,-24.414,-30.762,-31.738,0.000
1728649856.500,-14.648,-21.973,-40.039,-33.203,0.000
1728649856.504,-26.855,-19.531,-30.762,-34.668,0.000
1728649856.508,-40.527,-14.648,-25.879,-35.645,0.000
1728649856.512,-20.020,-14.160,-32.227,-27.344,0.000
1728649856.516,-1.953,-13.672,-48.828,-12.695,0.000
1728649856.520,0.000,-12.207,-45.898,-5.371,0.000
1728649856.524,-28.320,-16.602,-29.785,-24.414,0.000
1728649856.528,-56.152,-21.484,-25.391,-37.598,0.000
1728649856.532,-34.668,-19.043,-21.973,-32.227,0.000
1728649856.535,-9.277,-16.113,-27.832,-27.344,0.000
1728649856.539,-7.812,-16.113,-35.156,-22.949,0.000
1728649856.543,-19.531,-14.160,-39.062,-22.949,0.000
1728649856.547,-45.410,-13.184,-44.922,-29.785,0.000
1728649856.551,-40.527,-15.625,-39.062,-34.668,0.000
1728649856.555,-11.719,-19.043,-41.504,-21.973,0.000
1728649856.559,-2.930,-22.949,-44.434,-16.602,0.000
1728649856.563,-21.484,-27.344,-45.410,-27.832,0.000
1728649856.567,-48.828,-26.855,-19.531,-31.250,0.000
1728649856.571,-46.387,-30.273,-2.441,-35.645,0.000
1728649856.574,-16.602,-27.344,-17.578,-32.227,0.000
1728649856.578,-2.930,-26.367,-28.809,-17.578,0.000
1728649856.582,-20.020,-30.273,-18.555,-20.996,0.000
1728649856.586,-48.828,-29.785,-19.043,-25.879,0.000
1728649856.590,-39.062,-30.762,-29.785,-14.160,0.000
1728649856.594,-13.184,-28.809,-32.715,-23.438,0.000
1728649856.598,-12.207,-24.902,-35.645,-32.715,0.000
1728649856.602,-18.066,-22.461,-41.992,-26.855,0.000
1728649856.605,-38.574,-26.367,-35.156,-21.973,0.000
1728649856.609,-37.109,-25.879,-25.391,-28.320,0.000
1728649856.613,-8.789,-23.438,-33.691,-24.414,0.000
1728649856.617,-3.906,-26.367,-27.344,-16.113,0.000
1728649856.620,-10.742,-24.414,-15.137,-23.926,0.000
1728649856.624,-33.203,-17.090,-14.160,-24.902,0.000
1728649856.628,-34.180,-21.484,-19.043,-16.113,0.000
1728649856.632,-6.836,-23.438,-33.203,-12.207,0.000
1728649856.636,0.977,-21.973,-42.480,-13.672,0.000
1728649856.640,-17.578,-27.344,-43.457,-18.555,0.000
1728649856.644,-37.598,-23.926,-48.828,-21.973,0.000
1728649856.648,-36.621,-20.020,-61.523,-12.695,0.000
1728649856.652,-11.230,-20.020,-51.270,-14.160,0.000
1728649856.656,4.883,-19.531,-35.156,-14.160,0.000
1728649856.660,-11.230,-27.832,-20.508,-22.949,0.000
1728649856.663,-35.156,-26.855,-22.949,-36.133,0.000
1728649856.666,-33.203,-24.414,-44.922,-26.367,0.000
1728649856.670,-10.742,-25.391,-29.785,-14.648,0.000
1728649856.674,-5.371,-23.438,0.000,-10.742,0.000
1728649856.678,-5.371,-23.926,-8.301,-10.742,0.000
1728649856.682,-25.879,-20.996,-31.738,-12.207,0.000
1728649856.686,-42.480,-17.578,-31.250,-11.719,0.000
1728649856.690,-9.277,-17.578,-34.180,-4.395,0.000
1728649856.694,11.230,-19.043,-28.809,-1.465,0.000
1728649856.698,0.977,-26.367,-2.930,-14.648,0.000
1728649856.702,-20.996,-28.320,-1.465,-24.902,0.000
1728649856.705,-32.227,-19.043,-16.113,-27.344,0.000
1728649856.709,-15.137,-18.066,-20.508,-27.344,0.000
1728649856.712,-0.488,-21.973,-20.508,-19.043,0.000
1728649856.716,-0.488,-27.344,-22.461,-12.207,0.000
1728649856.720,-25.391,-31.250,-19.043,-16.113,0.000
1728649856.724,-52.246,-30.762,-22.461,-33.203,0.000
1728649856.728,-29.297,-30.273,-26.855,-33.691,0.000
1728649856.732,-0.977,-26.367,-27.344,-14.648,0.000
1728649856.736,2.441,-23.438,-38.086,-0.977,0.000
1728649856.740,-18.555,-24.902,-50.781,-12.695,0.000
1728649856.743,-41.016,-28.809,-41.016,-31.250,0.000
1728649856.747,-31.250,-33.203,-23.438,-29.785,0.000
1728649856.751,-8.789,-33.203,-30.762,-14.160,0.000
1728649856.755,-9.277,-29.785,-57.129,-19.531,0.000
1728649856.761,-30.273,-30.273,-38.574,-29.297,0.000
1728649856.765,-54.199,-38.086,-7.324,-38.086,0.000
1728649856.768,-40.527,-34.180,-26.367,-32.227,0.000
1728649856.772,-9.766,-26.855,-41.016,-20.020,0.000
1728649856.776,-5.371,-25.391,-36.133,-20.996,0.000
1728649856.780,-20.020,-25.391,-15.625,-29.297,0.000
1728649856.784,-43.945,-28.320,-4.395,-41.992,0.000
1728649856.788,-43.457,-31.738,-13.672,-45.898,0.000
1728649856.792,-16.602,-32.715,-13.184,-33.691,0.000
1728649856.796,-17.578,-28.320,-20.508,-17.090,0.000
1728649856.800,-27.832,-25.879,-35.156,-20.508,0.000
1728649856.804,-46.387,-25.391,-32.715,-34.668,0.000
1728649856.808,-45.410,-29.297,-26.367,-36.621,0.000
1728649856.812,-7.812,-29.785,-29.785,-22.461,0.000
1728649856.816,5.859,-25.879,-31.250,-12.207,0.000
1728649856.820,1.465,-24.902,-35.645,-10.254,0.000
1728649856.824,-26.855,-25.879,-39.062,-17.090,0.000
1728649856.828,-37.598,-31.738,-32.227,-19.043,0.000
1728649856.832,-10.742,-27.832,-31.250,-19.531,0.000
1728649856.836,-3.906,-22.949,-31.250,-14.648,0.000
1728649856.839,-14.160,-25.391,-33.691,-6.348,0.000
1728649856.843,-40.039,-27.344,-46.875,-22.461,0.000
1728649856.847,-50.293,-26.855,-60.547,-43.457,0.000
1728649856.851,-18.066,-19.043,-50.293,-32.715,0.000
1728649856.855,-2.441,-18.555,-35.645,-20.508,0.000
1728649856.859,-11.230,-22.461,-23.926,-26.367,0.000
1728649856.863,-32.227,-19.531,-6.348,-30.762,0.000
1728649856.867,-39.062,-15.625,0.488,-29.297,0.000
1728649856.871,-17.578,-15.625,-13.672,-25.391,0.000
1728649856.875,-11.230,-15.625,-23.926,-22.461,0.000
1728649856.879,-14.648,-13.672,-18.555,-23.438,0.000
1728649856.883,-36.621,-16.113,-22.949,-26.855,0.000
1728649856.887,-45.410,-20.508,-34.180,-35.156,0.000
1728649856.890,-19.043,-18.066,-36.133,-29.785,0.000
1728649856.894,-10.254,-22.949,-59.082,-23.438,0.000
1728649856.898,-12.695,-28.320,-55.664,-18.066,0.000
1728649856.902,-29.785,-25.391,-17.578,-20.020,0.000
1728649856.906,-45.898,-24.902,-10.742,-33.203,0.000
1728649856.910,-29.785,-27.832,-12.695,-33.691,0.000
1728649856.914,-13.184,-27.344,-28.320,-24.902,0.000
1728649856.918,-14.160,-23.926,-62.988,-24.902,0.000
1728649856.922,-27.832,-24.414,-44.922,-27.832,0.000
1728649856.926,-44.922,-25.391,-10.742,-35.645,0.000
1728649856.929,-30.273,-22.461,-3.906,-31.738,0.000
1728649856.933,-9.766,-15.625,-7.324,-16.602,0.000
1728649856.937,-10.742,-20.996,-30.762,-22.949,0.000
1728649856.941,-25.391,-28.320,-46.387,-27.832,0.000
1728649856.945,-41.016,-21.484,-29.785,-28.320,0.000
1728649856.949,-19.531,-20.996,-17.090,-27.832,0.000
1728649856.953,5.371,-23.438,-23.926,-15.137,0.000
1728649856.956,7.812,-20.996,-31.738,-2.441,0.000
1728649856.960,-2.930,-23.926,-37.598,-16.113,0.000
1728649856.964,-26.855,-25.879,-28.320,-27.344,0.000
1728649856.968,-29.785,-28.320,-3.418,-27.832,0.000
1728649856.972,-8.301,-31.250,0.977,-27.832,0.000
1728649856.976,2.930,-27.344,-4.883,-10.742,0.000
1728649856.980,-19.043,-28.809,-2.441,-6.348,0.000
1728649856.984,-43.945,-31.250,-7.324,-23.926,0.000
1728649856.988,-32.715,-34.668,-17.578,-27.344,0.000
1728649856.992,-11.230,-35.156,-23.438,-12.695,0.000
1728649856.995,-7.324,-31.250,-34.180,-11.719,0.000
1728649856.999,-12.695,-24.902,-43.457,-13.184,0.000
1728649857.003,-35.645,-20.508,-30.273,-19.531,0.000
1728649857.007,-34.668,-21.484,-15.625,-18.066,0.000
1728649857.010,-8.301,-20.508,-20.508,-13.184,0.000
1728649857.014,4.395,-24.902,-31.250,-14.648,0.000
1728649857.018,-6.836,-28.320,-46.875,-4.883,0.000
1728649857.022,-40.039,-26.367,-47.852,-16.602,0.000
1728649857.026,-40.527,-27.344,-41.016,-43.945,0.000
1728649857.030,-13.672,-30.762,-61.523,-41.016,0.000
1728649857.034,-9.766,-30.273,-56.641,-18.555,0.000
1728649857.038,-20.508,-25.391,-19.531,-24.902,0.000
1728649857.041,-47.363,-26.367,-8.301,-42.969,0.000
1728649857.045,-52.246,-23.926,-16.113,-39.551,0.000
1728649857.049,-25.391,-25.391,-23.438,-31.250,0.000
1728649857.053,-15.625,-30.762,-23.438,-29.297,0.000
1728649857.057,-20.508,-25.391,-28.809,-30.273,0.000
1728649857.060,-31.250,-20.508,-36.621,-29.785,0.000
1728649857.064,-35.156,-24.902,-34.668,-22.949,0.000
1728649857.068,-12.207,-28.320,-47.852,-23.926,0.000
1728649857.072,-1.465,-29.297,-49.316,-27.832,0.000
1728649857.076,-12.695,-32.227,-34.180,-20.020,0.000
1728649857.080,-40.527,-30.273,-34.668,-35.645,0.000
1728649857.084,-62.012,-31.250,-32.715,-49.316,0.000
1728649857.087,-36.621,-30.273,-29.297,-37.598,0.000
1728649857.091,-15.625,-25.391,-33.691,-41.504,0.000
1728649857.095,-20.996,-26.367,-39.551,-37.109,0.000
1728649857.099,-40.039,-26.855,-37.598,-24.414,0.000
1728649857.102,-61.035,-22.461,-32.715,-41.992,0.000
1728649857.106,-35.156,-23.926,-45.898,-40.527,0.000
1728649857.110,-7.324,-28.809,-52.734,-21.484,0.000
1728649857.114,-15.625,-28.320,-34.668,-36.621,0.000
1728649857.118,-40.039,-27.344,-25.391,-46.875,0.000
1728649857.122,-55.176,-27.344,-22.949,-41.992,0.000
1728649857.126,-34.180,-31.738,-19.043,-33.691,0.000
1728649857.130,-7.324,-26.855,-18.555,-30.762,0.000
1728649857.135,-7.324,-20.020,-20.020,-26.367,0.000
1728649857.139,-19.043,-23.926,-35.645,-21.484,0.000
1728649857.143,-35.645,-26.367,-40.039,-27.832,0.000
1728649857.147,-29.785,-26.367,-26.855,-33.691,0.000
1728649857.151,-17.090,-27.832,-17.578,-37.598,0.000
1728649857.155,-26.367,-28.320,-17.090,-33.691,0.000
1728649857.158,-43.457,-26.855,-28.809,-37.598,0.000
1728649857.162,-58.105,-24.414,-39.551,-52.246,0.000
1728649857.166,-39.062,-19.531,-33.203,-46.387,0.000
1728649857.170,-18.555,-23.926,-39.551,-37.109,0.000
1728649857.174,-16.602,-27.832,-46.387,-25.879,0.000
1728649857.178,-26.367,-23.926,-42.480,-24.414,0.000
1728649857.183,-50.781,-23.438,-39.551,-33.203,0.000
1728649857.187,-49.316,-22.949,-33.691,-40.527,0.000
1728649857.191,-19.531,-26.367,-24.414,-26.855,0.000
1728649857.194,-10.742,-29.297,-23.438,-13.672,0.000
1728649857.198,-30.762,-31.738,-30.762,-13.672,0.000
1728649857.202,-59.570,-35.645,-29.785,-27.832,0.000
1728649857.206,-48.340,-30.762,-33.691,-26.855,0.000
1728649857.210,-19.531,-26.855,-38.574,-17.578,0.000
1728649857.214,-26.855,-32.227,-36.133,-27.832,0.000
1728649857.218,-38.574,-35.156,-36.621,-26.855,0.000
1728649857.222,-60.059,-36.621,-26.855,-25.879,0.000
1728649857.226,-68.359,-37.598,-23.926,-37.109,0.000
1728649857.230,-36.621,-38.574,-27.344,-41.992,0.000
1728649857.234,-16.602,-36.133,-32.227,-24.902,0.000
1728649857.238,-30.273,-31.250,-44.922,-19.531,0.000
1728649857.242,-50.293,-30.273,-33.691,-26.855,0.000
1728649857.246,-49.805,-29.297,-22.461,-32.227,0.000
1728649857.250,-25.391,-28.320,-23.438,-36.133,0.000
1728649857.254,-9.766,-35.156,-26.855,-18.066,0.000
1728649857.257,-21.484,-37.109,-41.504,-30.273,0.000
1728649857.261,-45.898,-32.715,-47.363,-44.922,0.000
1728649857.265,-48.340,-30.273,-27.344,-26.367,0.000
1728649857.269,-17.090,-27.344,-18.555,-23.438,0.000
1728649857.273,-5.859,-29.297,-28.320,-28.809,0.000
1728649857.277,-16.602,-29.785,-32.227,-31.250,0.000
1728649857.281,-37.109,-34.668,-34.180,-31.250,0.000
1728649857.285,-47.363,-37.109,-31.250,-37.598,0.000
1728649857.289,-23.438,-30.273,-26.367,-38.574,0.000
1728649857.293,-3.906,-27.832,-28.809,-29.785,0.000
1728649857.296,-9.766,-30.762,-41.504,-28.320,0.000
1728649857.300,-30.273,-28.320,-43.457,-26.367,0.000
1728649857.304,-47.852,-26.367,-36.133,-24.902,0.000
1728649857.308,-42.969,-26.367,-34.180,-21.973,0.000
1728649857.312,-15.137,-27.832,-35.645,-28.809,0.000
1728649857.316,-5.371,-31.250,-38.574,-24.414,0.000
1728649857.320,-28.320,-29.785,-28.320,-35.645,0.000
1728649857.324,-35.645,-27.832,-21.973,-35.645,0.000
1728649857.327,-23.438,-29.785,-29.297,-19.043,0.000
1728649857.331,-11.230,-30.273,-37.598,-19.531,0.000
1728649857.335,-2.930,-27.832,-40.527,-13.184,0.000
1728649857.339,-24.414,-32.227,-44.434,-19.531,0.000
1728649857.343,-57.617,-31.738,-37.598,-29.297,0.000
1728649857.347,-47.363,-31.250,-24.414,-31.738,0.000
1728649857.351,-7.812,-31.738,-20.508,-21.484,0.000
1728649857.355,-3.418,-26.367,-24.414,-15.137,0.000
1728649857.359,-24.902,-24.902,-18.555,-26.855,0.000
1728649857.363,-45.898,-27.344,-13.672,-23.926,0.000
1728649857.366,-29.785,-29.297,-20.996,-19.531,0.000
1728649857.370,1.465,-29.297,-20.020,-8.301,0.000
1728649857.374,-3.906,-27.832,-20.996,-13.184,0.000
1728649857.378,-23.926,-27.832,-24.902,-28.809,0.000
1728649857.382,-43.945,-28.809,-30.273,-28.809,0.000
1728649857.386,-37.598,-25.879,-31.250,-30.273,0.000
1728649857.390,-10.254,-21.973,-38.086,-17.090,0.000
1728649857.393,-3.418,-20.508,-65.430,-8.301,0.000
1728649857.397,-19.531,-23.438,-64.941,-12.207,0.000
1728649857.401,-46.387,-20.508,-32.227,-25.879,0.000
1728649857.405,-39.062,-22.461,-14.648,-29.297,0.000
1728649857.409,-13.184,-27.832,-9.766,-21.973,0.000
1728649857.413,-3.906,-22.461,-13.672,-13.184,0.000
1728649857.416,-10.254,-22.461,-19.043,-10.742,0.000
1728649857.420,-32.715,-22.461,-33.203,-11.719,0.000
1728649857.424,-27.832,-19.043,-64.941,-7.324,0.000
1728649857.428,0.977,-23.926,-37.598,-18.555,0.000
1728649857.432,4.883,-26.855,2.441,-36.133,0.000
1728649857.436,-8.301,-24.902,-0.977,-26.855,0.000
1728649857.440,-29.297,-27.344,-14.160,-14.648,0.000
1728649857.443,-33.203,-29.785,-20.996,-23.438,0.000
1728649857.447,-9.766,-26.855,-23.438,-25.391,0.000
1728649857.451,-4.883,-21.973,-30.273,-20.996,0.000
1728649857.455,-9.766,-20.508,-32.227,-10.254,0.000
1728649857.459,-29.297,-25.879,-29.785,-8.301,0.000
1728649857.462,-37.598,-25.391,-32.227,-18.555,0.000
1728649857.466,-8.789,-26.367,-31.738,-19.531,0.000
1728649857.470,2.930,-29.785,-25.879,-20.996,0.000
1728649857.474,-7.812,-30.273,-26.367,-25.879,0.000
1728649857.478,-26.855,-27.344,-31.250,-29.785,0.000
1728649857.482,-41.992,-26.855,-40.039,-29.785,0.000
1728649857.485,-31.250,-28.320,-51.270,-20.996,0.000
1728649857.489,-5.859,-24.414,-62.012,-19.531,0.000
1728649857.493,-2.441,-24.902,-42.480,-17.090,0.000
1728649857.497,-28.809,-27.344,-14.648,-20.020,0.000
1728649857.501,-41.016,-27.344,-22.949,-29.785,0.000
1728649857.505,-19.043,-24.902,-27.344,-34.180,0.000
1728649857.510,-10.742,-22.949,-23.926,-26.855,0.000
1728649857.514,-9.277,-25.879,-24.414,-17.090,0.000
1728649857.518,-22.461,-22.461,-23.438,-23.438,0.000
1728649857.522,-42.969,-21.484,-35.645,-40.527,0.000
1728649857.526,-28.320,-29.297,-43.945,-31.250,0.000
1728649857.530,-7.812,-29.297,-34.180,-20.996,0.000
1728649857.534,-6.836,-29.785,-25.879,-30.762,0.000
1728649857.538,-28.809,-29.785,-38.086,-33.691,0.000
1728649857.542,-58.105,-30.273,-35.156,-31.250,0.000
1728649857.546,-34.668,-32.715,-22.461,-17.090,0.000
1728649857.549,-8.301,-31.250,-21.973,-11.719,0.000
1728649857.553,-10.742,-27.344,-18.555,-17.578,0.000
1728649857.558,-23.926,-26.367,-13.672,-18.555,0.000
1728649857.562,-49.805,-26.855,-17.578,-35.645,0.000
1728649857.566,-42.480,-30.273,-23.926,-41.992,0.000
1728649857.570,-22.949,-36.621,-37.598,-34.180,0.000
1728649857.574,-20.996,-33.203,-45.410,-34.180,0.000
1728649857.578,-34.180,-28.809,-57.617,-32.715,0.000
1728649857.582,-47.363,-32.227,-49.316,-30.762,0.000
1728649857.586,-39.062,-31.250,-26.855,-31.738,0.000
1728649857.589,-10.254,-29.297,-21.484,-26.367,0.000
1728649857.593,-1.465,-31.250,-19.531,-19.043,0.000
1728649857.597,-16.602,-25.879,-31.738,-22.949,0.000
1728649857.601,-39.062,-22.461,-43.945,-32.715,0.000
1728649857.606,-43.945,-27.344,-39.062,-36.133,0.000
1728649857.609,-26.367,-34.180,-26.855,-32.715,0.000
1728649857.613,-14.648,-37.109,-21.484,-36.133,0.000
1728649857.617,-24.902,-29.785,-22.461,-35.156,0.000
1728649857.621,-44.922,-25.391,-34.668,-29.297,0.000
1728649857.625,-47.363,-26.367,-36.133,-35.645,0.000
1728649857.629,-19.531,-20.996,-17.578,-27.344,0.000
1728649857.633,-3.418,-23.926,-16.113,-19.043,0.000
1728649857.637,-19.043,-25.879,-25.391,-24.414,0.000
1728649857.641,-56.152,-27.832,-30.273,-25.879,0.000
1728649857.645,-48.340,-28.809,-32.227,-35.156,0.000
1728649857.648,-8.301,-23.926,-35.645,-19.531,0.000
1728649857.652,-1.953,-21.973,-41.992,-17.578,0.000
1728649857.656,-13.672,-17.090,-32.715,-25.879,0.000
1728649857.660,-34.180,-15.137,-14.160,-16.113,0.000
1728649857.664,-39.551,-18.066,-4.395,-35.156,0.000
1728649857.668,-14.160,-18.555,-18.066,-25.879,0.000
1728649857.672,4.883,-18.555,-34.180,4.395,0.000
1728649857.676,-13.672,-19.531,-32.227,-11.719,0.000
1728649857.680,-34.180,-24.414,-27.832,-21.973,0.000
1728649857.684,-40.527,-27.344,-31.738,-20.508,0.000
1728649857.688,-8.789,-22.949,-30.762,-21.973,0.000
1728649857.691,11.230,-21.484,-34.668,-17.578,0.000
1728649857.695,4.883,-24.902,-36.621,-19.531,0.000
1728649857.699,0.000,-22.949,-34.180,-24.902,0.000
1728649857.703,0.000,-24.902,-30.762,-34.668,0.000
1728649857.707,0.000,-28.809,-31.250,-28.320,0.000
1728649857.711,0.000,-21.973,-31.738,-7.812,0.000
1728649857.715,0.000,-24.414,-23.926,-8.789,0.000
1728649857.719,0.000,-24.902,-23.438,-18.555,0.000
1728649857.723,0.000,-24.414,-26.367,-22.461,0.000
1728649857.726,0.000,-25.879,-18.066,-23.926,0.000
1728649857.730,0.000,-24.902,-20.508,-17.090,0.000
1728649857.734,0.000,-27.832,-21.484,-26.855,0.000
1728649857.738,0.000,-24.414,-25.391,-31.738,0.000
1728649857.742,0.000,-20.996,-35.645,-37.109,0.000
1728649857.746,-37.109,-23.438,-34.668,-33.691,0.000
1728649857.749,-12.207,-20.508,-38.086,-23.926,0.000
1728649857.753,-9.277,-23.926,-35.645,-20.020,0.000
1728649857.757,-22.461,-23.438,-33.203,-22.461,0.000
1728649857.761,-38.574,-21.484,-39.551,-24.414,0.000
1728649857.765,-24.414,-20.996,-28.809,-16.602,0.000
1728649857.769,0.488,-22.949,-13.184,-9.277,0.000
1728649857.773,-3.906,-24.902,-6.348,-5.371,0.000
1728649857.777,-14.160,-26.367,-4.395,-18.555,0.000
1728649857.781,-27.832,-26.367,-9.766,-19.531,0.000
1728649857.785,-20.508,-27.344,-18.066,-11.230,0.000
1728649857.789,3.906,-25.879,-26.367,-10.742,0.000
1728649857.792,0.488,-23.926,-42.969,-10.742,0.000
1728649857.796,-11.719,-18.066,-51.758,-17.090,0.000
1728649857.800,-41.016,-16.602,-35.645,-25.391,0.000
1728649857.803,-42.480,-21.484,-24.414,-21.973,0.000
1728649857.807,-23.438,-25.391,-32.227,-21.484,0.000
1728649857.811,-23.438,-26.855,-24.902,-14.160,0.000
1728649857.815,-1.953,-23.926,-22.461,6.836,0.000
1728649857.819,-25.391,-23.438,-34.668,-14.648,0.000
1728649857.823,-42.480,-27.344,-31.738,-33.691,0.000
1728649857.827,-11.230,-29.297,-28.809,-23.438,0.000
1728649857.831,-1.465,-27.832,-23.438,-28.320,0.000
1728649857.835,-26.855,-29.297,-25.879,-31.738,0.000
1728649857.837,-45.898,-28.809,-29.297,-32.715,0.000
1728649857.841,-36.133,-26.367,-27.344,-27.344,0.000
1728649857.845,-13.184,-28.320,-33.203,-24.414,0.000
1728649857.849,-0.977,-26.367,-36.133,-27.344,0.000
1728649857.853,-1.953,-22.949,-30.762,-20.996,0.000
1728649857.857,-30.273,-24.902,-34.668,-22.461,0.000
1728649857.861,-42.480,-25.391,-43.945,-24.902,0.000
1728649857.865,-18.555,-28.320,-45.410,-23.438,0.000
1728649857.869,-9.766,-32.227,-26.855,-13.184,0.000
1728649857.873,-14.648,-32.715,-14.648,-10.254,0.000
1728649857.877,-34.180,-30.273,-16.113,-15.625,0.000
1728649857.880,-40.039,-28.809,-13.184,-18.555,0.000
1728649857.886,-17.090,-32.227,-10.742,-23.438,0.000
1728649857.890,-10.254,-35.645,-22.949,-9.766,0.000
1728649857.894,-10.254,-32.227,-46.387,-11.230,0.000
1728649857.898,-30.762,-29.785,-37.598,-29.297,0.000
1728649857.902,-49.316,-31.738,-20.508,-31.250,0.000
1728649857.905,-20.996,-32.227,-20.020,-29.785,0.000
1728649857.909,-3.906,-30.273,-21.973,-18.555,0.000
1728649857.913,-10.742,-29.785,-25.879,-17.090,0.000
1728649857.917,-25.391,-31.738,-28.320,-24.902,0.000
1728649857.921,-42.480,-29.785,-20.508,-18.555,0.000
1728649857.925,-24.902,-31.250,-13.184,-16.113,0.000
1728649857.929,5.371,-29.297,-18.066,-15.137,0.000
1728649857.934,4.883,-21.484,-29.297,-18.066,0.000
1728649857.938,-23.926,-21.484,-33.691,-17.090,0.000
1728649857.941,-44.434,-28.320,-28.320,-21.973,0.000
1728649857.945,-28.809,-27.832,-20.508,-29.297,0.000
1728649857.949,-2.930,-23.926,-19.531,-18.066,0.000
1728649857.953,-0.488,-20.996,-29.785,-15.625,0.000
1728649857.957,-19.531,-22.461,-24.902,-28.809,0.000
1728649857.961,-53.223,-26.855,-10.254,-45.410,0.000
1728649857.965,-46.875,-26.367,-14.648,-41.016,0.000
1728649857.969,-17.578,-25.391,-32.227,-17.578,0.000
1728649857.973,-16.113,-25.391,-24.902,-25.879,0.000
1728649857.977,-28.809,-23.438,-9.277,-31.738,0.000
1728649857.981,-55.176,-24.414,-17.090,-23.926,0.000
1728649857.985,-48.340,-24.414,-20.996,-32.715,0.000
1728649857.989,-16.602,-20.508,-17.578,-40.527,0.000
1728649857.993,-16.113,-19.043,-12.695,-32.715,0.000
1728649857.996,-33.691,-20.996,-11.719,-37.109,0.000
1728649858.000,-50.293,-21.973,-10.254,-37.598,0.000
1728649858.004,-54.688,-18.555,-20.508,-44.434,0.000
1728649858.008,-35.645,-20.020,-23.438,-47.852,0.000
1728649858.012,-41.992,-33.203,-17.090,-47.852,0.000
1728649858.016,-85.938,-43.457,-20.020,-73.242,0.000
1728649858.020,-134.766,-41.504,-20.020,-102.539,0.000
1728649858.024,-140.137,-44.922,-22.949,-105.469,0.000
1728649858.028,-113.281,-42.969,-20.020,-110.352,0.000
1728649858.032,-128.906,-37.109,-15.625,-130.859,0.000
1728649858.036,-160.156,-41.504,-11.230,-158.203,0.000
1728649858.039,-209.961,-48.828,-12.695,-192.383,0.000
1728649858.043,-222.656,-46.875,-5.371,-202.637,0.000
1728649858.047,-197.754,-46.387,-5.371,-191.895,0.000
1728649858.051,-191.406,-46.875,-17.578,-188.477,0.000
1728649858.055,-188.477,-42.480,-6.836,-183.105,0.000
1728649858.059,-211.914,-39.551,0.000,-192.871,0.000
1728649858.063,-224.121,-38.574,-10.254,-216.797,0.000
1728649858.067,-184.570,-28.809,-17.090,-203.613,0.000
1728649858.071,-165.527,-32.227,-18.066,-181.152,0.000
1728649858.074,-175.293,-39.062,-10.254,-176.270,0.000
1728649858.078,-199.219,-43.457,-4.883,-184.570,0.000
1728649858.082,-211.914,-46.875,-12.695,-199.707,0.000
1728649858.086,-181.641,-40.527,-22.949,-186.035,0.000
1728649858.090,-157.227,-40.527,-29.297,-171.387,0.000
1728649858.094,-154.785,-36.133,-20.508,-167.969,0.000
1728649858.098,-166.016,-27.832,-26.855,-163.574,0.000
1728649858.102,-182.617,-33.691,-38.086,-164.551,0.000
1728649858.106,-160.645,-32.715,-29.297,-162.109,0.000
1728649858.109,-128.906,-30.762,-16.113,-146.973,0.000
1728649858.113,-122.070,-30.762,-10.742,-131.836,0.000
1728649858.117,-129.883,-25.879,-7.812,-122.070,0.000
1728649858.121,0.000,-31.738,-5.859,-116.699,0.000
1728649858.125,0.000,-34.668,-14.648,-103.516,0.000
1728649858.128,0.000,-29.785,-35.645,-100.586,0.000
1728649858.132,0.000,-25.391,-35.645,-102.051,0.000
1728649858.136,0.000,-26.367,-31.738,-98.633,0.000
1728649858.140,0.000,-27.344,-29.297,-106.934,0.000
1728649858.144,0.000,-28.809,-16.113,-76.660,0.000
1728649858.148,0.000,-20.508,-17.090,-30.273,0.000
1728649858.152,0.000,-14.160,-26.367,-27.344,0.000
1728649858.156,0.000,-20.508,-7.812,-32.715,0.000
1728649858.160,0.000,-27.344,19.043,-26.855,0.000
1728649858.164,0.000,-25.879,7.324,-20.996,0.000
1728649858.169,0.977,-25.879,-0.977,-14.160,0.000
1728649858.173,15.137,-21.484,2.930,5.859,0.000
1728649858.177,6.348,-18.066,-1.953,17.578,0.000
1728649858.181,-6.348,-22.461,8.301,18.555,0.000
1728649858.185,12.695,-21.484,0.488,22.461,0.000
1728649858.189,41.504,-18.555,-35.156,27.832,0.000
1728649858.192,42.480,-24.902,-23.926,31.250,0.000
1728649858.196,26.367,-26.855,-30.762,23.438,0.000
1728649858.200,9.766,-18.066,-36.621,19.531,0.000
1728649858.204,20.020,-15.625,-10.742,24.414,0.000
1728649858.208,47.852,-17.090,-25.879,29.785,0.000
1728649858.212,59.570,-17.090,-43.457,38.574,0.000
1728649858.214,48.340,-22.461,-28.809,38.086,0.000
1728649858.218,22.461,-20.996,-25.879,28.320,0.000
1728649858.222,25.879,-19.043,-32.227,32.715,0.000
1728649858.226,56.152,-24.414,-21.973,51.758,0.000
1728649858.230,56.641,-28.320,-18.555,46.875,0.000
1728649858.234,46.875,-25.391,-16.113,38.086,0.000
1728649858.238,25.391,-22.461,-23.926,37.109,0.000
1728649858.242,16.602,-23.926,-40.039,31.250,0.000
1728649858.246,48.828,-20.020,-51.270,27.832,0.000
1728649858.250,65.430,-12.207,-70.801,38.574,0.000
1728649858.254,47.852,-17.578,-52.734,38.086,0.000
1728649858.257,24.902,-22.949,-10.742,24.902,0.000
1728649858.262,26.855,-16.602,-28.809,32.227,0.000
1728649858.266,48.340,-19.043,-46.387,33.691,0.000
1728649858.270,54.688,-27.344,-19.531,39.062,0.000
1728649858.274,50.293,-30.273,-15.625,41.992,0.000
1728649858.278,29.785,-23.438,-34.180,32.715,0.000
1728649858.282,18.555,-17.578,-38.086,37.109,0.000
1728649858.286,39.551,-19.531,-36.621,49.316,0.000
1728649858.290,55.176,-19.043,-64.941,52.246,0.000
1728649858.294,50.781,-19.531,-50.781,44.434,0.000
1728649858.297,27.832,-25.391,-0.977,33.203,0.000
1728649858.301,4.395,-25.391,9.277,18.066,0.000
1728649858.305,16.113,-24.902,-16.113,23.926,0.000
1728649858.312,36.621,-27.344,-38.086,32.715,0.000
1728649858.316,33.691,-30.273,-41.992,25.391,0.000
1728649858.320,14.648,-31.738,-50.293,21.484,0.000
1728649858.324,-2.441,-30.762,-41.504,13.672,0.000
1728649858.328,20.996,-29.785,-25.391,24.902,0.000
1728649858.332,44.434,-30.762,-41.504,36.621,0.000
1728649858.336,44.922,-20.508,-87.402,40.039,0.000
1728649858.340,30.762,-15.625,-78.125,43.457,0.000
1728649858.344,0.000,-23.926,-29.785,20.996,0.000
1728649858.347,13.672,-22.461,-15.625,10.742,0.000
1728649858.351,41.504,-20.996,-12.207,24.414,0.000
1728649858.355,40.039,-23.438,-15.625,31.738,0.000
1728649858.359,21.973,-18.555,-34.668,23.438,0.000
1728649858.363,1.953,-17.090,-34.668,2.930,0.000
1728649858.367,14.160,-18.555,-35.156,10.254,0.000
1728649858.371,39.062,-17.578,-67.383,23.926,0.000
1728649858.374,40.527,-17.578,-71.289,18.555,0.000
1728649858.378,31.250,-15.137,-44.922,14.160,0.000
1728649858.382,6.836,-12.207,-36.621,14.160,0.000
1728649858.386,5.859,-9.277,-31.738,20.020,0.000
1728649858.390,33.203,-11.719,-23.438,29.297,0.000
1728649858.394,34.668,-14.160,-19.531,22.949,0.000
1728649858.398,20.508,-16.602,-27.344,21.484,0.000
1728649858.402,-1.953,-14.160,-34.668,12.695,0.000
1728649858.405,1.953,-10.742,-37.109,5.371,0.000
1728649858.409,31.250,-10.742,-45.898,25.879,0.000
1728649858.413,39.551,-8.789,-44.434,29.297,0.000
1728649858.417,33.691,-12.695,-27.344,14.648,0.000
1728649858.421,6.836,-17.090,-17.090,11.719,0.000
1728649858.425,3.418,-15.137,-17.578,15.625,0.000
1728649858.429,34.668,-10.254,-24.414,15.625,0.000
1728649858.433,38.574,-11.230,-29.297,18.555,0.000
1728649858.437,28.320,-10.742,-29.785,31.738,0.000
1728649858.440,6.836,-7.812,-49.316,26.367,0.000
1728649858.444,4.395,-8.789,-51.758,18.555,0.000
1728649858.448,30.273,-9.766,-32.227,27.344,0.000
1728649858.452,38.086,-15.625,-41.504,31.738,0.000
1728649858.455,25.879,-23.438,-42.480,19.531,0.000
1728649858.459,2.930,-26.855,-28.320,3.906,0.000
1728649858.463,-14.160,-25.879,-38.086,1.465,0.000
1728649858.467,0.488,-24.414,-52.734,2.441,0.000
1728649858.471,19.043,-22.949,-52.734,7.812,0.000
1728649858.475,14.648,-28.320,-24.902,-1.953,0.000
1728649858.479,-8.301,-28.809,-13.672,-3.906,0.000
1728649858.483,-27.344,-21.484,-17.578,3.906,0.000
1728649858.487,-5.371,-22.461,-17.090,-8.301,0.000
1728649858.491,13.184,-21.484,-20.508,-13.672,0.000
1728649858.495,5.371,-19.531,-23.926,-2.441,0.000
1728649858.498,-17.090,-16.113,-30.273,2.930,0.000
1728649858.501,-36.621,-14.160,-48.828,-3.906,0.000
1728649858.505,-16.602,-17.578,-62.012,-4.395,0.000
1728649858.509,1.465,-20.020,-55.176,-4.883,0.000
1728649858.513,-6.348,-24.902,-33.203,-15.625,0.000
1728649858.517,-24.414,-29.785,-21.973,-22.949,0.000
1728649858.521,-45.410,-30.762,-29.297,-17.090,0.000
1728649858.525,-32.715,-30.273,-26.855,-17.578,0.000
1728649858.529,-9.766,-28.320,-17.578,-30.273,0.000
1728649858.533,-5.859,-27.832,-18.066,-23.438,0.000
1728649858.537,-18.066,-21.973,-25.391,-19.531,0.000
1728649858.540,-40.527,-26.367,-44.922,-30.762,0.000
1728649858.543,-30.762,-25.879,-52.734,-23.926,0.000
1728649858.547,-1.953,-16.602,-50.293,-11.719,0.000
1728649858.551,0.977,-12.695,-38.086,-9.277,0.000
1728649858.555,-25.879,-25.879,-13.672,-25.879,0.000
1728649858.559,-47.363,-31.250,-12.695,-38.086,0.000
1728649858.563,-34.180,-25.391,-24.414,-25.879,0.000
1728649858.567,-19.531,-23.438,-21.484,-23.438,0.000
1728649858.570,-21.973,-24.414,-20.508,-35.645,0.000
