timestamps,TP9,AF7,AF8,TP10,Right AUX
1728630944.477,-2.441,-33.203,-23.926,0.977,0.000
1728630944.481,-3.906,-30.762,-22.461,40.039,0.000
1728630944.485,-7.324,-38.086,-14.648,21.973,0.000
1728630944.489,0.488,-42.480,-15.137,-17.578,0.000
1728630944.492,7.324,-43.457,-15.137,-24.414,0.000
1728630944.496,-34.180,-41.504,-10.742,-12.207,0.000
1728630944.500,-26.367,-40.527,-8.301,22.461,0.000
1728630944.504,-16.602,-40.527,-10.742,3.418,0.000
1728630944.508,-24.414,-34.668,-21.484,-47.852,0.000
1728630944.512,-18.066,-32.715,-30.273,-57.617,0.000
1728630944.516,-30.273,-31.738,-34.180,-50.293,0.000
1728630944.520,-28.809,-28.320,-29.297,-5.859,0.000
1728630944.524,-38.086,-32.227,-33.691,-8.301,0.000
1728630944.528,-44.434,-41.016,-44.922,-76.172,0.000
1728630944.532,-31.250,-51.758,-52.246,-98.145,0.000
1728630944.535,-64.453,-55.664,-57.129,-81.543,0.000
1728630944.539,-52.246,-36.133,-44.922,-19.043,0.000
1728630944.543,-19.043,-22.949,-43.945,6.836,0.000
1728630944.547,-38.574,-33.203,-59.570,-41.016,0.000
1728630944.551,-26.367,-36.621,-56.152,-51.270,0.000
1728630944.555,-33.203,-45.898,-47.363,-27.344,0.000
1728630944.559,-38.574,-52.734,-42.480,17.090,0.000
1728630944.563,-7.324,-41.016,-38.574,30.273,0.000
1728630944.567,-8.301,-41.992,-48.340,-26.855,0.000
1728630944.571,0.977,-47.852,-52.734,-53.711,0.000
1728630944.575,-21.484,-44.922,-44.922,-35.156,0.000
1728630944.578,-20.508,-40.039,-34.180,19.531,0.000
1728630944.582,-1.953,-43.457,-23.438,49.805,0.000
1728630944.586,-27.832,-53.711,-25.879,-9.766,0.000
1728630944.590,-10.254,-60.547,-31.250,-37.598,0.000
1728630944.594,-4.883,-71.289,-30.762,-35.645,0.000
1728630944.598,-24.414,-70.312,-29.785,-9.766,0.000
1728630944.602,-11.719,-57.617,-20.508,25.879,0.000
1728630944.606,-39.551,-55.664,-19.531,-22.461,0.000
1728630944.610,-32.715,-57.129,-21.973,-46.387,0.000
1728630944.614,-29.785,-56.641,-22.949,-42.969,0.000
1728630944.617,-52.246,-54.688,-23.438,-27.832,0.000
1728630944.621,-43.457,-43.457,-18.555,6.836,0.000
1728630944.625,-41.016,-37.109,-29.297,-27.344,0.000
1728630944.629,-7.812,-34.180,-35.645,-68.359,0.000
1728630944.633,-17.578,-32.227,-29.297,-71.777,0.000
1728630944.637,-49.316,-37.109,-30.273,-41.992,0.000
1728630944.641,-33.691,-43.945,-34.180,5.371,0.000
1728630944.645,-34.180,-48.340,-48.340,-17.578,0.000
1728630944.649,-22.461,-40.039,-50.781,-66.406,0.000
1728630944.653,-29.297,-36.621,-48.340,-63.965,0.000
1728630944.657,-62.012,-39.062,-43.945,-29.297,0.000
1728630944.660,-27.344,-33.203,-34.180,11.230,0.000
1728630944.664,-11.230,-32.227,-43.457,-10.742,0.000
1728630944.668,-20.996,-41.992,-55.176,-65.918,0.000
1728630944.672,-12.207,-43.457,-50.293,-61.035,0.000
1728630944.676,-39.551,-32.715,-39.062,-29.297,0.000
1728630944.680,-28.320,-28.320,-20.508,-2.930,0.000
1728630944.684,-18.555,-27.832,-23.438,-3.418,0.000
1728630944.688,-7.324,-35.156,-33.203,-39.551,0.000
1728630944.692,-1.953,-42.480,-27.832,-63.477,0.000
1728630944.696,-44.434,-42.969,-28.320,-42.969,0.000
1728630944.699,-30.762,-45.898,-30.273,21.484,0.000
1728630944.703,-11.719,-49.805,-36.133,19.043,0.000
1728630944.707,-13.672,-49.805,-47.363,-39.062,0.000
1728630944.711,-7.812,-44.922,-41.992,-49.805,0.000
1728630944.715,-24.902,-39.551,-26.855,-29.297,0.000
1728630944.719,-11.230,-43.457,-19.043,21.484,0.000
1728630944.723,1.465,-41.016,-25.391,23.438,0.000
1728630944.727,-14.160,-46.387,-36.621,-42.480,0.000
1728630944.731,0.488,-59.570,-43.945,-54.688,0.000
1728630944.735,-13.184,-66.895,-45.898,-34.180,0.000
1728630944.739,-17.578,-47.852,-31.250,-1.465,0.000
1728630944.742,-6.836,-26.367,-24.414,17.090,0.000
1728630944.746,-29.785,-29.297,-36.133,-32.715,0.000
1728630944.750,-13.672,-31.738,-29.297,-46.387,0.000
1728630944.754,-19.043,-24.414,-12.207,-27.832,0.000
1728630944.758,-39.551,-26.367,-12.207,-4.883,0.000
1728630944.762,-25.391,-40.039,-16.602,16.602,0.000
1728630944.766,-39.551,-43.945,-30.273,-37.109,0.000
1728630944.770,-24.902,-38.086,-37.598,-55.664,0.000
1728630944.774,-22.949,-38.086,-38.574,-45.898,0.000
1728630944.778,-40.039,-35.645,-39.551,-4.395,0.000
1728630944.782,-26.855,-28.809,-31.250,29.785,0.000
1728630944.785,-28.320,-35.156,-29.297,-31.250,0.000
1728630944.789,-10.254,-37.598,-31.738,-61.523,0.000
1728630944.793,-18.555,-41.504,-36.133,-40.527,0.000
1728630944.797,-27.344,-41.016,-21.973,-6.348,0.000
1728630944.801,2.441,-42.480,-7.812,38.574,0.000
1728630944.805,-21.484,-45.898,-20.508,9.766,0.000
1728630944.809,-23.438,-42.969,-27.344,-29.297,0.000
1728630944.813,-9.277,-41.016,-23.438,-34.180,0.000
1728630944.817,-26.367,-36.133,-15.137,-12.695,0.000
1728630944.821,-19.043,-39.551,-0.488,23.438,0.000
1728630944.824,-20.508,-48.340,-10.742,-16.113,0.000
1728630944.828,-21.973,-45.410,-25.879,-48.340,0.000
1728630944.832,-26.855,-33.203,-19.043,-20.508,0.000
1728630944.836,-48.828,-43.945,-22.949,12.207,0.000
1728630944.840,-32.715,-51.270,-24.902,55.664,0.000
1728630944.844,-29.297,-48.340,-24.414,22.949,0.000
1728630944.848,-23.438,-57.129,-38.574,-45.898,0.000
1728630944.852,-19.043,-66.406,-43.457,-59.570,0.000
1728630944.856,-40.039,-62.988,-35.156,-28.320,0.000
1728630944.860,-14.648,-46.387,-20.508,25.879,0.000
1728630944.864,-9.277,-44.434,-23.438,10.254,0.000
1728630944.867,-20.020,-50.781,-36.621,-42.480,0.000
1728630944.871,-8.789,-56.152,-25.879,-37.598,0.000
1728630944.875,-26.855,-56.152,-15.625,-10.742,0.000
1728630944.879,-1.465,-49.805,-15.137,30.273,0.000
1728630944.883,12.207,-57.617,-24.414,24.902,0.000
1728630944.887,-26.855,-62.012,-35.156,-34.668,0.000
1728630944.891,-30.273,-50.781,-29.785,-60.547,0.000
1728630944.895,-46.875,-43.945,-24.414,-48.340,0.000
1728630944.899,-34.668,-40.039,-20.020,2.441,0.000
1728630944.903,-23.926,-36.621,-20.996,13.184,0.000
1728630944.907,-40.527,-41.992,-32.227,-42.969,0.000
1728630944.910,-24.902,-41.992,-37.598,-73.242,0.000
1728630944.914,-47.852,-42.969,-42.969,-56.152,0.000
1728630944.918,-35.645,-47.852,-33.203,-2.930,0.000
1728630944.922,-5.371,-51.270,-23.438,9.277,0.000
1728630944.926,-13.672,-57.129,-37.598,-48.340,0.000
1728630944.930,-14.160,-53.223,-43.457,-64.453,0.000
1728630944.934,-50.781,-44.434,-41.016,-50.293,0.000
1728630944.938,-36.621,-36.621,-35.156,-4.395,0.000
1728630944.942,-18.066,-35.156,-34.668,17.578,0.000
1728630944.946,-35.645,-48.340,-49.316,-35.156,0.000
1728630944.950,-19.043,-56.641,-54.199,-57.129,0.000
1728630944.953,-22.461,-52.246,-44.434,-51.758,0.000
1728630944.957,-17.090,-47.852,-32.715,-4.883,0.000
1728630944.961,-1.465,-47.363,-32.715,21.973,0.000
1728630944.965,-26.367,-54.688,-46.387,-36.621,0.000
1728630944.969,-14.160,-48.828,-42.480,-61.523,0.000
1728630944.973,-22.461,-39.551,-38.086,-38.086,0.000
1728630944.977,-43.945,-36.621,-32.715,-4.395,0.000
1728630944.981,-26.367,-37.598,-18.066,22.949,0.000
1728630944.985,-34.668,-54.199,-22.461,-3.906,0.000
1728630944.989,-16.113,-59.082,-23.438,-38.574,0.000
1728630944.992,-20.508,-49.316,-24.902,-47.363,0.000
1728630944.996,-46.875,-47.852,-29.297,-19.531,0.000
1728630945.000,-12.695,-43.945,-26.855,23.438,0.000
1728630945.004,-13.672,-38.086,-30.762,-18.555,0.000
1728630945.008,-12.695,-36.133,-30.273,-45.898,0.000
1728630945.012,-12.207,-40.039,-31.738,-29.297,0.000
1728630945.016,-31.250,-42.480,-32.227,-6.836,0.000
1728630945.020,-27.344,-44.434,-31.738,29.297,0.000
1728630945.024,-34.668,-41.504,-35.156,-5.859,0.000
1728630945.028,-16.113,-44.434,-41.016,-44.434,0.000
1728630945.032,-13.184,-43.457,-37.598,-48.828,0.000
1728630945.035,-55.176,-35.645,-37.598,-36.621,0.000
1728630945.039,-34.668,-31.250,-38.574,12.695,0.000
1728630945.043,-24.414,-33.203,-46.875,-10.254,0.000
1728630945.047,-38.086,-39.062,-56.152,-55.664,0.000
1728630945.051,-21.484,-44.922,-52.734,-53.223,0.000
1728630945.055,-47.852,-44.434,-48.828,-40.039,0.000
1728630945.059,-30.762,-46.387,-41.992,9.766,0.000
1728630945.063,-14.648,-48.828,-47.363,-0.977,0.000
1728630945.067,-27.832,-42.480,-52.246,-54.199,0.000
1728630945.071,-20.508,-42.480,-54.199,-62.500,0.000
1728630945.074,-53.223,-49.316,-59.570,-45.410,0.000
1728630945.078,-47.852,-54.199,-57.129,-8.789,0.000
1728630945.082,-27.832,-57.617,-54.199,-10.254,0.000
1728630945.086,-42.480,-55.176,-52.734,-54.688,0.000
1728630945.090,-33.203,-43.457,-47.363,-63.477,0.000
1728630945.094,-46.387,-40.039,-45.410,-42.480,0.000
1728630945.098,-23.438,-36.133,-36.621,6.348,0.000
1728630945.102,-9.277,-38.086,-35.645,2.441,0.000
1728630945.106,-50.293,-50.293,-47.363,-54.199,0.000
1728630945.110,-24.902,-54.688,-50.293,-51.758,0.000
1728630945.114,-32.227,-46.875,-43.945,-35.645,0.000
1728630945.117,-33.203,-47.363,-33.203,10.254,0.000
1728630945.121,-12.695,-49.805,-36.133,28.320,0.000
1728630945.125,-20.996,-50.781,-43.945,-42.480,0.000
1728630945.129,-2.441,-40.527,-40.039,-56.152,0.000
1728630945.133,-28.809,-37.109,-38.574,-40.527,0.000
1728630945.137,-40.527,-45.410,-27.344,-5.859,0.000
1728630945.141,-20.996,-40.527,-21.973,29.297,0.000
1728630945.145,-41.992,-44.434,-40.039,-31.250,0.000
1728630945.149,-18.066,-47.852,-41.992,-70.801,0.000
1728630945.153,0.977,-42.480,-43.457,-41.992,0.000
1728630945.156,-37.598,-44.434,-36.621,4.883,0.000
1728630945.160,-31.250,-41.992,-25.391,29.785,0.000
1728630945.164,-33.203,-45.898,-38.086,-19.531,0.000
1728630945.168,-12.695,-54.688,-49.805,-55.664,0.000
1728630945.172,-18.066,-49.805,-41.016,-41.016,0.000
1728630945.176,-51.270,-38.086,-31.250,-7.812,0.000
1728630945.180,-30.273,-31.738,-37.109,9.766,0.000
1728630945.184,-31.250,-42.480,-56.641,-39.062,0.000
1728630945.188,-21.484,-42.969,-54.199,-73.242,0.000
1728630945.192,-25.879,-33.203,-47.852,-48.340,0.000
1728630945.196,-43.945,-34.668,-52.734,-12.695,0.000
1728630945.199,-11.719,-40.039,-50.293,22.949,0.000
1728630945.203,-39.062,-44.922,-57.129,-16.113,0.000
1728630945.207,-18.066,-45.410,-60.059,-62.012,0.000
1728630945.211,-5.859,-46.875,-54.688,-55.664,0.000
1728630945.215,-57.129,-50.781,-47.852,-30.273,0.000
1728630945.219,-24.414,-40.527,-36.133,24.414,0.000
1728630945.223,-15.625,-36.133,-39.551,6.836,0.000
1728630945.227,-12.695,-48.828,-39.551,-34.668,0.000
1728630945.231,5.859,-49.805,-37.109,-37.598,0.000
1728630945.235,-25.391,-36.621,-41.504,-24.902,0.000
1728630945.239,-9.766,-39.062,-44.434,24.414,0.000
1728630945.242,4.395,-51.270,-49.316,14.160,0.000
1728630945.246,-1.953,-53.223,-50.293,-32.715,0.000
1728630945.250,2.441,-49.805,-44.434,-30.762,0.000
1728630945.254,-26.367,-51.758,-39.062,-12.207,0.000
1728630945.258,-29.785,-56.152,-42.969,29.785,0.000
1728630945.262,-27.832,-50.781,-53.223,1.953,0.000
1728630945.266,-26.855,-58.105,-57.617,-72.266,0.000
1728630945.270,-13.672,-56.641,-54.199,-69.824,0.000
1728630945.274,-43.457,-41.992,-44.434,-38.086,0.000
1728630945.278,-40.527,-41.992,-36.133,6.348,0.000
1728630945.281,-25.391,-43.945,-44.922,11.230,0.000
1728630945.285,-35.645,-55.176,-58.594,-45.410,0.000
1728630945.289,-28.809,-59.082,-55.176,-68.848,0.000
1728630945.293,-56.641,-49.805,-44.434,-50.293,0.000
1728630945.297,-49.805,-47.363,-35.156,-1.953,0.000
1728630945.301,-22.949,-49.316,-40.039,10.742,0.000
1728630945.305,-44.434,-69.824,-53.711,-39.551,0.000
1728630945.309,-34.180,-62.988,-42.480,-61.523,0.000
1728630945.313,-36.133,-43.945,-31.250,-39.062,0.000
1728630945.317,-34.668,-54.688,-25.879,8.301,0.000
1728630945.321,-10.254,-58.594,-24.902,31.250,0.000
1728630945.324,-39.062,-57.129,-32.715,-28.320,0.000
1728630945.328,-29.297,-51.270,-34.180,-49.805,0.000
1728630945.332,-41.016,-47.852,-36.133,-27.832,0.000
1728630945.336,-47.363,-46.387,-33.203,5.371,0.000
1728630945.340,-14.648,-43.945,-29.785,30.762,0.000
1728630945.344,-38.086,-51.270,-42.480,-26.855,0.000
1728630945.348,-16.602,-55.664,-48.340,-48.340,0.000
1728630945.352,-9.277,-53.711,-37.598,-21.484,0.000
1728630945.356,-38.574,-43.945,-24.902,16.602,0.000
1728630945.360,-13.184,-42.480,-26.367,37.598,0.000
1728630945.363,-20.508,-41.992,-42.480,-12.695,0.000
1728630945.367,-8.789,-37.598,-40.527,-40.527,0.000
1728630945.371,-15.137,-43.945,-29.785,-23.438,0.000
1728630945.375,-31.250,-43.945,-27.832,3.906,0.000
1728630945.379,-0.488,-41.992,-26.855,26.367,0.000
1728630945.383,-14.160,-42.969,-35.156,-7.812,0.000
1728630945.387,-0.488,-48.828,-43.457,-40.527,0.000
1728630945.391,5.859,-60.059,-49.316,-41.504,0.000
1728630945.395,-23.926,-51.270,-45.410,-8.789,0.000
1728630945.399,-16.602,-40.039,-32.715,33.203,0.000
1728630945.403,-18.066,-39.551,-38.574,1.953,0.000
1728630945.406,-11.230,-41.504,-40.527,-29.297,0.000
1728630945.410,-20.020,-50.293,-34.668,-33.203,0.000
1728630945.414,-41.016,-48.340,-29.297,-12.695,0.000
1728630945.418,-5.859,-35.645,-21.973,40.039,0.000
1728630945.422,-4.395,-34.668,-29.297,4.395,0.000
1728630945.426,1.953,-42.969,-35.645,-48.340,0.000
1728630945.430,-0.488,-49.805,-33.203,-49.316,0.000
1728630945.434,-31.738,-42.969,-27.832,-26.367,0.000
1728630945.438,-22.949,-35.156,-28.809,25.391,0.000
1728630945.442,-17.578,-43.945,-41.504,11.230,0.000
1728630945.446,-18.066,-50.293,-43.945,-41.992,0.000
1728630945.449,-4.395,-47.363,-39.062,-48.828,0.000
1728630945.453,-10.742,-41.504,-34.668,-38.574,0.000
1728630945.457,-20.020,-36.621,-20.996,8.789,0.000
1728630945.461,-24.902,-39.062,-23.926,12.207,0.000
1728630945.465,-25.879,-49.805,-31.738,-40.527,0.000
1728630945.469,-6.836,-53.711,-23.438,-49.805,0.000
1728630945.473,-28.320,-47.852,-23.926,-34.180,0.000
1728630945.477,-41.504,-41.016,-21.973,12.207,0.000
1728630945.481,-22.461,-46.875,-29.785,16.602,0.000
1728630945.485,-25.879,-56.641,-46.875,-40.527,0.000
1728630945.488,-17.578,-41.504,-40.527,-68.848,0.000
1728630945.492,-32.715,-34.180,-30.762,-54.199,0.000
1728630945.496,-20.996,-38.574,-22.461,1.953,0.000
1728630945.500,4.883,-32.715,-20.020,19.531,0.000
1728630945.504,-11.230,-32.715,-27.344,-32.715,0.000
1728630945.508,12.207,-39.062,-31.250,-48.828,0.000
1728630945.512,-2.441,-48.340,-38.574,-46.875,0.000
1728630945.516,-31.738,-49.316,-35.645,-12.695,0.000
1728630945.520,-12.207,-44.434,-36.133,13.672,0.000
1728630945.524,-16.602,-43.457,-51.758,-28.809,0.000
1728630945.528,-17.578,-45.410,-59.082,-58.594,0.000
1728630945.531,-25.879,-41.016,-57.129,-51.270,0.000
1728630945.535,-38.574,-32.715,-41.016,-12.207,0.000
1728630945.539,-24.414,-30.762,-33.691,8.301,0.000
1728630945.543,-25.391,-45.410,-49.316,-30.762,0.000
1728630945.547,-3.906,-54.199,-43.945,-61.523,0.000
1728630945.551,-24.414,-46.875,-39.551,-50.293,0.000
1728630945.555,-45.898,-40.039,-41.016,-13.672,0.000
1728630945.559,-18.555,-36.621,-33.203,6.836,0.000
1728630945.563,-24.414,-35.156,-36.133,-38.086,0.000
1728630945.567,0.488,-39.062,-39.062,-72.266,0.000
1728630945.571,-14.648,-40.527,-39.551,-52.246,0.000
1728630945.574,-51.758,-43.945,-44.434,-11.230,0.000
1728630945.578,-5.859,-53.711,-42.480,22.949,0.000
1728630945.582,-3.418,-49.316,-38.086,-9.277,0.000
1728630945.586,6.348,-54.688,-41.992,-45.898,0.000
1728630945.590,-15.137,-58.594,-58.594,-51.758,0.000
1728630945.594,-69.824,-41.016,-51.270,-29.297,0.000
1728630945.598,-40.039,-31.250,-35.156,24.414,0.000
1728630945.602,-21.973,-39.551,-46.875,-2.441,0.000
1728630945.606,-20.996,-44.434,-52.734,-52.246,0.000
1728630945.610,-24.414,-36.133,-41.992,-42.969,0.000
1728630945.613,-39.551,-36.621,-37.109,-4.395,0.000
1728630945.617,-15.137,-46.387,-29.297,40.039,0.000
1728630945.621,-24.414,-47.852,-33.691,7.812,0.000
1728630945.625,-43.457,-46.387,-33.203,-45.410,0.000
1728630945.629,-20.020,-49.316,-30.762,-53.711,0.000
1728630945.633,-46.387,-53.223,-41.016,-37.598,0.000
1728630945.637,-41.016,-43.945,-29.785,11.719,0.000
1728630945.641,-16.602,-41.504,-29.297,2.930,0.000
1728630945.645,-38.574,-53.711,-41.016,-58.105,0.000
1728630945.649,-33.691,-55.664,-41.016,-64.453,0.000
1728630945.653,-27.344,-51.758,-43.945,-32.227,0.000
1728630945.656,-20.020,-48.340,-37.598,17.578,0.000
1728630945.660,-16.602,-43.457,-32.227,8.789,0.000
1728630945.664,-15.137,-47.363,-44.434,-45.898,0.000
1728630945.668,-12.695,-40.527,-43.945,-57.129,0.000
1728630945.672,-20.508,-23.438,-40.039,-46.387,0.000
1728630945.676,-10.254,-21.484,-31.738,-0.488,0.000
1728630945.680,-10.742,-22.949,-29.785,22.461,0.000
1728630945.684,-13.184,-18.555,-39.551,-41.504,0.000
1728630945.688,-9.277,-20.996,-41.504,-72.266,0.000
1728630945.692,-42.480,-28.320,-49.805,-67.871,0.000
1728630945.696,-56.152,-22.949,-38.574,-25.391,0.000
1728630945.699,-37.109,-20.020,-32.227,6.836,0.000
1728630945.703,-55.664,-25.391,-41.016,-52.734,0.000
1728630945.707,-49.316,-29.297,-37.598,-97.168,0.000
1728630945.711,-62.012,-28.320,-38.086,-96.191,0.000
1728630945.715,-81.055,-21.973,-35.156,-63.965,0.000
1728630945.719,-81.543,-25.391,-36.133,-58.105,0.000
1728630945.723,-126.465,-34.668,-48.828,-125.977,0.000
1728630945.727,-105.469,-29.785,-46.875,-155.762,0.000
1728630945.731,-123.535,-22.461,-42.480,-155.762,0.000
1728630945.735,-167.480,-24.414,-40.039,-129.395,0.000
1728630945.738,-138.672,-26.855,-39.062,-98.145,0.000
1728630945.742,-138.184,-32.227,-58.105,-149.902,0.000
1728630945.746,-127.930,-41.016,-62.988,-177.734,0.000
1728630945.750,-136.719,-38.086,-55.664,-166.016,0.000
1728630945.754,-167.969,-34.180,-50.293,-133.789,0.000
1728630945.758,-130.371,-34.668,-42.969,-75.684,0.000
1728630945.762,-104.980,-39.551,-54.199,-121.582,0.000
1728630945.766,-113.281,-45.410,-59.570,-177.734,0.000
1728630945.770,-132.324,-50.781,-60.547,-165.039,0.000
1728630945.774,-126.953,-55.664,-51.758,-136.230,0.000
1728630945.778,-107.910,-45.410,-41.992,-81.055,0.000
1728630945.781,-130.371,-38.086,-50.781,-90.332,0.000
1728630945.785,-103.027,-42.480,-58.594,-129.883,0.000
1728630945.789,-62.988,-42.480,-56.641,-108.398,0.000
1728630945.793,-73.242,-33.203,-51.758,-59.570,0.000
1728630945.797,-53.711,-31.250,-44.922,-8.789,0.000
1728630945.801,-54.688,-47.852,-40.527,-25.391,0.000
1728630945.805,-45.898,-52.734,-44.434,-68.359,0.000
1728630945.809,-26.367,-55.664,-41.016,-57.617,0.000
1728630945.813,-48.828,-60.547,-35.156,-21.973,0.000
1728630945.817,-25.391,-52.246,-23.438,28.320,0.000
1728630945.820,0.977,-42.480,-17.578,26.367,0.000
1728630945.824,-3.906,-50.293,-32.715,-15.137,0.000
1728630945.828,11.230,-61.523,-38.574,-14.648,0.000
1728630945.832,-3.906,-59.082,-30.273,5.371,0.000
1728630945.836,2.930,-57.617,-22.949,59.082,0.000
1728630945.840,33.691,-71.289,-27.832,55.176,0.000
1728630945.844,24.902,-78.613,-40.527,1.465,0.000
1728630945.848,25.391,-70.801,-34.668,3.418,0.000
1728630945.852,6.836,-60.059,-22.949,21.973,0.000
1728630945.856,24.902,-57.129,-10.742,76.172,0.000
1728630945.860,47.363,-70.312,-13.184,87.891,0.000
1728630945.863,25.879,-72.266,-20.996,10.254,0.000
1728630945.867,41.992,-61.035,-26.367,-18.066,0.000
1728630945.871,35.645,-58.594,-28.320,20.020,0.000
1728630945.875,24.414,-58.105,-16.113,59.082,0.000
1728630945.879,41.504,-63.477,-16.602,64.453,0.000
1728630945.883,58.594,-77.148,-29.297,20.996,0.000
1728630945.887,57.617,-78.613,-26.855,4.395,0.000
1728630945.891,15.137,-64.941,-25.879,20.508,0.000
1728630945.895,5.859,-57.129,-28.809,59.082,0.000
1728630945.899,35.156,-60.059,-30.273,80.078,0.000
1728630945.902,16.113,-70.801,-43.457,34.668,0.000
1728630945.906,26.855,-68.848,-40.527,7.324,0.000
1728630945.910,28.320,-64.453,-28.809,8.301,0.000
1728630945.914,-2.441,-68.848,-23.438,49.805,0.000
1728630945.918,37.598,-68.359,-31.250,75.684,0.000
1728630945.922,48.828,-58.105,-36.133,26.367,0.000
1728630945.926,33.203,-54.199,-26.367,11.719,0.000
1728630945.930,18.066,-48.340,-27.344,19.043,0.000
1728630945.934,13.672,-45.410,-24.902,41.016,0.000
1728630945.938,38.086,-43.945,-21.973,79.590,0.000
1728630945.942,32.715,-41.016,-31.738,45.898,0.000
1728630945.945,38.086,-41.504,-41.016,1.465,0.000
1728630945.949,19.531,-42.480,-39.062,-14.160,0.000
1728630945.953,4.395,-42.969,-26.367,24.414,0.000
1728630945.957,34.180,-39.062,-15.625,79.590,0.000
1728630945.961,36.133,-41.016,-22.461,49.316,0.000
1728630945.965,34.180,-56.641,-35.645,-1.953,0.000
1728630945.969,3.418,-50.781,-36.133,-7.324,0.000
1728630945.973,-19.531,-34.180,-34.668,9.766,0.000
1728630945.977,4.395,-32.715,-34.668,34.180,0.000
1728630945.981,0.000,-38.574,-41.992,3.906,0.000
1728630945.985,2.930,-43.457,-44.434,-20.996,0.000
1728630945.988,3.418,-49.805,-45.898,-13.672,0.000
1728630945.992,-5.859,-52.246,-46.875,0.000,0.000
1728630945.996,17.090,-48.828,-32.227,46.387,0.000
1728630946.000,-3.906,-44.434,-30.762,31.738,0.000
1728630946.004,-28.320,-46.387,-38.086,-22.461,0.000
1728630946.008,-17.578,-56.152,-42.969,-28.809,0.000
1728630946.012,-38.574,-49.805,-40.527,-22.949,0.000
1728630946.016,-18.066,-28.809,-20.020,24.414,0.000
1728630946.020,-1.953,-23.438,-32.227,20.020,0.000
1728630946.024,-15.137,-36.621,-49.316,-41.504,0.000
1728630946.027,0.000,-48.828,-41.992,-53.711,0.000
1728630946.031,-2.441,-42.969,-32.715,-33.203,0.000
1728630946.035,21.484,-31.250,-20.996,25.391,0.000
1728630946.039,11.719,-30.273,-23.926,30.762,0.000
1728630946.043,-23.438,-40.039,-38.086,-28.320,0.000
1728630946.047,-7.324,-40.039,-39.551,-43.457,0.000
1728630946.051,-10.742,-31.250,-26.855,-17.578,0.000
1728630946.055,14.160,-24.414,-12.695,34.180,0.000
1728630946.059,16.602,-24.414,-8.789,42.969,0.000
1728630946.063,-19.043,-33.203,-25.879,-23.926,0.000
1728630946.067,0.488,-38.574,-29.297,-51.758,0.000
1728630946.070,-14.648,-46.387,-20.020,-18.066,0.000
1728630946.074,-18.555,-48.340,-18.555,26.367,0.000
1728630946.078,-10.254,-42.969,-28.809,35.645,0.000
1728630946.082,-27.832,-42.480,-43.945,-15.137,0.000
1728630946.086,-8.301,-40.039,-45.410,-35.645,0.000
1728630946.090,-20.996,-39.551,-48.340,-25.391,0.000
1728630946.094,-40.527,-38.574,-43.457,0.488,0.000
1728630946.098,-4.883,-41.992,-32.715,30.273,0.000
1728630946.102,-15.625,-51.758,-38.086,-18.555,0.000
1728630946.106,-4.395,-46.387,-41.504,-48.828,0.000
1728630946.110,8.301,-35.156,-37.109,-37.109,0.000
1728630946.113,-30.762,-41.016,-32.227,-4.883,0.000
1728630946.117,-17.090,-36.621,-26.855,23.926,0.000
1728630946.121,-11.230,-31.738,-31.738,-20.996,0.000
1728630946.125,-12.695,-40.527,-40.527,-55.664,0.000
1728630946.129,-19.531,-50.781,-41.504,-40.039,0.000
1728630946.133,-23.926,-47.852,-31.250,7.324,0.000
1728630946.137,-9.277,-50.781,-31.250,32.715,0.000
1728630946.141,-11.719,-74.707,-44.434,-20.996,0.000
1728630946.145,-3.418,-78.125,-49.805,-47.363,0.000
1728630946.149,-32.715,-53.711,-49.316,-44.434,0.000
1728630946.152,-50.293,-47.852,-47.852,-17.578,0.000
1728630946.156,-17.090,-47.363,-39.551,28.809,0.000
1728630946.160,-28.809,-39.551,-35.156,-11.719,0.000
1728630946.164,-36.621,-40.527,-40.527,-62.988,0.000
1728630946.168,-31.250,-43.457,-50.293,-60.547,0.000
1728630946.172,-55.664,-45.410,-48.828,-23.438,0.000
1728630946.176,-17.090,-45.410,-33.691,22.949,0.000
1728630946.180,-14.160,-41.992,-36.621,3.418,0.000
1728630946.184,-44.922,-39.551,-51.270,-41.504,0.000
1728630946.188,-31.738,-46.387,-58.594,-60.547,0.000
1728630946.192,-48.340,-42.480,-58.594,-48.340,0.000
1728630946.195,-42.480,-34.668,-40.039,4.395,0.000
1728630946.199,-29.785,-34.668,-36.621,-6.348,0.000
1728630946.203,-20.508,-43.457,-42.969,-54.688,0.000
1728630946.207,-3.418,-40.039,-36.133,-62.500,0.000
1728630946.211,-39.551,-38.574,-31.738,-28.809,0.000
1728630946.215,-25.879,-46.875,-26.367,41.504,0.000
1728630946.219,6.836,-36.133,-30.762,33.691,0.000
1728630946.223,0.977,-28.320,-38.086,-24.414,0.000
1728630946.227,-15.137,-36.133,-42.969,-29.785,0.000
1728630946.231,-43.945,-45.410,-48.340,-24.414,0.000
1728630946.234,-27.832,-48.828,-37.598,24.414,0.000
1728630946.238,-15.137,-44.922,-34.180,28.320,0.000
1728630946.242,-19.531,-44.922,-41.992,-42.480,0.000
1728630946.246,-13.184,-50.293,-43.945,-61.035,0.000
1728630946.250,-41.504,-53.223,-40.527,-45.410,0.000
1728630946.254,-33.691,-45.410,-23.926,1.465,0.000
1728630946.258,-10.742,-34.180,-24.902,13.672,0.000
1728630946.262,-42.480,-39.062,-42.969,-38.086,0.000
1728630946.266,-31.250,-36.621,-46.875,-66.895,0.000
1728630946.270,-36.621,-24.414,-43.457,-44.434,0.000
1728630946.274,-34.668,-28.320,-37.109,9.277,0.000
1728630946.277,-0.977,-37.109,-35.645,4.395,0.000
1728630946.281,-33.203,-39.062,-42.969,-57.129,0.000
1728630946.285,-30.273,-45.898,-42.480,-74.219,0.000
1728630946.289,-22.949,-57.129,-39.062,-51.270,0.000
1728630946.293,-31.738,-48.340,-37.109,-3.906,0.000
1728630946.297,-14.648,-31.250,-30.762,19.043,0.000
1728630946.301,-21.484,-28.809,-41.016,-28.809,0.000
1728630946.305,8.789,-28.809,-40.527,-50.293,0.000
1728630946.309,3.418,-29.785,-31.738,-33.203,0.000
1728630946.313,-35.156,-31.250,-31.250,1.953,0.000
1728630946.316,-7.324,-33.203,-36.133,24.902,0.000
1728630946.320,-20.020,-43.945,-48.828,-10.742,0.000
1728630946.324,-23.438,-48.828,-53.711,-33.203,0.000
1728630946.328,-18.066,-47.852,-41.992,-39.551,0.000
1728630946.332,-34.668,-44.434,-32.715,-9.277,0.000
1728630946.336,-9.277,-32.715,-31.738,36.621,0.000
1728630946.340,-17.090,-25.879,-36.621,7.324,0.000
1728630946.344,-10.742,-28.320,-37.598,-46.387,0.000
1728630946.348,-0.488,-33.691,-40.527,-65.430,0.000
1728630946.352,-41.016,-43.945,-48.340,-40.039,0.000
1728630946.356,-22.461,-50.293,-37.598,20.508,0.000
1728630946.359,-18.555,-45.410,-30.273,1.465,0.000
1728630946.363,-14.160,-42.969,-41.992,-50.293,0.000
1728630946.367,3.418,-50.293,-41.992,-42.480,0.000
1728630946.371,-33.691,-57.129,-34.668,-13.184,0.000
1728630946.375,-37.598,-48.828,-34.668,20.020,0.000
1728630946.379,-29.785,-43.457,-40.039,-3.418,0.000
1728630946.383,-17.578,-43.457,-53.223,-41.992,0.000
1728630946.387,4.395,-38.574,-53.711,-56.152,0.000
1728630946.391,-31.250,-37.598,-48.828,-43.457,0.000
1728630946.395,-30.273,-34.668,-54.688,10.254,0.000
1728630946.399,0.000,-34.180,-62.988,-8.789,0.000
1728630946.402,-16.602,-44.434,-62.988,-74.707,0.000
1728630946.406,-17.578,-46.387,-51.758,-64.941,0.000
1728630946.410,-36.133,-43.945,-43.945,-29.297,0.000
1728630946.414,-23.926,-38.574,-34.180,17.090,0.000
1728630946.418,-9.766,-44.434,-33.691,13.672,0.000
1728630946.422,-18.555,-50.293,-47.852,-47.363,0.000
1728630946.426,7.812,-41.016,-49.805,-50.781,0.000
1728630946.430,-26.855,-40.039,-39.062,-24.414,0.000
1728630946.434,-37.109,-30.273,-26.367,0.000,0.000
1728630946.438,-15.137,-35.645,-30.273,8.789,0.000
1728630946.441,-9.277,-50.293,-37.598,-31.738,0.000
1728630946.445,0.000,-46.875,-45.410,-52.734,0.000
1728630946.449,-20.508,-43.945,-50.781,-40.527,0.000
1728630946.453,-38.574,-36.621,-36.133,2.441,0.000
1728630946.457,-31.250,-40.527,-36.133,22.461,0.000
1728630946.461,-23.926,-47.363,-47.852,-28.809,0.000
1728630946.465,-13.184,-52.246,-51.270,-62.012,0.000
1728630946.469,-30.273,-52.246,-54.199,-49.316,0.000
1728630946.473,-24.414,-47.852,-42.969,-0.977,0.000
1728630946.477,-3.418,-40.039,-30.762,12.695,0.000
1728630946.481,-13.672,-34.180,-34.180,-37.598,0.000
1728630946.484,-3.906,-46.875,-35.156,-62.988,0.000
1728630946.488,-30.762,-58.594,-41.016,-72.266,0.000
1728630946.492,-46.387,-52.734,-39.551,-25.879,0.000
1728630946.496,-13.672,-43.457,-33.691,20.020,0.000
1728630946.500,-18.555,-47.852,-52.734,-32.715,0.000
1728630946.504,-0.977,-51.270,-59.082,-60.547,0.000
1728630946.508,-14.648,-43.945,-50.293,-48.828,0.000
1728630946.512,-51.270,-41.016,-40.527,-24.414,0.000
1728630946.516,-22.461,-31.738,-35.156,30.273,0.000
1728630946.520,-19.043,-29.785,-47.852,2.930,0.000
1728630946.524,-23.926,-27.832,-51.270,-45.898,0.000
1728630946.527,-29.785,-25.391,-51.758,-42.480,0.000
1728630946.531,-46.875,-31.738,-49.805,-20.020,0.000
1728630946.535,-20.020,-35.156,-39.551,19.531,0.000
1728630946.539,-17.090,-38.574,-41.992,-1.953,0.000
1728630946.543,-11.230,-35.156,-44.922,-39.062,0.000
1728630946.547,7.812,-33.691,-39.062,-40.527,0.000
1728630946.551,-33.203,-40.527,-35.645,-26.367,0.000
1728630946.555,-40.527,-39.062,-28.809,19.531,0.000
1728630946.559,-18.555,-41.992,-34.668,3.418,0.000
1728630946.563,-10.254,-40.039,-44.434,-42.969,0.000
1728630946.566,-8.789,-35.156,-46.387,-48.828,0.000
1728630946.570,-38.574,-37.109,-42.480,-29.297,0.000
1728630946.574,-11.719,-31.738,-42.969,21.973,0.000
1728630946.578,-3.906,-31.738,-57.617,0.000,0.000
1728630946.582,-29.785,-39.062,-61.035,-55.664,0.000
1728630946.586,-24.414,-38.086,-48.340,-47.363,0.000
1728630946.590,-52.246,-43.457,-42.480,-30.762,0.000
1728630946.594,-27.344,-52.246,-36.133,-0.977,0.000
1728630946.598,-9.766,-46.387,-27.832,6.348,0.000
1728630946.602,-20.508,-38.574,-20.508,-36.621,0.000
1728630946.606,3.906,-47.363,-19.043,-44.922,0.000
1728630946.609,-23.438,-43.945,-17.578,-33.203,0.000
1728630946.613,-28.809,-28.320,-9.277,8.789,0.000
1728630946.617,-15.625,-23.438,-15.625,30.762,0.000
1728630946.621,-18.555,-28.320,-24.902,-20.508,0.000
1728630946.625,-0.488,-34.668,-20.020,-45.410,0.000
1728630946.629,-21.973,-37.598,-14.648,-23.926,0.000
1728630946.633,-19.531,-40.527,-10.742,31.738,0.000
1728630946.637,-2.441,-41.992,-15.137,41.016,0.000
1728630946.641,-19.043,-38.086,-20.996,-15.625,0.000
1728630946.645,2.441,-37.109,-21.484,-40.527,0.000
1728630946.648,-18.066,-44.434,-22.949,-34.180,0.000
1728630946.652,-28.809,-39.062,-20.020,6.836,0.000
1728630946.656,-0.977,-25.391,-15.625,32.227,0.000
1728630946.660,-3.906,-30.273,-23.926,-12.695,0.000
1728630946.664,-0.488,-39.551,-28.320,-34.180,0.000
1728630946.668,-23.438,-36.621,-26.367,-38.574,0.000
1728630946.672,-31.738,-32.715,-17.578,1.953,0.000
1728630946.676,-0.977,-31.738,-19.531,35.645,0.000
1728630946.680,-2.441,-43.457,-36.621,-21.484,0.000
1728630946.684,-1.465,-45.410,-40.039,-47.363,0.000
1728630946.688,-17.578,-41.504,-40.527,-49.805,0.000
1728630946.691,-34.180,-41.016,-38.086,-20.508,0.000
1728630946.695,-12.207,-40.527,-39.551,25.391,0.000
1728630946.699,-43.457,-46.387,-52.734,-18.555,0.000
1728630946.703,-30.762,-43.945,-48.828,-63.477,0.000
1728630946.707,-24.902,-39.551,-45.898,-62.988,0.000
1728630946.711,-56.641,-45.898,-50.293,-38.086,0.000
1728630946.715,-22.949,-45.410,-33.691,9.766,0.000
1728630946.719,-24.414,-42.480,-28.809,-16.602,0.000
1728630946.723,-31.738,-57.129,-36.621,-62.500,0.000
1728630946.727,-8.789,-57.129,-31.250,-62.500,0.000
1728630946.731,-43.945,-45.898,-20.996,-22.461,0.000
1728630946.734,-49.805,-47.852,-18.066,9.766,0.000
1728630946.738,-44.922,-58.594,-27.344,-32.715,0.000
1728630946.742,-37.598,-57.129,-41.016,-63.965,0.000
1728630946.746,-20.508,-48.828,-42.969,-63.477,0.000
1728630946.750,-57.617,-41.016,-41.504,-46.875,0.000
1728630946.754,-36.133,-31.738,-30.762,8.301,0.000
1728630946.758,-12.695,-34.668,-30.273,1.465,0.000
1728630946.762,-16.113,-40.527,-41.992,-52.246,0.000
1728630946.766,0.977,-42.480,-39.551,-58.594,0.000
1728630946.770,-25.879,-35.156,-34.180,-28.809,0.000
1728630946.773,-22.949,-29.297,-27.832,35.645,0.000
1728630946.777,2.441,-25.391,-32.715,26.367,0.000
1728630946.781,-19.043,-25.879,-39.551,-30.273,0.000
1728630946.785,-33.203,-34.180,-42.480,-34.668,0.000
1728630946.789,-37.598,-36.133,-50.293,-20.508,0.000
1728630946.793,-7.812,-30.762,-42.480,24.902,0.000
1728630946.797,23.926,-26.855,-32.715,7.324,0.000
1728630946.801,-7.812,-23.926,-45.898,-48.828,0.000
1728630946.805,-3.418,-30.273,-48.340,-35.156,0.000
1728630946.809,-5.859,-38.086,-33.691,-20.508,0.000
1728630946.813,-15.625,-32.227,-18.066,12.207,0.000
1728630946.816,-10.254,-28.809,-11.230,20.996,0.000
1728630946.820,-32.227,-37.109,-24.902,-28.320,0.000
1728630946.824,-26.367,-39.062,-24.902,-42.969,0.000
1728630946.828,-31.738,-37.109,-14.648,-45.410,0.000
1728630946.832,-20.508,-33.203,-12.695,-5.371,0.000
1728630946.836,-13.184,-35.645,-14.648,18.066,0.000
1728630946.840,-36.133,-44.434,-29.297,-39.551,0.000
1728630946.844,-20.020,-34.180,-33.691,-53.711,0.000
1728630946.848,-24.414,-33.691,-28.320,-31.250,0.000
1728630946.852,-30.273,-48.828,-20.996,-0.488,0.000
1728630946.856,-20.508,-43.457,-14.648,13.672,0.000
1728630946.859,-34.668,-35.156,-23.926,-41.016,0.000
1728630946.863,-16.113,-43.457,-34.180,-47.363,0.000
1728630946.867,-14.648,-45.898,-26.855,-24.902,0.000
1728630946.871,-32.715,-37.598,-28.809,-4.395,0.000
1728630946.875,-17.090,-40.039,-44.922,19.043,0.000
1728630946.879,-17.578,-43.457,-58.594,-22.461,0.000
1728630946.883,-24.414,-46.875,-62.988,-58.105,0.000
1728630946.887,-49.316,-49.316,-55.176,-47.852,0.000
1728630946.891,-46.387,-47.363,-44.922,-4.395,0.000
1728630946.895,-3.418,-41.016,-39.551,38.574,0.000
1728630946.899,-1.465,-25.879,-37.598,-6.836,0.000
1728630946.902,14.160,-35.645,-41.504,-46.387,0.000
1728630946.906,2.930,-50.293,-47.363,-36.133,0.000
1728630946.910,-32.227,-45.898,-41.992,-5.859,0.000
1728630946.914,-11.230,-41.504,-34.668,29.297,0.000
1728630946.918,-19.531,-47.852,-49.316,-4.395,0.000
1728630946.922,-20.508,-53.711,-53.711,-39.551,0.000
1728630946.926,-18.066,-49.805,-47.852,-42.969,0.000
1728630946.930,-44.434,-43.945,-35.156,-16.113,0.000
1728630946.934,-15.137,-40.039,-24.414,29.297,0.000
1728630946.938,-12.207,-45.410,-30.273,8.789,0.000
1728630946.941,-25.391,-52.734,-28.809,-36.133,0.000
1728630946.945,-17.090,-54.688,-32.227,-58.105,0.000
1728630946.949,-31.250,-47.852,-35.156,-34.180,0.000
1728630946.953,-8.789,-44.922,-34.668,20.996,0.000
1728630946.957,-13.672,-40.527,-36.133,-2.930,0.000
1728630946.961,-24.902,-33.203,-40.039,-48.828,0.000
1728630946.965,-3.906,-35.645,-38.574,-49.805,0.000
1728630946.969,-18.066,-42.969,-32.715,-33.691,0.000
1728630946.973,0.977,-36.133,-22.949,29.785,0.000
1728630946.977,2.441,-38.574,-29.785,33.691,0.000
1728630946.981,-20.508,-55.176,-49.805,-20.020,0.000
1728630946.984,-9.277,-61.035,-56.641,-27.344,0.000
1728630946.988,-33.691,-49.316,-42.480,-33.203,0.000
1728630946.992,-25.879,-31.738,-28.809,3.418,0.000
1728630946.996,-8.789,-30.762,-30.273,10.742,0.000
1728630947.000,-22.461,-46.387,-41.016,-30.762,0.000
1728630947.004,-18.555,-48.340,-46.875,-50.781,0.000
1728630947.008,-33.203,-39.551,-42.969,-49.805,0.000
1728630947.012,-4.395,-38.086,-36.133,-1.465,0.000
1728630947.016,8.301,-44.434,-33.691,12.695,0.000
1728630947.020,-24.414,-48.828,-43.945,-48.828,0.000
1728630947.024,-28.809,-51.758,-61.035,-69.824,0.000
1728630947.027,-49.316,-56.641,-68.359,-53.223,0.000
1728630947.031,-48.340,-52.734,-58.594,-20.508,0.000
1728630947.035,-14.648,-32.715,-48.340,10.742,0.000
1728630947.039,-21.484,-32.715,-62.012,-27.344,0.000
1728630947.043,-6.836,-49.316,-67.871,-48.828,0.000
1728630947.047,-20.508,-46.875,-46.387,-36.133,0.000
1728630947.051,-47.363,-43.945,-32.715,3.418,0.000
1728630947.055,-16.602,-47.852,-31.250,38.574,0.000
1728630947.059,-25.391,-47.852,-39.551,-11.230,0.000
1728630947.063,-17.578,-41.992,-41.504,-57.617,0.000
1728630947.066,-28.320,-44.434,-39.551,-56.641,0.000
1728630947.070,-58.594,-54.688,-39.062,-2.930,0.000
1728630947.074,-14.160,-62.988,-37.598,28.809,0.000
1728630947.078,-11.719,-54.199,-39.062,-23.926,0.000
1728630947.082,-5.371,-44.922,-34.180,-51.758,0.000
1728630947.086,-6.348,-54.688,-41.504,-40.527,0.000
1728630947.090,-42.480,-57.617,-44.434,-12.207,0.000
1728630947.094,-20.020,-41.504,-29.785,16.602,0.000
1728630947.098,-26.367,-40.039,-44.922,-21.973,0.000
1728630947.102,-25.879,-42.969,-57.617,-65.918,0.000
1728630947.106,-12.695,-45.898,-51.270,-56.152,0.000
1728630947.109,-26.855,-43.457,-44.434,-23.926,0.000
1728630947.113,-2.441,-33.203,-38.086,17.090,0.000
1728630947.117,-7.324,-39.062,-44.922,-1.953,0.000
1728630947.121,-12.695,-50.781,-52.246,-34.668,0.000
1728630947.125,6.348,-46.387,-45.410,-32.715,0.000
1728630947.129,-23.926,-41.992,-37.598,-20.996,0.000
1728630947.133,-28.320,-45.410,-34.668,15.137,0.000
1728630947.137,-31.250,-51.758,-42.969,-5.859,0.000
1728630947.141,-32.227,-50.293,-51.270,-54.688,0.000
1728630947.145,-8.789,-41.504,-49.805,-44.922,0.000
1728630947.149,-41.992,-52.734,-43.457,-26.855,0.000
1728630947.152,-41.016,-55.664,-36.621,9.766,0.000
1728630947.156,-19.531,-50.293,-42.480,-0.488,0.000
1728630947.160,-29.297,-51.758,-56.641,-58.105,0.000
1728630947.164,-26.367,-56.641,-50.293,-72.266,0.000
1728630947.168,-41.016,-60.059,-39.062,-28.809,0.000
1728630947.172,-29.297,-52.734,-33.691,23.926,0.000
1728630947.176,-13.184,-47.363,-34.180,19.531,0.000
1728630947.180,-24.902,-59.082,-36.133,-17.578,0.000
1728630947.184,-11.719,-61.523,-28.320,-38.086,0.000
1728630947.188,-38.086,-60.059,-30.273,-38.086,0.000
1728630947.191,-57.129,-55.664,-25.391,9.766,0.000
1728630947.195,-29.785,-53.711,-16.602,33.691,0.000
1728630947.199,-21.973,-62.500,-25.391,-28.320,0.000
1728630947.203,2.441,-58.594,-28.320,-50.293,0.000
1728630947.207,-18.555,-52.734,-26.855,-29.785,0.000
1728630947.211,-36.621,-54.688,-20.996,5.371,0.000
1728630947.215,-19.531,-56.641,-29.297,17.090,0.000
1728630947.219,-21.973,-60.547,-44.922,-38.574,0.000
1728630947.223,2.441,-62.988,-49.805,-70.312,0.000
1728630947.227,-38.086,-69.824,-44.434,-65.430,0.000
1728630947.231,-62.500,-61.035,-35.645,-28.320,0.000
1728630947.234,-21.973,-44.922,-31.250,12.207,0.000
1728630947.238,-20.020,-44.922,-30.762,-20.996,0.000
1728630947.242,-8.789,-48.828,-31.250,-35.156,0.000
1728630947.246,-26.855,-50.293,-34.668,-17.090,0.000
1728630947.250,-38.086,-55.664,-33.203,7.324,0.000
1728630947.254,-4.883,-45.898,-30.762,30.273,0.000
1728630947.258,-18.555,-45.898,-39.551,-25.391,0.000
1728630947.262,-17.090,-65.918,-41.504,-67.383,0.000
1728630947.266,-22.461,-69.824,-33.691,-56.641,0.000
1728630947.270,-40.527,-67.383,-20.020,-8.301,0.000
1728630947.274,-10.742,-52.246,-2.930,31.250,0.000
1728630947.277,-7.324,-42.480,-12.207,-12.207,0.000
1728630947.281,-20.996,-48.340,-18.066,-46.387,0.000
1728630947.285,-24.414,-48.828,-13.672,-51.758,0.000
1728630947.289,-28.809,-47.852,-10.254,-25.879,0.000
1728630947.293,-14.160,-45.898,-4.883,25.879,0.000
1728630947.297,-24.414,-49.805,-10.742,-10.742,0.000
1728630947.301,-24.414,-53.711,-21.484,-58.594,0.000
1728630947.305,-27.344,-54.688,-28.809,-57.617,0.000
1728630947.309,-50.293,-59.082,-27.344,-37.109,0.000
1728630947.313,-22.949,-51.270,-23.926,17.090,0.000
1728630947.316,-13.672,-34.180,-28.809,-2.930,0.000
1728630947.320,-21.973,-30.273,-36.621,-55.664,0.000
1728630947.324,-24.902,-40.039,-42.969,-54.199,0.000
1728630947.328,-23.926,-44.922,-34.668,-27.832,0.000
1728630947.332,14.648,-34.668,-19.043,29.785,0.000
1728630947.336,-1.465,-38.574,-28.320,18.555,0.000
1728630947.340,-19.531,-46.875,-39.062,-36.621,0.000
1728630947.344,-6.836,-40.527,-40.039,-36.621,0.000
1728630947.348,-13.184,-41.504,-44.434,-20.508,0.000
1728630947.352,3.418,-41.504,-29.785,21.973,0.000
1728630947.356,0.000,-44.922,-32.715,36.621,0.000
1728630947.359,-13.184,-56.152,-51.270,-3.906,0.000
1728630947.363,2.930,-49.316,-43.457,-26.367,0.000
1728630947.367,-35.156,-38.574,-37.109,-33.691,0.000
1728630947.371,-31.738,-33.203,-38.574,13.184,0.000
1728630947.375,0.488,-24.902,-37.598,29.297,0.000
1728630947.379,-1.953,-29.785,-35.156,-29.297,0.000
1728630947.383,-1.953,-39.062,-35.156,-42.969,0.000
1728630947.387,-33.203,-47.852,-45.410,-33.203,0.000
1728630947.391,-30.762,-41.992,-39.062,2.441,0.000
1728630947.395,-6.348,-32.227,-26.855,24.414,0.000
1728630947.398,-18.555,-37.109,-34.668,-22.461,0.000
1728630947.402,-7.324,-42.969,-37.598,-40.039,0.000
1728630947.406,-20.996,-45.898,-29.785,-27.832,0.000
1728630947.410,-28.809,-38.574,-13.184,11.719,0.000
1728630947.414,6.836,-37.109,-7.324,29.297,0.000
1728630947.418,-13.184,-47.852,-18.555,-14.648,0.000
1728630947.422,-15.625,-44.434,-12.207,-43.945,0.000
1728630947.426,-23.438,-37.109,-8.301,-35.156,0.000
1728630947.430,-30.762,-35.645,-4.883,24.414,0.000
1728630947.434,-9.766,-39.062,-3.418,40.527,0.000
1728630947.438,-31.250,-50.293,-19.531,-27.344,0.000
1728630947.441,-22.461,-58.105,-25.391,-60.547,0.000
1728630947.445,-27.832,-47.363,-29.785,-45.898,0.000
1728630947.449,-57.129,-50.781,-32.227,-11.230,0.000
1728630947.453,-27.344,-57.617,-18.555,21.973,0.000
1728630947.457,-34.668,-49.316,-17.578,-10.254,0.000
1728630947.461,-33.691,-46.875,-21.484,-43.945,0.000
1728630947.465,-24.902,-46.387,-25.391,-45.410,0.000
1728630947.469,-47.852,-50.293,-25.391,-25.391,0.000
1728630947.473,-23.926,-67.383,-22.461,13.672,0.000
1728630947.477,-16.602,-67.383,-29.785,-12.695,0.000
1728630947.481,-23.438,-60.059,-39.551,-59.570,0.000
1728630947.484,-23.438,-57.129,-36.621,-58.105,0.000
1728630947.488,-36.133,-37.109,-24.902,-13.672,0.000
1728630947.492,-8.301,-28.320,-19.043,37.598,0.000
1728630947.496,-2.930,-31.738,-33.203,-7.324,0.000
1728630947.500,-20.508,-35.156,-41.504,-65.430,0.000
1728630947.504,-19.043,-41.504,-39.551,-45.410,0.000
1728630947.508,-37.109,-52.734,-43.945,-15.137,0.000
1728630947.512,-26.855,-49.316,-32.227,24.414,0.000
1728630947.516,-21.484,-37.598,-27.832,15.625,0.000
1728630947.520,-38.574,-46.387,-36.133,-35.156,0.000
1728630947.523,-29.785,-49.805,-34.180,-50.293,0.000
1728630947.527,-48.340,-43.945,-28.809,-31.738,0.000
1728630947.531,-21.484,-39.551,-16.113,20.996,0.000
1728630947.535,-16.113,-42.480,-22.461,5.859,0.000
1728630947.539,-43.457,-56.641,-33.691,-48.340,0.000
1728630947.543,-30.273,-58.594,-22.949,-53.223,0.000
1728630947.547,-48.340,-49.805,-15.625,-57.129,0.000
1728630947.551,-42.480,-54.688,-26.855,-18.555,0.000
1728630947.555,-28.809,-70.312,-36.133,1.953,0.000
1728630947.559,-41.016,-69.824,-37.109,-45.898,0.000
1728630947.563,-23.926,-60.547,-41.504,-70.801,0.000
1728630947.566,-44.434,-53.711,-37.598,-51.758,0.000
1728630947.570,-37.598,-50.781,-23.438,-2.441,0.000
1728630947.574,-13.184,-51.758,-22.461,12.695,0.000
1728630947.578,-19.043,-53.711,-37.598,-30.762,0.000
1728630947.582,3.418,-57.129,-43.945,-44.922,0.000
1728630947.586,-21.973,-58.594,-36.133,-23.438,0.000
1728630947.590,-37.109,-62.012,-32.227,18.066,0.000
1728630947.594,-11.719,-65.918,-30.762,35.645,0.000
1728630947.598,-20.508,-71.289,-42.969,-13.184,0.000
1728630947.602,-12.695,-70.801,-48.340,-42.480,0.000
1728630947.606,-29.297,-61.035,-36.621,-34.668,0.000
1728630947.609,-34.180,-61.035,-31.250,8.789,0.000
1728630947.613,-2.441,-67.871,-39.551,30.762,0.000
1728630947.617,-2.930,-67.871,-42.969,-19.531,0.000
1728630947.621,18.066,-70.801,-36.621,-51.270,0.000
1728630947.625,-0.488,-73.242,-34.668,-48.828,0.000
1728630947.629,-32.227,-59.570,-28.809,9.766,0.000
1728630947.633,-7.812,-57.129,-13.184,50.781,0.000
1728630947.637,-20.020,-79.102,-22.461,-7.812,0.000
1728630947.641,-16.602,-82.031,-37.109,-41.504,0.000
1728630947.645,-19.531,-77.148,-39.551,-38.086,0.000
1728630947.648,-37.598,-65.918,-19.531,-7.324,0.000
1728630947.652,-3.906,-55.176,-11.230,40.039,0.000
1728630947.656,-12.695,-66.895,-33.691,2.930,0.000
1728630947.660,-18.066,-80.566,-42.480,-37.598,0.000
1728630947.664,-15.625,-75.684,-38.086,-43.457,0.000
1728630947.668,-33.691,-73.242,-36.621,-19.531,0.000
1728630947.672,-15.137,-70.312,-31.250,32.715,0.000
1728630947.676,-14.648,-64.453,-34.180,2.441,0.000
1728630947.680,-7.812,-73.730,-45.410,-58.105,0.000
1728630947.684,-19.531,-81.543,-45.410,-60.547,0.000
1728630947.688,-52.734,-83.008,-44.434,-23.438,0.000
1728630947.691,-23.926,-72.754,-34.668,16.113,0.000
1728630947.695,-11.719,-66.406,-31.738,-13.672,0.000
1728630947.699,-19.531,-72.266,-45.898,-51.758,0.000
1728630947.703,-11.719,-72.754,-53.711,-51.270,0.000
1728630947.707,-27.344,-70.312,-50.293,-27.344,0.000
1728630947.711,-14.160,-63.477,-44.922,30.762,0.000
1728630947.715,-13.184,-67.871,-46.387,20.996,0.000
1728630947.719,-25.879,-75.195,-54.688,-34.180,0.000
1728630947.723,-20.020,-69.824,-56.641,-47.363,0.000
1728630947.727,-36.133,-62.988,-54.199,-33.203,0.000
1728630947.730,-17.090,-65.430,-51.270,20.020,0.000
1728630947.734,-4.395,-70.312,-52.246,17.578,0.000
1728630947.738,-14.648,-66.406,-51.270,-45.898,0.000
1728630947.742,1.953,-68.359,-51.270,-64.941,0.000
1728630947.746,-31.738,-70.801,-52.734,-55.176,0.000
1728630947.750,-33.203,-68.359,-40.039,6.348,0.000
1728630947.754,-15.625,-73.730,-32.227,22.461,0.000
1728630947.758,-38.574,-74.219,-40.527,-37.109,0.000
1728630947.762,-32.227,-75.195,-45.898,-48.828,0.000
1728630947.766,-41.016,-74.219,-42.969,-37.598,0.000
1728630947.769,-52.734,-74.219,-36.621,-7.812,0.000
1728630947.773,-33.203,-74.219,-34.180,15.625,0.000
1728630947.777,-36.133,-79.590,-42.969,-32.227,0.000
1728630947.781,-26.367,-84.473,-37.598,-57.129,0.000
1728630947.785,-40.527,-78.125,-31.250,-41.992,0.000
1728630947.789,-37.109,-71.777,-24.414,-6.348,0.000
1728630947.793,-5.859,-67.871,-18.066,13.672,0.000
1728630947.797,-36.133,-70.312,-28.809,-30.762,0.000
1728630947.801,-24.902,-73.242,-29.297,-47.363,0.000
1728630947.805,-23.926,-80.078,-23.926,-30.762,0.000
1728630947.809,-41.504,-88.379,-21.973,8.301,0.000
1728630947.812,-11.230,-78.125,-20.996,31.738,0.000
1728630947.816,-6.836,-72.754,-22.461,-31.250,0.000
1728630947.820,9.277,-76.172,-28.320,-65.430,0.000
1728630947.824,-5.859,-81.543,-31.738,-40.039,0.000
1728630947.828,-29.785,-76.660,-24.902,1.465,0.000
1728630947.832,-15.625,-67.871,-22.461,21.973,0.000
1728630947.836,-36.621,-76.660,-35.645,-17.578,0.000
1728630947.840,-34.180,-86.426,-44.922,-41.992,0.000
1728630947.844,-37.109,-82.520,-36.133,-34.668,0.000
1728630947.848,-55.176,-69.336,-31.250,-5.371,0.000
1728630947.852,-31.738,-58.594,-35.645,26.367,0.000
1728630947.855,-35.156,-62.012,-41.016,-6.836,0.000
1728630947.859,-25.879,-61.035,-45.898,-65.918,0.000
1728630947.863,-26.855,-62.012,-40.039,-83.008,0.000
1728630947.867,-52.246,-65.918,-24.414,-41.992,0.000
1728630947.871,-25.391,-58.105,-13.184,7.324,0.000
1728630947.875,-42.969,-56.641,-20.020,-21.484,0.000
1728630947.879,-40.527,-61.035,-36.133,-69.824,0.000
1728630947.883,-7.812,-66.406,-46.387,-65.918,0.000
1728630947.887,-30.762,-63.477,-39.551,-41.992,0.000
1728630947.891,-20.020,-53.223,-27.832,3.906,0.000
1728630947.895,-23.926,-60.059,-35.645,-9.766,0.000
1728630947.898,-35.156,-70.312,-39.062,-46.387,0.000
1728630947.902,-31.738,-68.848,-32.715,-34.668,0.000
1728630947.906,-54.688,-62.988,-34.180,-22.949,0.000
1728630947.910,-27.344,-65.430,-28.809,22.949,0.000
1728630947.914,-3.418,-65.918,-33.691,11.230,0.000
1728630947.918,-9.766,-69.336,-43.457,-43.945,0.000
1728630947.922,-9.766,-73.730,-38.086,-42.480,0.000
1728630947.926,-38.574,-66.406,-31.738,-27.344,0.000
1728630947.930,-29.297,-64.453,-30.273,17.578,0.000
1728630947.934,-13.184,-60.547,-32.227,15.625,0.000
1728630947.937,-26.367,-59.082,-40.527,-39.551,0.000
1728630947.941,-14.160,-67.383,-43.945,-48.828,0.000
1728630947.945,-30.762,-69.336,-37.598,-29.785,0.000
1728630947.949,-28.320,-59.570,-41.016,12.695,0.000
1728630947.953,-16.113,-60.059,-55.176,11.230,0.000
1728630947.957,-25.879,-64.941,-53.711,-55.176,0.000
1728630947.961,-5.859,-68.848,-46.387,-63.477,0.000
1728630947.965,-20.020,-74.219,-41.016,-30.762,0.000
1728630947.969,-31.738,-66.406,-32.227,0.977,0.000
1728630947.973,-7.324,-63.477,-38.086,6.348,0.000
1728630947.977,8.301,-70.801,-45.898,-35.156,0.000
1728630947.980,0.000,-69.824,-38.574,-45.410,0.000
1728630947.984,-37.598,-71.289,-43.945,-24.902,0.000
1728630947.988,-35.645,-64.453,-40.527,12.695,0.000
1728630947.992,-9.766,-56.152,-28.809,36.621,0.000
1728630947.996,-32.227,-74.219,-38.086,-13.184,0.000
1728630948.000,-23.438,-81.543,-51.758,-54.688,0.000
1728630948.004,-37.109,-84.473,-64.453,-60.547,0.000
1728630948.008,-53.223,-82.031,-53.711,-7.812,0.000
1728630948.012,-20.508,-74.219,-41.992,23.926,0.000
1728630948.016,-27.832,-72.754,-51.758,-22.949,0.000
1728630948.020,-23.438,-76.660,-55.176,-43.945,0.000
1728630948.023,-30.762,-73.730,-48.828,-51.270,0.000
1728630948.027,-47.363,-56.641,-44.922,-8.301,0.000
1728630948.031,-14.160,-41.992,-37.109,25.879,0.000
1728630948.035,12.695,-36.133,-39.062,-32.227,0.000
1728630948.039,1.953,-23.438,-46.387,-62.012,0.000
1728630948.043,-38.086,-20.020,-48.828,-52.734,0.000
1728630948.047,-59.570,-25.879,-51.758,-21.484,0.000
1728630948.051,-29.785,-25.391,-46.875,22.949,0.000
1728630948.055,-25.879,-23.438,-50.293,-4.883,0.000
1728630948.059,-20.996,-17.090,-59.082,-50.293,0.000
1728630948.062,-11.230,-15.137,-52.734,-48.340,0.000
1728630948.066,-39.062,-18.066,-45.410,-18.555,0.000
1728630948.070,-9.766,-12.207,-28.809,31.250,0.000
1728630948.074,1.465,-9.766,-30.762,0.488,0.000
1728630948.078,-9.766,-17.578,-40.039,-44.922,0.000
1728630948.082,1.953,-19.043,-36.133,-43.945,0.000
1728630948.086,-18.555,-24.902,-34.668,-27.832,0.000
1728630948.090,1.465,-23.926,-26.855,34.180,0.000
1728630948.094,-3.418,-21.973,-30.762,21.973,0.000
1728630948.098,-13.184,-30.273,-43.945,-45.898,0.000
1728630948.101,-5.859,-36.133,-42.480,-49.805,0.000
1728630948.105,-27.832,-35.156,-36.133,-17.578,0.000
1728630948.109,-24.414,-38.574,-29.785,41.016,0.000
1728630948.113,-18.555,-38.574,-26.855,20.508,0.000
1728630948.117,-29.785,-39.551,-34.668,-47.363,0.000
1728630948.121,-23.926,-42.480,-35.645,-52.246,0.000
1728630948.125,-44.434,-40.527,-32.715,-45.410,0.000
1728630948.129,-19.531,-39.551,-19.043,7.812,0.000
1728630948.133,12.695,-38.574,-16.113,28.320,0.000
1728630948.137,-25.391,-44.434,-33.203,-34.180,0.000
1728630948.141,-37.109,-50.781,-40.039,-55.176,0.000
1728630948.144,-60.547,-42.969,-38.086,-32.227,0.000
1728630948.148,-49.316,-28.320,-34.668,15.625,0.000
1728630948.152,-10.254,-22.461,-35.645,15.137,0.000
1728630948.156,-24.902,-25.879,-37.598,-47.363,0.000
1728630948.160,-19.531,-28.320,-27.344,-54.199,0.000
1728630948.164,-31.250,-27.832,-30.762,-54.688,0.000
1728630948.168,-41.504,-27.832,-30.762,-20.020,0.000
1728630948.172,-7.812,-20.020,-22.461,4.395,0.000
1728630948.176,-14.648,-8.301,-23.438,-54.688,0.000
1728630948.180,-53.711,-19.043,-22.461,-83.496,0.000
1728630948.184,-90.820,-25.391,-24.414,-85.449,0.000
1728630948.187,-103.027,-12.695,-21.973,-61.523,0.000
1728630948.191,-88.379,-6.836,-22.949,-49.805,0.000
1728630948.195,-96.191,-9.766,-28.809,-110.840,0.000
1728630948.199,-93.750,-17.578,-25.879,-146.973,0.000
1728630948.203,-116.211,-20.996,-20.996,-158.691,0.000
1728630948.207,-164.062,-20.020,-25.879,-141.602,0.000
1728630948.211,-150.879,-21.973,-26.367,-100.098,0.000
1728630948.215,-161.621,-28.320,-25.879,-130.371,0.000
1728630948.219,-152.344,-22.949,-23.438,-167.480,0.000
1728630948.223,-146.973,-25.879,-23.926,-167.480,0.000
1728630948.226,-157.227,-31.250,-24.902,-137.207,0.000
1728630948.230,-120.117,-28.809,-21.484,-91.797,0.000
1728630948.234,-120.605,-34.668,-29.785,-121.582,0.000
1728630948.238,-121.582,-35.156,-39.551,-149.414,0.000
1728630948.242,-120.117,-36.621,-43.945,-140.625,0.000
1728630948.246,-139.648,-41.992,-46.875,-130.859,0.000
1728630948.250,-104.492,-42.969,-35.645,-80.078,0.000
1728630948.254,-100.098,-42.969,-41.016,-75.195,0.000
1728630948.258,-102.539,-51.270,-52.246,-98.145,0.000
1728630948.262,-80.566,-43.457,-43.457,-99.121,0.000
1728630948.266,-95.215,-40.039,-36.133,-87.402,0.000
1728630948.269,-69.336,-47.363,-35.645,-45.898,0.000
1728630948.273,-31.738,-52.246,-43.457,-41.992,0.000
1728630948.277,-31.738,-50.293,-56.152,-70.312,0.000
1728630948.281,-44.922,-51.758,-70.801,-84.473,0.000
1728630948.285,-67.871,-62.500,-76.172,-52.734,0.000
1728630948.289,-35.645,-57.129,-67.383,21.484,0.000
1728630948.293,-16.602,-62.988,-62.988,21.973,0.000
1728630948.297,-22.949,-68.848,-60.547,-18.555,0.000
1728630948.301,7.812,-52.734,-53.223,-17.578,0.000
1728630948.305,6.348,-65.430,-50.293,2.441,0.000
1728630948.309,15.625,-66.895,-32.227,53.223,0.000
1728630948.312,23.438,-51.758,-33.691,57.617,0.000
1728630948.316,6.836,-52.246,-53.711,4.395,0.000
1728630948.320,26.855,-54.688,-53.223,-11.230,0.000
1728630948.324,7.812,-62.012,-41.016,7.324,0.000
1728630948.328,4.883,-62.012,-29.785,65.430,0.000
1728630948.332,28.320,-66.895,-38.574,73.242,0.000
1728630948.336,17.090,-73.730,-50.293,14.648,0.000
1728630948.340,38.574,-74.219,-46.875,14.648,0.000
1728630948.344,25.879,-62.012,-36.133,19.531,0.000
1728630948.348,25.879,-50.293,-30.273,54.199,0.000
1728630948.351,42.480,-53.711,-30.762,82.031,0.000
1728630948.355,35.645,-54.199,-37.109,32.227,0.000
1728630948.359,54.688,-54.199,-41.504,13.184,0.000
1728630948.363,23.438,-57.129,-39.062,20.020,0.000
1728630948.367,11.230,-51.758,-31.250,49.316,0.000
1728630948.371,58.105,-49.805,-29.297,84.473,0.000
1728630948.375,42.480,-63.965,-39.551,44.922,0.000
1728630948.379,30.762,-69.824,-41.992,4.395,0.000
1728630948.383,30.273,-60.547,-33.691,13.184,0.000
1728630948.387,20.996,-51.758,-29.297,51.758,0.000
1728630948.391,39.062,-43.457,-30.273,78.613,0.000
1728630948.394,43.457,-47.363,-40.039,45.898,0.000
1728630948.398,63.965,-49.316,-34.668,8.789,0.000
1728630948.402,47.363,-48.340,-32.715,11.230,0.000
1728630948.406,12.695,-53.223,-32.715,41.016,0.000
1728630948.410,43.457,-45.898,-28.809,65.430,0.000
1728630948.414,38.574,-46.875,-42.969,32.227,0.000
1728630948.418,26.855,-49.805,-54.688,1.953,0.000
1728630948.422,17.578,-43.457,-44.922,9.277,0.000
1728630948.426,2.441,-26.367,-37.598,40.527,0.000
1728630948.430,28.320,-23.926,-36.621,87.891,0.000
1728630948.434,32.227,-47.363,-41.992,43.457,0.000
1728630948.437,36.621,-50.293,-45.410,-1.465,0.000
1728630948.441,18.066,-36.621,-40.527,0.000,0.000
1728630948.445,-13.672,-30.273,-30.762,13.184,0.000
1728630948.449,22.949,-30.273,-24.902,62.012,0.000
1728630948.453,30.762,-35.645,-34.180,42.480,0.000
1728630948.457,17.578,-41.016,-39.551,-8.301,0.000
1728630948.461,22.461,-35.156,-38.086,-17.578,0.000
1728630948.465,0.977,-35.645,-34.668,2.930,0.000
1728630948.469,11.230,-44.922,-23.926,58.105,0.000
1728630948.473,18.066,-46.875,-30.273,45.898,0.000
1728630948.476,10.742,-42.969,-38.574,-12.695,0.000
1728630948.480,26.367,-40.527,-39.062,-21.973,0.000
1728630948.484,-5.859,-41.504,-39.062,5.859,0.000
1728630948.488,-6.348,-35.645,-21.484,39.062,0.000
1728630948.492,18.066,-22.461,-20.508,30.273,0.000
1728630948.496,2.930,-21.484,-34.180,-24.902,0.000
1728630948.500,-10.254,-23.438,-40.039,-33.691,0.000
1728630948.504,-20.996,-30.762,-40.039,-8.789,0.000
1728630948.508,-10.742,-40.527,-34.180,29.297,0.000
1728630948.512,-14.160,-47.363,-35.645,30.273,0.000
1728630948.515,-29.297,-44.922,-37.109,-33.691,0.000
1728630948.519,2.441,-37.598,-33.691,-61.523,0.000
1728630948.523,-15.137,-32.227,-27.832,-36.133,0.000
1728630948.527,-23.438,-22.461,-21.484,20.020,0.000
1728630948.531,-9.277,-27.344,-27.344,31.250,0.000
1728630948.535,-17.578,-40.039,-37.109,-26.855,0.000
1728630948.539,1.465,-36.621,-37.109,-42.480,0.000
1728630948.543,-30.762,-40.039,-41.504,-21.973,0.000
1728630948.547,-41.992,-41.504,-37.109,10.254,0.000
1728630948.551,1.953,-34.180,-23.438,11.719,0.000
1728630948.555,-6.348,-32.227,-30.273,-30.273,0.000
1728630948.558,-14.160,-34.668,-37.598,-43.945,0.000
1728630948.562,-27.832,-36.621,-38.086,-48.828,0.000
1728630948.566,-33.203,-30.762,-34.668,-25.879,0.000
1728630948.570,-6.836,-27.344,-28.320,14.160,0.000
1728630948.574,-16.602,-34.180,-30.273,-25.879,0.000
1728630948.578,-2.930,-28.809,-27.344,-55.664,0.000
1728630948.582,-7.812,-22.949,-23.438,-38.086,0.000
1728630948.586,-32.227,-36.621,-13.184,3.906,0.000
1728630948.590,4.395,-40.527,-10.254,33.203,0.000
1728630948.594,-14.160,-36.621,-20.508,-25.391,0.000
1728630948.598,-27.344,-44.434,-28.809,-56.152,0.000
1728630948.601,-14.160,-44.922,-33.203,-50.293,0.000
1728630948.605,-50.293,-41.016,-26.855,-20.508,0.000
1728630948.609,-33.203,-41.504,-18.555,23.438,0.000
1728630948.613,-16.602,-40.527,-30.273,-13.184,0.000
1728630948.617,-18.066,-48.828,-41.504,-51.270,0.000
1728630948.621,-17.090,-54.688,-33.691,-42.480,0.000
1728630948.625,-36.621,-46.875,-26.367,-19.043,0.000
1728630948.629,-12.207,-35.645,-16.113,24.902,0.000
1728630948.633,-15.137,-43.457,-23.926,2.441,0.000
1728630948.637,-18.066,-55.664,-34.180,-51.270,0.000
1728630948.641,-19.531,-48.340,-30.273,-60.059,0.000
1728630948.644,-38.086,-42.969,-28.809,-24.414,0.000
1728630948.648,-11.719,-45.898,-22.949,40.039,0.000
1728630948.652,-22.461,-42.969,-25.391,8.789,0.000
1728630948.656,-25.391,-39.062,-36.621,-48.828,0.000
1728630948.660,-6.348,-45.898,-40.527,-53.223,0.000
1728630948.664,-45.898,-40.527,-38.574,-40.527,0.000
1728630948.668,-20.996,-32.715,-27.344,12.695,0.000
1728630948.672,4.395,-38.086,-17.578,13.184,0.000
1728630948.676,5.859,-39.551,-20.020,-19.531,0.000
1728630948.680,32.715,-40.527,-31.250,-35.156,0.000
1728630948.683,-38.574,-45.898,-36.133,-37.598,0.000
1728630948.687,-40.039,-46.875,-26.367,14.160,0.000
1728630948.691,-2.441,-40.527,-26.855,20.020,0.000
1728630948.695,-21.973,-43.945,-31.250,-40.039,0.000
1728630948.699,-12.207,-47.852,-21.973,-55.176,0.000
1728630948.703,-31.250,-36.133,-20.020,-35.156,0.000
1728630948.707,-29.785,-29.297,-27.344,9.766,0.000
1728630948.711,-22.949,-27.832,-33.203,17.578,0.000
1728630948.715,-32.227,-28.320,-42.969,-34.668,0.000
1728630948.719,-14.160,-27.344,-38.574,-54.199,0.000
1728630948.723,-37.109,-32.715,-38.574,-42.480,0.000
1728630948.726,-36.621,-36.621,-39.062,1.465,0.000
1728630948.730,-6.348,-35.645,-37.109,20.020,0.000
1728630948.734,-20.508,-36.133,-52.734,-32.715,0.000
1728630948.738,-15.137,-39.551,-53.223,-56.641,0.000
1728630948.742,-27.832,-40.527,-39.551,-48.828,0.000
1728630948.746,-34.180,-39.062,-37.109,-5.371,0.000
1728630948.750,-17.090,-34.180,-35.156,33.203,0.000
1728630948.754,-36.621,-37.598,-35.156,-16.602,0.000
1728630948.758,-17.090,-34.180,-34.668,-43.457,0.000
1728630948.762,-20.508,-31.738,-41.504,-36.621,0.000
1728630948.766,-51.270,-34.180,-38.574,-17.578,0.000
1728630948.769,-27.344,-34.180,-28.320,16.602,0.000
1728630948.773,-19.043,-34.668,-29.297,-20.508,0.000
1728630948.777,-16.602,-32.715,-30.762,-43.945,0.000
1728630948.781,-7.324,-36.133,-27.832,-25.879,0.000
1728630948.785,-35.645,-32.715,-21.484,2.441,0.000
1728630948.789,-33.203,-22.461,-23.438,27.344,0.000
1728630948.793,-12.695,-27.344,-37.598,-18.066,0.000
1728630948.797,-22.461,-34.180,-39.062,-65.430,0.000
1728630948.801,-30.762,-29.785,-37.109,-55.176,0.000
1728630948.805,-43.457,-25.879,-43.457,-29.785,0.000
1728630948.808,-15.137,-32.715,-41.016,1.953,0.000
1728630948.812,4.395,-43.457,-45.410,-24.902,0.000
1728630948.816,-7.324,-41.016,-40.527,-62.500,0.000
1728630948.820,-14.648,-28.320,-23.438,-54.688,0.000
1728630948.824,-44.434,-29.297,-28.320,-29.785,0.000
1728630948.828,-30.762,-43.457,-17.090,16.602,0.000
1728630948.832,-20.020,-49.316,-7.324,6.348,0.000
1728630948.836,-35.645,-41.016,-23.438,-49.316,0.000
1728630948.840,-20.020,-33.691,-24.902,-70.312,0.000
1728630948.844,-39.062,-35.156,-25.391,-49.805,0.000
1728630948.847,-24.414,-26.367,-24.902,-5.371,0.000
1728630948.851,-31.738,-21.484,-21.973,-15.625,0.000
1728630948.855,-44.434,-36.621,-23.926,-55.176,0.000
1728630948.859,-17.090,-49.805,-21.973,-57.617,0.000
1728630948.863,-38.086,-43.945,-9.277,-44.922,0.000
1728630948.867,-34.180,-38.086,-3.906,0.977,0.000
1728630948.871,-23.438,-37.598,-18.555,-2.441,0.000
1728630948.875,-33.691,-30.273,-27.832,-41.504,0.000
1728630948.879,-26.367,-28.809,-21.484,-56.152,0.000
1728630948.883,-39.062,-29.785,-25.879,-58.594,0.000
1728630948.887,-24.902,-20.508,-15.625,18.066,0.000
1728630948.890,-0.977,-25.879,-3.906,29.785,0.000
1728630948.894,6.348,-40.039,-18.066,-44.434,0.000
1728630948.898,-5.371,-43.457,-20.508,-45.410,0.000
1728630948.902,-31.738,-53.223,-25.879,-35.156,0.000
1728630948.906,-32.227,-53.223,-21.484,0.000,0.000
1728630948.910,-20.996,-41.016,-11.719,31.250,0.000
1728630948.914,-25.391,-34.668,-26.367,-29.297,0.000
1728630948.918,-18.555,-36.621,-44.434,-61.523,0.000
1728630948.922,-51.758,-37.109,-45.898,-53.223,0.000
1728630948.926,-59.082,-29.297,-36.133,-11.719,0.000
1728630948.930,-18.555,-26.367,-39.551,8.301,0.000
1728630948.933,-21.973,-36.621,-46.387,-42.969,0.000
1728630948.937,-17.578,-41.504,-39.551,-59.082,0.000
1728630948.941,-32.227,-43.457,-36.621,-48.828,0.000
1728630948.945,-48.340,-49.316,-35.645,-8.789,0.000
1728630948.949,-20.508,-44.922,-28.320,22.461,0.000
1728630948.953,-18.555,-39.551,-30.762,-24.414,0.000
1728630948.957,5.859,-32.227,-38.574,-41.992,0.000
1728630948.961,-20.996,-33.203,-41.504,-34.180,0.000
1728630948.965,-42.480,-35.156,-33.691,-2.930,0.000
1728630948.969,-16.602,-29.785,-21.973,29.297,0.000
1728630948.972,-35.645,-39.062,-31.738,-21.484,0.000
1728630948.976,-12.695,-41.016,-32.715,-56.641,0.000
1728630948.980,-6.348,-35.645,-20.996,-43.457,0.000
1728630948.984,-22.461,-30.273,-9.277,-21.484,0.000
1728630948.988,-4.395,-26.367,-2.930,23.926,0.000
1728630948.992,-25.879,-38.086,-12.695,2.441,0.000
1728630948.996,-19.531,-41.992,-16.602,-36.133,0.000
1728630949.000,-5.859,-33.691,-17.578,-34.668,0.000
1728630949.004,-29.297,-25.879,-16.602,-5.859,0.000
1728630949.008,-6.836,-30.273,-14.160,40.039,0.000
1728630949.012,-14.160,-36.621,-19.531,7.324,0.000
1728630949.015,-19.043,-31.738,-17.090,-29.297,0.000
1728630949.019,-0.977,-26.855,-14.160,-30.762,0.000
1728630949.023,-11.719,-28.320,-17.578,-16.113,0.000
1728630949.027,-4.395,-22.949,-12.207,29.785,0.000
1728630949.031,-12.695,-26.855,-24.414,1.465,0.000
1728630949.035,-26.855,-37.109,-38.574,-44.922,0.000
1728630949.039,-16.113,-44.922,-34.668,-44.434,0.000
1728630949.043,-34.180,-40.527,-33.691,-31.738,0.000
1728630949.047,-27.344,-23.926,-26.855,24.414,0.000
1728630949.051,-15.625,-30.273,-34.668,22.461,0.000
1728630949.055,-15.137,-46.387,-47.363,-34.668,0.000
1728630949.058,-19.531,-37.109,-39.551,-45.898,0.000
1728630949.062,-52.246,-28.320,-31.738,-31.250,0.000
1728630949.066,-31.250,-29.785,-23.926,21.484,0.000
1728630949.070,-14.160,-37.598,-25.391,26.367,0.000
1728630949.074,-27.832,-46.387,-34.668,-27.344,0.000
1728630949.078,-22.461,-39.551,-39.551,-53.711,0.000
1728630949.082,-44.434,-37.598,-44.922,-42.969,0.000
1728630949.086,-30.762,-38.086,-43.457,1.953,0.000
1728630949.090,-20.996,-28.809,-44.434,18.555,0.000
1728630949.094,-25.391,-25.879,-52.734,-26.367,0.000
1728630949.097,-8.301,-26.855,-47.852,-53.223,0.000
1728630949.101,-46.875,-30.762,-31.250,-34.668,0.000
1728630949.105,-32.227,-28.809,-20.020,26.855,0.000
1728630949.109,-15.137,-20.996,-24.414,40.039,0.000
1728630949.113,-45.898,-29.297,-41.504,-28.809,0.000
1728630949.117,-38.574,-45.410,-42.969,-55.176,0.000
1728630949.121,-37.598,-43.457,-38.574,-44.434,0.000
1728630949.125,-33.203,-33.691,-27.344,-6.348,0.000
1728630949.129,-19.043,-30.273,-20.508,14.648,0.000
1728630949.133,-25.391,-30.273,-38.574,-34.668,0.000
1728630949.137,-12.695,-39.062,-43.945,-63.965,0.000
1728630949.140,-38.086,-41.016,-35.645,-53.223,0.000
1728630949.144,-55.176,-24.414,-25.391,-2.441,0.000
1728630949.148,-9.277,-14.648,-13.672,32.715,0.000
1728630949.152,-21.484,-15.625,-23.926,-17.578,0.000
1728630949.156,-19.531,-26.367,-33.203,-44.434,0.000
1728630949.160,-5.859,-31.738,-32.715,-46.875,0.000
1728630949.164,-38.574,-30.273,-25.879,-5.859,0.000
1728630949.168,-28.809,-30.762,-25.391,38.086,0.000
1728630949.172,-17.578,-30.762,-26.855,-20.508,0.000
1728630949.176,-12.207,-33.203,-26.367,-53.711,0.000
1728630949.180,-14.160,-32.715,-26.855,-37.598,0.000
1728630949.183,-40.527,-37.109,-29.785,-14.648,0.000
1728630949.187,-14.160,-41.016,-36.621,30.762,0.000
1728630949.191,-11.230,-37.598,-46.387,-10.254,0.000
1728630949.195,-19.043,-38.574,-42.969,-72.266,0.000
1728630949.199,-13.672,-40.039,-37.598,-66.895,0.000
1728630949.203,-50.781,-41.016,-34.180,-27.832,0.000
1728630949.207,-23.926,-40.527,-21.973,16.113,0.000
1728630949.211,-8.301,-41.504,-31.250,1.465,0.000
1728630949.215,-23.926,-39.551,-46.387,-54.688,0.000
1728630949.219,-21.973,-39.062,-45.410,-64.453,0.000
1728630949.222,-37.598,-39.062,-35.156,-26.367,0.000
1728630949.226,2.930,-26.367,-27.344,25.391,0.000
1728630949.230,-4.883,-37.109,-40.039,4.395,0.000
1728630949.234,-40.039,-56.152,-49.805,-49.316,0.000
1728630949.238,-27.832,-50.293,-39.551,-51.270,0.000
1728630949.242,-38.086,-43.457,-28.320,-34.180,0.000
1728630949.246,-20.020,-25.879,-18.066,14.160,0.000
1728630949.250,-13.672,-20.508,-23.438,17.090,0.000
1728630949.254,-29.297,-36.133,-36.133,-42.480,0.000
1728630949.258,-20.508,-46.875,-40.527,-56.152,0.000
1728630949.261,-23.926,-47.852,-43.457,-27.344,0.000
1728630949.265,-12.207,-41.016,-28.809,26.367,0.000
1728630949.269,-17.578,-42.480,-27.344,26.367,0.000
1728630949.273,-42.480,-47.363,-55.176,-46.387,0.000
1728630949.277,-34.668,-45.898,-62.012,-64.453,0.000
1728630949.281,-47.363,-39.551,-54.688,-34.668,0.000
1728630949.285,-34.668,-26.855,-41.016,8.301,0.000
1728630949.289,-20.020,-29.785,-35.645,26.855,0.000
1728630949.293,-42.480,-44.434,-53.223,-28.320,0.000
1728630949.297,-20.020,-45.898,-55.176,-61.035,0.000
1728630949.301,-22.949,-36.133,-52.246,-32.715,0.000
1728630949.304,-13.672,-30.273,-48.828,6.348,0.000
1728630949.308,0.488,-36.133,-42.480,29.785,0.000
1728630949.312,-28.320,-42.969,-42.969,-12.207,0.000
1728630949.316,-18.555,-45.410,-32.715,-39.062,0.000
1728630949.320,-15.625,-46.387,-34.180,-24.414,0.000
1728630949.324,-29.297,-48.828,-36.621,20.020,0.000
1728630949.328,-1.465,-44.922,-23.926,43.457,0.000
1728630949.332,-3.418,-29.785,-21.484,-14.160,0.000
1728630949.336,-8.789,-34.180,-31.738,-40.039,0.000
1728630949.340,-18.066,-45.410,-44.922,-35.645,0.000
1728630949.344,-47.852,-44.922,-35.156,-29.785,0.000
1728630949.347,-19.043,-43.945,-20.996,3.418,0.000
1728630949.351,-8.301,-42.969,-33.203,-21.973,0.000
1728630949.355,0.977,-41.016,-45.410,-55.664,0.000
1728630949.359,-8.301,-33.203,-36.133,-50.781,0.000
1728630949.363,-51.270,-28.809,-26.855,-22.461,0.000
1728630949.367,-34.668,-34.668,-24.902,19.043,0.000
1728630949.371,-9.766,-31.250,-25.879,-5.859,0.000
1728630949.375,-14.160,-29.785,-22.461,-47.852,0.000
1728630949.379,-23.438,-39.551,-21.973,-57.129,0.000
1728630949.383,-40.039,-48.828,-25.879,-20.020,0.000
1728630949.387,-13.672,-45.898,-19.531,39.062,0.000
1728630949.390,-21.973,-41.016,-20.996,8.789,0.000
1728630949.394,-18.555,-44.922,-31.738,-41.504,0.000
1728630949.398,8.301,-38.086,-32.715,-50.781,0.000
1728630949.402,-37.109,-30.762,-26.367,-24.414,0.000
1728630949.406,-10.742,-36.621,-14.160,27.832,0.000
1728630949.410,-3.418,-41.504,-21.973,8.301,0.000
1728630949.414,-35.156,-46.387,-32.715,-47.363,0.000
1728630949.418,-22.949,-49.805,-25.879,-45.410,0.000
1728630949.422,-43.457,-44.922,-18.066,-26.367,0.000
1728630949.426,-27.832,-42.480,-14.648,13.184,0.000
1728630949.429,-20.996,-51.270,-27.344,6.348,0.000
1728630949.433,-29.297,-46.387,-31.250,-56.641,0.000
1728630949.437,-7.324,-39.062,-20.020,-62.500,0.000
1728630949.441,-26.855,-34.668,-21.484,-34.668,0.000
1728630949.445,-13.672,-34.180,-10.742,10.742,0.000
1728630949.449,-4.395,-39.551,-5.859,16.113,0.000
1728630949.453,-23.926,-34.180,-21.973,-31.250,0.000
1728630949.457,-4.883,-36.621,-30.762,-53.223,0.000
1728630949.461,-31.250,-37.598,-29.297,-35.156,0.000
1728630949.465,-33.203,-31.250,-17.578,17.090,0.000
1728630949.469,-11.719,-28.320,-15.625,20.508,0.000
1728630949.472,-27.344,-34.180,-36.133,-31.250,0.000
1728630949.476,-14.160,-41.504,-45.410,-49.805,0.000
1728630949.480,-30.762,-38.574,-39.062,-35.645,0.000
1728630949.484,-28.809,-30.762,-36.621,1.465,0.000
1728630949.488,3.418,-32.715,-37.598,19.043,0.000
1728630949.492,-27.344,-35.645,-42.969,-23.438,0.000
1728630949.496,-31.250,-33.691,-49.805,-52.246,0.000
1728630949.500,-34.668,-34.180,-53.223,-35.156,0.000
1728630949.504,-42.480,-36.133,-44.434,1.953,0.000
1728630949.508,-18.066,-38.086,-34.668,12.207,0.000
1728630949.512,-23.438,-45.898,-41.504,-40.039,0.000
1728630949.515,-20.996,-41.504,-35.156,-69.824,0.000
1728630949.519,-30.762,-36.133,-27.344,-49.316,0.000
1728630949.523,-36.621,-34.180,-14.648,-1.953,0.000
1728630949.527,-9.766,-29.297,-11.230,32.227,0.000
1728630949.531,-15.137,-30.762,-33.691,-31.250,0.000
1728630949.535,-10.254,-44.922,-52.246,-69.336,0.000
1728630949.539,-45.410,-60.059,-58.105,-60.547,0.000
1728630949.543,-72.266,-64.453,-57.129,-39.062,0.000
1728630949.547,-58.105,-70.801,-60.547,-10.254,0.000
1728630949.551,-73.242,-77.637,-69.336,-44.922,0.000
1728630949.554,-51.270,-75.684,-68.359,-72.266,0.000
1728630949.558,-46.387,-72.266,-64.941,-66.406,0.000
1728630949.562,-74.707,-67.383,-65.430,-43.945,0.000
1728630949.566,-54.688,-58.105,-61.035,-12.695,0.000
1728630949.570,-52.246,-57.129,-60.547,-51.758,0.000
1728630949.574,-38.574,-60.059,-63.965,-89.844,0.000
1728630949.578,-36.133,-61.523,-58.594,-72.266,0.000
1728630949.582,-66.406,-65.430,-53.711,-46.387,0.000
1728630949.586,-64.453,-60.059,-51.758,-5.371,0.000
1728630949.590,-67.383,-61.523,-52.246,-35.156,0.000
1728630949.594,-62.988,-66.895,-56.152,-91.309,0.000
1728630949.597,-43.945,-58.105,-51.758,-98.633,0.000
1728630949.601,-65.918,-48.828,-42.969,-71.289,0.000
1728630949.605,-42.480,-45.410,-40.527,-6.836,0.000
1728630949.609,-32.715,-54.688,-53.223,-8.789,0.000
1728630949.613,-52.246,-60.059,-58.105,-67.383,0.000
1728630949.617,-29.785,-57.129,-58.594,-67.383,0.000
1728630949.621,-37.109,-55.664,-64.453,-38.086,0.000
1728630949.625,-47.852,-49.805,-63.477,9.277,0.000
1728630949.629,-30.762,-48.828,-64.453,-2.441,0.000
1728630949.633,-4.395,-49.805,-59.082,-70.312,0.000
1728630949.636,-13.672,-50.781,-55.176,-74.707,0.000
1728630949.640,-65.918,-59.082,-57.617,-49.316,0.000
1728630949.644,-47.363,-53.223,-51.758,1.953,0.000
1728630949.648,-19.531,-41.016,-50.781,13.184,0.000
1728630949.652,-35.645,-44.922,-57.129,-38.574,0.000
1728630949.656,-27.832,-42.969,-42.480,-58.594,0.000
1728630949.660,-34.180,-32.227,-33.203,-40.527,0.000
1728630949.664,-21.973,-35.156,-35.645,9.277,0.000
1728630949.668,-6.836,-40.527,-43.945,6.348,0.000
1728630949.672,-38.086,-44.434,-43.457,-42.969,0.000
1728630949.676,-13.184,-41.504,-32.715,-48.828,0.000
1728630949.679,-10.742,-37.109,-32.227,-38.086,0.000
1728630949.683,-37.598,-38.086,-29.785,5.371,0.000
1728630949.687,-12.207,-30.273,-33.203,19.531,0.000
1728630949.691,-19.531,-29.297,-47.852,-41.992,0.000
1728630949.695,-13.184,-35.156,-46.875,-56.152,0.000
1728630949.699,-21.973,-39.551,-32.715,-38.086,0.000
1728630949.703,-42.480,-43.457,-22.949,-2.441,0.000
1728630949.707,-13.184,-40.039,-12.207,20.508,0.000
1728630949.711,-22.461,-39.062,-24.414,-22.461,0.000
1728630949.715,-14.648,-44.922,-39.551,-45.898,0.000
1728630949.719,-28.320,-45.898,-22.949,-46.387,0.000
1728630949.722,-41.016,-40.527,-12.207,-12.207,0.000
1728630949.726,-18.066,-39.551,-12.207,30.273,0.000
1728630949.730,-31.738,-41.504,-20.508,-12.207,0.000
1728630949.734,-14.648,-37.598,-25.391,-49.805,0.000
1728630949.738,-9.277,-37.598,-26.855,-40.039,0.000
1728630949.742,-30.273,-40.527,-21.973,-7.324,0.000
1728630949.746,2.441,-41.992,-16.113,29.297,0.000
1728630949.750,-3.418,-45.898,-26.855,-7.812,0.000
1728630949.754,-15.137,-45.410,-29.785,-53.223,0.000
1728630949.758,-9.277,-57.617,-31.738,-51.270,0.000
1728630949.762,-28.809,-54.688,-23.926,-25.391,0.000
1728630949.765,-12.695,-35.645,-11.719,21.973,0.000
1728630949.769,-6.836,-37.598,-23.926,7.812,0.000
1728630949.773,-14.648,-40.039,-33.203,-36.133,0.000
1728630949.777,-6.836,-40.039,-33.203,-58.105,0.000
1728630949.781,-34.668,-38.086,-29.297,-35.645,0.000
1728630949.785,-30.762,-36.133,-21.484,25.879,0.000
1728630949.789,-21.484,-48.828,-27.832,4.883,0.000
1728630949.793,-27.344,-49.805,-36.621,-46.875,0.000
1728630949.797,-13.672,-31.250,-39.062,-52.734,0.000
1728630949.801,-42.969,-23.438,-31.738,-29.297,0.000
1728630949.804,-46.875,-28.320,-26.367,21.973,0.000
1728630949.808,-27.344,-29.785,-33.691,1.465,0.000
1728630949.812,-19.531,-26.855,-44.434,-61.523,0.000
1728630949.816,-11.719,-30.273,-39.062,-61.523,0.000
1728630949.820,-29.785,-31.738,-30.273,-22.461,0.000
1728630949.824,-19.531,-23.438,-18.555,29.785,0.000
1728630949.828,-5.859,-18.555,-19.043,17.578,0.000
1728630949.832,1.465,-18.066,-28.809,-36.621,0.000
1728630949.836,5.371,-19.043,-24.414,-41.504,0.000
1728630949.840,-41.016,-25.391,-22.949,-29.297,0.000
1728630949.844,-31.250,-24.902,-18.555,15.625,0.000
1728630949.847,-9.766,-22.949,-25.391,34.668,0.000
1728630949.851,-19.043,-26.855,-35.645,-15.625,0.000
1728630949.855,12.695,-28.320,-23.438,-43.945,0.000
1728630949.859,-21.484,-38.574,-21.484,-28.320,0.000
1728630949.863,-40.527,-33.691,-19.531,11.230,0.000
1728630949.867,-19.531,-17.578,-19.531,31.738,0.000
1728630949.871,-36.621,-24.902,-33.203,-20.508,0.000
1728630949.875,-22.949,-34.180,-39.551,-62.500,0.000
1728630949.879,-16.602,-34.180,-32.715,-48.340,0.000
1728630949.883,-32.715,-32.715,-18.555,-9.766,0.000
1728630949.887,-39.062,-35.645,-28.320,11.230,0.000
1728630949.890,-33.203,-47.363,-44.434,-36.133,0.000
1728630949.894,-4.395,-53.223,-49.805,-70.312,0.000
1728630949.898,-15.625,-48.828,-45.410,-51.270,0.000
1728630949.902,-37.598,-27.344,-31.738,-11.230,0.000
1728630949.906,-6.348,-18.555,-31.738,14.160,0.000
1728630949.910,-8.301,-29.785,-47.852,-11.230,0.000
1728630949.914,-16.113,-32.715,-44.434,-52.734,0.000
1728630949.918,-20.996,-31.738,-38.574,-54.688,0.000
1728630949.922,-35.156,-24.414,-29.785,2.441,0.000
1728630949.926,-7.812,-33.691,-17.090,39.551,0.000
1728630949.929,-19.043,-49.805,-30.273,-8.789,0.000
1728630949.933,-12.207,-50.293,-41.016,-49.805,0.000
1728630949.937,-14.648,-49.805,-41.992,-52.734,0.000
1728630949.941,-54.199,-50.293,-37.598,-21.973,0.000
1728630949.945,-26.367,-41.016,-28.320,18.555,0.000
1728630949.949,-20.508,-37.109,-35.645,-19.043,0.000
1728630949.953,-17.090,-48.340,-40.527,-61.523,0.000
1728630949.957,-17.090,-51.758,-33.203,-51.758,0.000
1728630949.961,-54.199,-52.246,-30.273,-36.133,0.000
1728630949.965,-28.320,-50.781,-29.297,6.348,0.000
1728630949.969,-24.902,-49.316,-33.691,-1.465,0.000
1728630949.972,-15.137,-47.852,-32.227,-44.434,0.000
1728630949.976,-10.254,-47.852,-25.391,-56.641,0.000
1728630949.980,-44.922,-53.223,-31.738,-41.992,0.000
1728630949.984,-23.438,-51.270,-33.691,11.230,0.000
1728630949.988,-4.395,-41.504,-26.855,0.000,0.000
1728630949.992,-12.207,-46.387,-30.762,-46.387,0.000
1728630949.996,-24.414,-54.688,-36.133,-51.270,0.000
1728630950.000,-47.363,-49.805,-26.855,-32.715,0.000
1728630950.004,-22.949,-44.434,-17.090,22.461,0.000
1728630950.008,-2.441,-46.387,-18.555,16.113,0.000
1728630950.011,-12.207,-47.852,-31.250,-31.250,0.000
1728630950.015,-21.484,-49.805,-37.598,-40.039,0.000
1728630950.019,-47.852,-46.387,-42.969,-28.809,0.000
1728630950.023,-32.227,-34.180,-42.480,14.160,0.000
1728630950.027,-4.883,-36.133,-40.039,20.508,0.000
1728630950.031,-20.996,-40.527,-44.922,-28.809,0.000
1728630950.035,-16.113,-30.762,-45.898,-43.945,0.000
1728630950.039,-22.949,-34.180,-39.551,-29.297,0.000
1728630950.043,-20.996,-43.457,-30.273,18.066,0.000
1728630950.047,-14.648,-30.762,-23.926,30.762,0.000
1728630950.051,-27.344,-32.227,-30.273,-25.391,0.000
1728630950.054,-5.859,-36.133,-38.086,-54.199,0.000
1728630950.058,-25.391,-36.133,-41.016,-53.223,0.000
1728630950.062,-30.273,-41.992,-31.738,-2.441,0.000
1728630950.066,-1.465,-34.668,-23.438,29.297,0.000
1728630950.070,3.418,-29.297,-29.785,-18.066,0.000
1728630950.074,11.230,-37.598,-37.598,-53.223,0.000
1728630950.078,-29.785,-49.316,-42.480,-50.293,0.000
1728630950.082,-42.480,-40.039,-40.039,-5.371,0.000
1728630950.086,-15.137,-33.691,-36.621,27.344,0.000
1728630950.090,-22.461,-35.645,-41.992,-21.973,0.000
1728630950.093,-22.949,-24.414,-41.992,-51.758,0.000
1728630950.097,-31.738,-29.297,-40.527,-32.715,0.000
1728630950.101,-34.668,-39.551,-35.645,4.883,0.000
1728630950.105,-7.812,-35.645,-24.902,35.645,0.000
1728630950.109,-21.484,-31.250,-32.227,2.930,0.000
1728630950.113,-5.371,-36.133,-33.203,-38.574,0.000
1728630950.117,0.488,-35.645,-30.762,-44.434,0.000
1728630950.121,-41.504,-32.227,-33.203,-18.066,0.000
1728630950.125,-16.113,-23.438,-25.391,23.438,0.000
1728630950.129,-4.883,-19.531,-29.785,-14.160,0.000
1728630950.133,-6.836,-35.645,-39.551,-44.434,0.000
1728630950.136,-30.273,-36.621,-44.434,-44.434,0.000
1728630950.140,-52.246,-29.297,-39.062,-34.180,0.000
1728630950.144,-19.043,-20.020,-37.109,8.789,0.000
1728630950.148,-19.043,-19.531,-43.457,-11.719,0.000
1728630950.152,-22.461,-29.297,-42.969,-46.875,0.000
1728630950.156,-27.344,-25.391,-43.945,-44.922,0.000
1728630950.160,-45.898,-21.484,-38.574,-17.578,0.000
1728630950.164,-19.531,-21.484,-20.020,31.738,0.000
1728630950.168,-15.625,-20.020,-18.555,1.953,0.000
1728630950.172,-24.902,-23.438,-33.691,-41.504,0.000
1728630950.176,-19.531,-25.879,-41.992,-44.922,0.000
1728630950.179,-44.922,-27.832,-41.504,-38.574,0.000
1728630950.183,-29.785,-22.461,-29.297,3.906,0.000
1728630950.187,2.930,-19.531,-33.691,11.230,0.000
1728630950.191,-13.672,-33.203,-44.434,-33.691,0.000
1728630950.195,-29.297,-36.621,-41.992,-51.270,0.000
1728630950.199,-47.852,-20.508,-42.480,-30.273,0.000
1728630950.203,-33.691,-17.578,-39.551,17.090,0.000
1728630950.207,-13.184,-22.461,-42.969,25.391,0.000
1728630950.211,-25.879,-22.461,-49.805,-20.020,0.000
1728630950.215,-14.160,-24.902,-47.363,-40.039,0.000
1728630950.219,-35.645,-23.438,-45.898,-34.180,0.000
1728630950.222,-38.574,-29.297,-40.039,16.602,0.000
1728630950.226,-21.973,-34.668,-46.387,24.414,0.000
1728630950.230,-33.691,-20.996,-55.176,-42.480,0.000
1728630950.234,-17.090,-21.484,-55.176,-58.594,0.000
1728630950.238,-31.250,-32.715,-61.523,-44.922,0.000
1728630950.242,-37.109,-20.996,-51.758,-1.465,0.000
1728630950.246,-17.578,-11.230,-42.480,27.344,0.000
1728630950.250,-28.320,-20.508,-54.199,-19.043,0.000
1728630950.254,-15.137,-30.273,-58.594,-53.711,0.000
1728630950.258,-21.484,-27.344,-54.688,-43.945,0.000
1728630950.261,-27.832,-26.367,-45.410,1.465,0.000
1728630950.265,0.000,-34.668,-31.738,31.250,0.000
1728630950.269,-2.930,-45.410,-37.109,-25.879,0.000
1728630950.273,-2.441,-43.457,-36.133,-66.406,0.000
1728630950.277,-35.156,-34.668,-24.902,-49.805,0.000
1728630950.281,-44.922,-29.297,-21.973,-3.906,0.000
1728630950.285,7.812,-22.949,-25.391,27.344,0.000
1728630950.289,-19.531,-28.809,-32.715,-20.996,0.000
1728630950.293,-25.391,-36.133,-38.086,-70.312,0.000
1728630950.297,-13.184,-27.832,-37.109,-46.387,0.000
1728630950.301,-27.832,-25.391,-30.273,5.859,0.000
1728630950.304,-8.789,-32.715,-26.367,41.504,0.000
1728630950.308,-14.648,-38.574,-35.645,6.836,0.000
1728630950.312,-5.859,-46.387,-39.062,-42.480,0.000
1728630950.316,-6.836,-41.504,-32.715,-42.969,0.000
1728630950.320,-34.668,-25.879,-22.949,-19.043,0.000
1728630950.324,-22.461,-32.715,-18.555,11.230,0.000
1728630950.328,-27.832,-39.551,-30.762,-21.484,0.000
1728630950.332,-21.484,-33.203,-33.203,-58.105,0.000
1728630950.336,1.953,-30.273,-26.367,-50.293,0.000
1728630950.340,-20.996,-37.109,-21.973,-29.785,0.000
1728630950.343,-10.742,-41.504,-15.625,19.043,0.000
1728630950.347,-3.906,-38.574,-13.672,10.742,0.000
1728630950.351,-17.578,-43.457,-21.973,-32.227,0.000
1728630950.355,-19.531,-49.805,-28.809,-44.434,0.000
1728630950.359,-28.809,-49.805,-27.344,-8.301,0.000
1728630950.363,-0.488,-44.922,-18.066,27.344,0.000
1728630950.367,-6.348,-32.715,-30.273,-6.836,0.000
1728630950.371,-20.996,-28.809,-46.387,-48.828,0.000
1728630950.375,-9.277,-31.738,-45.410,-54.688,0.000
1728630950.379,-38.574,-32.715,-38.086,-38.086,0.000
1728630950.383,-24.414,-38.574,-30.762,9.277,0.000
1728630950.386,-2.441,-47.852,-31.738,5.859,0.000
1728630950.390,-20.508,-53.223,-31.738,-52.734,0.000
1728630950.394,-15.625,-41.992,-30.762,-61.523,0.000
1728630950.398,-33.691,-37.109,-34.668,-34.180,0.000
1728630950.402,-23.438,-40.527,-32.715,11.719,0.000
1728630950.406,8.789,-38.086,-30.762,22.949,0.000
1728630950.410,-19.043,-34.668,-41.504,-31.738,0.000
1728630950.414,-24.902,-31.250,-42.480,-49.805,0.000
1728630950.418,-28.809,-34.180,-35.156,-24.902,0.000
1728630950.422,-22.461,-30.762,-34.180,16.602,0.000
1728630950.425,12.207,-26.367,-34.180,33.203,0.000
1728630950.429,-15.625,-32.227,-49.316,-16.602,0.000
1728630950.433,-22.949,-34.180,-57.129,-49.805,0.000
1728630950.437,-29.297,-34.668,-53.711,-32.227,0.000
1728630950.441,-22.949,-30.762,-43.457,9.277,0.000
1728630950.445,10.742,-22.949,-35.156,38.574,0.000
1728630950.449,-7.812,-28.809,-46.875,-5.859,0.000
1728630950.453,-12.207,-42.480,-45.410,-48.340,0.000
1728630950.457,-29.785,-44.434,-39.062,-48.340,0.000
1728630950.461,-35.156,-42.480,-37.109,-5.859,0.000
1728630950.465,-7.812,-40.039,-34.180,26.367,0.000
1728630950.468,-24.902,-39.062,-42.969,-20.996,0.000
1728630950.472,-19.531,-41.016,-47.852,-43.945,0.000
1728630950.476,-13.672,-35.156,-46.387,-36.621,0.000
1728630950.480,-31.250,-29.297,-33.691,-5.859,0.000
1728630950.484,-16.602,-29.785,-25.879,34.180,0.000
1728630950.488,-27.832,-34.668,-38.574,-1.953,0.000
1728630950.492,-16.602,-37.109,-46.387,-39.551,0.000
1728630950.496,-16.113,-36.621,-38.574,-43.945,0.000
1728630950.500,-55.664,-41.016,-37.598,-21.484,0.000
1728630950.504,-25.879,-47.363,-37.598,20.020,0.000
1728630950.508,-6.348,-62.988,-44.922,-13.672,0.000
1728630950.511,-7.324,-67.383,-43.945,-62.988,0.000
1728630950.515,-32.227,-62.012,-41.016,-61.035,0.000
1728630950.519,-49.805,-70.801,-40.039,-26.367,0.000
1728630950.523,-24.414,-68.359,-33.691,17.578,0.000
1728630950.527,-49.316,-59.570,-34.668,-25.391,0.000
1728630950.531,-43.945,-52.734,-49.316,-79.102,0.000
1728630950.535,-36.133,-58.105,-44.434,-82.031,0.000
1728630950.539,-88.867,-65.918,-35.156,-72.754,0.000
1728630950.543,-78.613,-59.082,-26.367,-44.434,0.000
1728630950.547,-74.219,-56.641,-23.926,-89.355,0.000
1728630950.551,-110.352,-67.383,-36.133,-145.996,0.000
1728630950.554,-119.141,-74.219,-33.691,-144.531,0.000
1728630950.558,-150.391,-70.312,-23.438,-136.719,0.000
1728630950.562,-144.043,-64.941,-15.625,-97.168,0.000
1728630950.566,-135.254,-70.312,-22.461,-109.863,0.000
1728630950.570,-140.625,-78.613,-37.109,-175.293,0.000
1728630950.574,-126.465,-85.449,-35.156,-198.242,0.000
1728630950.578,-152.832,-89.844,-41.992,-184.570,0.000
1728630950.582,-137.695,-77.637,-41.016,-120.605,0.000
1728630950.586,-115.723,-62.988,-30.762,-93.750,0.000
1728630950.590,-122.559,-71.777,-43.457,-150.391,0.000
1728630950.593,-100.586,-83.496,-46.387,-163.574,0.000
1728630950.597,-113.281,-89.844,-43.457,-121.582,0.000
1728630950.601,-116.211,-87.402,-41.016,-69.336,0.000
1728630950.605,-94.727,-77.148,-31.738,-50.293,0.000
1728630950.609,-80.566,-79.590,-37.598,-78.613,0.000
1728630950.613,-52.246,-84.961,-48.828,-100.098,0.000
1728630950.617,-72.266,-80.566,-46.387,-77.637,0.000
1728630950.621,-64.941,-77.148,-39.062,-24.414,0.000
1728630950.625,-16.113,-85.938,-39.551,11.230,0.000
1728630950.629,-20.508,-87.402,-50.293,-21.484,0.000
1728630950.633,-0.488,-72.754,-40.039,-42.480,0.000
1728630950.636,10.254,-68.359,-33.691,-37.109,0.000
1728630950.640,-5.371,-73.730,-42.969,11.719,0.000
1728630950.644,14.160,-83.008,-42.969,56.641,0.000
1728630950.648,-3.906,-82.031,-41.992,3.906,0.000
1728630950.652,0.977,-82.520,-40.039,-23.438,0.000
1728630950.656,13.672,-82.031,-39.062,-11.230,0.000
1728630950.660,8.789,-83.496,-32.715,34.180,0.000
1728630950.664,31.250,-90.332,-30.762,76.172,0.000
1728630950.668,24.414,-91.309,-41.016,33.203,0.000
1728630950.672,31.250,-86.426,-35.156,9.766,0.000
1728630950.675,36.621,-80.566,-20.508,24.414,0.000
1728630950.679,19.531,-82.520,-18.066,53.711,0.000
1728630950.683,37.109,-90.820,-27.344,79.590,0.000
1728630950.687,25.879,-96.191,-46.875,44.434,0.000
1728630950.691,31.250,-91.309,-51.758,1.953,0.000
1728630950.695,41.504,-74.219,-46.875,3.906,0.000
1728630950.699,27.344,-67.871,-41.016,37.598,0.000
1728630950.703,50.781,-76.172,-40.527,71.289,0.000
1728630950.707,36.621,-74.219,-44.922,49.805,0.000
1728630950.711,20.020,-72.266,-47.852,11.230,0.000
1728630950.715,26.367,-74.707,-48.340,-7.324,0.000
1728630950.718,5.371,-78.125,-47.852,14.648,0.000
1728630950.722,20.996,-75.684,-38.574,68.848,0.000
1728630950.726,24.414,-70.801,-42.969,55.664,0.000
1728630950.730,15.625,-67.383,-56.641,8.301,0.000
1728630950.734,19.043,-63.477,-55.176,-2.930,0.000
1728630950.738,-12.207,-60.059,-44.434,15.137,0.000
1728630950.742,8.301,-52.734,-38.574,59.570,0.000
1728630950.746,23.926,-49.316,-47.852,50.781,0.000
1728630950.750,23.926,-58.594,-51.758,-0.488,0.000
1728630950.754,30.762,-52.246,-37.109,-0.488,0.000
1728630950.757,12.207,-44.922,-33.691,21.973,0.000
1728630950.761,39.062,-49.316,-31.738,64.453,0.000
1728630950.765,33.203,-50.293,-29.297,59.082,0.000
1728630950.769,7.812,-50.293,-37.109,-4.883,0.000
1728630950.773,24.414,-48.828,-42.480,-30.273,0.000
1728630950.777,-5.859,-55.664,-50.293,-8.789,0.000
1728630950.781,-7.324,-61.035,-38.574,47.852,0.000
1728630950.785,19.043,-62.012,-24.902,56.641,0.000
1728630950.789,21.484,-53.223,-39.062,-4.883,0.000
1728630950.793,31.250,-43.945,-51.270,-27.832,0.000
1728630950.797,-4.395,-47.852,-42.480,-20.020,0.000
1728630950.800,-12.207,-51.758,-29.297,23.438,0.000
1728630950.804,30.273,-52.734,-36.133,48.340,0.000
1728630950.808,29.297,-52.246,-49.805,-6.348,0.000
1728630950.812,8.789,-53.711,-51.270,-36.133,0.000
1728630950.816,-20.020,-57.129,-53.711,-28.320,0.000
1728630950.820,-22.949,-46.875,-46.387,10.254,0.000
1728630950.824,0.488,-41.016,-43.457,29.785,0.000
1728630950.828,-7.812,-44.434,-50.293,-20.508,0.000
1728630950.832,-1.953,-34.668,-42.480,-47.363,0.000
1728630950.836,-15.625,-32.715,-38.086,-27.344,0.000
1728630950.840,-30.273,-42.969,-35.645,11.719,0.000
1728630950.843,0.000,-36.621,-27.832,38.086,0.000
1728630950.847,-7.324,-33.203,-35.645,-2.441,0.000
1728630950.851,-8.789,-46.875,-47.363,-27.832,0.000
1728630950.855,-12.695,-48.828,-46.387,-14.648,0.000
1728630950.859,-22.949,-40.039,-43.457,13.184,0.000
1728630950.863,0.488,-36.621,-38.574,41.016,0.000
1728630950.867,-8.789,-46.387,-39.551,-1.465,0.000
1728630950.871,-7.324,-46.387,-36.621,-34.668,0.000
1728630950.875,-7.324,-40.527,-31.738,-32.227,0.000
1728630950.879,-27.344,-36.621,-31.250,-9.766,0.000
1728630950.882,0.977,-32.715,-26.367,36.133,0.000
1728630950.886,12.207,-32.227,-30.273,0.977,0.000
1728630950.890,17.578,-34.668,-32.227,-43.457,0.000
1728630950.894,12.207,-44.922,-32.227,-31.738,0.000
1728630950.898,-36.621,-40.527,-24.902,-15.137,0.000
1728630950.902,-31.250,-32.715,-10.742,26.367,0.000
1728630950.906,-28.809,-40.527,-21.484,17.090,0.000
1728630950.910,-37.109,-52.246,-37.598,-32.715,0.000
1728630950.914,-21.973,-56.152,-41.016,-25.391,0.000
1728630950.918,-51.758,-58.105,-38.574,0.000,0.000
1728630950.922,-33.203,-48.340,-27.832,20.020,0.000
1728630950.925,-16.602,-46.387,-29.785,1.465,0.000
1728630950.929,-24.414,-59.082,-44.922,-31.738,0.000
1728630950.933,-9.277,-50.781,-44.922,-42.480,0.000
1728630950.937,-37.109,-41.016,-48.828,-27.832,0.000
1728630950.941,-40.039,-44.434,-42.969,25.391,0.000
1728630950.945,-26.367,-42.480,-30.762,22.949,0.000
1728630950.949,-34.180,-40.527,-34.180,-36.621,0.000
1728630950.953,-17.090,-42.969,-37.109,-35.156,0.000
1728630950.957,-30.273,-45.410,-39.062,-19.531,0.000
1728630950.961,-22.949,-38.574,-36.133,18.555,0.000
1728630950.965,-7.324,-37.109,-35.156,26.367,0.000
1728630950.968,-24.414,-38.574,-33.203,-27.832,0.000
1728630950.972,-3.418,-37.598,-32.715,-37.109,0.000
1728630950.976,-8.789,-41.504,-32.715,-29.297,0.000
1728630950.980,-4.395,-34.668,-20.508,8.789,0.000
1728630950.984,-2.930,-27.344,-17.578,21.973,0.000
1728630950.988,-27.344,-34.668,-26.855,-37.598,0.000
1728630950.992,-19.043,-41.016,-26.855,-52.246,0.000
1728630950.996,-40.527,-38.086,-25.391,-26.855,0.000
1728630951.000,-44.922,-34.668,-26.367,3.906,0.000
1728630951.004,-13.672,-40.527,-23.926,7.812,0.000
1728630951.007,-25.391,-48.828,-22.461,-46.387,0.000
1728630951.011,-15.625,-46.875,-23.926,-66.406,0.000
1728630951.015,-20.996,-43.457,-23.438,-51.270,0.000
1728630951.019,-40.039,-41.992,-21.973,-12.207,0.000
1728630951.023,-17.578,-33.203,-21.484,17.578,0.000
1728630951.027,-25.391,-31.250,-35.645,-31.738,0.000
1728630951.031,-21.484,-42.480,-43.945,-60.547,0.000
1728630951.035,-25.879,-36.621,-40.527,-44.922,0.000
1728630951.039,-35.156,-28.320,-34.668,-9.766,0.000
1728630951.043,2.930,-23.438,-27.344,25.879,0.000
1728630951.047,-11.719,-26.855,-36.621,-15.625,0.000
1728630951.050,-10.742,-36.621,-40.527,-57.129,0.000
1728630951.054,-19.531,-38.086,-34.668,-55.176,0.000
1728630951.058,-38.574,-36.621,-34.180,-20.508,0.000
1728630951.062,4.883,-23.926,-33.691,29.297,0.000
1728630951.066,-15.137,-27.832,-34.180,-8.789,0.000
1728630951.070,-16.113,-39.551,-34.668,-59.082,0.000
1728630951.074,1.953,-39.062,-34.180,-54.688,0.000
1728630951.078,-30.273,-36.621,-28.320,-23.438,0.000
1728630951.082,-11.230,-32.227,-19.043,18.555,0.000
1728630951.086,-7.324,-25.391,-23.438,-5.859,0.000
1728630951.089,-13.184,-35.156,-26.855,-48.828,0.000
1728630951.093,-12.207,-40.039,-23.926,-49.316,0.000
1728630951.097,-36.621,-31.738,-13.672,-22.461,0.000
1728630951.101,-14.160,-31.250,-10.742,20.508,0.000
1728630951.105,-42.480,-38.086,-24.414,-14.160,0.000
1728630951.109,-52.734,-45.898,-33.203,-64.941,0.000
1728630951.113,-26.855,-41.992,-27.832,-72.754,0.000
1728630951.117,-54.688,-36.621,-21.973,-56.641,0.000
1728630951.121,-32.715,-42.480,-16.113,-13.184,0.000
1728630951.125,-20.020,-45.410,-20.020,-21.484,0.000
1728630951.129,-40.039,-37.109,-23.926,-72.754,0.000
1728630951.132,-25.879,-38.086,-27.832,-68.848,0.000
1728630951.136,-34.180,-41.992,-33.203,-38.086,0.000
1728630951.140,-36.133,-40.527,-22.461,5.859,0.000
1728630951.144,-33.691,-48.828,-20.996,7.812,0.000
1728630951.148,-46.875,-55.664,-31.250,-41.992,0.000
1728630951.152,-31.250,-58.105,-30.273,-47.852,0.000
1728630951.156,-46.387,-54.688,-21.484,-25.879,0.000
1728630951.160,-15.137,-38.574,-6.836,21.484,0.000
1728630951.164,-3.906,-40.527,-15.137,25.879,0.000
1728630951.168,-38.574,-51.758,-35.156,-43.457,0.000
1728630951.171,-13.184,-48.828,-37.598,-72.754,0.000
1728630951.175,-28.809,-43.945,-40.039,-63.965,0.000
1728630951.179,-49.805,-41.504,-38.574,-10.254,0.000
1728630951.183,-31.250,-38.574,-40.039,11.230,0.000
1728630951.187,-35.156,-43.457,-42.480,-39.062,0.000
1728630951.191,-27.344,-43.945,-34.180,-67.383,0.000
1728630951.195,-31.250,-43.457,-34.668,-50.293,0.000
1728630951.199,-25.879,-47.363,-38.574,-2.441,0.000
1728630951.203,-1.953,-39.551,-31.250,18.555,0.000
1728630951.207,-35.645,-36.133,-41.016,-44.922,0.000
1728630951.211,-25.879,-42.480,-56.152,-69.824,0.000
1728630951.214,-24.902,-45.410,-58.105,-52.734,0.000
1728630951.218,-48.340,-37.598,-47.363,-21.973,0.000
1728630951.222,-19.043,-27.344,-44.434,10.254,0.000
1728630951.226,0.000,-37.598,-54.688,-32.227,0.000
1728630951.230,0.000,-44.434,-56.641,-69.336,0.000
1728630951.234,0.000,-38.086,-46.875,-59.570,0.000
1728630951.238,0.000,-37.109,-43.457,-14.160,0.000
1728630951.242,0.000,-36.133,-35.645,20.508,0.000
1728630951.246,0.000,-41.504,-41.016,-17.578,0.000
1728630951.250,0.000,-42.969,-48.340,-53.711,0.000
1728630951.254,0.000,-36.133,-38.086,-67.383,0.000
1728630951.257,0.000,-42.969,-35.156,-42.480,0.000
1728630951.261,0.000,-41.016,-29.297,16.113,0.000
1728630951.265,0.000,-38.574,-34.668,-5.859,0.000
1728630951.269,0.000,-42.480,-49.316,-41.992,0.000
1728630951.273,-19.043,-45.898,-52.734,-34.180,0.000
1728630951.277,-41.992,-51.758,-52.246,-23.438,0.000
1728630951.281,-16.113,-43.457,-38.086,17.090,0.000
1728630951.285,-16.113,-37.598,-41.504,-6.348,0.000
1728630951.289,-17.090,-43.945,-49.805,-60.059,0.000
1728630951.293,-9.766,-50.293,-43.945,-51.758,0.000
1728630951.297,-43.457,-45.898,-37.109,-27.344,0.000
1728630951.300,-21.484,-41.016,-21.973,11.719,0.000
1728630951.304,-13.672,-50.293,-34.180,2.441,0.000
1728630951.308,-24.902,-47.852,-42.480,-55.176,0.000
1728630951.312,5.859,-38.086,-35.645,-63.477,0.000
1728630951.316,-30.762,-41.992,-33.203,-30.762,0.000
1728630951.320,-33.203,-44.922,-23.438,23.438,0.000
1728630951.324,-10.742,-43.945,-23.926,16.602,0.000
1728630951.328,-11.230,-37.598,-30.273,-40.527,0.000
1728630951.332,0.000,-30.273,-26.855,-59.082,0.000
1728630951.336,-30.762,-34.180,-25.391,-39.062,0.000
1728630951.339,-14.160,-36.621,-17.090,11.230,0.000
1728630951.343,-16.113,-40.527,-14.160,20.020,0.000
1728630951.347,-43.457,-47.363,-34.668,-34.180,0.000
1728630951.351,-21.484,-46.387,-39.062,-56.152,0.000
1728630951.355,-31.250,-34.668,-34.668,-43.945,0.000
1728630951.359,-28.809,-33.691,-37.109,-0.488,0.000
1728630951.363,-23.438,-44.434,-40.039,13.672,0.000
1728630951.367,-39.062,-45.410,-47.852,-45.898,0.000
1728630951.371,-27.832,-42.969,-43.945,-72.266,0.000
1728630951.375,-41.992,-45.410,-44.922,-57.617,0.000
1728630951.379,-51.758,-41.992,-38.574,-5.371,0.000
1728630951.382,-34.668,-38.574,-34.180,13.672,0.000
1728630951.386,-40.039,-45.898,-44.434,-41.016,0.000
1728630951.390,-28.809,-53.223,-41.992,-58.594,0.000
1728630951.394,-38.086,-56.152,-43.457,-48.340,0.000
1728630951.398,-45.898,-44.922,-34.668,-20.996,0.000
1728630951.402,-19.043,-34.668,-23.926,17.578,0.000
1728630951.406,-29.297,-44.922,-34.180,-25.391,0.000
1728630951.410,-9.277,-45.898,-37.598,-62.012,0.000
1728630951.414,-9.766,-40.527,-35.645,-46.387,0.000
1728630951.418,-40.039,-50.293,-38.574,-26.855,0.000
1728630951.422,-16.113,-62.500,-37.598,5.371,0.000
1728630951.425,-14.160,-61.035,-37.598,-19.531,0.000
1728630951.429,-19.531,-58.594,-41.016,-59.570,0.000
1728630951.433,-26.855,-56.641,-41.016,-51.270,0.000
1728630951.437,-44.922,-55.664,-37.598,-13.184,0.000
1728630951.441,-21.484,-51.758,-34.668,30.762,0.000
1728630951.445,-21.973,-43.945,-41.504,-12.695,0.000
1728630951.449,-10.254,-44.922,-45.898,-69.824,0.000
1728630951.453,-0.488,-46.387,-41.504,-65.430,0.000
1728630951.457,-30.762,-49.316,-36.621,-27.344,0.000
1728630951.461,-10.742,-49.316,-27.344,9.277,0.000
1728630951.464,-18.066,-51.270,-37.109,-19.531,0.000
1728630951.468,-21.484,-53.711,-50.293,-55.664,0.000
1728630951.472,-13.672,-48.340,-53.223,-60.059,0.000
1728630951.476,-52.246,-49.316,-54.199,-42.969,0.000
1728630951.480,-31.250,-49.805,-47.852,15.625,0.000
1728630951.484,-14.648,-49.805,-59.082,7.324,0.000
1728630951.488,-22.461,-43.945,-58.594,-41.992,0.000
1728630951.492,-20.020,-41.504,-46.387,-59.082,0.000
1728630951.496,-43.457,-52.246,-46.387,-40.039,0.000
1728630951.500,-22.949,-55.664,-42.969,12.695,0.000
1728630951.504,-20.996,-56.641,-42.969,6.836,0.000
1728630951.507,-32.715,-51.270,-46.387,-41.504,0.000
1728630951.511,-9.766,-48.340,-43.945,-52.734,0.000
1728630951.515,-31.250,-53.711,-36.133,-29.297,0.000
1728630951.519,-15.137,-47.363,-25.391,24.902,0.000
1728630951.523,6.348,-43.457,-25.879,16.113,0.000
1728630951.527,-9.277,-53.711,-33.203,-40.039,0.000
1728630951.531,0.000,-57.129,-26.367,-54.199,0.000
1728630951.535,-31.250,-52.246,-24.414,-37.598,0.000
1728630951.539,-30.762,-47.852,-22.949,9.277,0.000
1728630951.543,0.000,-50.293,-26.367,16.602,0.000
1728630951.547,-20.508,-60.059,-35.645,-40.527,0.000
1728630951.550,-5.859,-59.082,-32.715,-65.430,0.000
1728630951.554,-16.602,-50.781,-31.250,-34.668,0.000
1728630951.558,-34.668,-48.340,-26.367,18.066,0.000
1728630951.562,-17.578,-49.805,-21.484,25.879,0.000
1728630951.566,-39.062,-53.711,-36.133,-38.086,0.000
1728630951.570,-17.090,-59.570,-41.016,-65.430,0.000
1728630951.574,-13.184,-61.523,-39.062,-48.340,0.000
1728630951.578,-34.180,-55.176,-30.762,-1.465,0.000
1728630951.582,-20.508,-50.781,-18.555,18.555,0.000
1728630951.586,-36.621,-58.594,-32.227,-31.738,0.000
1728630951.590,-20.508,-64.941,-34.668,-52.734,0.000
1728630951.593,-16.113,-58.594,-24.414,-53.223,0.000
1728630951.597,-32.715,-58.105,-23.926,-14.648,0.000
1728630951.601,-1.953,-60.059,-24.414,36.133,0.000
1728630951.605,-18.066,-64.941,-34.180,1.953,0.000
1728630951.609,-25.391,-65.918,-41.992,-33.203,0.000
1728630951.613,-28.320,-65.918,-41.016,-32.715,0.000
1728630951.617,-35.156,-62.500,-37.109,-7.812,0.000
1728630951.621,-7.812,-53.711,-25.879,18.555,0.000
1728630951.625,-25.879,-53.711,-28.809,-17.090,0.000
1728630951.629,-14.648,-53.223,-37.598,-67.383,0.000
1728630951.633,-16.113,-57.129,-36.133,-66.895,0.000
1728630951.636,-44.434,-54.688,-30.762,-27.832,0.000
1728630951.640,-13.184,-47.363,-23.926,20.020,0.000
1728630951.644,-16.113,-50.293,-21.973,6.348,0.000
1728630951.648,-20.996,-63.965,-33.691,-37.598,0.000
1728630951.652,-19.531,-64.453,-38.574,-43.457,0.000
1728630951.656,-50.293,-53.711,-26.367,-12.695,0.000
1728630951.660,-22.461,-54.199,-20.508,34.668,0.000
1728630951.664,-8.301,-58.594,-30.273,5.859,0.000
1728630951.668,-13.672,-55.664,-35.156,-45.410,0.000
1728630951.672,-12.695,-52.734,-29.785,-43.457,0.000
1728630951.676,-32.227,-52.246,-30.273,-15.625,0.000
1728630951.679,-6.348,-53.223,-32.227,27.344,0.000
1728630951.683,-14.648,-53.711,-28.809,-5.371,0.000
1728630951.687,-29.785,-55.176,-33.691,-52.734,0.000
1728630951.691,-15.625,-57.617,-37.109,-47.363,0.000
1728630951.695,-34.180,-54.688,-35.645,-28.809,0.000
1728630951.699,-7.324,-41.016,-21.973,19.043,0.000
1728630951.703,0.977,-40.039,-20.996,20.020,0.000
1728630951.707,-25.391,-49.316,-34.668,-36.621,0.000
1728630951.711,-13.184,-48.828,-32.227,-51.758,0.000
1728630951.715,-21.973,-50.293,-31.738,-37.598,0.000
1728630951.718,-12.695,-43.457,-24.414,-7.812,0.000
1728630951.722,-11.719,-45.410,-22.949,-8.301,0.000
1728630951.726,-32.227,-52.734,-33.691,-48.828,0.000
1728630951.730,-11.719,-47.363,-31.738,-45.410,0.000
1728630951.734,-36.621,-46.387,-29.785,-20.020,0.000
1728630951.738,-49.805,-45.898,-31.738,14.648,0.000
1728630951.742,-20.020,-39.551,-27.344,25.879,0.000
1728630951.746,-30.273,-44.922,-33.203,-25.391,0.000
1728630951.750,-15.137,-47.363,-36.621,-48.828,0.000
1728630951.754,-15.137,-46.875,-36.621,-38.086,0.000
1728630951.758,-26.855,-48.828,-28.809,-0.488,0.000
1728630951.761,-14.648,-47.363,-21.973,29.785,0.000
1728630951.765,-33.203,-55.176,-28.809,-21.973,0.000
1728630951.769,-22.461,-60.547,-35.645,-53.223,0.000
1728630951.773,-24.414,-54.688,-27.832,-48.828,0.000
1728630951.777,-28.809,-47.852,-14.160,-6.836,0.000
1728630951.781,-10.742,-50.781,-13.672,26.367,0.000
1728630951.785,-23.438,-57.129,-17.090,-25.391,0.000
1728630951.789,-16.602,-53.223,-20.020,-60.059,0.000
1728630951.793,-20.508,-53.711,-22.949,-60.547,0.000
1728630951.797,-43.457,-56.641,-18.066,-20.508,0.000
1728630951.800,-26.855,-55.176,-7.812,22.461,0.000
1728630951.804,-32.715,-61.523,-16.602,-19.531,0.000
1728630951.808,-23.438,-63.965,-22.949,-57.129,0.000
1728630951.812,-26.367,-61.523,-18.066,-51.270,0.000
1728630951.816,-42.480,-56.152,-14.648,-20.020,0.000
1728630951.820,-21.973,-42.969,-8.301,29.785,0.000
1728630951.824,-35.645,-41.992,-25.879,2.441,0.000
1728630951.828,-30.762,-51.758,-34.668,-44.434,0.000
1728630951.832,-26.367,-57.617,-24.902,-50.293,0.000
1728630951.836,-50.781,-48.340,-23.438,-22.461,0.000
1728630951.840,-28.809,-40.039,-25.879,28.809,0.000
1728630951.843,-25.879,-48.340,-32.227,2.441,0.000
1728630951.847,-29.297,-53.223,-41.016,-44.434,0.000
1728630951.851,-24.414,-54.688,-45.898,-46.875,0.000
1728630951.855,-39.062,-48.828,-37.109,-19.531,0.000
1728630951.859,1.953,-51.270,-29.297,20.508,0.000
1728630951.863,-6.348,-52.246,-27.832,-12.207,0.000
1728630951.867,-27.344,-48.828,-30.762,-59.570,0.000
1728630951.871,-1.465,-49.805,-31.738,-42.480,0.000
1728630951.875,-24.414,-49.805,-29.785,-26.855,0.000
1728630951.879,-13.184,-42.969,-17.578,9.766,0.000
1728630951.882,-8.301,-40.527,-23.438,-2.441,0.000
1728630951.886,-17.578,-51.758,-37.109,-54.688,0.000
1728630951.890,-17.578,-56.152,-35.645,-53.223,0.000
1728630951.894,-49.316,-49.805,-39.062,-42.969,0.000
1728630951.898,-36.133,-50.293,-31.250,-1.953,0.000
1728630951.902,-1.465,-52.246,-31.738,11.719,0.000
1728630951.906,-5.859,-54.199,-44.922,-47.363,0.000
1728630951.910,-21.484,-51.270,-43.457,-65.430,0.000
1728630951.914,-46.875,-48.828,-44.434,-41.504,0.000
1728630951.918,-32.715,-54.688,-47.852,4.883,0.000
1728630951.922,-13.184,-53.223,-42.480,2.441,0.000
1728630951.925,-24.414,-52.734,-41.016,-59.570,0.000
1728630951.929,-13.672,-59.082,-42.969,-70.312,0.000
1728630951.933,-37.109,-65.918,-36.621,-46.875,0.000
1728630951.937,-48.340,-58.594,-24.902,-11.719,0.000
1728630951.941,-25.391,-51.270,-19.043,12.207,0.000
1728630951.945,-19.531,-64.453,-28.320,-19.043,0.000
1728630951.949,-6.348,-69.336,-30.762,-48.828,0.000
1728630951.953,-18.555,-61.035,-29.297,-45.898,0.000
1728630951.957,-23.926,-52.246,-27.344,4.395,0.000
1728630951.961,-6.836,-54.688,-27.832,23.438,0.000
1728630951.965,-21.973,-62.988,-42.480,-30.273,0.000
1728630951.968,-5.859,-53.223,-37.109,-65.918,0.000
1728630951.972,-12.695,-50.293,-27.344,-50.293,0.000
1728630951.976,-35.156,-59.082,-21.484,-11.719,0.000
1728630951.980,-10.254,-55.664,-20.020,21.973,0.000
1728630951.984,-20.508,-57.129,-31.250,-21.973,0.000
1728630951.988,-10.742,-54.688,-29.297,-53.223,0.000
1728630951.992,-16.113,-53.223,-32.227,-40.527,0.000
1728630951.996,-35.645,-55.664,-43.945,-8.301,0.000
1728630952.000,-19.531,-47.852,-38.574,28.320,0.000
1728630952.004,-36.621,-56.641,-43.457,-11.230,0.000
1728630952.007,-24.414,-63.965,-48.828,-52.734,0.000
1728630952.011,-16.113,-60.547,-37.109,-47.852,0.000
1728630952.015,-37.109,-53.711,-30.273,-14.160,0.000
1728630952.019,-8.301,-45.898,-25.879,23.926,0.000
1728630952.023,-13.672,-54.199,-35.156,-11.719,0.000
1728630952.027,-27.832,-59.570,-35.156,-42.480,0.000
1728630952.031,-24.902,-52.734,-28.809,-42.969,0.000
1728630952.035,-34.180,-54.199,-28.809,-21.973,0.000
1728630952.039,-20.996,-59.082,-23.438,11.719,0.000
1728630952.043,-34.668,-56.641,-35.156,-13.672,0.000
1728630952.047,-30.762,-58.594,-37.109,-57.129,0.000
1728630952.050,-7.812,-64.941,-28.320,-50.293,0.000
1728630952.054,-42.969,-70.312,-22.461,-21.973,0.000
1728630952.058,-42.969,-68.359,-2.930,17.578,0.000
1728630952.062,-25.879,-70.312,-5.371,10.742,0.000
1728630952.066,-22.461,-73.730,-20.996,-50.293,0.000
1728630952.070,-13.672,-75.195,-25.391,-64.941,0.000
1728630952.074,-46.875,-73.242,-21.484,-41.016,0.000
1728630952.078,-35.156,-64.453,-8.301,10.254,0.000
1728630952.082,-11.230,-60.547,-11.230,14.648,0.000
1728630952.086,-21.973,-62.500,-25.879,-29.785,0.000
1728630952.090,3.906,-66.406,-26.367,-42.480,0.000
1728630952.093,-6.348,-65.430,-17.090,-13.184,0.000
1728630952.097,2.441,-58.594,-7.324,49.805,0.000
1728630952.101,10.742,-54.199,-13.672,38.086,0.000
1728630952.105,-5.859,-49.805,-24.902,-32.227,0.000
1728630952.109,-2.930,-55.664,-20.996,-39.551,0.000
1728630952.113,-31.250,-62.988,-28.320,-33.691,0.000
1728630952.117,-20.508,-54.688,-26.855,-10.742,0.000
1728630952.121,2.930,-47.852,-24.902,14.160,0.000
1728630952.125,-9.277,-51.758,-39.062,-31.738,0.000
1728630952.129,-15.625,-58.105,-37.598,-56.152,0.000
1728630952.132,-42.969,-54.688,-30.762,-43.457,0.000
1728630952.136,-50.293,-48.340,-27.344,12.207,0.000
1728630952.140,-32.715,-49.316,-30.762,37.598,0.000
1728630952.144,-31.738,-57.129,-42.480,-15.137,0.000
1728630952.148,-8.789,-55.176,-34.668,-52.734,0.000
1728630952.152,-27.832,-47.363,-26.367,-50.293,0.000
1728630952.156,-39.551,-40.039,-23.438,-7.812,0.000
1728630952.160,-5.859,-30.762,-18.066,23.438,0.000
1728630952.164,-27.344,-38.086,-25.879,-23.438,0.000
1728630952.168,-29.297,-50.293,-31.738,-47.363,0.000
1728630952.172,-27.832,-53.711,-30.762,-43.457,0.000
1728630952.175,-47.363,-52.246,-28.320,-7.324,0.000
1728630952.179,-21.973,-46.387,-23.438,32.227,0.000
1728630952.183,-17.090,-50.293,-33.691,-11.230,0.000
1728630952.187,2.441,-54.688,-45.898,-49.316,0.000
1728630952.191,26.367,-50.293,-39.062,-48.340,0.000
1728630952.195,-9.277,-43.945,-20.996,-15.137,0.000
1728630952.199,7.324,-42.480,-17.578,24.414,0.000
1728630952.203,-10.742,-48.828,-33.203,-11.719,0.000
1728630952.207,-30.273,-53.223,-39.062,-58.594,0.000
1728630952.211,-22.949,-53.711,-37.598,-56.641,0.000
1728630952.214,-49.316,-53.711,-42.969,-25.879,0.000
1728630952.218,-36.133,-43.945,-35.645,14.160,0.000
1728630952.222,-43.457,-42.969,-32.227,-13.184,0.000
1728630952.226,-48.340,-50.781,-41.992,-61.523,0.000
1728630952.230,-41.992,-53.711,-41.016,-50.781,0.000
1728630952.234,-57.129,-56.641,-39.551,-19.531,0.000
1728630952.238,-37.598,-45.898,-26.367,14.648,0.000
1728630952.242,-30.273,-35.156,-23.926,-2.930,0.000
1728630952.246,-20.996,-40.527,-38.086,-43.457,0.000
1728630952.250,-7.812,-41.992,-41.016,-49.805,0.000
1728630952.254,-41.992,-37.598,-37.598,-29.785,0.000
1728630952.257,-28.320,-34.668,-28.809,20.996,0.000
1728630952.261,-22.949,-39.062,-37.598,-1.465,0.000
1728630952.265,-27.832,-42.480,-40.039,-53.223,0.000
1728630952.269,-11.230,-45.410,-34.668,-58.594,0.000
1728630952.273,-42.969,-40.527,-42.969,-44.922,0.000
1728630952.277,-30.273,-39.551,-38.086,10.254,0.000
1728630952.281,-21.973,-49.805,-29.297,16.113,0.000
1728630952.285,-46.875,-47.363,-36.133,-27.832,0.000
1728630952.289,-18.555,-45.898,-38.086,-42.480,0.000
1728630952.293,-27.344,-46.875,-40.527,-47.363,0.000
1728630952.296,-39.062,-38.086,-28.320,6.348,0.000
1728630952.300,-28.809,-40.527,-19.531,18.555,0.000
1728630952.304,-31.738,-45.410,-29.297,-46.387,0.000
1728630952.308,-12.695,-38.574,-30.762,-57.129,0.000
1728630952.312,-23.926,-36.133,-24.902,-40.039,0.000
1728630952.316,-20.020,-34.668,-17.578,0.000,0.000
1728630952.320,-12.207,-36.133,-24.902,22.949,0.000
1728630952.324,-30.762,-37.109,-41.016,-33.691,0.000
1728630952.328,-13.672,-40.039,-31.250,-52.734,0.000
1728630952.332,-20.508,-45.410,-20.508,-29.297,0.000
1728630952.336,-8.301,-40.527,-26.367,4.883,0.000
1728630952.339,14.160,-40.039,-36.133,31.738,0.000
1728630952.343,-6.836,-35.156,-35.156,-20.020,0.000
1728630952.347,5.371,-41.016,-35.645,-56.152,0.000
1728630952.351,-6.836,-49.805,-34.180,-43.945,0.000
1728630952.355,-34.180,-39.062,-30.762,0.000,0.000
1728630952.359,-25.391,-32.227,-24.414,33.203,0.000
1728630952.363,-37.109,-41.016,-27.344,-7.324,0.000
1728630952.367,-24.902,-47.363,-33.691,-37.109,0.000
1728630952.371,-27.832,-46.875,-36.133,-42.480,0.000
1728630952.375,-43.457,-44.922,-25.391,-2.441,0.000
1728630952.379,-13.184,-41.504,-24.414,30.273,0.000
1728630952.382,-23.926,-47.852,-39.062,-9.766,0.000
1728630952.386,-18.066,-52.734,-38.086,-47.852,0.000
1728630952.390,-18.066,-44.434,-34.668,-51.270,0.000
1728630952.394,-43.457,-41.016,-32.227,-5.859,0.000
1728630952.398,-31.250,-36.133,-33.203,38.086,0.000
1728630952.402,-38.574,-40.527,-44.922,-8.301,0.000
1728630952.406,-17.578,-47.852,-49.316,-53.711,0.000
1728630952.410,-4.883,-39.062,-44.922,-45.410,0.000
1728630952.414,-42.480,-36.133,-37.598,-23.926,0.000
1728630952.418,-22.461,-40.039,-27.832,18.555,0.000
1728630952.422,-13.672,-40.527,-32.227,-8.301,0.000
1728630952.425,-9.766,-46.387,-41.016,-56.152,0.000
1728630952.429,-7.812,-54.688,-41.504,-50.781,0.000
1728630952.433,-41.504,-50.781,-28.809,-22.461,0.000
1728630952.437,-18.066,-41.504,-17.090,23.926,0.000
1728630952.441,-7.324,-49.316,-27.832,7.812,0.000
1728630952.445,-14.160,-52.734,-37.598,-36.133,0.000
1728630952.449,2.930,-38.086,-29.297,-43.457,0.000
1728630952.453,-15.137,-36.133,-25.879,-30.273,0.000
1728630952.457,-23.926,-27.832,-20.508,13.672,0.000
1728630952.461,-10.742,-19.531,-16.113,11.230,0.000
1728630952.464,-24.902,-29.785,-33.203,-47.363,0.000
1728630952.468,-26.855,-36.133,-37.109,-64.453,0.000
1728630952.472,-41.016,-36.133,-34.668,-48.828,0.000
1728630952.476,-42.969,-35.645,-30.273,2.930,0.000
1728630952.480,-35.156,-34.668,-23.438,9.766,0.000
1728630952.484,-32.715,-49.805,-29.785,-47.852,0.000
1728630952.488,-7.812,-51.270,-31.250,-53.711,0.000
1728630952.492,-35.156,-40.527,-24.902,-38.574,0.000
1728630952.496,-39.062,-39.062,-12.695,-1.953,0.000
1728630952.500,-17.578,-40.039,-14.160,18.555,0.000
1728630952.504,-26.367,-46.387,-28.320,-34.668,0.000
1728630952.507,-10.254,-43.457,-28.320,-53.711,0.000
1728630952.511,-24.414,-33.691,-23.926,-34.180,0.000
1728630952.515,-27.832,-29.297,-21.973,9.277,0.000
1728630952.519,-6.836,-37.109,-28.809,32.715,0.000
1728630952.523,-34.180,-33.691,-26.367,-27.344,0.000
1728630952.527,-16.602,-25.879,-14.648,-49.316,0.000
1728630952.531,-7.324,-30.273,-20.020,-34.668,0.000
1728630952.535,-16.602,-37.109,-19.531,0.488,0.000
1728630952.539,-3.906,-30.762,-13.184,31.738,0.000
1728630952.543,-15.625,-29.297,-23.438,-18.066,0.000
1728630952.547,-0.977,-35.156,-27.832,-58.105,0.000
1728630952.550,-18.555,-27.832,-22.461,-36.621,0.000
1728630952.554,-34.180,-22.461,-16.602,6.348,0.000
1728630952.558,-1.465,-29.297,-17.578,40.527,0.000
1728630952.562,-20.020,-40.039,-30.762,4.395,0.000
1728630952.566,-17.090,-48.340,-33.691,-34.180,0.000
1728630952.570,-17.578,-40.039,-26.367,-49.316,0.000
1728630952.574,-47.852,-39.551,-31.738,-31.738,0.000
1728630952.578,-2.441,-46.875,-34.668,13.184,0.000
1728630952.582,5.859,-40.039,-44.922,-26.367,0.000
1728630952.586,-25.879,-32.227,-53.223,-58.105,0.000
1728630952.589,-22.949,-31.250,-46.875,-48.828,0.000
1728630952.593,-24.414,-32.227,-42.480,-33.691,0.000
1728630952.597,0.488,-32.715,-37.109,16.113,0.000
1728630952.601,-12.207,-31.250,-41.992,-10.254,0.000
1728630952.605,-23.438,-37.109,-45.410,-51.758,0.000
1728630952.609,-12.207,-45.410,-43.457,-26.367,0.000
1728630952.613,-41.504,-46.387,-32.715,-20.996,0.000
1728630952.617,-30.762,-47.852,-28.809,2.930,0.000
1728630952.621,-23.438,-42.480,-39.062,-10.742,0.000
1728630952.625,-21.484,-39.551,-44.434,-53.711,0.000
1728630952.629,1.465,-40.527,-38.574,-43.945,0.000
1728630952.632,-25.879,-37.598,-30.762,-16.113,0.000
1728630952.636,-23.438,-35.156,-29.297,25.391,0.000
1728630952.640,-7.812,-31.250,-31.738,17.090,0.000
1728630952.644,-23.438,-33.691,-33.691,-33.691,0.000
1728630952.648,-16.602,-39.551,-39.062,-55.176,0.000
1728630952.652,-29.297,-44.922,-46.875,-39.062,0.000
1728630952.656,-34.180,-43.945,-40.527,15.625,0.000
1728630952.660,-27.344,-37.598,-43.945,13.672,0.000
1728630952.664,-28.809,-39.062,-55.664,-42.969,0.000
1728630952.668,-16.602,-42.969,-54.688,-44.434,0.000
1728630952.671,-39.062,-41.504,-47.363,-30.273,0.000
1728630952.675,-24.414,-35.645,-36.133,21.484,0.000
1728630952.679,5.859,-35.156,-38.574,41.504,0.000
1728630952.683,-1.465,-36.621,-50.293,-23.926,0.000
1728630952.687,-0.488,-35.156,-48.828,-41.504,0.000
1728630952.691,-35.156,-39.551,-53.223,-28.320,0.000
1728630952.695,-32.227,-34.180,-47.852,15.625,0.000
1728630952.699,-0.977,-28.809,-40.039,18.555,0.000
1728630952.703,-15.137,-38.574,-46.875,-33.691,0.000
1728630952.707,8.789,-39.062,-41.992,-56.641,0.000
1728630952.711,0.000,-37.598,-33.203,-56.641,0.000
1728630952.714,-30.762,-41.016,-33.203,-1.465,0.000
1728630952.718,-21.973,-34.180,-26.855,25.879,0.000
1728630952.722,-24.902,-39.062,-35.156,-29.785,0.000
1728630952.726,-2.930,-42.969,-41.504,-55.664,0.000
1728630952.730,-25.879,-43.945,-37.598,-46.875,0.000
1728630952.734,-31.738,-43.457,-32.715,-15.625,0.000
1728630952.738,-13.672,-39.062,-31.250,33.203,0.000
1728630952.742,-43.457,-40.039,-41.016,-10.742,0.000
1728630952.746,-34.668,-42.969,-41.992,-55.176,0.000
1728630952.750,-28.809,-44.922,-35.645,-33.691,0.000
1728630952.754,-42.480,-31.250,-24.902,4.395,0.000
1728630952.757,-11.719,-20.996,-20.996,35.156,0.000
1728630952.761,-16.602,-26.367,-26.367,-8.789,0.000
1728630952.765,-3.418,-22.461,-20.996,-48.340,0.000
1728630952.769,-0.977,-22.949,-20.508,-36.621,0.000
1728630952.773,-33.691,-36.133,-21.484,-14.160,0.000
1728630952.777,-5.859,-35.156,-12.207,23.438,0.000
1728630952.781,-11.719,-26.855,-21.484,5.859,0.000
1728630952.785,-27.832,-34.668,-25.391,-43.457,0.000
1728630952.789,-23.926,-36.621,-24.902,-50.781,0.000
1728630952.793,-45.410,-28.809,-23.438,-30.273,0.000
1728630952.796,-26.367,-24.902,-15.625,15.137,0.000
1728630952.800,-14.648,-26.855,-27.832,-1.953,0.000
1728630952.804,-17.090,-38.086,-41.504,-39.551,0.000
1728630952.808,-17.090,-37.109,-34.668,-54.199,0.000
1728630952.812,-41.992,-21.973,-28.809,-33.203,0.000
1728630952.816,-22.461,-24.902,-26.367,22.461,0.000
1728630952.820,-15.137,-33.203,-27.344,14.648,0.000
1728630952.824,-28.320,-35.645,-38.086,-30.762,0.000
1728630952.828,-3.906,-25.391,-40.039,-44.434,0.000
1728630952.832,-1.465,-26.855,-40.527,-28.320,0.000
1728630952.836,-28.320,-45.410,-33.691,9.277,0.000
1728630952.839,-42.480,-49.805,-36.133,-10.254,0.000
1728630952.843,-42.969,-43.945,-43.945,-63.477,0.000
1728630952.847,-23.926,-38.574,-39.062,-56.641,0.000
1728630952.851,-42.480,-35.156,-32.227,-31.250,0.000
1728630952.855,-39.551,-32.227,-25.391,9.277,0.000
1728630952.859,-16.113,-30.762,-30.273,20.996,0.000
1728630952.863,-18.555,-30.762,-45.898,-36.133,0.000
1728630952.867,-19.531,-30.273,-44.922,-68.848,0.000
1728630952.871,-53.223,-39.062,-46.387,-58.594,0.000
1728630952.875,-46.387,-38.086,-42.969,0.488,0.000
1728630952.879,-11.719,-30.762,-38.086,11.230,0.000
1728630952.882,-15.625,-28.320,-38.574,-42.969,0.000
1728630952.886,8.789,-33.203,-31.738,-44.434,0.000
1728630952.890,-12.695,-34.180,-30.762,-26.855,0.000
1728630952.894,-18.555,-25.391,-28.809,-1.465,0.000
1728630952.898,-14.160,-12.695,-12.695,14.160,0.000
1728630952.902,-41.016,-14.648,-14.648,-31.738,0.000
1728630952.906,-25.879,-32.715,-22.949,-61.035,0.000
1728630952.910,-30.762,-41.016,-21.484,-56.152,0.000
1728630952.914,-34.180,-35.156,-18.555,-6.348,0.000
1728630952.918,-10.254,-30.273,-12.695,32.227,0.000
1728630952.921,-18.555,-34.668,-18.066,-20.020,0.000
1728630952.925,-14.160,-36.621,-20.508,-53.223,0.000
1728630952.929,-15.137,-35.645,-20.996,-54.688,0.000
1728630952.933,-31.250,-43.945,-23.926,-28.320,0.000
1728630952.937,-18.066,-46.875,-18.555,19.531,0.000
1728630952.941,-28.809,-49.316,-29.297,-22.461,0.000
1728630952.945,-19.043,-39.551,-36.621,-63.477,0.000
1728630952.949,-24.902,-31.738,-37.109,-41.504,0.000
1728630952.953,-42.480,-34.180,-42.480,-10.742,0.000
1728630952.957,-22.949,-32.227,-38.086,10.254,0.000
1728630952.961,-31.250,-33.691,-41.016,-12.695,0.000
1728630952.964,-28.809,-38.086,-46.387,-44.922,0.000
1728630952.968,-28.320,-47.363,-52.246,-51.758,0.000
1728630952.972,-42.969,-44.922,-58.105,-47.852,0.000
1728630952.976,-27.832,-31.250,-49.316,-4.883,0.000
1728630952.980,-30.762,-29.297,-51.270,-14.648,0.000
1728630952.984,-25.879,-27.832,-53.223,-59.082,0.000
1728630952.988,-21.973,-25.879,-35.156,-62.012,0.000
1728630952.992,-43.945,-22.949,-25.391,-35.645,0.000
1728630952.996,-10.254,-18.066,-20.020,18.066,0.000
1728630953.000,-4.395,-20.508,-22.461,6.348,0.000
1728630953.003,-24.902,-26.367,-25.391,-47.363,0.000
1728630953.007,-11.230,-24.902,-24.902,-53.223,0.000
1728630953.011,-19.531,-23.438,-33.691,-29.785,0.000
1728630953.015,0.000,-24.902,-31.738,9.277,0.000
1728630953.019,-6.836,-26.367,-37.109,-2.441,0.000
1728630953.023,-31.738,-32.715,-41.992,-52.246,0.000
1728630953.027,-13.184,-43.457,-37.109,-54.688,0.000
1728630953.031,-46.875,-38.086,-31.738,-25.391,0.000
1728630953.035,-33.203,-17.578,-16.113,22.949,0.000
1728630953.039,-8.789,-17.578,-13.672,25.879,0.000
1728630953.043,-18.555,-33.203,-30.762,-30.762,0.000
1728630953.046,-6.836,-35.156,-26.367,-54.199,0.000
1728630953.050,-37.598,-27.832,-14.160,-37.109,0.000
1728630953.054,-32.715,-22.949,-10.254,13.184,0.000
1728630953.058,-13.184,-31.250,-14.648,22.461,0.000
1728630953.062,-18.066,-35.156,-16.113,-33.691,0.000
1728630953.066,-1.465,-23.926,-6.836,-48.828,0.000
1728630953.070,2.441,-20.020,-10.254,-27.344,0.000
1728630953.074,-15.137,-22.949,-12.695,14.648,0.000
1728630953.078,-29.297,-23.926,-7.812,19.043,0.000
1728630953.082,-39.062,-26.367,-19.043,-35.156,0.000
1728630953.086,-30.762,-19.531,-21.484,-51.270,0.000
1728630953.089,-32.715,-26.855,-16.602,-32.227,0.000
1728630953.093,-35.645,-33.691,-13.184,-1.953,0.000
1728630953.097,-32.715,-27.344,-11.719,19.531,0.000
1728630953.101,-42.969,-27.832,-19.043,-30.762,0.000
1728630953.105,-26.855,-25.391,-12.695,-68.848,0.000
1728630953.109,-37.109,-20.020,-17.578,-60.059,0.000
1728630953.113,-53.223,-15.625,-17.090,-38.574,0.000
1728630953.117,-32.715,-8.301,-4.883,-11.230,0.000
1728630953.121,-72.266,-12.207,-12.695,-78.613,0.000
1728630953.125,-86.914,-14.160,-20.020,-138.184,0.000
1728630953.129,-82.031,-9.277,-20.020,-133.789,0.000
1728630953.132,-117.676,-11.230,-20.508,-117.676,0.000
1728630953.136,-110.840,-6.836,-28.809,-92.285,0.000
1728630953.140,-121.094,-1.465,-33.691,-129.883,0.000
1728630953.144,-149.902,-8.301,-37.598,-170.410,0.000
1728630953.148,-150.879,-20.996,-50.293,-173.828,0.000
1728630953.152,-165.039,-16.113,-40.039,-148.438,0.000
1728630953.156,-140.137,-7.324,-25.879,-96.680,0.000
1728630953.160,-131.836,-21.973,-42.969,-118.164,0.000
1728630953.164,-110.840,-24.902,-54.688,-161.621,0.000
1728630953.168,-115.234,-16.602,-55.176,-170.898,0.000
1728630953.172,-156.250,-14.160,-49.316,-145.996,0.000
1728630953.175,-107.422,-4.395,-43.945,-75.195,0.000
1728630953.179,-88.867,-9.766,-58.105,-74.219,0.000
1728630953.183,-89.355,-11.719,-59.570,-112.305,0.000
1728630953.187,-58.105,-10.254,-57.129,-108.887,0.000
1728630953.191,-73.242,-8.301,-54.199,-74.219,0.000
1728630953.195,-62.988,-12.207,-36.621,-20.020,0.000
1728630953.199,-45.410,-30.762,-43.945,-20.996,0.000
1728630953.203,-24.902,-34.180,-59.570,-67.383,0.000
1728630953.207,0.488,-30.273,-56.641,-76.172,0.000
1728630953.211,-38.574,-33.691,-48.828,-46.387,0.000
1728630953.215,-21.973,-30.762,-40.039,12.207,0.000
1728630953.218,-8.789,-34.668,-46.875,10.742,0.000
1728630953.222,-20.508,-41.016,-58.594,-20.996,0.000
1728630953.226,3.418,-41.504,-50.781,-6.836,0.000
1728630953.230,-9.766,-45.898,-42.480,-0.488,0.000
1728630953.234,-11.230,-43.945,-42.480,32.715,0.000
1728630953.238,7.324,-48.340,-50.293,52.734,0.000
1728630953.242,0.977,-60.547,-56.152,6.348,0.000
1728630953.246,16.602,-58.105,-42.969,-10.742,0.000
1728630953.250,2.930,-51.758,-35.156,6.836,0.000
1728630953.254,-3.906,-53.223,-27.344,48.340,0.000
1728630953.258,16.602,-51.270,-23.926,57.617,0.000
1728630953.261,-4.395,-55.176,-39.551,12.695,0.000
1728630953.265,14.648,-59.082,-39.551,-15.137,0.000
1728630953.269,24.902,-50.781,-31.738,-0.488,0.000
1728630953.273,18.555,-36.621,-21.484,47.852,0.000
1728630953.277,36.621,-33.203,-24.414,65.918,0.000
1728630953.281,22.461,-43.457,-41.992,13.672,0.000
1728630953.285,30.273,-50.781,-40.039,-14.648,0.000
1728630953.289,21.484,-49.316,-34.668,-0.488,0.000
1728630953.293,15.625,-45.410,-28.809,41.504,0.000
1728630953.297,55.664,-38.574,-26.855,69.336,0.000
1728630953.300,26.367,-40.039,-32.715,41.016,0.000
1728630953.304,23.926,-45.410,-33.203,-6.836,0.000
1728630953.308,22.949,-51.270,-37.109,-1.465,0.000
1728630953.312,12.695,-53.711,-31.738,56.641,0.000
1728630953.316,40.527,-48.340,-25.391,68.359,0.000
1728630953.320,3.418,-40.039,-33.691,12.695,0.000
1728630953.324,21.973,-39.551,-43.945,-20.020,0.000
1728630953.328,31.250,-51.270,-40.527,-10.742,0.000
1728630953.332,-5.859,-45.410,-22.461,23.438,0.000
1728630953.336,25.879,-34.668,-12.207,61.035,0.000
1728630953.340,-0.977,-40.527,-36.133,14.648,0.000
1728630953.343,-8.789,-49.805,-53.223,-25.879,0.000
1728630953.347,13.672,-54.199,-40.527,-11.230,0.000
1728630953.351,-3.906,-46.875,-30.273,22.949,0.000
1728630953.355,28.320,-34.180,-25.879,64.941,0.000
1728630953.359,39.062,-26.367,-26.367,41.992,0.000
1728630953.363,18.555,-19.043,-26.367,0.000,0.000
1728630953.367,9.766,-14.160,-30.762,-4.395,0.000
1728630953.371,-11.719,-17.090,-34.180,1.953,0.000
1728630953.375,8.789,-16.113,-21.484,40.527,0.000
1728630953.379,11.719,-19.531,-22.949,18.555,0.000
1728630953.382,9.766,-21.484,-41.504,-35.156,0.000
1728630953.386,14.160,-11.230,-44.434,-38.574,0.000
1728630953.390,-14.648,-7.812,-32.227,-10.742,0.000
1728630953.394,0.000,-0.977,-22.949,45.898,0.000
1728630953.398,13.184,8.301,-29.297,26.855,0.000
1728630953.402,12.207,1.953,-35.156,-25.879,0.000
1728630953.406,31.250,-0.977,-29.297,-32.227,0.000
1728630953.410,0.488,0.977,-18.555,-11.719,0.000
1728630953.414,-10.254,8.789,-13.672,37.109,0.000
1728630953.418,-3.418,7.324,-20.996,40.527,0.000
1728630953.421,-9.277,-0.488,-29.297,-9.277,0.000
1728630953.425,-5.859,5.371,-30.762,-33.203,0.000
1728630953.429,-24.414,7.812,-25.391,-21.973,0.000
1728630953.433,-13.184,-0.977,-23.438,24.414,0.000
1728630953.437,-7.324,-4.395,-17.090,45.898,0.000
1728630953.441,-28.809,-1.465,-25.879,0.000,0.000
1728630953.445,-10.742,-7.324,-31.738,-27.344,0.000
