,TP9,AF7,AF8,TP10
0,-0.22324891132459426,-0.4924752589661176,-0.4416515650260028,-0.1418930693261464
1,-0.4426701838105538,-1.1679187721186437,-0.9166763496727173,-0.3940641676740132
2,-0.7434170277957342,-2.158308543910404,-1.5891932145712273,-0.7667381160636881
3,-1.1463994609811956,-3.458611739536729,-2.4682757529783856,-1.2705511591147776
4,-1.679735087077907,-5.0305747314788505,-3.546657711567706,-1.9191316405744603
5,-2.3642157533682644,-6.8065529214230835,-4.799018150397081,-2.721273443393412
6,-3.2076306544666853,-8.696839990101363,-6.182514599449665,-3.667364209931914
7,-4.209062837663307,-10.600089948945202,-7.6433534513223265,-4.730952717871307
8,-5.364323537545753,-12.423854141322451,-9.12857751469933,-5.887514426599237
9,-6.666648633582692,-14.113990201814815,-10.599555849385455,-7.119971868113956
10,-8.107157702019396,-15.67807827703266,-12.047576105420653,-8.410769499189696
11,-9.652962544909855,-17.1188846834951,-13.446593411381896,-9.721389248436646
12,-11.25494032075074,-18.450201008085916,-14.773823839785805,-11.009757238011957
13,-12.853895120888131,-19.694187199831692,-16.014992316300994,-12.248132942687427
14,-14.392463104906481,-20.8744823761942,-17.163873755662234,-13.42215226433996
15,-15.830936105431569,-22.003062836060618,-18.219075413138995,-14.516419181210752
16,-17.153904316296703,-23.07443594207492,-19.185191351291508,-15.512361284327524
17,-18.364063060494924,-24.07466768907784,-20.070923319963725,-16.40536557750136
18,-19.47297376336461,-24.991273833306806,-20.880515546880325,-17.2159740662527
19,-20.490911713092007,-25.813192310508196,-21.61307182821986,-17.97510809706634
20,-21.42178161838792,-26.526204771032376,-22.268245029363555,-18.70728771799125
21,-22.26892680843581,-27.11290426558002,-22.84685000945562,-19.425075440691863
22,-23.044506784073057,-27.560104326314264,-23.348179504996168,-20.132162268854955
23,-23.766769283421535,-27.868335660619493,-23.768055070122145,-20.829581338213366
24,-24.44902558498218,-28.050458282092755,-24.097467056652853,-21.51305872293381
25,-25.096592927932303,-28.119094413101006,-24.3223988650224,-22.161145197693727
26,-25.71050759883019,-28.079600097157158,-24.428504334853177,-22.7361924055
27,-26.288558291142653,-27.937414015015523,-24.40646101937774,-23.207450686607856
28,-26.8225864967505,-27.707106208582424,-24.252508303537887,-23.561773111244754
29,-27.300376788471244,-27.410985746296635,-23.96722050613728,-23.794478495278728
30,-27.712099220802024,-27.07345732883243,-23.557473139188733,-23.90236496111939
31,-28.0522652375702,-26.71561897180401,-23.04079116144163,-23.887891897837225
32,-28.318984603497814,-26.350530169508712,-22.446471902204436,-23.772077272268813
33,-28.51695973496479,-25.980796130257673,-21.809992815444602,-23.597004538777675
34,-28.66043341744437,-25.598840742081208,-21.16378043524485,-23.41327572531066
35,-28.769406036087155,-25.191005562074846,-20.53311872313002,-23.260916414598693
36,-28.86360537455466,-24.745171313185924,-19.93412863254464,-23.15938829169151
37,-28.95563482686003,-24.26260981407583,-19.369559467939947,-23.112208016303267
38,-29.043033328893877,-23.76373739001938,-18.832333439240823,-23.110520079922207
39,-29.10743511284082,-23.276311630135915,-18.315693922621,-23.13771100094759
40,-29.118634394374016,-22.820235511035595,-17.81742981735131,-23.169839316781548
41,-29.038162569650556,-22.40228691619013,-17.340070444765907,-23.17074764283414
42,-28.82706270874227,-22.016574728819414,-16.893118592945918,-23.0994208602289
43,-28.459902864513094,-21.64612537889179,-16.488382315076052,-22.929142587387872
44,-27.936529637362362,-21.265250380339914,-16.129752980714258,-22.6601935369322
45,-27.279653496915248,-20.843370385435943,-15.811168331223802,-22.308029939579097
46,-26.51919004768028,-20.34877045103534,-15.519890131484155,-21.884300284433778
47,-25.68254265599907,-19.751199990282725,-15.23875203532145,-21.395002876689805
48,-24.79761124097303,-19.026881225101306,-14.948374313202011,-20.850702577293575
49,-23.89104961287068,-18.167237772597527,-14.630969440445991,-20.2741418605961
50,-22.975746448723484,-17.185178309736003,-14.274544322742743,-19.686364227247658
51,-22.043475476741396,-16.11569972247889,-13.875225589902573,-19.082856115275778
52,-21.073715407557412,-15.004094173655881,-13.438100431550431,-18.436204412488607
53,-20.047386801549138,-13.883943445000012,-12.976737517793111,-17.721832629481757
54,-18.955831163401086,-12.772173086866655,-12.51379907196169,-16.936259891737627
55,-17.80683704154876,-11.683085095195294,-12.075405692391458,-16.09307559716645
56,-16.623507037853546,-10.63895863759211,-11.677075412546372,-15.210654932450215
57,-15.436425491176431,-9.670775396902842,-11.321255527897451,-14.308454500005922
58,-14.274666165391006,-8.809746447381324,-11.005325360823198,-13.414118986720107
59,-13.158280680243145,-8.080619773957379,-10.722654477618516,-12.566120331482368
60,-12.093540252635377,-7.4996168725565076,-10.464528499556907,-11.796466640745098
61,-11.072263690080865,-7.066748350161737,-10.227787368585052,-11.113231581653979
62,-10.078657161949005,-6.760223446969273,-10.014763841809048,-10.50187661088694
63,-9.10120875109567,-6.541316013943722,-9.827739127890055,-9.94282592695747
64,-8.13698351191921,-6.36317864167897,-9.665198163456232,-9.422819453944552
65,-7.183127214073836,-6.179228489451798,-9.519516078010158,-8.9231419767249
66,-6.231060552845228,-5.950135866554839,-9.376653929607205,-8.409386651178494
67,-5.271229062037215,-5.6498684317948795,-9.216450804221175,-7.8423887634236396
68,-4.300324057104244,-5.272363157222521,-9.014433699262273,-7.202509617224978
69,-3.32704487016767,-4.8347285500775,-8.74929501695179,-6.497696193739902
70,-2.364490807376795,-4.374921560103001,-8.413454343552253,-5.744608029725036
71,-1.412044901059391,-3.9357281914796056,-8.014758896570086,-4.950806368124723
72,-0.4508325596248722,-3.5406437500784014,-7.5720628998412405,-4.113437190888596
73,0.5433410055559793,-3.192784812910074,-7.111359443370244,-3.231734483739508
74,1.5810688299546514,-2.890673763105062,-6.656675391227733,-2.3141878603599135
75,2.646872844533475,-2.633324607420007,-6.220514949790915,-1.375424212652871
76,3.7028036645550975,-2.4184795392543683,-5.80344174868268,-0.4295613315335576
77,4.703512648501388,-2.243074967969983,-5.399543266059447,0.5133338710286616
78,5.604022781527329,-2.1062679827405373,-5.000814972379729,1.4379072148757663
79,6.358914446380844,-2.013244300582403,-4.599966918861521,2.3181675721537895
80,6.928986280052042,-1.9777569240525703,-4.1892879077109875,3.1281489085526784
81,7.293647413085712,-2.020620651056074,-3.7575038430926266,3.8565537432142403
82,7.4543291636094136,-2.161156680000835,-3.29302334008017,4.50686387025376
83,7.424324693886746,-2.4103697114921943,-2.7905629016388893,5.08136246029562
84,7.218146428825296,-2.7696730934004004,-2.2565282090495598,5.574665742509092
85,6.8530775328198885,-3.2282599184414336,-1.7063540901982672,5.984154054800525
86,6.356599537082743,-3.7584702290882857,-1.1525797213005577,6.321346952091751
87,5.762871956771443,-4.315180039159822,-0.5978382190038574,6.610458982284123
88,5.097742898490261,-4.845065717895112,-0.040045172197460344,6.87355589034171
89,4.375028905274162,-5.3043129667455045,0.5164661473805027,7.1174080052407644
90,3.6070896480491834,-5.670710407374095,1.0564724150949316,7.3320862570920475
91,2.8139633556842725,-5.940642454056732,1.555327491994374,7.502869732979418
92,2.02774899298819,-6.120510729734249,1.9853582768457065,7.622137722839768
93,1.287479038008376,-6.218650440008582,2.3280732447332424,7.689220752523038
94,0.6268620967422811,-6.240103340673374,2.5819718135277974,7.705167313795724
95,0.07327953255395164,-6.18584016997048,2.762180948659453,7.6723771128362905
96,-0.342578461054292,-6.053915057521516,2.8931536602971293,7.6003243013368715
97,-0.5925724117325847,-5.839208017947214,2.998174648073585,7.505891621353274
98,-0.6696838154070003,-5.53086932962307,3.09106478242779,7.405602830573544
99,-0.5913640613700599,-5.1174040898555235,3.175826187996957,7.310079233985428
100,-0.3857755934052468,-4.596755576625779,3.252168747440932,7.221674402523975
101,-0.075927702939905,-3.9760320835246845,3.317529694363,7.139748652078597
102,0.3248024621510125,-3.267011009207663,3.365873629034132,7.068020371673817
103,0.8059749771025484,-2.489063459327943,3.3864326215517986,7.010365050737041
104,1.354049069211299,-1.6729712271167043,3.3677766377763128,6.963232637599836
105,1.9519571251937737,-0.852531695568344,3.3072937854327087,6.914138173742965
106,2.584984099550276,-0.05085009935606655,3.2126108925210843,6.850516998697686
107,3.248029758254927,0.7225338799166846,3.094907596220477,6.771667741804844
108,3.942570452083287,1.465681332000126,2.9667682790500525,6.685128184915251
109,4.670331295801902,2.1761929210186572,2.8422745816951935,6.592329250226859
110,5.435820905630143,2.8516838443549695,2.73221084777562,6.486358769434261
111,6.246276875630336,3.4965959576873353,2.6410829233597353,6.360914352844198
112,7.102993041446777,4.122541248734408,2.5693066707883094,6.218518139525562
113,7.993448135443263,4.739233727439982,2.5166108608076074,6.073129910425184
114,8.892884027716939,5.342911377623055,2.484422857844496,5.942197522204475
115,9.773775153857622,5.9167757155671215,2.472267808796503,5.835652921477516
116,10.61142772044841,6.441052989316063,2.470977916666093,5.753373587819725
117,11.383846357823991,6.900527342004783,2.4636330125466865,5.69021047241668
118,12.090991336107363,7.2779767214378355,2.4387677028673806,5.644125606062736
119,12.672840690836514,7.576259100386861,2.3600924755430075,5.585940828276812
120,13.093633915835929,7.794543541124984,2.210875413539283,5.49121035011809
121,13.343654056604393,7.934130657831767,1.9892569628910832,5.348766295601548
122,13.437634139258748,8.003241270750364,1.7056205752375355,5.16344669904116
123,13.407514414639454,8.018216721358563,1.3808993510129275,4.950382302473759
124,13.291928793277037,8.00366408216992,1.045914414763009,4.725916935407843
125,13.129950846493049,7.987499402879973,0.7353099953049451,4.50640559133795
126,12.957292488702468,7.990631255496668,0.4764447525348538,4.313145815240228
127,12.799855091426036,8.020242804497098,0.28529570511584645,4.168525350164492
128,-0.37827347549061746,-0.49606395732597075,-0.8444230667604817,-0.07014850406022896
129,-0.79735849528594,-1.067170754242482,-1.5981821746650478,-0.34981273137809993
130,-1.3535523151696094,-1.8725945616922017,-2.5578919764220025,-0.7698614619303501
131,-2.0462738612547704,-2.908499789862291,-3.65480237501498,-1.341661104882076
132,-2.8722929292135757,-4.148994725469985,-4.825763457455068,-2.070284946174295
133,-3.8168087061226164,-5.550714992673308,-6.033639983031324,-2.943183762259853
134,-4.858138995043925,-7.060432593790519,-7.25450379769185,-3.9331837751555643
135,-5.987399566970933,-8.627934551000223,-8.461434239624923,-5.016894172265417
136,-7.230716784909356,-10.22009892117572,-9.620705051730424,-6.197507929872325
137,-8.654875169258105,-11.833158798574152,-10.698874845316503,-7.508015175801244
138,-10.357836503219527,-13.506323291730892,-11.693681739551424,-8.99760367030101
139,-12.412896697043594,-15.265284855291805,-12.570764839061258,-10.716572722253286
140,-14.872640027147842,-17.1374080395318,-13.290177324269564,-12.717344957037536
141,-17.764558872708445,-19.145708489865417,-13.806076185845464,-15.046045832197281
142,-21.081304829284246,-21.30360308324401,-14.079457866589733,-17.718096538636594
143,-24.78520709696741,-23.614270159888292,-14.079893595420591,-20.70864332127509
144,-28.830574915464044,-26.072274077247133,-13.783417467146677,-23.9714080843448
145,-33.17104972042858,-28.66378700300052,-13.183648436780748,-27.461140194880098
146,-37.74165667978493,-31.363738230986893,-12.310275933541853,-31.131641792121016
147,-42.44437346843399,-34.134970136904975,-11.22828782481536,-34.91240209783648
148,-47.160395876659706,-36.93367420313412,-10.001727873701034,-38.70809342069818
149,-51.772542264637444,-39.71232195891243,-8.660617403908658,-42.418998752763535
150,-56.17681982745552,-42.41645488980674,-7.215772279327394,-45.95674900219295
151,-60.28047681616802,-44.98537944607101,-5.6973157507906,-49.245802925292985
152,-63.995372934744786,-47.35865638569561,-4.165220742512586,-52.21193454393385
153,-67.23890777346688,-49.48526214103271,-2.693719806855416,-54.77559935916564
154,-69.94669994289451,-51.330046729034365,-1.3530178072166013,-56.86648817703839
155,-72.08606811255711,-52.87197500004076,-0.18951316118938222,-58.45175132723141
156,-73.6543305405025,-54.09998913127701,0.796381649514007,-59.537047173472104
157,-74.66332657483584,-55.01203366158489,1.6487950117352468,-60.141215021768794
158,-75.12629246192965,-55.613339741747296,2.419670581291052,-60.279585094581
159,-75.0538196974219,-55.91136301214052,3.135247146814946,-59.962155754273226
160,-74.45388754025718,-55.912493976872575,3.7854179124228122,-59.199515732299815
161,-73.33399176868299,-55.62138714959178,4.331949221526743,-58.009103916235766
162,-71.70702836202578,-55.040317988769814,4.72750860589024,-56.42017523390071
163,-69.59812665057086,-54.171057929643524,4.927677164954102,-54.472234085530786
164,-67.04600871189054,-53.02147684339842,4.896873369947328,-52.21012214245443
165,-64.10089006735093,-51.61249851072261,4.617403671878762,-49.68590522693618
166,-60.82588757910858,-49.98019252484595,4.102413734600517,-46.96075417846075
167,-57.295016897066034,-48.1733523703446,3.4067353585941005,-44.09749833721221
168,-53.5803729070238,-46.245207101675014,2.6141802944872268,-41.148529876757195
169,-49.743575124106826,-44.24302853707764,1.8064085764938584,-38.15309180648654
170,-45.83999572911924,-42.201980029449224,1.043399060661212,-35.14441469424709
171,-41.923217079567124,-40.14433365642757,0.3582881567379173,-32.15462645985172
172,-38.043033520824494,-38.08324002462063,-0.24494603020294986,-29.209000732191228
173,-34.24164976894774,-36.024384170733235,-0.7933317778693738,-26.31997115325025
174,-30.550929238895467,-33.96574935498715,-1.3394153915671105,-23.492728506817162
175,-26.99586949685469,-31.902184629004307,-1.941392327888029,-20.737951936123835
176,-23.60202960814483,-29.831741254447266,-2.638277437987174,-18.083751176086537
177,-20.395183555524937,-27.75667894694532,-3.4363986909159245,-15.573540306075273
178,-17.392009848443728,-25.682501417189588,-4.31218107546336,-13.246599421874045
179,-14.592761548190628,-23.619537480933236,-5.22960522527408,-11.118651157317126
180,-11.985808283487229,-21.58129888679858,-6.16050317352116,-9.183245315998
181,-9.557506448658314,-19.579866486573323,-7.097584153771742,-7.431416149068611
182,-7.297243683827945,-17.6236123065591,-8.056160736295421,-5.865036708571632
183,-5.196368265977195,-15.717908406031956,-9.061707310586664,-4.487475057195842
184,-3.2490977200796847,-13.86912450100998,-10.128443292117245,-3.2894794413940884
185,-1.458636760665624,-12.087558059225172,-11.251553235352551,-2.2520912687039827
186,0.1668263754195265,-10.386368320284634,-12.417174961444687,-1.3522308329926658
187,1.629239537879133,-8.776668143768116,-13.607757322990688,-0.5638849368103566
188,2.9472685921471315,-7.262880801872219,-14.79887866695611,0.1426084125463945
189,4.149847565986916,-5.8425981093779065,-15.955606961466053,0.8019887568183717
190,5.264199331981202,-4.50639938946939,-17.034660389229455,1.4403024448692483
191,6.30672274263355,-3.2407956472844393,-17.99278702449605,2.059283407902136
192,7.285950864228964,-2.035900514224133,-18.79655454216865,2.644372516373673
193,8.211263839987666,-0.8906798714348823,-19.427946126345425,3.183999096206805
194,9.08937488729633,0.1865836784405573,-19.88929026326664,3.6758582270483426
195,9.911814926750287,1.1818406829473767,-20.20302484450109,4.116385847386619
196,10.652697999608007,2.0811574516325924,-20.39116237093463,4.48845526204365
197,11.278424243730925,2.8754642010705806,-20.456914742998347,4.766126572788465
198,11.760201000251026,3.5619175059663326,-20.39423085088021,4.936849938589006
199,12.08111429626157,4.143733578624798,-20.208521876991252,5.017763100452039
200,12.235898040456755,4.630189496669201,-19.92090778668667,5.043902233566475
201,12.2310603433045,5.0379913227506705,-19.55274211419274,5.040490386861519
202,12.086118586203108,5.388496360058729,-19.11450801905833,5.01436983900686
203,11.828676952678288,5.698817891517809,-18.60621958358478,4.970447939501555
204,11.487027173121524,5.9763388374981306,-18.026440564080477,4.926924091266322
205,11.08624837646005,6.219446527485172,-17.384652847578735,4.908946301706093
206,10.65165314870578,6.42290857007847,-16.702634706021982,4.932840184218219
207,10.218814151158366,6.582408981728373,-16.008652634835414,5.002051189867644
208,9.833494124552166,6.696677695803366,-15.33040719024485,5.111881474513183
209,9.536645247691869,6.772210630108093,-14.686925660645098,5.250676592653302
210,9.348715936560051,6.825107810176695,-14.085091802662536,5.400510912344233
211,9.267494369928134,6.874619886823504,-13.522900341061296,5.539431108226194
212,9.273216059417466,6.934528811596227,-12.990951590085636,5.642321326956703
213,9.330406989178123,7.010306155837205,-12.473934566608422,5.686798549556854
214,9.39255242520596,7.101887089486767,-11.951761192640507,5.6615222877252975
215,9.416738602298718,7.208898485373344,-11.39196348600484,5.569545531503139
216,9.381162101651352,7.333359566803464,-10.762154798883335,5.422966341627323
217,9.288584830589652,7.4781295611091,-10.066162900698686,5.236099284653296
218,9.164954548992029,7.64505601837987,-9.356470740589023,5.032521761218858
219,9.045885324384045,7.834953519866544,-8.708679451260315,4.85301394818831
220,8.950217872603005,8.050210845569827,-8.184241902306738,4.743553235403087
221,8.879037368270701,8.291692884007094,-7.8141285482083855,4.729323978084504
222,8.829457119034162,8.551354776800773,-7.601622712425183,4.801642965305204
223,8.80123617753522,8.81238976504252,-7.526114970347386,4.928618354193869
224,8.798833664800775,9.053982609273012,-7.545389688394811,5.069277162715105
225,8.835745098177364,9.253425230445472,-7.601431804287022,5.185738115974621
226,8.942284329722876,9.385533186444642,-7.62967736559317,5.247055377692063
227,9.165054540050217,9.426387910726092,-7.565666831027187,5.216228219892172
228,9.560401664500331,9.361700498116875,-7.358559638188001,5.044020117579091
229,10.187750853702202,9.192519487998727,-6.991033073167783,4.6911861610784
230,11.095925066501673,8.932749589823887,-6.489193685660533,4.1538113308179705
231,12.3132467065817,8.6033542119143,-5.912023290458168,3.4571536709321706
232,13.849448916679998,8.231229403394693,-5.326762654472156,2.6358039682773273
233,15.684040029635577,7.84772551317237,-4.7886954399904536,1.7301685066976482
234,17.75692635595466,7.483845601031564,-4.3266094646036874,0.7920905021142501
235,19.982767186340553,7.166827638960424,-3.9470720581562206,-0.12099346232988765
236,22.266398724019098,6.920418299698627,-3.651978483055299,-0.9613852037336382
237,24.517140539602423,6.764503761388046,-3.436180846984011,-1.6974828396809065
238,26.64873230904149,6.711432695378149,-3.2856688562599605,-2.3078407789744793
239,28.567349648585193,6.76355908265551,-3.1935231094384644,-2.7718710103731583
240,30.18479649209721,6.914363874985197,-3.169626390971155,-3.068050065304469
241,31.439217981577325,7.150746367768986,-3.230674323929043,-3.182679639526272
242,32.2990635804782,7.4552750346038055,-3.3847530600531788,-3.118509216938672
243,32.759853402114175,7.811364500090387,-3.628450611922958,-2.894531476396272
244,32.84186866355502,8.207149221942345,-3.9488691146520147,-2.5295341412598518
245,32.589135645724454,8.633982926924071,-4.313184178369492,-2.025345247921762
246,32.10929709084501,9.061029017911425,-4.6848762270665985,-1.4279055425829772
247,31.399382897193625,9.519232454157832,-5.000181306647742,-0.6571222074825903
248,30.505340190836154,10.016710921429553,-5.214078555074699,0.29098514458183955
249,29.486653477360885,10.543283093470256,-5.305590938262399,1.3826872001696582
250,28.401537661363776,11.07746291460565,-5.275639429800816,2.564315377144615
251,27.314590792023395,11.595361703983544,-5.140666110345097,3.765147413548852
252,26.290961636846465,12.074459510200702,-4.928475838969102,4.90812681168444
253,25.385204380683486,12.493439712094967,-4.678083462935992,5.923639288831077
254,24.640903880141952,12.834690728608235,-4.440594000861878,6.759656882710278
255,24.088449331826272,13.088361790230367,-4.265647641928491,7.388929763878574
256,-0.5109386148623838,-0.40876345045207957,-0.09743475367933646,-0.36070306583580897
257,-1.155697532503305,-0.8488393861243877,-0.42043120536007333,-0.8975359858389312
258,-2.043262362900025,-1.4907008349330528,-0.9557398604564811,-1.650515612321537
259,-3.1438741580100396,-2.357739556830004,-1.7194874146627424,-2.620939340445699
260,-4.415128130304447,-3.458453118555706,-2.6938510412170595,-3.7974067810430094
261,-5.810627345616061,-4.7840080516260555,-3.843909930696678,-5.151826978660076
262,-7.28365508754217,-6.3073430794548635,-5.134295016917991,-6.639593537643086
263,-8.794605588249748,-7.981040879822669,-6.545095221035646,-8.210139619409233
264,-10.321593602301384,-9.748076965930991,-8.071345330686427,-9.822140738136007
265,-11.877229584809497,-11.564973697304454,-9.70982801019771,-11.460941389452817
266,-13.536149075113155,-13.416292145796573,-11.450093241280436,-13.161499398187015
267,-15.364132314167636,-15.26374259349179,-13.264093360157325,-14.969513792290893
268,-17.395504584767572,-17.070046205997834,-15.111200539253838,-16.923653662814836
269,-19.64354029187984,-18.806820558959092,-16.93726845388719,-19.035290103836854
270,-22.07830803595688,-20.461962784057853,-18.680908717814006,-21.26511001211862
271,-24.551555052792004,-22.04070403658497,-20.28312870519985,-23.514163787104962
272,-26.863469121364542,-23.54704073304442,-21.69391514076543,-25.691438765485046
273,-28.944525031968947,-24.947475185431657,-22.875812595375816,-27.79295130932513
274,-30.934802818733946,-26.15328586897034,-23.806354163489807,-29.915747123923285
275,-33.12635205797117,-27.031089785629256,-24.483967621336614,-32.2707985326053
276,-35.86020471896557,-27.448306262055493,-24.938672140325334,-35.10453513465644
277,-39.42248455415091,-27.34164931778422,-25.212531664344404,-38.53503662546477
278,-43.9616877814168,-26.736574283980783,-25.31868233008772,-42.50539340032803
279,-49.49806044729215,-25.696341080611035,-25.23236047779591,-46.86729068687751
280,-55.992471315414015,-24.258161642657814,-24.91174641044787,-51.500103395394234
281,-63.35822104714262,-22.43397700168255,-24.330511530441036,-56.32232202535532
282,-71.39369720897457,-20.25694015627491,-23.50195734848879,-61.19842512493119
283,-79.74392819903518,-17.811168116622856,-22.48856857750442,-65.87526101874772
284,-87.95787626124437,-15.224772214325288,-21.378990429777964,-70.07503754966181
285,-95.63450714227133,-12.634454843777378,-20.228574103660794,-73.67426227724064
286,-102.59557344224791,-10.163290136551119,-19.03551798374841,-76.74048407965101
287,-108.90148341515017,-7.901192603772829,-17.759777426923044,-79.48402464847725
288,-114.68809333917325,-5.877273534302866,-16.368500330285396,-82.19141584145504
289,-119.89353823886746,-4.082760826997891,-14.894789448068709,-85.05843986447373
290,-124.14699276711416,-2.5233515416773193,-13.422404968395583,-88.01021169754178
291,-126.984982801923,-1.2292300697403962,-12.015376128179588,-90.68431081564643
292,-128.0487663987707,-0.22926828867780416,-10.693329287202394,-92.51268745931064
293,-127.11521464195755,0.4713493933258648,-9.453068172268912,-92.91898035786421
294,-124.10008722812698,0.9064473752241445,-8.293274350434539,-91.63435222072813
295,-119.07869423862287,1.1229483588991653,-7.232017562217202,-88.7176133878821
296,-112.26306209927816,1.106959506607538,-6.2957878589087075,-84.2981839722354
297,-103.9496842502802,0.7611854314819335,-5.482589475133913,-78.49768714465243
298,-94.56796259398449,-0.023419289436787283,-4.754679083111297,-71.5829273969874
299,-84.67470341216837,-1.2891511331094643,-4.0768881787086215,-64.01681588530315
300,-74.78850974475036,-3.0144630621157953,-3.448443790478214,-56.25085064917156
301,-65.23638701544326,-5.14157856943902,-2.9056750725297023,-48.557114672206694
302,-56.092612335572966,-7.573385441482266,-2.53212985732656,-41.01079298399249
303,-47.16824759645607,-10.181899662570007,-2.4431385947007986,-33.53202815668861
304,-38.07220762372595,-12.841758936782945,-2.729221097464574,-25.95422370374827
305,-28.505642155367195,-15.464154221448005,-3.4220492871679147,-18.093707674809462
306,-18.56607826835079,-17.991198546356866,-4.470920545223846,-9.875027684595473
307,-8.607306104175423,-20.370197657570927,-5.747384388502056,-1.4079793530910636
308,1.1435294111246486,-22.559791289884405,-7.128901431811933,7.061663123176963
309,10.620037785567293,-24.53018091249536,-8.55552207097223,15.241659365216384
310,19.710346134722553,-26.24948548735382,-10.003468502233503,22.891319474212256
311,28.255301591937766,-27.692453355697953,-11.45023162147862,29.90789693985754
312,36.11061536628245,-28.85481396000591,-12.85617799579335,36.237773129918764
313,43.06644770905736,-29.745645854916223,-14.174109585970148,41.79167163496697
314,48.93656053435423,-30.385527059921994,-15.370710731080628,46.60953032725779
315,53.86238535283893,-30.829889325645404,-16.417374431163697,50.960803693601385
316,58.262973851191525,-31.151744818883294,-17.27950150875266,55.19220158663218
317,62.37943812574386,-31.38639114094168,-17.921661195116865,59.441612891512584
318,66.04560165748904,-31.523875957770883,-18.29518319861549,63.511917930567215
319,68.89132796545624,-31.538287520154615,-18.3716897454629,67.11858589790444
320,70.62347628295836,-31.406976226707563,-18.218326716232443,70.15238755593336
321,71.17724079347384,-31.129808097677817,-17.984656022623152,72.62004501527532
322,70.77240421216139,-30.722782101394326,-17.835040949163506,74.51683601484902
323,69.86262071979334,-30.18369240834233,-17.92442623255751,75.84232989788593
324,68.88154361691453,-29.487277630609142,-18.37819247864181,76.61731830698407
325,68.02457070586996,-28.617966063247977,-19.231382164867714,76.85805705874887
326,67.37938154615321,-27.620289724771816,-20.388122870960892,76.58037354388966
327,67.07614553728591,-26.588010001684093,-21.66194803635429,75.84271394417931
328,67.2123095156539,-25.572852035553588,-22.848897693735765,74.76719952279572
329,67.79600221495397,-24.56277655057004,-23.768615886840134,73.52816482259001
330,68.77834521285867,-23.552233029957684,-24.27689266491437,72.24400736563736
331,69.98225767215571,-22.545671866836166,-24.27865215043948,70.72905853473657
332,70.96581155298472,-21.486314613732045,-23.768230514127204,68.61130151960616
333,71.23509553936701,-20.26261715351522,-22.857412054448908,65.83661470618654
334,70.64528402858842,-18.801012733701775,-21.73008321403959,62.729368170489515
335,69.40231693043886,-17.123996200666355,-20.56046173820893,59.633543624944295
336,67.7775019964212,-15.331928412313301,-19.474107148746743,56.75762399039497
337,65.84340958770193,-13.550246733637946,-18.537567911094023,54.20521205839533
338,63.36195902627756,-11.853104249659877,-17.759257865558357,52.04852610682015
339,59.99083002883486,-10.237172159612756,-17.101681715416774,50.41289520816718
340,55.62252114245749,-8.714872945555898,-16.489609887253103,49.38354375782195
341,50.46870668505021,-7.370053446610543,-15.852455865084512,48.88443356982702
342,44.869186307592074,-6.273473194815919,-15.171054892029495,48.70169417722738
343,39.090663902391846,-5.394257318380559,-14.452372874121732,48.54216150003068
344,33.33936600484608,-4.637113282584317,-13.6639149522968,48.093847151793426
345,27.879669673122667,-3.9180004960446086,-12.757330797671317,47.09322614841426
346,22.99034348080845,-3.1291983238374685,-11.764170019651543,45.41166147457083
347,18.880032288063834,-2.117894872972446,-10.78139204888149,43.09464729723078
348,15.732955742916266,-0.7991116692413041,-9.8706523441038,40.37105514813503
349,13.73955916576049,0.7500060360908414,-9.023918053808847,37.60411473328261
350,13.01961600467431,2.3539675772539246,-8.185231922997673,35.0713085731191
351,13.561735023301845,3.8771046476812283,-7.282666474956451,32.90891420649829
352,15.24706836949447,5.269898564915511,-6.283086728232855,31.29506205078217
353,17.87634579811452,6.52712456477968,-5.2065652668871225,30.38428234181202
354,21.199435265708694,7.634706440684588,-4.070141243138026,30.037397732772178
355,25.00397172064954,8.538530729384348,-2.87523597516316,29.88217308716842
356,29.120573429215135,9.158133759330596,-1.6387338628891757,29.604416891384066
357,33.28640895367726,9.457341526826314,-0.39172316548726355,29.052321105531888
358,37.16953289661109,9.499292797593101,0.8346777635431463,28.19367312676294
359,40.55387016565926,9.395194385632035,1.9965359769120457,27.04571116335067
360,43.387833932299706,9.214418872689588,3.0147868120420758,25.668073761202223
361,45.750199838574,8.963455767547364,3.794087424752883,24.21840017394911
362,47.83330937575448,8.61229608243323,4.281514011718777,22.953889507102154
363,49.89631162661269,8.101135207672934,4.530243709946363,22.14143501853528
364,52.172051504173,7.378303201357032,4.666920942163322,21.950057298402438
365,54.7349511308296,6.477669871256059,4.771887305763718,22.39517479540059
366,57.43605559886912,5.5035655395073855,4.852468730574385,23.30501181991781
367,59.98822580213213,4.5432495041997925,4.89836551593961,24.363244090868015
368,62.105065146817374,3.6350693078486773,4.898879081196543,25.262693515822814
369,63.58578380739301,2.790310816236978,4.848392960725899,25.836423942032017
370,64.31134387277488,2.021066126834167,4.768475381923068,26.025972559824133
371,64.19217537846097,1.3465318749922237,4.699673551138841,25.759673589377517
372,63.16677139796144,0.7873444383479861,4.668417739899885,24.939482363479215
373,61.229671674213776,0.36472917041448627,4.670700234921311,23.486052842912756
374,58.64156543279806,0.06749897579459445,4.661539680272692,21.508522283104416
375,55.171118958055594,-0.06685071349361908,4.7116340959881935,18.791757729051504
376,50.87781737979793,-0.04096327344110913,4.886313959097738,15.39070098631069
377,45.98627010517987,0.12182320208694726,5.215380282735566,11.525596262408289
378,40.796670208656835,0.3961170068623291,5.686429503313662,7.453165317289461
379,35.62229418322719,0.7592664935392536,6.253287972205656,3.3932069357838146
380,30.759129405664723,1.1790481441460474,6.848131407603242,-0.45155914583804757
381,26.46734391848481,1.6072138438139,7.399878058837048,-3.8662644343366646
382,22.949707879800012,1.9910703928243676,7.859313216612011,-6.6560606858715285
383,20.337291867370237,2.291152690891721,8.208629416930952,-8.69863246264563
384,-0.19022551879848332,-0.27900160003884333,-0.7504884186694457,-0.05222427003303831
385,-0.5643643424963329,-0.6557422209113197,-1.3475962732837914,-0.3592002582860396
386,-1.165740730696501,-1.2037892752575543,-2.0681473733483053,-0.8718557433056948
387,-2.0066944837077267,-1.9257222606953843,-2.8792290305681165,-1.6073892391771685
388,-3.0764673504953537,-2.807917972740186,-3.7642763175684397,-2.5495827282182546
389,-4.341953451203483,-3.822364945588862,-4.714537036204774,-3.6504403813566113
390,-5.743521196503735,-4.932433149382784,-5.726946103565165,-4.843257135090422
391,-7.20427437104207,-6.098237734251566,-6.800710376638089,-6.061380720370846
392,-8.652648535639434,-7.281806680394262,-7.929755482109183,-7.2473111549490055
393,-10.036510334460445,-8.456575028454063,-9.107721936368366,-8.35396101368343
394,-11.329749329697897,-9.621302792986778,-10.34896494410107,-9.354725301397659
395,-12.505019482991733,-10.768081634272937,-11.61848834759936,-10.243458893507956
396,-13.559045065388332,-11.891442994973703,-12.861461732300423,-11.04116365306703
397,-14.50797145796534,-12.986575154329975,-14.025464953074819,-11.777205661734241
398,-15.360515664486543,-14.045041846340428,-15.078208431518014,-12.468784264857314
399,-16.112036194969935,-15.050676489201317,-16.00419284532141,-13.117444233320775
400,-16.758317978151783,-15.982357186967585,-16.797090905673087,-13.719750924797776
401,-17.298561361977022,-16.82056748489591,-17.468698704102206,-14.278056472851883
402,-17.734914680464467,-17.551356957756894,-18.060600743884187,-14.795680782853344
403,-18.076209814878432,-18.1668505464455,-18.625472894294006,-15.2667002898969
404,-18.330534614369807,-18.66350467968359,-19.192736262256172,-15.679121464743766
405,-18.495031282468453,-19.04059416304189,-19.769582364604865,-16.027413979115853
406,-18.56392944479545,-19.300587455809186,-20.3596042469001,-16.31937180755527
407,-18.54419538010858,-19.450056988641123,-20.96193443736125,-16.567937834702246
408,-18.455782569238416,-19.50288838364037,-21.566959385588383,-16.77885208582489
409,-18.31820866136751,-19.483351975543748,-22.15904739905564,-16.953400543816098
410,-18.14585797509527,-19.420899839657604,-22.722426030767206,-17.10325248417563
411,-17.954837800234408,-19.340628963937657,-23.24562957709095,-17.25779511205392
412,-17.76324420037789,-19.2589225828378,-23.716014054649346,-17.44673489582571
413,-17.584593740842653,-19.184345179172258,-24.109970383029257,-17.673260128256203
414,-17.431111876074773,-19.116851328168277,-24.395528882794977,-17.918550090487788
415,-17.32500566663376,-19.04724090935322,-24.546206594149453,-18.169667716519996
416,-17.293061048786985,-18.96314692143801,-24.556368961400477,-18.433365083346562
417,-17.34791360436049,-18.853884088475255,-24.439460809403226,-18.731142469237355
418,-17.485594847239987,-18.711274302488935,-24.200872727480515,-19.08484842548056
419,-17.69028290056011,-18.531024668814176,-23.83409796833046,-19.508646651673065
420,-17.934154836831564,-18.314005405323023,-23.35052209444554,-20.019479884005584
421,-18.18755092377122,-18.06811750508008,-22.78882597084284,-20.640801297453805
422,-18.43050114555473,-17.810044353520006,-22.195348729249528,-21.385613232751293
423,-18.655756945550536,-17.56325438737609,-21.609258546052544,-22.242534574011913
424,-18.868669782844467,-17.35025925266931,-21.062769198702703,-23.180572918262314
425,-19.08455565721363,-17.183580117283444,-20.579663897143593,-24.161930503738052
426,-19.32553333937389,-17.063201802264363,-20.168970890817313,-25.147788936823442
427,-19.614914392217198,-16.983063764267467,-19.816387223778513,-26.101777709168598
428,-19.972067589314737,-16.93676547415128,-19.48272866473098,-26.991062554583614
429,-20.41078067183041,-16.91620375351809,-19.124661902700723,-27.786421274670015
430,-20.9357524243376,-16.909894061548314,-18.717351443752683,-28.477712254796643
431,-21.536113394649306,-16.90372056227732,-18.248513605266506,-29.07854338336331
432,-22.177983965207787,-16.88041411199564,-17.700129690694816,-29.5997825011864
433,-22.800571076950423,-16.81483290562862,-17.051850828060587,-30.029440979903857
434,-23.32236894104905,-16.67450323732558,-16.296816375116126,-30.333345536126092
435,-23.663492200157126,-16.429931012600512,-15.456942184888034,-30.472500355972592
436,-23.777139045260054,-16.060708188776434,-14.58046297220663,-30.428458689533606
437,-23.66280859665996,-15.555196938645212,-13.709071964312923,-30.212466311603404
438,-23.35113123908147,-14.910655836838448,-12.86301334767055,-29.85258279193519
439,-22.88265660144387,-14.133442370509886,-12.058213241899002,-29.378439774897355
440,-22.298316823890108,-13.23864347618998,-11.315356723036352,-28.821521635116277
441,-21.632527931695538,-12.251053640629559,-10.653782467041278,-28.21916294121512
442,-20.907330381066465,-11.204676713400563,-10.086337884238862,-27.608479914409784
443,-20.136032595934584,-10.135308224476608,-9.613832356941204,-27.02037670573015
444,-19.326809531960738,-9.071424405243622,-9.215440357046138,-26.469550745521556
445,-18.480207237358094,-8.031886024089768,-8.844640844769412,-25.94445890124935
446,-17.585401809363766,-7.031810819931188,-8.438648094886513,-25.420431676249674
447,-16.626129260775837,-6.087217459684104,-7.945932003894919,-24.874476062060445
448,-15.59489840248688,-5.212876891191392,-7.352540216825276,-24.28189667693905
449,-14.501338671558047,-4.419522021877513,-6.685421885730333,-23.617512359567396
450,-13.37540047175217,-3.713698846456735,-5.998106273188114,-22.87365925744958
451,-12.26431666416389,-3.095168794820761,-5.355472415771992,-22.072746758185982
452,-11.218452018537558,-2.552161599215575,-4.815112377976374,-21.255553560434464
453,-10.276729219689518,-2.066952858958093,-4.398175435973983,-20.460138237093147
454,-9.466665123126742,-1.627066170308813,-4.088092464358374,-19.71100778681193
455,-8.81166684415967,-1.227111800020563,-3.8624690083202466,-19.020336690000054
456,-8.327159807250128,-0.8663961313041503,-3.7094761900622064,-18.397966496196517
457,-8.018987719683725,-0.5499562398628959,-3.619049138073464,-17.856526514303074
458,-7.893233884807131,-0.2898235515110622,-3.5736152322540855,-17.3981858011874
459,-7.958513679337136,-0.10685436423071806,-3.548492383321234,-17.00310938578746
460,-8.217323717036471,-0.032244021024124325,-3.518002566720872,-16.634786461254983
461,-8.657651203946838,-0.09968671535756565,-3.4711032803085446,-16.25644514852986
462,-9.250171746852189,-0.33079070751602846,-3.419769008770979,-15.852992241980012
463,-9.946836132019104,-0.7265169366187034,-3.38293209037801,-15.429566545524793
464,-10.686059540513353,-1.2668624237372692,-3.3679511636363997,-14.986845640249795
465,-11.410845728997062,-1.9173603748280208,-3.368808824806834,-14.518598295737565
466,-12.083231728578653,-2.640730341226086,-3.3778575330742364,-14.029959570827645
467,-12.68400907933001,-3.4055489965160692,-3.388249453772577,-13.541300842690053
468,-13.20747386642531,-4.1883167898135705,-3.3827973606991057,-13.073041268074197
469,-13.652710503762599,-4.9693547816344275,-3.3447541502591744,-12.633778737292966
470,-14.008985037708875,-5.725195686148046,-3.288015674280044,-12.223001424061982
471,-14.252874344236252,-6.427823449148284,-3.2526905042894714,-11.835566855202826
472,-14.360417197515773,-7.05319067874514,-3.2667873460751067,-11.460420566075143
473,-14.31107056028883,-7.587136663480728,-3.327073567766757,-11.077543376438708
474,-14.080320256500121,-8.022263211873573,-3.410376124042106,-10.651302899916617
475,-13.632438702494005,-8.35111207530971,-3.493138670543203,-10.129028764580312
476,-12.925238543838578,-8.560692765723864,-3.563600771086415,-9.460224338343316
477,-11.925380983690614,-8.632736687275527,-3.623838034670173,-8.615236205035433
478,-10.617040123973384,-8.551537871758994,-3.682251190689362,-7.582483033713353
479,-9.005505150497518,-8.312946508762469,-3.741159339261048,-6.3567068968784275
480,-7.119562446647783,-7.926680558166872,-3.7946052462651765,-4.934914432606045
481,-5.003679187226576,-7.4122174402048495,-3.836892804856677,-3.3254476783905806
482,-2.701813920133366,-6.792482211529071,-3.864701455063548,-1.5522207183102448
483,-0.2506916257980141,-6.087532927226748,-3.871768307497941,0.35264025536821575
484,2.3137363192869564,-5.3124146989629395,-3.846592975572636,2.3586081266854686
485,4.95378216494253,-4.481950681541716,-3.783232994210198,4.444003571686094
486,7.6304184866407745,-3.617162301926829,-3.6933197264676547,6.595607604484872
487,10.29850705999272,-2.746490398136416,-3.5933956976191856,8.799710581530828
488,12.911453270779,-1.8985119686200171,-3.4943172728925136,11.029006388450606
489,15.43634606796704,-1.0907512720952575,-3.407595201838356,13.24451153598864
490,17.852985496166017,-0.3289941838377846,-3.337689566426205,15.411935729376054
491,20.13793506755976,0.3802281159363841,-3.268530703691107,17.50722052585751
492,22.263823149238025,1.019981897800735,-3.169400826543382,19.50708702584201
493,24.209444048201398,1.56637990850242,-3.012165281404874,21.383828749224982
494,25.961940667655195,1.9996177255431427,-2.7787811254690746,23.114792632389214
495,27.5155198142664,2.312624911749075,-2.4558145532773326,24.68883385911461
496,28.867821556240767,2.511152291494477,-2.0302711636843274,26.1011978444864
497,30.01261126984472,2.6091374515151378,-1.4973655466754296,27.341671317447506
498,30.936689728684225,2.624974467378755,-0.8711719764070157,28.383777147728388
499,31.622938382996853,2.577750697475499,-0.18641981032232963,29.195934565767544
500,32.05703254573002,2.484152771907286,0.5112212162538068,29.760150456215342
501,32.23699342628922,2.3615253409436634,1.1682651707160745,30.071493132226042
502,32.2333730199247,2.2437328669267504,1.682092875651776,30.18310542288443
503,31.98090782228961,2.1384168343621854,2.057762082118517,29.990081536593166
504,31.474142003504184,2.0490367218270373,2.3288374655676134,29.467822649217158
505,30.75177778279179,1.9721306725313008,2.5365882800523836,28.66314590528184
506,29.880484461923874,1.899710162495548,2.712160180827913,27.667895480276457
507,28.941668532656625,1.8248002940949326,2.869457071332506,26.582363574976185
508,28.02130459378881,1.7475518562475463,3.004071791528195,25.498174216283765
509,27.196787070554514,1.6756298295038463,3.1076642885020753,24.500246237662157
510,26.521466016932948,1.617168290789683,3.186274590129378,23.661925276744736
511,26.019252805066067,1.5749495568534857,3.255723771796638,23.032298116562526
512,-0.5044693756663144,-0.504087302537654,-0.015036967407839302,-0.3725867847745028
513,-1.0285374529686016,-1.088131803648602,-0.21246611236937668,-0.782600636026871
514,-1.7159025585690026,-1.9098961663369785,-0.5784399217877715,-1.3489312684570525
515,-2.5368955430158056,-2.9570707178362876,-1.1608151394505348,-2.0610661671118433
516,-3.447714980670879,-4.197762855896415,-1.9939779877944486,-2.8901214243383855
517,-4.40357849138312,-5.592731585517555,-3.08744121391701,-3.7987927961141574
518,-5.375959763575213,-7.10135189676304,-4.422655236121146,-4.753740487967759
519,-6.353052485935263,-8.681134296063231,-5.95628171278096,-5.730766325535991
520,-7.330656939833688,-10.290231178675791,-7.6222994499278665,-6.716512537611028
521,-8.316326959355802,-11.899568037084912,-9.33293534328318,-7.711427460392245
522,-9.33860983140702,-13.511808659422408,-11.000908017038036,-8.735387824194575
523,-10.389343902965942,-15.105342943222132,-12.570152279239112,-9.787381257978236
524,-11.439224955432683,-16.65393041496483,-14.034499153963463,-10.857390420688997
525,-12.446866485388727,-18.13008341666717,-15.421816700139651,-11.926307309337892
526,-13.369593404791834,-19.507996991460942,-16.765346170491156,-12.970518869607167
527,-14.179223554573102,-20.765623841567397,-18.085742879709706,-13.975585937487612
528,-14.873985134565736,-21.887096573402886,-19.38785174897361,-14.949725060090383
529,-15.47740788317626,-22.864988178401084,-20.66418293955501,-15.916730825774373
530,-16.030890554554116,-23.703079863174665,-21.89591177468097,-16.89375737104774
531,-16.586196139627315,-24.419792303650453,-23.050076282644543,-17.880891827310958
532,-17.19394600652971,-25.042536532562163,-24.080689479670134,-18.869859057701145
533,-17.887358184162046,-25.593474960650962,-24.939034787127863,-19.8514234260168
534,-18.668144389227802,-26.079850599932318,-25.586726220635384,-20.813424742245477
535,-19.503093915653544,-26.49567230316699,-26.00007547148178,-21.73664139987761
536,-20.340140164676377,-26.831050016212068,-26.17579604314728,-22.593198061535624
537,-21.133393672194654,-27.078025347269723,-26.141849819339722,-23.35572061244616
538,-21.85314587505476,-27.232293097829487,-25.9550780542266,-24.013456909432612
539,-22.48751583957019,-27.29592922197457,-25.679465515279265,-24.585130149805337
540,-23.04255996277471,-27.27980089394268,-25.352644806185836,-25.106995572837086
541,-23.531119701428924,-27.20094523743388,-24.972404247706653,-25.60144505866845
542,-23.95810797475898,-27.07546594868052,-24.521471889097658,-26.068374333091207
543,-24.31384222366547,-26.913177431303797,-23.99603940711348,-26.4986580422893
544,-24.579975642469513,-26.718162018960925,-23.40828972983199,-26.883860701435463
545,-24.741056015356506,-26.494373362396775,-22.772508128475152,-27.20821629502462
546,-24.790218238083337,-26.24875973377397,-22.095903616301257,-27.440759832570286
547,-24.72990462004695,-25.9863736075961,-21.380480783376893,-27.55149542637998
548,-24.568895875679857,-25.701823578446117,-20.631817410598014,-27.52701179432862
549,-24.317097148901823,-25.38057238893618,-19.865483786498523,-27.36533335524048
550,-23.99137483064509,-25.00919784586197,-19.107798220370174,-27.0642328562638
551,-23.62622100038772,-24.58035553180685,-18.393093207496054,-26.615747274837975
552,-23.2618471621027,-24.09244853112061,-17.757355557298,-26.009400007359716
553,-22.921482461020954,-23.548904644410406,-17.22720263617324,-25.244427219069227
554,-22.604184186798815,-22.954144703644833,-16.805733052529092,-24.339711110267395
555,-22.286567240397996,-22.307979984888014,-16.469683672639462,-23.32135482347751
556,-21.924784617316476,-21.60431576649694,-16.18343044252835,-22.20536665566034
557,-21.467618291705552,-20.8367898674287,-15.914284391680795,-21.008262408967504
558,-20.87870694744045,-20.008302269219975,-15.639541263252704,-19.770261174539428
559,-20.144750315419795,-19.13373970712169,-15.345650039706525,-18.54771435217892
560,-19.271347635952555,-18.235827102059968,-15.025288486591808,-17.38010030465234
561,-18.27829609881506,-17.339284923951787,-14.676483307919767,-16.278426355813178
562,-17.19123774944418,-16.463468633580057,-14.29704030970036,-15.24030979126378
563,-16.03721236521142,-15.618685202473127,-13.88146982846611,-14.269241581894878
564,-14.848485775444367,-14.8093023136142,-13.425185039277451,-13.379417642918945
565,-13.655795242983983,-14.038340816428432,-12.927422760270561,-12.577959699516674
566,-12.46841571150288,-13.306298493383574,-12.394244037894746,-11.848630824082509
567,-11.274243420727982,-12.606792938822359,-11.84533055918942,-11.158109785852538
568,-10.056295386814806,-11.928209977414067,-11.316878538618955,-10.472403481832156
569,-8.802076105830821,-11.256007249864357,-10.852027187394869,-9.769039634244269
570,-7.512073855081218,-10.569840141090578,-10.485400283881212,-9.041103736055643
571,-6.197593028500656,-9.851579490620903,-10.231401711471532,-8.292475938461749
572,-4.871320210118637,-9.102776345359331,-10.080045254885299,-7.537611496119181
573,-3.5472047215064744,-8.346324373093509,-9.992172977117887,-6.807929227277078
574,-2.238680339287145,-7.613475402958653,-9.895795095457801,-6.1454080204020345
575,-0.9508614952743379,-6.931730258126988,-9.704926054289647,-5.582866237843465
576,0.32012386446451097,-6.318358459854673,-9.351852585346894,-5.133339468277284
577,1.5818810612961827,-5.778620652865254,-8.798667503421216,-4.795424316034146
578,2.841474437605757,-5.307479058530262,-8.034379797351988,-4.563658367542548
579,4.108097624478237,-4.8894717440693,-7.079247769403262,-4.437109447006267
580,5.399317901569192,-4.492768478441228,-5.988545530072555,-4.41557349430386
581,6.7291407887153545,-4.077756768405499,-4.841676456343148,-4.488624999616604
582,8.093119461994634,-3.6177889349557746,-3.721565226779737,-4.6369923801808826
583,9.469356373410422,-3.106531742047663,-2.694657883073208,-4.852848712780168
584,10.8208714900226,-2.5580373569714667,-1.7930443371290883,-5.15360086552398
585,12.100113690073497,-2.006221215595954,-1.0124610398949236,-5.561927557254344
586,13.252609820991678,-1.4967872585249953,-0.3332687379535386,-6.079546503673567
587,14.219017892884423,-1.0748089981916302,0.25958820855411474,-6.678599707231609
588,14.94299911460985,-0.772215529778751,0.7730137413193624,-7.312678544465618
589,15.375182741647771,-0.5903164849655778,1.208440885818423,-7.937396266259576
590,15.477097140849693,-0.4933339578681571,1.562895994385281,-8.51417819377723
591,15.236828016221533,-0.4261463323586562,1.8292824507644805,-9.004300509096488
592,14.68535010455824,-0.3333983812730114,2.0040373436365067,-9.36481034485448
593,13.888676754877432,-0.17066234433429103,2.094137406703204,-9.548087560428813
594,12.922991644283137,0.0874363481709402,2.1155557969095953,-9.511499137234988
595,11.858315054406138,0.44323146509034983,2.094059585751076,-9.22809229806858
596,10.747440630866649,0.8755156134384408,2.0565019914494527,-8.686550164578282
597,9.61255639033329,1.3391145184852749,2.014473217008431,-7.890279626825417
598,8.449797100680712,1.7739238525401975,1.9641574366438168,-6.866146777855225
599,7.250607551618882,2.1293883343018085,1.8899309403454396,-5.665217163011875
600,6.008835207676085,2.376296139408736,1.7635406341425814,-4.350268801416989
601,4.7261349473588625,2.50393589978694,1.5516171937694916,-2.9753896367840453
602,3.426921241797351,2.5216540690606544,1.231255698529778,-1.5741138710657065
603,2.152617229766737,2.4548383059832037,0.8033458085148795,-0.17124113501182042
604,0.9393935376920903,2.3341167841476675,0.29378867334775166,1.2099837062653955
605,-0.18561445109201097,2.1913802630346924,-0.25135268277819833,2.5527098052560375
606,-1.1941047592355918,2.0579661135994365,-0.7744524014047874,3.850204723062763
607,-2.0668321429702523,1.9555295524617131,-1.221681768086804,5.100187052843789
608,-2.819257727879543,1.8894239606889904,-1.555060188022922,6.289220130579911
609,-3.505583065604702,1.8481831730589282,-1.7525448093581038,7.385198125273266
610,-4.195165993221641,1.804889312185664,-1.8031660018939173,8.34120723434211
611,-4.93881828171667,1.7263454857579208,-1.7107581714772955,9.112416941747494
612,-5.752248307641395,1.5859739397112311,-1.5037101667065995,9.677905729211929
613,-6.622532127726494,1.370077915445968,-1.2264637812324963,10.041270697841505
614,-7.517126489946205,1.078952547712042,-0.9124463743681449,10.213940173586504
615,-8.397293712865489,0.7285582533760535,-0.57794299125612,10.203560510876473
616,-9.234224601575239,0.3493869291718034,-0.23232017727368542,10.011723098862117
617,-10.012006535840097,-0.019455513632442935,0.1217455577677557,9.6391490657661
618,-10.722323898998184,-0.33646768830182966,0.48537994873999263,9.095612599622404
619,-11.361931373717775,-0.5647501022413174,0.8576344744155427,8.39392321382277
620,-11.930771456105738,-0.6787827278183574,1.230450549212733,7.536629813609741
621,-12.428713263415435,-0.6693291404395202,1.5823791037875958,6.527351731581808
622,-12.855329472727224,-0.5460880248835414,1.8811382684660765,5.39356849439386
623,-13.209706169460611,-0.3362215906723567,2.0964280062053344,4.198292928852272
624,-13.484756538009844,-0.0754588157838117,2.2138611158260404,3.0204873696377144
625,-13.663247526657262,0.2027094000953281,2.2383740758437,1.9198274500110861
626,-13.726494836013991,0.47277464811825254,2.189620028021517,0.9313215828413485
627,-13.667712102431501,0.7193361304907822,2.094777387121369,0.07631906311150305
628,-13.494253100547184,0.9357886654861807,1.9818860695234641,-0.6361314247150446
629,-13.224001363024138,1.1243654124281866,1.877534833500098,-1.2127495888838051
630,-12.926197777698206,1.2818702157114923,1.8247652097891813,-1.704623819256656
631,-12.558800244531845,1.45763522442443,1.7933294052717916,-2.0985561424153296
632,-12.109131039322225,1.6818128523096811,1.762362753093668,-2.3879202760461653
633,-11.58357122747968,1.965560751524645,1.7157140248480653,-2.568474522886709
634,-11.001947550580724,2.3029942787227817,1.6400545051295379,-2.644625959673139
635,-10.394172053752168,2.6746321064212553,1.5267173229500437,-2.635481197334417
636,-9.794936079785625,3.052919754780505,1.3729933012414255,-2.5657745212183167
637,-9.238373636833185,3.409043980079627,1.1840882473455336,-2.4485277202972875
638,-8.755071310791863,3.7173548163023,0.9776366315533065,-2.2896496778568602
639,-8.370114964823472,3.958043140268818,0.7805667160400376,-2.111316470660812
640,-0.5191809814523247,-0.4174026196918474,-0.46954686288894365,-0.7703661083653954
641,-1.1198870683868392,-0.8912449976292112,-1.098990398025628,-1.671833951459166
642,-1.9519230806166399,-1.5613123809478282,-2.068217441262852,-2.918109067874952
643,-2.9993038618271637,-2.4241886286258403,-3.4121646149296305,-4.476791962342437
644,-4.227879998132666,-3.4595778623825857,-5.120173957060818,-6.272428569037084
645,-5.5904524073008535,-4.6368695315032555,-7.130675168389416,-8.204800587348855
646,-7.03043053832492,-5.919596897730532,-9.341348245285722,-10.178393178868635
647,-8.483404530840232,-7.267634510344132,-11.626694850865322,-12.1158239703195
648,-9.889731734359616,-8.645814593499958,-13.857313858968691,-13.957881021795346
649,-11.220566143276717,-10.03984231915746,-15.926255729453308,-15.672359832015669
650,-12.505228808175213,-11.468873831636174,-17.782356157845303,-17.28151826043463
651,-13.766714047225163,-12.93075402615114,-19.385261982876223,-18.795679673076712
652,-15.02207953050211,-14.415946140231965,-20.73523518092465,-20.220140783108068
653,-16.27629005057037,-15.912540519067647,-21.869511720962837,-21.5353261179867
654,-17.524319622266102,-17.40630199287237,-22.848549869575518,-22.70407841861297
655,-18.753613404626822,-18.879322885226063,-23.73579097782698,-23.688830513352762
656,-19.944982626862533,-20.30991715950395,-24.5740441895764,-24.465974311798472
657,-21.07098449530436,-21.67275532111579,-25.368585661005373,-25.02798130895543
658,-22.102414271475602,-22.94247462930458,-26.097752398201564,-25.373728064870313
659,-23.018114294283105,-24.09781196396513,-26.73826212781299,-25.51106725491377
660,-23.809755462352232,-25.12456292034956,-27.273313712607873,-25.473159245449256
661,-24.48584734199912,-26.017019827622285,-27.690410466166043,-25.31974487836237
662,-25.071303819376475,-26.778912960880685,-27.980619137685984,-25.11388862240672
663,-25.601372889697174,-27.424552849620163,-28.137799652594545,-24.896030593154297
664,-26.116311763571048,-27.97636854110342,-28.157685904854795,-24.680206690236442
665,-26.651914825712147,-28.455752969013155,-28.038294557254375,-24.472411494734374
666,-27.222083095223777,-28.87183283097908,-27.78123920602202,-24.278073608750855
667,-27.80963960119458,-29.22085024013018,-27.390367972546244,-24.093205596846236
668,-28.373037419649023,-29.494876758165955,-26.870951054715846,-23.896732354341367
669,-28.863300139455784,-29.68490977280005,-26.231014028560335,-23.659780351180288
670,-29.234810584247356,-29.776457500952766,-25.484899874840156,-23.3714422075015
671,-29.445380565931668,-29.750974103202413,-24.65448009831008,-23.045779089404885
672,-29.457782599150967,-29.594813937282726,-23.763487990683274,-22.695755701946343
673,-29.24297272073027,-29.303866767159914,-22.837739152735747,-22.303916737114996
674,-28.79031689394106,-28.883125412750836,-21.906337262336834,-21.833123838428563
675,-28.11004905857264,-28.34813210876876,-20.990422718633575,-21.26517951988078
676,-27.22097122983433,-27.72875580109293,-20.094075559962228,-20.61011709961935
677,-26.15169254689163,-27.063496225331455,-19.208109880499944,-19.885872603764952
678,-24.94569907407214,-26.382301789342378,-18.318115547641412,-19.104841504454576
679,-23.655915429038373,-25.699022021119305,-17.41367087254789,-18.275657400487848
680,-22.32899107600085,-25.02108408185702,-16.496459531700495,-17.410100752788654
681,-20.98330163301812,-24.36129135602453,-15.580195331784516,-16.522953620538967
682,-19.614088942520596,-23.737963174380543,-14.684757131697326,-15.626321066313597
683,-18.22053636003163,-23.16651847457532,-13.826121097599923,-14.725828505942445
684,-16.818309307145217,-22.651180141724463,-13.007080655475463,-13.819559724950766
685,-15.435050566780864,-22.180351412374556,-12.217468567175874,-12.902829870791981
686,-14.104263254467254,-21.72878811354581,-11.440258412043177,-11.97591334372968
687,-12.862187740607245,-21.265170041932475,-10.659918471482051,-11.039631906099501
688,-11.744782627067487,-20.76026417433093,-9.873280466018032,-10.089092299256258
689,-10.783211935310304,-20.19116552065871,-9.089849299605568,-9.125928666257995
690,-9.99820655861868,-19.542553363185068,-8.31400708369247,-8.174406898921875
691,-9.391316671651417,-18.807823443127617,-7.528875713108726,-7.274097195786229
692,-8.934154385830452,-17.98855129814988,-6.710224204738177,-6.4542956906345275
693,-8.566665914953749,-17.092497070348436,-5.861105311961863,-5.722947948825353
694,-8.203818974235373,-16.137318712840845,-5.021665204826685,-5.068351813926258
695,-7.7488185188015475,-15.157201164042712,-4.246585148197298,-4.467586319406854
696,-7.1156456954168394,-14.195111218407632,-3.5783453115477917,-3.9072284036363247
697,-6.252490198716286,-13.286365929846937,-3.0341521331272086,-3.39512976753428
698,-5.15733032945993,-12.454775649122846,-2.610418235704723,-2.948241572858907
699,-3.8635519467742587,-11.718317657472987,-2.28684470993902,-2.57115355972685
700,-2.4040615634784666,-11.095742911224233,-2.021496817304932,-2.247611336561872
701,-0.8074064581485745,-10.61139760708015,-1.75483236625011,-1.9489124141385887
702,0.8858897352566002,-10.288432474900043,-1.4269228844422273,-1.644883104953211
703,2.627124846953364,-10.134507099542187,-0.997852842124127,-1.3081117223328504
704,4.3719301192121645,-10.138589319579678,-0.45268240764990453,-0.9176635185554203
705,6.081475246574837,-10.278034902103874,0.20661184534045093,-0.46319360055625797
706,7.713889480203464,-10.522485061635535,0.9603043384860346,0.0515833468078649
707,9.219605671351166,-10.836767370073554,1.7624693789810209,0.6023321140891024
708,10.54966576132146,-11.187684068938253,2.547207798513146,1.1481747563553883
709,11.668179107308545,-11.54519624050586,3.2555153591630677,1.6527174307504695
710,12.55335379790348,-11.877826437036378,3.859492496979458,2.097914488858444
711,13.19120180464366,-12.154334023497086,4.364678677351216,2.4718787094078007
712,13.5715553691351,-12.349834680456606,4.788944715141085,2.755611486523339
713,13.687961349928568,-12.450562823933586,5.144575572632905,2.934078226419499
714,13.541889102746401,-12.455684995194115,5.442058655168891,3.0076606631603098
715,13.144918217262944,-12.3739365213757,5.697056421712758,2.9871175091531597
716,12.513796756497738,-12.21840484245663,5.9263812432030285,2.8754998622743853
717,11.662907455731322,-12.005563487198451,6.141537836804859,2.65590230648823
718,10.609234457529336,-11.755955114354041,6.3553994026332115,2.30922018964005
719,9.386997606967586,-11.495595786187268,6.588957574086531,1.8386612637765858
720,8.046967087017302,-11.256361851244026,6.860311580514642,1.2694640392111403
721,6.64670685090024,-11.06463822911816,7.171251461367213,0.6318153659568925
722,5.247958767223014,-10.927307201373369,7.50143954630906,-0.04986887949842683
723,3.9110896036656024,-10.833630044616093,7.816971123353997,-0.7492083130542319
724,2.6836785545530906,-10.767288178593212,8.087553262018682,-1.4214626926616203
725,1.592007733536761,-10.710857387737931,8.293133874946673,-2.0067662718911734
726,0.634957231719133,-10.646975604582257,8.417698966870914,-2.460130325704836
727,-0.21050461082082877,-10.565619345647837,8.44162040078717,-2.7717917266178174
728,-0.9679166184471969,-10.463190136285084,8.354078976271298,-2.9498900602421085
729,-1.6447335837847075,-10.333545412889041,8.175979473424356,-2.9916157671627728
730,-2.2323180833558554,-10.166235949222273,7.959763406565213,-2.880683051081614
731,-2.714032920900669,-9.94820486102214,7.76661013216685,-2.605874138144341
732,-3.0696783105653265,-9.665710530195636,7.645919288654542,-2.1737254673959514
733,-3.2752888544526617,-9.308015034156087,7.629840162841956,-1.6018424331918721
734,-3.3049948000022287,-8.867589229565416,7.73277468716069,-0.8996377234012203
735,-3.1367992551209247,-8.337560389717035,7.94937241229451,-0.06610339166274815
736,-2.7598743835371744,-7.715530759204048,8.260373184786262,0.8908442490569738
737,-2.178999296049341,-7.0114237740849,8.642760113451565,1.9478468502592567
738,-1.4148723979871065,-6.248964829844378,9.069627943457329,3.0776513072496767
739,-0.5030477999758516,-5.4595025859754776,9.505363824775449,4.256424288498929
740,0.5101540519049641,-4.672046604488516,9.912228829651692,5.4615240699887275
741,1.576050054675214,-3.904810767920053,10.258782317039312,6.666805208444801
742,2.6503372646955814,-3.163307631008313,10.52100593173723,7.841546533816448
743,3.698778235545722,-2.445549462797333,10.688989220702302,8.954400898948174
744,4.703753587271006,-1.7469664157790716,10.779064767507965,9.987214813602208
745,5.658487653888107,-1.0630143812075472,10.830513262496643,10.944756807073135
746,6.5546167415769006,-0.3937584622749093,10.881596148231115,11.840740905928154
747,7.383047189397939,0.2561172032506552,10.955050219181544,12.683333575647527
748,8.14256898021501,0.8824503713099077,11.063762910632287,13.47384441836939
749,8.841461991900047,1.4802075466231888,11.211953019761983,14.213879710073357
750,9.49330649390255,2.038985156651715,11.39000524324052,14.914477421578978
751,10.113691479738492,2.544683920363502,11.579675228126781,15.586851240110708
752,10.716683386457822,2.984262397196387,11.766739859732576,16.223516084925752
753,11.312585228423211,3.3514847236489684,11.945998342227808,16.795213832853623
754,11.909629670745893,3.6500984394825235,12.117179042770486,17.268563525225186
755,12.51526410151266,3.89052122974476,12.27813179653747,17.63111253956402
756,13.135607791808495,4.0873182327156075,12.420069185127916,17.90260390041718
757,13.774999205591609,4.261153063782928,12.529061648306532,18.11931889638771
758,14.416551724178282,4.423685601058218,12.609385788901635,18.310416189980803
759,15.094715113955472,4.624641351686866,12.625330710264524,18.49800769804603
760,15.81115016823414,4.888051252667125,12.5653360381885,18.70075985839097
761,16.542857892001358,5.218720246322296,12.426747060181158,18.92797786579577
762,17.254381306478635,5.605953663146079,12.20951726477344,19.17166644560729
763,17.91172743963928,6.026297345440699,11.923233418469213,19.41171598638207
764,18.48903874200294,6.447617823001119,11.594530349346698,19.63168618062999
765,18.968086216889716,6.834533965889834,11.262909864244621,19.822195171425477
766,19.338900424015375,7.155571509208205,10.96793850194597,19.97295290667259
767,19.600333879073897,7.391869410373461,10.739829821023559,20.06813499771854
768,-0.3845631833123439,-0.5778618290358375,-0.0632512808625956,-0.4945875710547644
769,-0.8076371927546058,-1.3344461899476219,-0.21329774336363302,-0.9769487453582695
770,-1.4042013972068264,-2.4264648282560595,-0.4064598001556606,-1.6437944568056393
771,-2.1671312589558225,-3.8484909574107,-0.6180869083675822,-2.4896472205615243
772,-3.0689464981191854,-5.559733118257212,-0.8309899984001572,-3.4879548920971386
773,-4.069740859664187,-7.4894224656123995,-1.0393403212804118,-4.605450905844818
774,-5.124679602466871,-9.546420066689313,-1.2428498090322977,-5.807794537450566
775,-6.188977747847799,-11.63447045871572,-1.4421207568717196,-7.0560991948091685
776,-7.225342167094971,-13.669810228845106,-1.6391134044194529,-8.305475724755892
777,-8.216668712558489,-15.600299184705056,-1.8403428249027716,-9.516911183040497
778,-9.176323324748047,-17.428751264388477,-2.0590410234004652,-10.684381111678706
779,-10.098703042117364,-19.14732383000573,-2.311271325994062,-11.78192217850965
780,-10.97153629773938,-20.75263454000967,-2.614431432326403,-12.763310841271114
781,-11.777422506638404,-22.24063500371411,-2.975479763323327,-13.568508493940964
782,-12.493383405726558,-23.602291238089023,-3.385586986379116,-14.150638991405712
783,-13.089038508897382,-24.822660956938517,-3.827266434728282,-14.48616079404541
784,-13.527525562157855,-25.883845739161732,-4.281867077919936,-14.571326988743147
785,-13.77127817463669,-26.768083792575226,-4.731802625874496,-14.41738407934916
786,-13.79048910372926,-27.462321498833138,-5.159357938761407,-14.039449994812742
787,-13.570835631633306,-27.963306123296523,-5.5459565991189885,-13.458261679820142
788,-13.120401558217354,-28.279093034042656,-5.874743426468378,-12.716041352294969
789,-12.469425199766619,-28.425857165326978,-6.122634847568877,-11.876988238597463
790,-11.660160564372475,-28.423794280872407,-6.2468583550701915,-11.003588744696675
791,-10.739094182160493,-28.293526282800403,-6.21023781846943,-10.139177472526722
792,-9.75070328662165,-28.049281821388767,-6.022399666507533,-9.313829894420552
793,-8.729186269688885,-27.699152801732982,-5.738577461462994,-8.549638918030142
794,-7.693883769815279,-27.254827981586303,-5.437214627638152,-7.856902107011368
795,-6.655553832091592,-26.7327680129666,-5.203636981543335,-7.225937880807801
796,-5.6297137512579365,-26.148124289102196,-5.111092344232989,-6.629474620514876
797,-4.637263980175651,-25.512815178732964,-5.201725513571246,-6.042052064636231
798,-3.698081857933414,-24.837862664830315,-5.476998750779592,-5.452531209548701
799,-2.8290508703908994,-24.137089864310163,-5.897472538828422,-4.866865270983195
800,-2.043412782327359,-23.42616082615412,-6.389524455102514,-4.302865411551839
801,-1.350843030984148,-22.71671463615666,-6.862280762631823,-3.7775925841137337
802,-0.7559843954047326,-22.012283151682272,-7.231560995466825,-3.3021370106525083
803,-0.2554951422924989,-21.309649475967202,-7.437903346256676,-2.891543964694729
804,0.1634280112871233,-20.600767120591062,-7.453471029865518,-2.574790266535786
805,0.5216146354417801,-19.872484508559797,-7.286750823222531,-2.372111253177545
806,0.843250188526853,-19.110583220622296,-6.984844705238265,-2.267112279632058
807,1.1521740741706097,-18.310200827571343,-6.62524571703715,-2.2164228897676024
808,1.4703145031264506,-17.48489957586567,-6.289297359474755,-2.176894779394308
809,1.809698510527808,-16.663054739744474,-6.020813624529074,-2.123944683619933
810,2.1662645995718726,-15.87367249940245,-5.828804960602619,-2.047317857775275
811,2.528433053314827,-15.134251800979598,-5.728984046844918,-1.9381807753434979
812,2.8836509761857023,-14.45123331990485,-5.7490161066473435,-1.7925223790625002
813,3.2150705937792368,-13.827162251910782,-5.913362433901557,-1.6231660891822701
814,3.4991740370015325,-13.259763342509192,-6.236823659351337,-1.4630577180059132
815,3.706956153685194,-12.738263028675886,-6.719454626523728,-1.3486988039729104
816,3.8111922514540524,-12.244611708558978,-7.345935989972836,-1.2973541063102536
817,3.7919359630099723,-11.75932637786788,-8.086670071316885,-1.3078813396266349
818,3.635762832782093,-11.26879146512708,-8.896776349688336,-1.3834450170163508
819,3.334971722699029,-10.76655749838892,-9.717075925634433,-1.5440760771682165
820,2.889379894553119,-10.253776504349398,-10.478629797960014,-1.8093408571905478
821,2.309545558998129,-9.741735771299115,-11.111765097323936,-2.1731332936265138
822,1.6152154441325963,-9.251662129327228,-11.561622851746854,-2.610616102537215
823,0.829426084422351,-8.811557585185385,-11.79953667177714,-3.1097139356066164
824,-0.025967737814435177,-8.441259217827234,-11.825736282445874,-3.674240222735893
825,-0.9342262357666804,-8.13479656330181,-11.666027580307297,-4.300419912462941
826,-1.8852210643069303,-7.8668157306275655,-11.36522842326777,-4.967651517956558
827,-2.8730767171669407,-7.612897404387293,-10.98671468386556,-5.648185470568068
828,-3.897275848967333,-7.35716072877607,-10.60064782898408,-6.325120217918667
829,-4.961542876576304,-7.090334136131615,-10.263290813699035,-6.997821648123758
830,-6.066603544486158,-6.809771542253451,-10.009883296527105,-7.6715982645012755
831,-7.208669900232218,-6.520294939160509,-9.85163338528674,-8.348238106228658
832,-8.384974282300346,-6.231355229968964,-9.772153114497,-9.022038453408989
833,-9.592178680294092,-5.952257020447668,-9.729764439023938,-9.68930111494229
834,-10.81742380567723,-5.6897198405100236,-9.669242813089127,-10.35388462508371
835,-12.035549493571287,-5.445921665866038,-9.536436532339021,-11.013595235518853
836,-13.214156086794908,-5.218730477391561,-9.288210786855641,-11.6459673066248
837,-14.325424914510382,-5.004976977624767,-8.898206282195437,-12.211212268499276
838,-15.357536066649919,-4.799900307208176,-8.358681396895598,-12.67615760819253
839,-16.31212071360611,-4.595726381207034,-7.680184474831444,-13.027816192586084
840,-17.193972166849925,-4.3832468407021805,-6.896991879681127,-13.266741922114184
841,-18.006265410314064,-4.153089759817603,-6.075360697122576,-13.403135748465777
842,-18.75273893866438,-3.900854662463951,-5.300084939234337,-13.452303765501865
843,-19.4397964875441,-3.6268736940885886,-4.644760430833687,-13.436727112858959
844,-20.072140214411718,-3.3278055298344893,-4.153635116748379,-13.394128823329343
845,-20.646162667251023,-2.9971299500221815,-3.8338667863238265,-13.369685697023122
846,-21.145650338647197,-2.6298865196079824,-3.6581025751765095,-13.396828385025826
847,-21.543668915072814,-2.2237223788015266,-3.5840178188858562,-13.482335364804062
848,-21.808988514823362,-1.7778369328865717,-3.5744912978880325,-13.610920414512803
849,-21.91026744129702,-1.2941587282783442,-3.6061560966261936,-13.763675397865276
850,-21.826089115455446,-0.7854583663465718,-3.664039645885319,-13.924766262200187
851,-21.5611248992456,-0.27973133068500033,-3.7246283218095715,-14.071546677186806
852,-21.144213644805788,0.18869747272185164,-3.756654974728609,-14.170446924469912
853,-20.61328874912489,0.5948263806731193,-3.742010117349309,-14.189075744501876
854,-20.005188890030787,0.9352667055613044,-3.68663565182168,-14.109253935334086
855,-19.349144242426537,1.2293672626136163,-3.618725158031569,-13.929848599734827
856,-18.669541716117706,1.5087527786325219,-3.5758057781056927,-13.655657514973347
857,-17.98759867024784,1.8048523128127212,-3.583850082130982,-13.28647675157293
858,-17.312785313348744,2.1409597935772693,-3.64534985001334,-12.823418062201279
859,-16.635567714663182,2.528911877931017,-3.7429198789232694,-12.281497533217927
860,-15.926048269316013,2.970041737333142,-3.8496852703622473,-11.689225845615477
861,-15.140831928267744,3.45702236829999,-3.9345681948548323,-11.069109749757716
862,-14.236038374934274,3.9749925097461283,-3.9685781606373287,-10.425904280858552
863,-13.177022794680303,4.504509107982334,-3.938089809437718,-9.75983130516404
864,-11.942552137400297,5.026219644358284,-3.8411825265334585,-9.080106516172817
865,-10.526979801162906,5.522564280819023,-3.666489897999578,-8.403403053583705
866,-8.946708431944684,5.978061286631329,-3.395058840810688,-7.742000531000075
867,-7.235024403763928,6.386221680934009,-3.022649580386005,-7.097386063644955
868,-5.419414002483738,6.753737757789374,-2.572861130644644,-6.466260120595073
869,-3.519310279750172,7.090770886542106,-2.086221791252042,-5.852608569492393
870,-1.5609674756879954,7.399515420684936,-1.5959505899923627,-5.273308509886321
871,0.41950734024166486,7.674401828645905,-1.1276008065402212,-4.743570057935657
872,2.376963976954232,7.909539863920776,-0.7121069657489397,-4.259392511304291
873,4.259769440987868,8.103854781711469,-0.38131344276515766,-3.8018327918445607
874,6.014375945311132,8.26261849584136,-0.15559794025780507,-3.353484075215701
875,7.58637399310848,8.39807510335452,-0.036895519700193384,-2.9028355757693225
876,8.92586782292077,8.52844052563882,-0.004684568098384259,-2.4335685606338098
877,9.995828069048416,8.673764626176464,-0.017152227890411396,-1.9196813590757236
878,10.775493442989713,8.851846440398658,-0.024503681870165307,-1.3370667149241504
879,11.260086514201816,9.07483763389776,0.013752236588764247,-0.6815294857524457
880,11.464072205009316,9.344026387993566,0.12130541733379359,0.02409545617758399
881,11.42035258068385,9.644902910934041,0.3039471612396951,0.7409806605717302
882,11.170474308224746,9.949088777951046,0.541404431504278,1.4293916187811244
883,10.759543073795797,10.224748568762484,0.7837861796771799,2.059460037658478
884,10.234421058336116,10.444994142272114,0.9680415929333429,2.6137239625873345
885,9.637436755129917,10.591208561312186,1.0427747037174517,3.0852091397386485
886,8.989271121878083,10.658404226259428,0.9785262200062301,3.4429479725401304
887,8.353522638087945,10.65146734259891,0.8110853830287347,3.776114837684088
888,7.783268049981394,10.585965232868148,0.5884601962688469,4.146206277440884
889,7.318324798945603,10.483021495624634,0.3696427729577447,4.580500804732804
890,6.983416883787561,10.365492461358784,0.20867981060561627,5.077520719819667
891,6.785103250602513,10.254652892436667,0.13753563934035454,5.620927032803489
892,6.712498511338129,10.166204971245765,0.1625287232702212,6.1845539724571665
893,6.740802004547469,10.107304343705742,0.2696934756974625,6.732694734189037
894,6.8357346338725655,10.07725777457641,0.4283657440876541,7.221798723777701
895,6.9594336677735935,10.07005296237767,0.5992342063121503,7.609434162855748
896,-0.3000535477906484,-0.39095049672757015,-0.2662278632324536,-0.4108617424551996
897,-0.5373476904117555,-0.8096741294303811,-0.696930490087288,-0.7463261594023924
898,-0.8380569215447311,-1.3935939346513293,-1.313796883850368,-1.176410797770635
899,-1.2005186902960905,-2.1484169015601857,-2.09648577687923,-1.6747245930478123
900,-1.6227297118662745,-3.069810557536399,-3.012011028772517,-2.2116789066580544
901,-2.101183771928648,-4.141899757486096,-4.02818068775139,-2.7664234977936246
902,-2.631176302231077,-5.338209526727552,-5.112562385279445,-3.323916400274678
903,-3.207151185997021,-6.625667336988151,-6.220466277897467,-3.864105991708054
904,-3.824743305925597,-7.9696233497624025,-7.303158762197651,-4.36317686478002
905,-4.485804866425501,-9.341247550580416,-8.334569633175,-4.809936399403438
906,-5.203987268628265,-10.72980630990592,-9.325859433343513,-5.22845678586887
907,-5.970395998413521,-12.10083120390473,-10.290883715576225,-5.6281162211051186
908,-6.761364726508155,-13.413551077275013,-11.239741001849177,-6.003142741033312
909,-7.5449000718852135,-14.62769331782327,-12.16103125282101,-6.339453481426464
910,-8.288443351684643,-15.708241725686811,-13.017804941428395,-6.627045395287856
911,-8.966602939261131,-16.62935537665582,-13.7633813050074,-6.866835499721292
912,-9.569860518660212,-17.38324116334261,-14.362072770578914,-7.0613185119958635
913,-10.10302536415086,-17.986379467274695,-14.795983215176783,-7.200556946126056
914,-10.573199369109133,-18.471502110369965,-15.056395422903597,-7.271467010909754
915,-10.982470977113234,-18.87517666272003,-15.150171004219876,-7.275795931001782
916,-11.327437384041515,-19.22940172116251,-15.115180055044457,-7.236216250914389
917,-11.604975636894611,-19.55481334068548,-15.00846559390392,-7.180979928361633
918,-11.820098990647281,-19.85840436892072,-14.884146637175517,-7.1249408363699445
919,-11.986726459385551,-20.135988322504993,-14.783213175247056,-7.073924929457491
920,-12.122440970936998,-20.3761029561246,-14.732951729831917,-7.044829326649082
921,-12.247691307044672,-20.56429543975234,-14.741370837367898,-7.074375370097601
922,-12.389133653446732,-20.687001231576946,-14.785501880534198,-7.201444675697988
923,-12.577373091862224,-20.733960135819242,-14.821601419136124,-7.445955114351618
924,-12.843477589839535,-20.70242109869272,-14.806597171951116,-7.806420788939552
925,-13.216131642480539,-20.60232870836666,-14.704999548274435,-8.275105050556487
926,-13.711226289764388,-20.452984751139105,-14.493881538288115,-8.847351695572078
927,-14.318302864153072,-20.27442387696553,-14.167305609153779,-9.509519591015497
928,-14.998507238573525,-20.08189455061136,-13.731185565664136,-10.227930999071711
929,-15.693417383339595,-19.881550236914205,-13.198157486462254,-10.957643853373996
930,-16.336946438980775,-19.666775335576226,-12.593097709783185,-11.661433229502038
931,-16.868762523728464,-19.42184297560072,-11.96045393837023,-12.314048533768963
932,-17.24414596530667,-19.132774601772017,-11.348240947603248,-12.892948777020754
933,-17.439155126397328,-18.792172073140573,-10.776024630616437,-13.376421105974723
934,-17.452254184340642,-18.398144123044187,-10.237031165970553,-13.751088852900004
935,-17.299246711282674,-17.951444329376322,-9.728346932450776,-14.022030199040143
936,-17.007466781406034,-17.453126146767126,-9.260894023148136,-14.209241230626136
937,-16.61366123618681,-16.908059421980056,-8.856748602248246,-14.332563960081199
938,-16.15885596924825,-16.32636119437717,-8.54620889051035,-14.398882706606598
939,-15.67611883104521,-15.71998181508313,-8.355413622472996,-14.399013510405114
940,-15.183679361464703,-15.097470106242334,-8.292960879164811,-14.32101971330391
941,-14.688162792106201,-14.459481392903959,-8.346537122626401,-14.159819650837033
942,-14.186880891547494,-13.79896376353776,-8.487860356427884,-13.917900785324168
943,-13.674215354464051,-13.107125215052887,-8.680178073875252,-13.601199705015489
944,-13.149517400647865,-12.383695486528612,-8.885648357596992,-13.215380293199566
945,-12.615325767967184,-11.640858174566826,-9.071913932300639,-12.77421247826245
946,-12.075240989921936,-10.900393513671572,-9.21373711210922,-12.302881895477894
947,-11.535537200195593,-10.191056195342428,-9.294372836130004,-11.831794753298016
948,-11.0104175636095,-9.539753561465018,-9.31304446887812,-11.390587747172786
949,-10.52716677755294,-8.959345316953707,-9.288404737998146,-11.003955584295344
950,-10.118236251515734,-8.445476208915226,-9.250463203685891,-10.695913585248029
951,-9.813111046604744,-7.985852814486461,-9.225996328850597,-10.49102736883218
952,-9.637445756995069,-7.572428643977206,-9.228020238956262,-10.40207155269988
953,-9.60691513450674,-7.199089414475856,-9.259600175555551,-10.420571436228606
954,-9.716950495062965,-6.84903428922362,-9.321793235024511,-10.519696835002872
955,-9.936565444236287,-6.490089312285847,-9.409511267651604,-10.665669254927277
956,-10.211283051133629,-6.0880909151410885,-9.509887020787415,-10.833084590820816
957,-10.472553382493837,-5.628002888934893,-9.607865302734487,-11.01025348831677
958,-10.64688356562788,-5.120901877354754,-9.685749790635004,-11.183770853121182
959,-10.664500202523307,-4.592606402069562,-9.72518455703147,-11.311936678047623
960,-10.469043871081134,-4.0627811130055935,-9.713864219774525,-11.32008021662946
961,-10.025581755324408,-3.5387360032347313,-9.648863187719307,-11.147943110731342
962,-9.317484865803808,-3.037898157885939,-9.533628797081736,-10.819627044579015
963,-8.352045568744478,-2.5644655672127503,-9.377381674044694,-10.47643570796353
964,-7.228375921067384,-2.026999413510629,-9.206465452093935,-10.377371798548426
965,-6.083953853585578,-1.267694880832642,-9.066688857350842,-10.801485141173092
966,-4.895444905239877,-0.1866896141096347,-9.00387247506636,-11.878172038716572
967,-3.5001190233504693,1.2315948265267973,-9.035563128528485,-13.570642439137737
968,-1.7747747942030543,2.9651447986478336,-9.149893039203691,-15.785739805772643
969,0.2888311715840045,4.968533717324309,-9.33442090640704,-18.432569929547824
970,2.5736658919926496,7.185029533703865,-9.568539503222148,-21.38069822610577
971,4.792540443814776,9.577200113293632,-9.779095919846995,-24.503324921503292
972,6.4639498634132515,12.122738362656515,-9.834906970590673,-27.827272343846268
973,7.051038930698882,14.787333187190896,-9.587322159952464,-31.52255261896157
974,6.097358120016628,17.526792866884932,-8.899431897874939,-35.801677735879586
975,3.2003882318132986,20.310626922076953,-7.68715166476143,-40.873240995148706
976,-1.8711825798756474,23.102507318304575,-5.984428597393069,-46.86659182452393
977,-8.881868120436785,25.813884383748924,-3.924705240098088,-53.68607060042388
978,-17.162845982199094,28.31160300394637,-1.6570530211054915,-60.98287217854985
979,-25.928014809001688,30.456497284061168,0.6862761881660726,-68.28899274790236
980,-34.4055826341117,32.09914226366608,2.981214313185766,-75.06079032659835
981,-41.84186839940653,33.059339069947164,5.109739792934696,-80.67369271047654
982,-47.63863266854107,33.20880407517728,6.966763028661158,-84.54289402713351
983,-51.5062372104642,32.57647299614964,8.463314108200846,-86.29475510978554
984,-53.32902418252104,31.276871567874384,9.531121382729086,-85.79354669014185
985,-52.997039503716366,29.419332828336916,10.143092058480859,-83.04858191117015
986,-50.5217600776722,27.1501538749132,10.33773613772693,-78.20628787107287
987,-46.11099999348246,24.651935684176152,10.198668337401816,-71.55017953727197
988,-40.10494639428438,22.062718210332935,9.801652346346987,-63.43046370610655
989,-32.95969557153733,19.462024951064176,9.201974566508566,-54.1895226820497
990,-25.199256894115933,16.893597284383198,8.453296752422526,-44.11799318280952
991,-17.308938601677053,14.329250512484384,7.61389170248131,-33.44460992878798
992,-9.606544947773282,11.66761208306495,6.735628560866291,-22.33104766115942
993,-2.2088118814475646,8.808507828900236,5.854944717932287,-10.887954224458978
994,4.746261710459695,5.719271682556895,4.986883046556886,0.7195521218981709
995,11.005573504252405,2.447617894847009,4.1147675174675005,12.16788062865639
996,16.48855273722463,-0.8977961571619044,3.1972530807625037,23.147862728828144
997,21.388719991950243,-4.165493626111056,2.1873589962940647,33.53850320712676
998,25.97923712312185,-7.198106921272488,1.049178090394371,43.27494740958795
999,30.495171017911055,-9.889719186008335,-0.22742157521059914,52.29100902387027
1000,35.037936729247946,-12.182813966317779,-1.6304032666255566,60.60251226468509
1001,39.47886013806221,-14.007171632471655,-3.1314337027152663,68.28994165793566
1002,43.527714347096214,-15.302003205361329,-4.682180730160318,75.41560391557131
1003,47.02678873640072,-16.103243232988707,-6.221449846909555,81.95062525917584
1004,50.10398948741715,-16.53280984537786,-7.693423719687502,87.774331872032
1005,53.000571371285915,-16.716750261119767,-9.064923270239737,92.74766749442284
1006,55.95783778082737,-16.772824002868237,-10.332928582548547,96.78480817929538
1007,59.1828459454225,-16.8174060230851,-11.514450280274415,99.84312211648204
1008,62.75730166875645,-16.9061396640334,-12.626352583540655,101.84360212445112
1009,66.60002455369623,-17.018387532846987,-13.671627704283523,102.69481358751798
1010,70.46061481009441,-17.114280065517512,-14.627937931589626,102.39975235676367
1011,73.99891102199706,-17.180965199138562,-15.45684844650506,101.09128499116058
1012,76.97682334312518,-17.27299465100864,-16.14451931195312,99.05604524582697
1013,79.29631878514188,-17.498525751771826,-16.694396840231327,96.6543080572479
1014,81.16054423141416,-17.977475669642097,-17.12423304349059,94.329331881129
1015,81.86768300645915,-18.620702229767414,-17.360838226361714,91.7256333387299
1016,81.10877351667546,-19.315338386012833,-17.37663042039999,88.68455319963029
1017,78.94917975271005,-19.948404921620355,-17.187723300509752,85.17213140579186
1018,75.72182925366762,-20.44270715220398,-16.834284277103336,81.22352587997885
1019,71.86377612893304,-20.76276966197207,-16.37359032177473,76.9785436123462
1020,67.79236883773096,-20.897023759247112,-15.87282498276463,72.69488798429263
1021,63.823812873314274,-20.85825550311339,-15.397029977721106,68.69530884949265
1022,60.22543455434582,-20.683003397006104,-14.9991742771233,65.27236784089084
1023,57.29105473825767,-20.417468147062745,-14.713044504132336,62.63347883481232
1024,1.3202309782460506,-0.5313653346969188,-0.5498969551966261,1.039200180687987
1025,2.287763156419538,-1.0063801664947973,-1.4814918248956745,1.9739252996665384
1026,3.1514002914957286,-1.640301463758073,-2.8070169080702954,2.922826837941618
1027,3.750043567998734,-2.4150164925810627,-4.534517844117252,3.8869466861677813
1028,3.973432545861613,-3.3224173374594113,-6.61083316300287,4.83025600773878
1029,3.768228253448331,-4.368672624794114,-8.92606808910554,5.6559309319512385
1030,3.1565462150145644,-5.563393553867893,-11.353074751095214,6.307680554554911
1031,2.218694247125272,-6.906373385685771,-13.765193999553663,6.771761299947822
1032,1.0669080946638625,-8.383778948597207,-16.031991335486573,6.961284354136491
1033,-0.11373071121343342,-9.975446805011728,-18.048021187613163,6.755353232140077
1034,-1.0329319104433412,-11.683192763636155,-19.790402658083966,6.164075924689271
1035,-1.361500918957502,-13.490946383550583,-21.30002614159441,5.324824372911305
1036,-0.9238993016150827,-15.382741317167556,-22.584971191498475,4.355352841227309
1037,0.2154030657164942,-17.34150175267418,-23.617411094961845,3.315766777504559
1038,1.8635618472959348,-19.343845485788112,-24.412454672092892,2.267530769447102
1039,3.78077869441549,-21.3564711058323,-25.03691975403515,1.2885107274922332
1040,5.722484895525572,-23.33285354751429,-25.565099347064837,0.48385734478222764
1041,7.503387784109148,-25.197308282322254,-26.056011480498228,0.015372849969807562
1042,9.010682129874453,-26.858935751830934,-26.547047901376068,0.01235460215614309
1043,10.172850476968241,-28.246956055516954,-27.053997935969452,0.4172537883345583
1044,10.978944754794119,-29.323763016214933,-27.581809763745895,1.0777883004050695
1045,11.503344607954423,-30.07632805028596,-28.138352458497707,1.9581877938479004
1046,11.874610293110925,-30.518370758587604,-28.729826922647995,3.0971043558758837
1047,12.226446426777178,-30.701707295590634,-29.336956191627788,4.450179598651533
1048,12.659722050718837,-30.70768871241988,-29.91636688644826,5.9032863406380915
1049,13.229941198872726,-30.62325626001526,-30.42909840533615,7.391155992777985
1050,13.909976834148917,-30.51882181728252,-30.843762302309152,8.887005269214281
1051,14.567341691135647,-30.434663046227328,-31.119695844502363,10.28328491694554
1052,15.015582267978903,-30.366451469685323,-31.21896148033659,11.407135677270539
1053,15.077490398416776,-30.27139476899147,-31.130389150708695,12.122647958111205
1054,14.661029820835704,-30.09804504788351,-30.864582113495683,12.349681604844603
1055,13.79524719020114,-29.794890576852033,-30.439207812531677,12.063157912844291
1056,12.584164185217666,-29.310333642189352,-29.880043630844924,11.309112020370339
1057,11.156403016609616,-28.610948070256853,-29.228771972712416,10.197621755027495
1058,9.639711998890462,-27.711897920152868,-28.540429743101125,8.872975269110608
1059,8.138130179682573,-26.670621885363005,-27.865528708221774,7.471823461668362
1060,6.703282127519803,-25.539078134923294,-27.23478180131053,6.084526012177221
1061,5.319097457399274,-24.343262721855893,-26.657623707092494,4.715909573979061
1062,3.9223424044704167,-23.09292541420141,-26.126527874230067,3.2987505161608155
1063,2.4441283787738555,-21.7895331936488,-25.618093340587436,1.7697612456967067
1064,0.8389400760184826,-20.43112122781193,-25.099442305737327,0.10849434408075781
1065,-0.9034694295867214,-19.02195413512712,-24.54307460810568,-1.6683814706516051
1066,-2.7609892060964496,-17.577683923724027,-23.933701414079522,-3.517852161600936
1067,-4.694469271599488,-16.11856213900093,-23.26465247881633,-5.386876812711095
1068,-6.6640445431865665,-14.65857147586874,-22.53057533533274,-7.2368925179139065
1069,-8.63025444939516,-13.204153364685265,-21.721833298387626,-9.049786130023143
1070,-10.54692154024421,-11.76253590570724,-20.83028851643924,-10.808498131127998
1071,-12.36769896698651,-10.34387774530942,-19.8623616462106,-12.488342321899466
1072,-14.058847172071836,-8.956301854376598,-18.83973092465895,-14.068086029014173
1073,-15.604991031287856,-7.604015370183361,-17.78324725536224,-15.542789281884113
1074,-17.006247475867777,-6.291071145447992,-16.700483919699543,-16.91990913494047
1075,-18.270740217668795,-5.020790486071375,-15.590884968297432,-18.19935504750658
1076,-19.41381349467485,-3.7910225121032157,-14.456159077272323,-19.362177110633702
1077,-20.461957633156878,-2.5965286154542326,-13.30557264895625,-20.38526897508551
1078,-21.447790928838383,-1.4372984016512311,-12.154074457256401,-21.26588268912678
1079,-22.39823689913,-0.32409805337457753,-11.015899371956248,-22.022287438815304
1080,-23.325804784296995,0.7210992032035427,-9.903061350014191,-22.673646535703465
1081,-24.227360869837426,1.6701614744871127,-8.825823974171875,-23.224537549929106
1082,-25.089520427050388,2.499324038540937,-7.78897584654003,-23.665258678736304
1083,-25.894414664634123,3.1966819215906166,-6.789418320571977,-23.987158636864383
1084,-26.61999513652847,3.76348196682337,-5.821507301299909,-24.19331453081475
1085,-27.235190914249216,4.2142393999424765,-4.888638091164048,-24.294992918443924
1086,-27.701311504056648,4.572990692351686,-4.011231985342653,-24.300459094917287
1087,-27.98543238599971,4.8687400431203045,-3.2232000167297135,-24.205873353273454
1088,-28.07675487549624,5.136372096168128,-2.5623410056268825,-24.007637522403627
1089,-27.989975777442275,5.414659963373734,-2.0653824473392084,-23.725305175259535
1090,-27.754341124159957,5.737465325699641,-1.7677766742641758,-23.398373089996472
1091,-27.402015298856927,6.128655957300912,-1.7046802373500105,-23.06754599335905
1092,-26.965030553509187,6.6032269285170315,-1.9070668495685006,-22.771903055093457
1093,-26.481375061907293,7.168641544253931,-2.3925262703633554,-22.555066031985977
1094,-25.996148510340678,7.829817464717688,-3.1608086387014764,-22.46640903284468
1095,-25.553201254124257,8.594127931782042,-4.195888692044932,-22.556192074344736
1096,-25.184953027201654,9.468765603268007,-5.471675849492514,-22.86127914766669
1097,-24.901741029872877,10.458556482298224,-6.955057947082168,-23.3883217770228
1098,-24.685742052261908,11.566337792905616,-8.60722852821682,-24.113498320256586
1099,-24.49255362171109,12.790670885053602,-10.39127854033227,-24.994549055691795
1100,-24.259439685925905,14.12444983124592,-12.278647291917238,-25.97608899405849
1101,-23.917994921030434,15.55738709771363,-14.244804005719587,-26.990293292725113
1102,-23.40689768527175,17.07760830039033,-16.262192612412083,-27.96436823598153
1103,-22.680511932889587,18.674271945712288,-18.29990378953113,-28.841653135024195
1104,-21.70951170640842,20.34022725183954,-20.325439718793408,-29.601736434437917
1105,-20.479761027966706,22.065609389005797,-22.30414092789864,-30.249795750087788
1106,-19.00013441735561,23.829724614417245,-24.199967023115146,-30.784116569416287
1107,-17.309813327222518,25.60489341958474,-25.979810052504014,-31.187406509106296
1108,-15.465147326543985,27.36336027737237,-27.613415402101865,-31.446305497385282
1109,-13.51923469481853,29.07367044520332,-29.068892155657238,-31.561423391711823
1110,-11.514281545221351,30.693962567683208,-30.313500714504517,-31.544025347955685
1111,-9.483685884780797,32.171509502901294,-31.318269202280305,-31.40783441402732
1112,-7.459926020515124,33.44979325730896,-32.06191293588286,-31.15688490085264
1113,-5.480131105690357,34.480480421511956,-32.5318496282926,-30.78743242590884
1114,-3.584708866317094,35.230113315866994,-32.72323592740093,-30.310334980304432
1115,-1.8135258399956724,35.678364715752856,-32.6390577486352,-29.760287905543553
1116,-0.20338101830185787,35.81813694120289,-32.290749733430914,-29.176577190393537
1117,1.2112672101336952,35.65728581151427,-31.698027420390723,-28.59062031053753
1118,2.397386514541295,35.21600736996397,-30.887135279919146,-28.023917431443305
1119,3.3241631389847193,34.52320840746882,-29.88650371110277,-27.488521297470093
1120,3.9649962719725296,33.61230791459353,-28.720444711183852,-26.995736173131196
1121,4.306554134782057,32.51607628290722,-27.408183961458132,-26.54577754937191
1122,4.3607069352767,31.2691784319894,-25.969196597726736,-26.1111611622775
1123,4.16389100175933,29.912886026062335,-24.426430864284622,-25.652956702159674
1124,3.765462461493007,28.487415419464643,-22.8043273813238,-25.145254395075373
1125,3.2140649151491676,27.018206120845743,-21.124044183750225,-24.57535242719945
1126,2.5542012529066804,25.512625538739705,-19.404707165697715,-23.93073631180325
1127,1.8338433580562246,23.969606506403274,-17.66892544483826,-23.189110143447227
1128,1.1029370766853144,22.388523704300805,-15.943521468879345,-22.320460002281443
1129,0.40192415726426367,20.77061193312511,-14.256058946906496,-21.30973188082975
1130,-0.24666296675351754,19.11912526751677,-12.63024524815394,-20.17464598429422
1131,-0.8417333714151507,17.44375614932276,-11.082906310766374,-18.95761450682827
1132,-1.4015498151385697,15.759866390683477,-9.621111183198659,-17.70380270383234
1133,-1.953783648749866,14.080302827913767,-8.239880644314411,-16.445121309153297
1134,-2.5232910647126534,12.41453449106053,-6.922884031640375,-15.206300683899517
1135,-3.122901682142994,10.774881408706765,-5.645536773007197,-14.016945400814643
1136,-3.7495756072697333,9.178760393529116,-4.38058306530408,-12.90126734384675
1137,-4.387148397693845,7.645812337420088,-3.1053065053758138,-11.855250840660402
1138,-5.01562288716348,6.194640832853459,-1.8046953970259865,-10.852570317255125
1139,-5.619458502591768,4.839778103451939,-0.4701322116565543,-9.875673210559215
1140,-6.183315528994469,3.588312182134554,0.8998583706819239,-8.922734399788427
1141,-6.6863660691884,2.440468282750696,2.298283095486918,-7.989087494576688
1142,-7.084932487195989,1.4305026910721845,3.676649645995026,-7.058768207929664
1143,-7.413259375233384,0.487528520140764,5.0767270213227595,-6.127603871939742
1144,-7.700147345449622,-0.4195831949630915,6.494312923239081,-5.217361504329045
1145,-7.969720977660765,-1.2977939759244816,7.899933249097772,-4.369095966642651
1146,-8.236939067256328,-2.1400924142365523,9.249702454947109,-3.6272534189227343
1147,-8.506283307574655,-2.9316220674312095,10.495020347600194,-3.0193690901531136
1148,-8.773552571055136,-3.6555847449822028,11.591206065692587,-2.5512128396385774
1149,-9.02834401299621,-4.295053815676188,12.50390008784792,-2.217285409321981
1150,-9.257399703365595,-4.83001931998452,13.21272755874363,-2.008834080274803
1151,-9.448530113843006,-5.241350537077319,13.712962693575083,-1.9099648306847323
1152,-0.4593328300369525,-0.22921538507062217,-0.6614079483315513,-0.4268165268844096
1153,-1.0552694357531518,-0.6532845552085966,-1.4302273508770853,-1.0205164154761335
1154,-1.89309007034698,-1.3225458299070028,-2.516216959336011,-1.89298346108023
1155,-2.959664984885771,-2.247747697355899,-3.91989054716123,-3.0559685498764644
1156,-4.221482203951579,-3.404578883223725,-5.614930324711201,-4.506998176672916
1157,-5.621901441859642,-4.735343022268019,-7.551842411331742,-6.223748288801899
1158,-7.088982247633417,-6.160806093868074,-9.665983088725532,-8.155829667603443
1159,-8.555607596466217,-7.596972897833547,-11.883769986525689,-10.226830291866161
1160,-9.977815533763524,-8.970227029914522,-14.130278750812359,-12.354774183279014
1161,-11.3467958783539,-10.229833170520541,-16.348189205239233,-14.486443203799842
1162,-12.696103068355466,-11.365499457190465,-18.525083268777486,-16.614734255768486
1163,-14.04008502935691,-12.381515662499844,-20.623167971759525,-18.708261604996938
1164,-15.384382045648083,-13.308917253849508,-22.60388194269975,-20.72682880482927
1165,-16.725714584720233,-14.194145927630945,-24.431515480434754,-22.632615985133224
1166,-18.056054175580854,-15.078784333442721,-26.07806857935214,-24.403424349391056
1167,-19.36496734022151,-15.98233537586005,-27.529283652309303,-26.028121834551943
1168,-20.638050565270497,-16.896491506758984,-28.786680762211212,-27.489654059909554
1169,-21.85385491988393,-17.793640040439243,-29.865418162205145,-28.763788460204765
1170,-22.988587370705357,-18.640024394950498,-30.789322075745996,-29.830705074298105
1171,-24.027229266864556,-19.398456388443496,-31.5832598913689,-30.688906770541255
1172,-24.962687607436227,-20.03615104567664,-32.267855011082794,-31.348756736014785
1173,-25.786475738343654,-20.541465033088084,-32.856537453966126,-31.811493727513813
1174,-26.49404820391177,-20.924604787069004,-33.35220611067421,-32.07304155446288
1175,-27.092716313178272,-21.20374138986253,-33.74655981634312,-32.146482241764474
1176,-27.593119102597207,-21.395241606434464,-34.02619960194981,-32.07032927658793
1177,-28.00360117987169,-21.512653731524765,-34.18191970946899,-31.890793070137825
1178,-28.334071606085725,-21.566675758480223,-34.211118528411596,-31.63922976218078
1179,-28.598421827683886,-21.56389368302924,-34.11581242240807,-31.332653938534452
1180,-28.813808831595914,-21.506608249586,-33.905616225708684,-30.994140438442606
1181,-28.992719204627946,-21.392930964286204,-33.59833926655965,-30.65427005624471
1182,-29.132672348919137,-21.219148177030668,-33.21369697830481,-30.328037478009477
1183,-29.216280861673088,-20.98314897673803,-32.76680827445602,-29.999367889628886
1184,-29.218559161848944,-20.686060072671122,-32.26592151647127,-29.628734456183622
1185,-29.11604773232958,-20.328567839092834,-31.713985925498523,-29.183096212763402
1186,-28.892100477199158,-19.90600747543929,-31.10969067469462,-28.652500975911792
1187,-28.53233439521832,-19.41407232670216,-30.447501645833405,-28.033124128760818
1188,-28.017534232777365,-18.860416898492502,-29.71738338424917,-27.308002358275303
1189,-27.329892172845938,-18.262111359393277,-28.905662197572294,-26.455749724005234
1190,-26.465321615683916,-17.629890271980894,-28.00029513908697,-25.47785777692851
1191,-25.439526977365542,-16.969089664443214,-26.99723563483014,-24.40185068795092
1192,-24.289080462686115,-16.29575877756172,-25.902570586935838,-23.255505815041897
1193,-23.062926079013874,-15.637337160711054,-24.730610557464743,-22.05006802915468
1194,-21.80970458280736,-15.022266895683495,-23.50107152773193,-20.788248676044404
1195,-20.56743650109973,-14.472677294516316,-22.235885170262076,-19.48556510836157
1196,-19.357494163235227,-13.997226637922962,-20.958133014969157,-18.179972985949703
1197,-18.181923400904573,-13.585326874204048,-19.69328043000961,-16.91744597177222
1198,-17.022289069370746,-13.212272088943608,-18.466974538605097,-15.731991962010797
1199,-15.842372724190522,-12.852850495648966,-17.300065749845352,-14.639552161362413
1200,-14.593647025875397,-12.486931466955065,-16.203819467211652,-13.6454723190006
1201,-13.225290720897616,-12.098921128816771,-15.177914019105591,-12.750794514750126
1202,-11.70196741736822,-11.680683557746573,-14.212867621796951,-11.951116131984143
1203,-10.008565736063556,-11.234327908318441,-13.29674283486703,-11.228465421505454
1204,-8.140304139271734,-10.770602479873432,-12.42133074498109,-10.548604524676817
1205,-6.109572717429482,-10.302492618954124,-11.583077211270233,-9.874072958560374
1206,-3.9567174057111676,-9.838529688129908,-10.780779577669149,-9.177758580282497
1207,-1.74452114404074,-9.382053502212482,-10.012017917220314,-8.453158719647197
1208,0.45575708002753357,-8.932145188614887,-9.272866955529413,-7.71080857062365
1209,2.582951311204736,-8.483081710297185,-8.56149970694719,-6.961405513335618
1210,4.587263328059543,-8.031491594128187,-7.879574291185424,-6.217333553533416
1211,6.414142258537786,-7.5859608207957985,-7.230542279098305,-5.500361486243551
1212,8.006585595092297,-7.164268768325011,-6.618721115538539,-4.832670873139443
1213,9.320549999785822,-6.785069132223122,-6.051791804906061,-4.224594950195404
1214,10.332629551780014,-6.4648325410215985,-5.540916307761306,-3.67521974538163
1215,11.038152196605486,-6.216714605221495,-5.098909250693148,-3.1824184662477593
1216,11.440936692990359,-6.046077448129041,-4.743064339777822,-2.747120605994676
1217,11.544238611772531,-5.9456031631634065,-4.494498286791253,-2.374094970320049
1218,11.35455900016163,-5.896197121918232,-4.367272995184677,-2.065079770062562
1219,10.89046857032184,-5.872981219794006,-4.355964370702816,-1.8072852018237777
1220,10.18034858060931,-5.851525425777992,-4.432362997640641,-1.576774279569009
1221,9.249982250289962,-5.81471951956991,-4.551677994338927,-1.3542900968467042
1222,8.121344557256366,-5.76103470921545,-4.663659269262801,-1.134636111673149
1223,6.826190108642807,-5.707740534519381,-4.722573317486385,-0.9211640073428905
1224,5.408234089673733,-5.683268733768842,-4.69356832071844,-0.7146814282791963
1225,3.9142842863855227,-5.711008605604085,-4.555066973952071,-0.5095168468015157
1226,2.3863892493906573,-5.797716948661916,-4.298883765486055,-0.3095371672280209
1227,0.8614767267545413,-5.930374674792145,-3.9336019430497378,-0.1376324322823464
1228,-0.6225686849535538,-6.077613913782502,-3.484960210137979,-0.013755658516299975
1229,-2.0293783136707417,-6.2000413213366175,-2.9881582722516846,0.06370363475485147
1230,-3.333025860111264,-6.26327293508487,-2.4790288162280794,0.11354438817275934
1231,-4.522907845169743,-6.242613574446909,-1.9879555389052623,0.15654469238831942
1232,-5.599302825607898,-6.123008876958636,-1.5358662751847596,0.20272842055894097
1233,-6.563312954737095,-5.9022689686860925,-1.128946466533183,0.25399456122228153
1234,-7.412802036009244,-5.597026804615789,-0.7592635061899592,0.31465816569146676
1235,-8.148223879127004,-5.238738924127005,-0.4177790396084061,0.3911309203972235
1236,-8.782434548575115,-4.8565833082705,-0.09992184188473224,0.4766114396791283
1237,-9.339585070565597,-4.469541520416489,0.20329838978911893,0.5453422774449952
1238,-9.840512586174816,-4.091850834291129,0.5065295152095975,0.5703945132445164
1239,-10.29726270950709,-3.7348533044281287,0.821885081888248,0.5441354261309251
1240,-10.718255567404551,-3.406096692355212,1.154804562428912,0.48262126122439686
1241,-11.103792084980906,-3.1100514322821224,1.504288045763134,0.41131354506097945
1242,-11.436051661575506,-2.846922826887732,1.8626495806355077,0.34843664252744444
1243,-11.676944155143127,-2.613909962449141,2.213887558070969,0.30433349625208395
1244,-11.775860128218689,-2.4100798618274966,2.5378257494744942,0.29252102198021995
1245,-11.682558819331877,-2.2383266556317656,2.81930239315612,0.3265335476475053
1246,-11.354784628295423,-2.10297291563589,3.054471657374085,0.4000401698610736
1247,-10.759340164571936,-2.004245320709773,3.2538266153649413,0.482973883985579
1248,-9.87419230238409,-1.9330634456342033,3.4402132700136283,0.5452120790203187
1249,-8.691088219543893,-1.8733791526121366,3.6391058197660815,0.5811436742672079
1250,-7.220639763260955,-1.8106665889238938,3.869306505804797,0.6069003490457027
1251,-5.492633031251905,-1.7353295753494078,4.140310950639596,0.6419197516811835
1252,-3.546054305737888,-1.6398812324902894,4.452149889163422,0.7022706825390381
1253,-1.4242487016798466,-1.5221519449110157,4.794551985559774,0.8043190553777378
1254,0.8259538213474925,-1.3882098929751248,5.14559614874272,0.9687489635088151
1255,3.1525877908054123,-1.2432894578844746,5.477299940848141,1.2106371606027593
1256,5.4949903698767235,-1.0862123472428504,5.767916333579077,1.5188026106837824
1257,7.792540649118551,-0.9114358807775701,6.004778692384782,1.8540631775918164
1258,9.992028792120125,-0.7118562582476315,6.179356340945287,2.169244057531626
1259,12.042586386265908,-0.48260736433118545,6.289241556891852,2.4356587161671954
1260,13.896680936902102,-0.21890504916672426,6.341963427285631,2.6553438097460837
1261,15.517874616762048,0.0882879698021532,6.348878459702556,2.848046565325692
1262,16.882854926546308,0.44528111074921484,6.31665312830039,3.0341523441085174
1263,17.98177142015399,0.8480402972283325,6.251893840320822,3.229139764309008
1264,18.81901244228059,1.28359363177022,6.172151346084795,3.444509282952717
1265,19.403672659948228,1.7269098882879221,6.108252799998013,3.684200052298993
1266,19.735183864215713,2.1382738424116527,6.101998297600308,3.9340807402214253
1267,19.797561104065757,2.4699169560597145,6.196513730482509,4.160004990324335
1268,19.559791113171855,2.6709609188615637,6.420107266059919,4.313720070860249
1269,18.979245182231118,2.6904200047401967,6.78826128782887,4.342237714051309
1270,18.197075479232726,2.590061151158577,7.228139097462499,4.266165988124876
1271,16.88601240930222,2.175536010810214,7.898265615292748,3.965288196264083
1272,14.928394634766203,1.376792697697991,8.851126610621066,3.398329962502836
1273,12.369347813092439,0.21432027949979043,10.062573634664606,2.593497481684233
1274,9.369013048080879,-1.2310122171125006,11.457345313383389,1.628427298686114
1275,6.152090943587701,-2.8421041788442425,12.932740700838583,0.5986544042060632
1276,2.9655645040191856,-4.484598172705911,14.380477234545825,-0.40823652288872514
1277,0.04506326331462801,-6.025659204193583,15.702599624255328,-1.325597657110897
1278,-2.4169495873179607,-7.353590878738955,16.825114191924676,-2.1043231153886732
1279,-4.296270912386224,-8.389951272555022,17.704845042191433,-2.7056693418295352
1280,-1.347160903663777,-1.058467801622623,0.3563339690680076,-0.5536875712309772
1281,-2.76175611230913,-2.403780701975643,0.8110132941089413,-1.2452665650247394
1282,-4.711428904004874,-4.351599145215017,1.4192078296810444,-2.211866387053271
1283,-7.189112165626886,-6.8985509249240975,2.164879901885045,-3.450415146239029
1284,-10.146677880285472,-9.979926099303857,3.025859008276652,-4.945684135172291
1285,-13.489333037480256,-13.479970799179013,3.9674494649518044,-6.658729730668643
1286,-17.078665833213346,-17.247546694596807,4.939375994830806,-8.52429810612989
1287,-20.750920018744505,-21.118019454065468,5.873444614535505,-10.460809326482014
1288,-24.350261351183917,-24.939308509174573,6.686616618261723,-12.389097777860682
1289,-27.774568710482587,-28.603704996527778,7.302917743327315,-14.253567873547548
1290,-31.027863668310292,-32.091488993840514,7.687575035063279,-16.043921634179615
1291,-34.07292955367693,-35.352832120417126,7.825746725438162,-17.733538172060694
1292,-36.86937468461924,-38.34967999325477,7.727052166428413,-19.30123818505124
1293,-39.37661439313567,-41.0533057206719,7.422271977762218,-20.73069842895192
1294,-41.56516852165881,-43.44190595220845,6.949405929228821,-22.002644086593637
1295,-43.423549118565596,-45.498761058304524,6.335031737926888,-23.091510532783325
1296,-44.95539373412091,-47.2101713561988,5.599157582296085,-23.97515196424534
1297,-46.17205136201147,-48.56721845588719,4.763468927752884,-24.65188348204262
1298,-47.08535780315162,-49.568211826176004,3.8479142340331314,-25.148915777500136
1299,-47.70146546701459,-50.21501494227435,2.8673359343040308,-25.509307575256457
1300,-48.01630499553637,-50.507483412316674,1.8331170803249324,-25.76685760019353
1301,-48.02006094322992,-50.43998229231094,0.7507938423706173,-25.931913589325138
1302,-47.70897239750362,-50.0000454242211,-0.38683926858877565,-26.00521292626065
1303,-47.093020376679625,-49.17452298478862,-1.5900334791770316,-25.994549271345623
1304,-46.19587304017723,-47.95918394806039,-2.8479165527975336,-25.916139979920573
1305,-45.04719293696759,-46.36735383085922,-4.125810850119194,-25.784557622553038
1306,-43.67685227878124,-44.43789003711998,-5.3916610171381665,-25.59704393400407
1307,-42.11903713346895,-42.23609438910231,-6.634812163252099,-25.33898212598088
1308,-40.42077602230587,-39.84743022162571,-7.862150893918808,-25.003679166435056
1309,-38.63863865620024,-37.36685576767593,-9.083194707784422,-24.59650244615058
1310,-36.8222094239227,-34.88453526740151,-10.297327223052605,-24.12890227004631
1311,-35.005297475753025,-32.47126538303987,-11.48801416604947,-23.61534604563475
1312,-33.2065111499463,-30.167021933811327,-12.620275825558124,-23.072939782163036
1313,-31.430716254326377,-27.977757472512025,-13.647898120829568,-22.51875692986395
1314,-29.672154932202037,-25.888005741361862,-14.525943880117477,-21.96328421896449
1315,-27.918463042650295,-23.878911204298344,-15.22601843527483,-21.400313202934548
1316,-26.158818247702488,-21.93758472098959,-15.755697406845321,-20.804740222068954
1317,-24.39781934612768,-20.062923573749075,-16.160188238084622,-20.15085883498675
1318,-22.662323240293524,-18.268597581605643,-16.50021769925498,-19.434241989353186
1319,-20.993758009217352,-16.57802062382677,-16.827520792365554,-18.673162828700555
1320,-19.433466844540284,-15.01408086193403,-17.180764062085917,-17.889281363289353
1321,-18.01296206865374,-13.59464986459369,-17.595374272666465,-17.096954826472906
1322,-16.75028145470236,-12.333990120152766,-18.09581933319131,-16.31117803763515
1323,-15.648986077759604,-11.237348757821497,-18.6765604118382,-15.556120382093464
1324,-14.69727741647122,-10.295802458460166,-19.304734630691826,-14.858505462649969
1325,-13.863166533837207,-9.489520991042147,-19.938901558160886,-14.230916848210578
1326,-13.097394725971318,-8.793464825982433,-20.540242789496997,-13.667520700431275
1327,-12.345357694950037,-8.181007900230785,-21.077211817557153,-13.145905649564844
1328,-11.551813036017874,-7.624720860117883,-21.524951997627223,-12.626800466259683
1329,-10.661917299789135,-7.099471643952087,-21.86337455446048,-12.063764999910186
1330,-9.62908963717016,-6.5879561772613116,-22.082481223923754,-11.418475407387227
1331,-8.420674670446116,-6.08111033935011,-22.18929776093529,-10.669758818409411
1332,-7.016921640448034,-5.571186557686244,-22.20701169120136,-9.818446642899103
1333,-5.410157398581034,-5.050719623707135,-22.163595222669844,-8.893571172245428
1334,-3.602980476116192,-4.518295686177489,-22.083612577053284,-7.948465050395473
1335,-1.607120436142233,-3.9804671801134233,-21.9858332328987,-7.037643300450197
1336,0.5520448035762591,-3.452955549678755,-21.880494592125448,-6.196249489949534
1337,2.83035133726871,-2.95992392505188,-21.76288868342208,-5.4393656854342485
1338,5.169406866243229,-2.5299155169154135,-21.600236917608033,-4.772934816458115
1339,7.5158216271283,-2.1912959444087745,-21.33796738952462,-4.202326851570083
1340,9.836929300655559,-1.9667425128357534,-20.932080798971292,-3.7247616747132164
1341,12.116396496336822,-1.8668728508383658,-20.373806270104552,-3.3157039665332126
1342,14.337209824756012,-1.883302970280749,-19.68946861503758,-2.9335206505355185
1343,16.467572265234654,-1.9928094348064387,-18.91553688209056,-2.5397901224114974
1344,18.461917177869772,-2.172521575574858,-18.068439463092144,-2.1183043856105757
1345,20.267861755372955,-2.4050218194004818,-17.146381564106402,-1.6794385824909186
1346,21.82840830814446,-2.6734899636471856,-16.15656353078865,-1.2419740897212885
1347,23.08150166443876,-2.959033499603928,-15.132357882136937,-0.8090124277819706
1348,23.96423604464465,-3.241249536225591,-14.119357161931097,-0.36885449100102885
1349,24.42702615706841,-3.4996395694519595,-13.14592595702822,0.08784713834032565
1350,24.451338484649437,-3.7144383624015807,-12.214251362012211,0.5628050224385226
1351,24.05342331636596,-3.8663734308145368,-11.310455828581004,1.0545794434825122
1352,23.27290131613919,-3.9389857170239457,-10.415116130036763,1.5591072351004616
1353,22.165266335195675,-3.9192930541091444,-9.515220176594237,2.0635930765451778
1354,20.800619272007257,-3.792436523059391,-8.618821797613876,2.5444035850801536
1355,19.25988761158293,-3.5430084430917947,-7.761474475458145,2.9806353005774366
1356,17.626086376839975,-3.163803757173975,-6.988148292084874,3.371639581262082
1357,15.976545657705032,-2.663728955411292,-6.317801665441218,3.7318489300333377
1358,14.382655671872651,-2.0716897118898907,-5.733038373139755,4.070283963075037
1359,12.90619386980295,-1.4295345162338062,-5.206908822255287,4.382862942884791
1360,11.585161871328147,-0.7775369349136214,-4.736645934745932,4.6557606224170325
1361,10.424169698883407,-0.14295413475752372,-4.3575477698253575,4.870002656065993
1362,9.398020885599463,0.4605608157804224,-4.115046769518593,5.0055176058961495
1363,8.4652706484286,1.0261823272785962,-4.014617628820179,5.039502387872851
1364,7.5852249048071,1.5539554200779644,-4.011573027359125,4.9405359641172995
1365,6.7245881442998785,2.053205575705985,-4.045086788756066,4.677757449342057
1366,5.850360910325204,2.536520337192891,-4.071444203019755,4.244825969331626
1367,4.927035516233754,3.0124642912555917,-4.06733779802477,3.6654325555316607
1368,3.929453373452077,3.4837397019738967,-4.021676817640826,2.9794183218577097
1369,2.860431883777515,3.9479309689099478,-3.9415090315870303,2.2260853659479003
1370,1.7525505450720604,4.397943236876969,-3.851796683886079,1.4328244763783082
1371,0.6545908547198811,4.821750727342599,-3.78307119110457,0.6220503975822859
1372,-0.3850588780643275,5.208075912708249,-3.767463337086899,-0.17820474929414915
1373,-1.3348901900652013,5.557408024789076,-3.838791583909217,-0.9428460736775017
1374,-2.1838526560987708,5.883427666199908,-4.023291472110925,-1.6583445173691915
1375,-2.9263556825101045,6.203955012464492,-4.331695390256461,-2.3154747056612632
1376,-3.5456213603391755,6.53366680065351,-4.758220265288402,-2.8969795569066585
1377,-4.012312881194952,6.881762597679002,-5.2767024490373124,-3.3654555003189373
1378,-4.297489374298109,7.251292163662669,-5.8405209607422774,-3.6681397039403354
1379,-4.38580452057853,7.639197478779679,-6.396555642102424,-3.762788258712061
1380,-4.279574982549781,8.038936006164658,-6.903315524655938,-3.6379664062800607
1381,-3.9950818781552,8.444852729460031,-7.333778341532189,-3.305322263859237
1382,-3.553394889144301,8.851501023666229,-7.66409701324879,-2.780774879346866
1383,-2.97227559541121,9.249987993027988,-7.871407620671465,-2.0836176545178775
1384,-2.2675779974823493,9.629522451705963,-7.942256719751362,-1.2429623459848056
1385,-1.4604084297313642,9.979332404776006,-7.874299564793588,-0.2969854663012858
1386,-0.5792808485686826,10.290965829944586,-7.672517348979052,0.7165465757902443
1387,0.34249844201649515,10.564912263941446,-7.3509836459383,1.7712681975239384
1388,1.2694039154784105,10.81007693319646,-6.931531426992518,2.8489584748545593
1389,2.1722757539221598,11.035941455071686,-6.436526169978782,3.9227541197206435
1390,3.039045773389268,11.248876085490798,-5.887750201723189,4.949277630584967
1391,3.8695338404462842,11.45402382150916,-5.311444117970462,5.883272748026342
1392,4.660714609308626,11.658808517467804,-4.732967340371252,6.695463791409809
1393,5.404494933293478,11.872692311777888,-4.156644734028219,7.373968376541564
1394,6.096193593107286,12.105287580753028,-3.572280592143899,7.912719636397079
1395,6.740404187661322,12.366339419051133,-2.9851609358265456,8.30857463679469
1396,7.348439654701316,12.662567350954559,-2.4199769661636705,8.569436016293084
1397,7.930643128959714,12.99197123527277,-1.908843518280928,8.717571709436367
1398,8.505535805417226,13.344624490221875,-1.480229132502645,8.836353750679415
1399,9.042645818857858,13.690061678048123,-1.172866691806594,8.852740181222185
1400,9.510731698144742,14.003721178158314,-1.0079146807813701,8.720875600378482
1401,9.885402234021127,14.27175248657665,-0.9883050242595375,8.429507654409797
1402,10.153465739355148,14.487761892621878,-1.09813071644904,7.998965919064187
1403,10.313616435664349,14.648590707390339,-1.305266252286501,7.468043950422626
1404,10.376537888588343,14.751819751644588,-1.5652260909561078,6.88097554913734
1405,10.364528549889213,14.798233186568321,-1.8291309829305709,6.28197530795329
1406,10.306577454577015,14.797992927267845,-2.056301338224546,5.71800602847422
1407,10.229581600526519,14.76943161803135,-2.2202060905216903,5.240669242088811
1408,-0.5878055368605637,-0.5270473768633857,-0.39444334622461896,-0.5505061188748082
1409,-1.2786439328440689,-1.1381136118738384,-0.945356426591376,-1.2391361768036677
1410,-2.288995139238139,-2.005627202321136,-1.771569409495609,-2.2336980307397205
1411,-3.6357006044326527,-3.1288837585494704,-2.885154453328587,-3.5539277491742722
1412,-5.290334056573991,-4.48949573149004,-4.2727204595701345,-5.196252857077562
1413,-7.182932535982507,-6.0514918061022644,-5.8993366969191126,-7.124884473257627
1414,-9.218796876258889,-7.756832409056239,-7.711232206003585,-9.270826216916893
1415,-11.297180386084516,-9.533782091282587,-9.638048569264567,-11.543270350945246
1416,-13.328248323829914,-11.317608606842459,-11.603191618779721,-13.852129944952893
1417,-15.249099808261501,-13.06732586586762,-13.543317165298236,-16.12411123040957
1418,-17.043324883336567,-14.78014280810898,-15.435433905931536,-18.314413095852057
1419,-18.674274993364758,-16.431584452722056,-17.25751839883619,-20.345364832072526
1420,-20.10864816919984,-17.996554639911114,-18.998936344826664,-22.138810870939146
1421,-21.323311212742077,-19.451374933991772,-20.642861054234196,-23.639413183248088
1422,-22.30801645480037,-20.775556331635897,-22.162826017117666,-24.81997915342689
1423,-23.064777980188328,-21.954096489988284,-23.529574693669705,-25.667272510223274
1424,-23.599717115424102,-22.976325087738125,-24.714137862085305,-26.176565829698813
1425,-23.907657765778715,-23.83290614471108,-25.69496371463907,-26.359434274268505
1426,-23.968617241653337,-24.517283256669867,-26.464390548143708,-26.253944064092437
1427,-23.76308386524375,-25.026793004916257,-27.019232933857985,-25.91380481143426
1428,-23.294841436922507,-25.358320890697872,-27.34984834053326,-25.384586547762176
1429,-22.599504121898764,-25.50691487522586,-27.44659096071881,-24.701084485964287
1430,-21.73244925806651,-25.473261065597804,-27.314070857751418,-23.90021597865009
1431,-20.75246006119564,-25.271591495209858,-26.974440571619027,-23.027791261153126
1432,-19.713710451264294,-24.92646048176546,-26.460829664429255,-22.12895242255048
1433,-18.6658800021418,-24.464005126660247,-25.810287198549013,-21.231748870252787
1434,-17.65250728572973,-23.909514599562435,-25.05826284400737,-20.346588052103446
1435,-16.703524415989296,-23.28704236310436,-24.238402481807135,-19.48256596258464
1436,-15.829646220600951,-22.614813746752287,-23.38354779325483,-18.65668746322992
1437,-15.02311595149243,-21.905391580325567,-22.528046906976133,-17.879189191007512
1438,-14.262158057109993,-21.17338739521519,-21.71165905998565,-17.134316364959414
1439,-13.522463477374076,-20.436936445864173,-20.96678518055732,-16.389317202730428
1440,-12.794413876734588,-19.71216449430752,-20.298449372215867,-15.624775169135475
1441,-12.08755738170975,-19.010021965978673,-19.683591142880026,-14.847723358457019
1442,-11.423853887905011,-18.33720041674808,-19.079754015086657,-14.080562474786086
1443,-10.835433775027811,-17.69926114596198,-18.43400500526355,-13.345299509456746
1444,-10.358340969589804,-17.102338621131373,-17.70396245460316,-12.65906801485524
1445,-10.016113665093854,-16.553249278901255,-16.881699696525914,-12.04449523472949
1446,-9.813761568306026,-16.05702406282116,-15.995214072891187,-11.528257026221313
1447,-9.749609890972456,-15.611493164699016,-15.08985889155903,-11.12180385902073
1448,-9.821957840884595,-15.208674121320747,-14.214167573009952,-10.809574763681216
1449,-10.023836498665174,-14.842473799717594,-13.412855627783236,-10.55698748193368
1450,-10.338641607784215,-14.512203087364075,-12.713708058452747,-10.330579777522457
1451,-10.740801220990136,-14.222867653791464,-12.121056508229175,-10.107673272172878
1452,-11.202318107782371,-13.986048169322851,-11.624010138701015,-9.872976818665306
1453,-11.696889983011745,-13.815451208417235,-11.204601151357048,-9.615391790058794
1454,-12.196305404219647,-13.716709995884681,-10.844755986971904,-9.331575229631547
1455,-12.669883732761349,-13.680810709929789,-10.529612932206186,-9.036958493779183
1456,-13.086434469559617,-13.688865107671932,-10.25246574940853,-8.763582802844436
1457,-13.414684542194781,-13.724271113474774,-10.026387932120825,-8.541673428022376
1458,-13.628199827336704,-13.77500514922584,-9.879550506862126,-8.386176427014767
1459,-13.713469334760044,-13.827407847032916,-9.83794524390426,-8.291856419736883
1460,-13.673863779228409,-13.86442356416532,-9.919294359333685,-8.240255439351182
1461,-13.529191064685065,-13.870991390143269,-10.128415589814791,-8.214617107781159
1462,-13.314591489277058,-13.842558142520598,-10.444138013950298,-8.206879820744897
1463,-13.07104165362989,-13.784855894617893,-10.815004288875585,-8.211559919354967
1464,-12.827367404234712,-13.706146901523525,-11.1726282429972,-8.216732902759974
1465,-12.596547169549217,-13.611831304469572,-11.451380098136019,-8.210895374477715
1466,-12.383492712896288,-13.501345732807579,-11.60437023850062,-8.195531536535041
1467,-12.186670811573201,-13.367428255812412,-11.611864429353542,-8.179281634426154
1468,-12.001677147558922,-13.198841538102187,-11.475855871743397,-8.163624329256962
1469,-11.825880134398675,-12.983414734255673,-11.206041712194416,-8.135341829063941
1470,-11.65467808107001,-12.711085854025564,-10.816398688364616,-8.071591759204644
1471,-11.475355153965092,-12.37713108929821,-10.330135215071227,-7.951511198367677
1472,-11.262163010285256,-11.980549319087588,-9.776936450935498,-7.761510614143668
1473,-10.978071467449578,-11.519734160782768,-9.185986416665479,-7.48957333578395
1474,-10.587390190662111,-10.992602314965804,-8.578576602901467,-7.11684945419683
1475,-10.066006258334392,-10.398509112586336,-7.967504623321521,-6.622989352533193
1476,-9.40291864230681,-9.738077382849818,-7.366692817198815,-6.000676166002415
1477,-8.604802850976334,-9.012127080064598,-6.788812805869316,-5.265297926229178
1478,-7.703595966088437,-8.222846296302146,-6.230012607661459,-4.447046857342857
1479,-6.752534482769327,-7.376903348796129,-5.667817408129939,-3.574253886437579
1480,-5.812587129673633,-6.487062244143548,-5.079162437262609,-2.6730450590747683
