,TP9,AF7,AF8,TP10
0,-4.080904910918572e-11,-1.418483807403404e-10,-1.0471509760286048e-10,-1.165812256711822e-10
1,-8.535213456057198e-10,-3.1072141472619037e-09,-2.2771378433911243e-09,-1.5867458687277285e-09
2,-1.0249279652110722e-08,-3.426022266344204e-08,-2.550995516225907e-08,-1.822219885405678e-08
3,-8.070062439335893e-08,-2.5000963936708985e-07,-1.8882776432790087e-07,-1.331603097473188e-07
4,-4.744717730627858e-07,-1.365118755529073e-06,-1.0465786682308738e-06,-7.327089069708065e-07
5,-2.22706455294923e-06,-5.968990366705275e-06,-4.647957771957963e-06,-3.240080264469982e-06
6,-8.719314687163457e-06,-2.1844815602340537e-05,-1.7288599465602284e-05,-1.2032698660076755e-05
7,-2.9378458132463995e-05,-6.905241954269936e-05,-5.558450718264233e-05,-3.872504224324076e-05
8,-8.722129372875062e-05,-0.00019306255909718665,-0.00015818041887001943,-0.00011055737393717477
9,-0.0002324571836131977,-0.0004863973478257106,-0.0004059016772108281,-0.0002851307534974935
10,-0.0005646021062426049,-0.001120919181722846,-0.0009532888480620946,-0.0006739830189160438
11,-0.0012654327362478484,-0.0023921954215541086,-0.002074137947366248,-0.0014774484715971065
12,-0.0026446545987460633,-0.004776451526884172,-0.004222923218424299,-0.003032803908610122
13,-0.005199464638227302,-0.008999717750788415,-0.00811290689315429,-0.00587694820176535
14,-0.009688310860511435,-0.016117952745156143,-0.014810455572184621,-0.010823791435358734
15,-0.01721808812486736,-0.027606114904614527,-0.025843672251600322,-0.01905521905594617
16,-0.02934271042055171,-0.04545316224148745,-0.04332192093490377,-0.03222292079058211
17,-0.048169444300390746,-0.07225863074886925,-0.07006112277998609,-0.052556585999952846
18,-0.07646758696736107,-0.11132475102468889,-0.10970778917003153,-0.08297203602083783
19,-0.11777209403231877,-0.166736219987415,-0.16685267249551844,-0.12717089322052558
20,-0.176472744265686,-0.24341813855339622,-0.24712285277138768,-0.18972157227224345
21,-0.25787761889657196,-0.3471616950930414,-0.35723938241764663,-0.27610987189637887
22,-0.3682384314177816,-0.4846072448509912,-0.5050267049783592,-0.3927465469773582
23,-0.514724943395101,-0.6631756124252778,-0.6993602923286559,-0.5469192145346474
24,-0.7053366250898357,-0.89094063163335,-0.9500404821393841,-0.7466771326139561
25,-0.9487419604054319,-1.1764389251524365,-1.2675833081090655,-1.0006399157008565
26,-1.2540392912038503,-1.5284165151059796,-1.6629230567702002,-1.3177251614251138
27,-1.6304376687991702,-1.9555158903114285,-2.1470261768320618,-1.7067950633345825
28,-2.0868616044521335,-2.465911494908898,-2.7304218309549215,-2.17622815513301
29,-2.631489596679776,-3.0669060299292434,-3.4226605684417577,-2.733428998197958
30,-3.271242503586443,-3.7645041484028003,-4.231718952566467,-3.3842954340867477
31,-4.0112437975529005,-4.562983680711735,-5.163374038932907,-4.132669444419123
32,-4.8542790102002,-5.464487068972981,-6.2205768736993265,-4.979803066994105
33,-5.800285768960285,-6.468656930232792,-7.402858217187205,-5.9238747075688964
34,-6.845908280780244,-7.572339424343087,-8.705802128073433,-6.959593042844365
35,-7.984150552310443,-8.769377286827169,-10.120623596338731,-8.077925179077274
36,-9.204160764092073,-10.050510987569037,-11.633884900530637,-9.265982451293818
37,-10.491174889142702,-11.403401585392126,-13.227381702318256,-10.50709110806885
38,-11.826640843854113,-12.81278269224206,-14.878224090340536,-11.781066172355464
39,-13.188535357039994,-14.260741926367798,-16.55912998839413,-13.064695451226305
40,-14.551874763271282,-15.727124836536229,-18.238938815531476,-14.332427643317933
41,-15.88940879285491,-17.190047086588212,-19.883342438835932,-15.557244687992183
42,-17.172474098151593,-18.626494241317538,-21.45581882728367,-16.711684912698527
43,-18.37197275749538,-20.01298324013831,-22.91874205818185,-17.76897115748738
44,-19.459431280481265,-21.32625594213288,-24.234631194153938,-18.70418787264223
45,-20.408088445621374,-22.5439732420734,-25.367490808954532,-19.49544397110489
46,-21.19395618966101,-23.645378382655363,-26.28418830013684,-20.124954678067308
47,-21.79679711985961,-24.61190029776848,-26.955808120009515,-20.579976205674605
48,-22.200965267572652,-25.42767202397116,-27.35892101218102,-20.853532163438516
49,-22.396063444233377,-26.079945088668726,-27.476707368323908,-20.944880235871494
50,-22.377380715742557,-26.559387777229155,-27.29987788001368,-20.859681588397795
51,-22.146086453893506,-26.86026260143758,-26.827341608098795,-20.609852893183024
52,-21.709172239338667,-26.98048543565081,-26.06658121599472,-20.213100584723517
53,-21.0791484409617,-26.921575065867895,-25.033707086478486,-19.692157344489484
54,-20.273517343957558,-26.688506874592875,-23.753175890746125,-19.07376019652667
55,-19.314058039940605,-26.289487755122657,-22.25717425115455,-18.38742644778485
56,-18.22596888135737,-25.73567089480226,-20.584683646369292,-17.664096722341238
57,-17.036920363459853,-25.040828704705127,-18.780257793871847,-16.934722631114123
58,-15.776074340026621,-24.22100003617873,-16.89255756832474,-16.228879589294923
59,-14.47312430988477,-23.294124325129232,-14.972700342020797,-15.573482801158667
60,-13.157406220416688,-22.279671068581454,-13.072489885288153,-14.991676683418646
61,-11.857120232589761,-21.19826875010764,-11.242599223102458,-14.501955560294444
62,-10.598691938076644,-20.071333570342812,-9.530781822354967,-14.117557208157343
63,-9.406287689237331,-18.92069548728532,-7.980185996961947,-13.84615190245672
64,-8.195725374565822e-11,-1.2061998421600047e-10,-8.40478187680842e-11,-9.053100445531721e-11
65,-1.740103266331892e-09,-2.581175350451274e-09,-1.5801446663179298e-09,-1.9996898681910013e-09
66,-1.9200649821131154e-08,-2.8781168464230894e-08,-1.774645134714641e-08,-2.2041798907290495e-08
67,-1.4011818158464607e-07,-2.1172206886338262e-07,-1.3084859978336925e-07,-1.6096550851888066e-07
68,-7.658385196927673e-07,-1.1659648798248912e-06,-7.248587923391542e-07,-8.797499382294882e-07
69,-3.3553216904687976e-06,-5.143888096841653e-06,-3.2271483955573382e-06,-3.85188008993911e-06
70,-1.231842193438861e-05,-1.900354929216829e-05,-1.2069752349708714e-05,-1.412346377982401e-05
71,-3.9113937466968714e-05,-6.06797698321511e-05,-3.9130813487843114e-05,-4.476125157957335e-05
72,-0.00011000666710282604,-0.0001715045516789499,-0.00011256945975053406,-0.00012558376961001945
73,-0.0002792135397800968,-0.00043717136526064056,-0.0002925737691358317,-0.00031782103643065117
74,-0.0006492502890025543,-0.001020239518972626,-0.0006968850740507934,-0.0007365632510902913
75,-0.0014001760022283318,-0.002206810001685742,-0.0015388696686229396,-0.0015826527607920593
76,-0.0028291430726454445,-0.0044694124314386165,-0.0031802853519345867,-0.003185303532855986
77,-0.0054011974823142215,-0.008547283804654464,-0.006199822100396148,-0.00605624668368737
78,-0.009811592928995375,-0.015544101883242418,-0.011477168283667856,-0.010955613502211917
79,-0.017058936385476103,-0.027041852336441102,-0.020290988480832033,-0.018969071551896702
80,-0.028527272800328775,-0.04522783918371094,-0.03442786316379483,-0.031594904314360475
81,-0.046073834042618354,-0.07302991156556295,-0.05629783961324417,-0.05083873836096687
82,-0.07211777129427893,-0.11425281376866223,-0.08905055197454106,-0.07931243699328443
83,-0.10972390173414456,-0.17370626571316702,-0.13668376293833445,-0.120332298966593
84,-0.16267441390116905,-0.25731312322207267,-0.20413378010311167,-0.17801022042568349
85,-0.23552062034805926,-0.3721840339636786,-0.2973349084935805,-0.25733008985968364
86,-0.33360627816955474,-0.5266437720097152,-0.42323350981203484,-0.36420061831210304
87,-0.46305385226700535,-0.730194266269017,-0.5897419041928859,-0.5054752456455931
88,-0.6307055848873846,-0.99340051653234,-0.8056186661786827,-0.6889298263140673
89,-0.8440125361579497,-1.3276882163375225,-1.0802649155833457,-0.9231895543663904
90,-1.110866924825813,-1.7450459191385443,-1.423430818419865,-1.2175980720774258
91,-1.4393760059747363,-2.2576297983780975,-1.8448323167877603,-1.5820238831187856
92,-1.8375791668429153,-2.8772752158004606,-2.353684683769603,-2.0266019238024198
93,-2.313113700923394,-3.614926134765396,-2.95816642825687,-2.5614112392131556
94,-2.8728386962709087,-4.480000561435504,-3.6648339705494815,-3.1960930209150042
95,-3.522430511397502,-5.479717241748423,-4.4780139991664605,-3.9394167634789974
96,-4.265967189177052,-6.618415236134101,-5.399206088597851,-4.798806025209191
97,-5.105522513860602,-7.896903122771983,-6.426532567271306,-5.779839182285107
98,-6.040792795230875,-9.311877839130396,-7.5542752487379285,-6.885744403903273
99,-7.068780468163869,-10.85545411002596,-8.772538946324204,-8.116911456157027
100,-8.183557997696253,-12.514843768080702,-10.067079178004484,-9.470445453483048
101,-9.376133383790341,-14.272219998906994,-11.419325840053858,-10.939789005313884
102,-10.634434937828189,-16.104794716995894,-12.806625868031725,-12.514439162207672
103,-11.943428202868683,-17.985128101804694,-14.202716382200423,-14.179784059372862
104,-13.285372132256777,-19.881678110700662,-15.578426208521961,-15.917081162482436
105,-14.64021510371122,-21.75958502726008,-16.902588917100612,-17.703594573317666
106,-15.986124190024967,-23.581672476595838,-18.14313570892389,-19.512903031269488
107,-17.30013356694334,-25.30963268254029,-19.268322746106815,-21.31538319280339
108,-18.558890370666425,-26.90535099886635,-20.24803597993902,-23.07886471807981
109,-19.739469201919782,-28.332313860021653,-21.055108133223552,-24.76944499869948
110,-20.82022036568471,-29.55703614510745,-21.666577958423023,-26.35244248415123
111,-21.78161238483206,-30.550439231596826,-22.064821597649267,-27.79345900420268
112,-22.607026829208554,-31.289110202426674,-22.238489913789934,-29.059513706838263
113,-23.283463435410084,-31.756375924392433,-22.183193869268464,-30.120204660456228
114,-23.80211606390828,-31.943132923660116,-21.90189205654536,-30.9488492331234
115,-24.15878521339832,-31.848384761926102,-21.404949772763228,-31.523551519518776
116,-24.35410029828444,-31.479452378989606,-20.709856825539518,-31.828144784966725
117,-24.39353418005908,-30.85183882726988,-19.840610531199744,-31.85295946348644
118,-24.287202901629296,-29.988747059102575,-18.82678984879867,-31.595372801065082
119,-24.049454567012532,-28.92026692618786,-17.702364833661438,-31.060104649179102
120,-23.69826225743285,-27.68226431374995,-16.504301111321176,-30.259234835832153
121,-23.254446260879657,-26.315020450997014,-15.271030630502663,-29.21193042673139
122,-22.740760229604643,-24.861682127379062,-14.040866731704735,-27.943885334899097
123,-22.18088370575149,-23.366593161140777,-12.850443303727353,-26.486489326114846
124,-21.59836932868487,-21.873583507211748,-11.733254710143095,-24.87575763854517
125,-21.01559656531192,-20.424294508121424,-10.718365812289546,-23.151065351363545
126,-20.452784667122216,-19.056616828469373,-9.829350538685485,-21.353741542795614
127,-19.927115539899567,-17.80331164497436,-9.083503868786261,-19.52558652035285
128,-9.347178184906109e-11,-6.939891960425191e-11,-1.182717656815887e-10,-8.05182447334919e-11
129,-2.11113163752626e-09,-1.5363683767759378e-09,-2.4264561320066085e-09,-1.8128066892197991e-09
130,-2.382433999982909e-08,-1.7509353772619963e-08,-2.7343308465354886e-08,-2.0417889543572987e-08
131,-1.782312041908758e-07,-1.320873003591037e-07,-2.0295327534485657e-07,-1.5268399047610654e-07
132,-9.978823176596397e-07,-7.461255156188204e-07,-1.130385275744364e-06,-8.55876468672623e-07
133,-4.4734126642820954e-06,-3.376396718182585e-06,-5.0534549809315284e-06,-3.847642462508064e-06
134,-1.677652567188177e-05,-1.279028603385969e-05,-1.8947702075041797e-05,-1.4492533706738483e-05
135,-5.429759729780414e-05,-4.1846504310683544e-05,-6.146307051538737e-05,-4.7173290106821924e-05
136,-0.0001552548801979781,-0.000121060224876626,-0.00017652767433583327,-0.00013580513669438475
137,-0.0003994553330212212,-0.00031543212559187933,-0.00045703644445371306,-0.0003520908265920468
138,-0.0009385967818759327,-0.0007512976911533425,-0.0010820599384627134,-0.0008340936883303837
139,-0.0020387817202239837,-0.0016557923581230873,-0.0023702329960695926,-0.001827133574741669
140,-0.004135870249228297,-0.003411037855156071,-0.004850471252754272,-0.003738014824799689
141,-0.007903264362040011,-0.006624459278878911,-0.009349218273138024,-0.007202471266624028
142,-0.014330965421774129,-0.01221582926575714,-0.017091424699034755,-0.01316474988506096
143,-0.024814350604122133,-0.021520691674007972,-0.029810667821691214,-0.022967562340784755
144,-0.041250898654681574,-0.036408626910639647,-0.0498622886053869,-0.03845010274396732
145,-0.0661427597334937,-0.05941326818285273,-0.08033197836446307,-0.06205125195768755
146,-0.10270237597312151,-0.09386904744500234,-0.12513068546399378,-0.09691432603916059
147,-0.1549573161382244,-0.14404749018179927,-0.18906494985851194,-0.1469888093282422
148,-0.2278493487878768,-0.215283765662287,-0.27787002408626293,-0.2171236155903599
149,-0.32732195420550647,-0.3140824529682083,-0.39819184976583594,-0.3131457771153338
150,-0.46039033372032506,-0.4481903853721673,-0.5575037250483599,-0.44191828119430626
151,-0.6351886676857657,-0.6266241807650541,-0.763944842487389,-0.6113711852139782
152,-0.8609907874183064,-0.8596407642924039,-1.0260711387963155,-0.8305011749367178
153,-1.1482022587495946,-1.1586408732053672,-1.3525140648637033,-1.1093363130357652
154,-1.5083237547092643,-1.535998180073195,-1.751549587017404,-1.4588646922616348
155,-1.953887166714425,-2.0048101951997364,-2.230587273376044,-1.8909278073122469
156,-2.4983668696202237,-2.5785713760005518,-2.7955968958861477,-2.418081369811096
157,-3.156068726205157,-3.270773682175514,-3.4504968853094153,-3.053427670864128
158,-3.9419987594614674,-4.094444910762348,-4.196534716257439,-3.810424166716864
159,-4.871712066770324,-5.0616401939078814,-5.03169361133596,-4.702672594229219
160,-5.961140710754656,-6.182906642856027,-5.950162671539798,-5.743691674060956
161,-7.226397193799583,-7.466744839691075,-6.941908545546801,-6.946674561990755
162,-8.683547853792064,-8.919093293391997,-7.992385864669147,-8.324229989542575
163,-10.348348263232383,-10.542862756954845,-9.082420699379826,-9.888103837190164
164,-12.235930724140681,-12.33754625232223,-10.18829602062797,-11.648876030089925
165,-14.360432604397682,-14.29892775754864,-11.282060465109161,-13.615626441046501
166,-16.734554011809117,-16.41890794358568,-12.332071651114076,-15.795563209787245
167,-19.36903458207326,-18.685459433436833,-13.30377320486026,-18.19360776352304
168,-22.2720422906444,-21.08271721596778,-14.160691169785869,-20.81193297960363
169,-25.448472351607283,-23.591202543394242,-14.865621553282702,-23.64945440635676
170,-28.899161421995615,-26.18817133287817,-15.381967603513765,-26.701279247377567
171,-32.62003125981482,-28.848071223412195,-15.675174209669114,-29.958123878704246
172,-36.60118623487655,-31.54308546111351,-15.714198569997068,-33.405717876579125
173,-40.826000002709556,-34.24373715629386,-15.47295150351972,-37.02422055128106
174,-45.270237419678466,-36.91952460920055,-14.931642578860663,-40.78768419453493
175,-49.90126751465642,-39.53955766776874,-14.077964326719673,-44.66360577611238
176,-54.67743107939773,-42.073166617815836,-12.908055830954709,-48.61261464123476
177,-59.54763115786673,-44.49045884384128,-11.42719362087822,-52.58834684474993
178,-64.45121533730025,-46.76280414064936,-9.650167803116696,-56.53755624403274
179,-69.31821433717673,-48.86323659289491,-7.601313580556764,-60.40050776116783
180,-74.06999137472091,-50.76676869353419,-5.314182460906074,-64.111689064499
181,-78.62034111204802,-52.450621061792646,-2.830853101169585,-67.6008634600099
182,-82.8770562162291,-53.89437796135865,-0.200898171529567,-70.79446958484372
183,-86.74395478718027,-55.08008415556786,2.5199600522305516,-73.61735349212917
184,-90.12333461679061,-55.99230203801937,5.271457491348369,-75.99479712905234
185,-92.9187921385622,-56.618149276209635,7.990598623754989,-77.8547854460098
186,-95.03831678192108,-56.947336441111126,10.61359877250564,-79.1304339240271
187,-96.39754701887964,-56.97222144473506,13.077881745812192,-79.76248064670114
188,-96.92305439049872,-56.68789332292538,15.324054373628147,-79.70173354289494
189,-96.5555078212631,-56.092292286607325,17.297781401087793,-78.91135527692009
190,-95.25256394053757,-55.186366383942435,18.95148926878796,-77.36886641881995
191,-92.9913309364642,-53.974258017367774,20.245834822775045,-75.06775264903874
192,-9.028744107812185e-11,-1.3909329306825004e-10,-8.944904476382434e-11,-1.0721028505728806e-10
193,-1.678751068137919e-09,-2.7522374831084806e-09,-1.945798477626121e-09,-2.263093069316771e-09
194,-1.8566528451352873e-08,-3.069137000676258e-08,-2.1676047193631067e-08,-2.4874488960590997e-08
195,-1.349704100726688e-07,-2.254337997655305e-07,-1.5981254844138054e-07,-1.8039593345088947e-07
196,-7.380309570344414e-07,-1.2421982794560929e-06,-8.831519876265721e-07,-9.792677634487019e-07
197,-3.246659991529669e-06,-5.492887264229198e-06,-3.914281996583956e-06,-4.258110589150521e-06
198,-1.2007905074407795e-05,-2.037142717631514e-05,-1.4540534314614924e-05,-1.5503703431240086e-05
199,-3.8520818263446696e-05,-6.538426241395486e-05,-4.670569258825677e-05,-4.8787318102514706e-05
200,-0.00010969391667321185,-0.00018593791282964144,-0.0001327951717166569,-0.00013590105413928717
201,-0.0002823081704568679,-0.0004771707932858677,-0.00034037117242657054,-0.0003414708973558041
202,-0.0006660888530198807,-0.0011214328088502172,-0.0007980987108574736,-0.0007857558134789716
203,-0.001457734296910122,-0.002442736712247416,-0.0017327043552687427,-0.0016765707896517171
204,-0.0029879298729371213,-0.004980755555635157,-0.003518137617664317,-0.00335134411310185
205,-0.005782884018404581,-0.009585844889125917,-0.006737333634492022,-0.0063297522756080695
206,-0.010641259532571109,-0.017535188133360184,-0.012256210910491372,-0.01137662483796634
207,-0.018726451136456483,-0.030668502582220893,-0.02130875950975076,-0.01957383763020091
208,-0.0316728180067966,-0.05153970577508845,-0.03559113144673498,-0.03239870089675303
209,-0.051702675711288365,-0.08357848250379542,-0.05736134950236387,-0.05180494582853368
210,-0.08174869012097238,-0.13125285019281116,-0.08953949888704178,-0.08030092107992075
211,-0.1255740432317829,-0.2002208048490576,-0.13580117311482495,-0.12101819202839952
212,-0.18788059010174904,-0.29745625737527065,-0.20065488013609334,-0.17776259510610656
213,-0.2743933396607484,-0.43133210383757503,-0.28949259982966324,-0.2550391126330775
214,-0.39190808495795876,-0.6116418042531783,-0.40860218496022715,-0.3580418202600077
215,-0.5482880387075024,-0.8495406309260476,-0.5651310007801099,-0.4926006663324584
216,-0.7523952185056244,-1.157389161355927,-0.7669919531278845,-0.6650780241449139
217,-1.013943437410434,-1.5484849029860255,-1.0227054891986633,-0.8822098881156591
218,-1.3432624000326856,-2.036673284100652,-1.3411739429317886,-1.1508893463693448
219,-1.7509666475436783,-2.6358364698213657,-1.7313876554938594,-1.4778935350517028
220,-2.2475287903200654,-3.359267144337849,-2.2020658309337255,-1.8695595049619578
221,-2.8427632636940663,-4.218943880509309,-2.7612393710465337,-2.331419005594463
222,-3.5452343169475973,-5.224734267159142,-3.415788065263033,-2.8678067388183974
223,-4.36160959513878,-6.3835609022223,-4.170950176488092,-3.48146075064181
224,-5.295987961482141,-7.698573071517292,-5.029827954285345,-4.173136904110988
225,-6.349236592551616,-9.168372884392545,-5.992917039996249,-4.941261452432496
226,-7.5183773312882805,-10.786348266991002,-7.057690331621185,-5.781646347005995
227,-8.79606536159631,-12.540165987596575,-8.21826719039363,-6.687290974272638
228,-10.17020406792944,-14.411475291654057,-9.465196774394762,-7.6482915450208
229,-11.623738140983452,-16.37586641454623,-10.785379951353992,-8.651875459514862
230,-13.134662282033771,-18.40311807651685,-12.162148053716855,-9.682572721903135
231,-14.676275037565901,-20.457754244987534,-13.575509209029882,-10.722529969728335
232,-16.217696279983002,-22.499913511484333,-15.002564625039907,-11.75196507958432
233,-17.724652879400534,-24.486515325482245,-16.4180884379334,-12.749751949688926
234,-19.16052083109495,-26.372687359964214,-17.79525577984432,-13.694116486245216
235,-20.487594637216652,-28.113399000017758,-19.10649473847583,-14.563416720731079
236,-21.668537525592082,-29.665228972569523,-20.324429131563306,-15.336973087442264
237,-22.667950615194542,-30.988181920607893,-21.42287105004083,-15.995909817769908
238,-23.453986723794436,-32.04746042815696,-22.377815806013142,-16.523965606295953
239,-23.999926113872224,-32.81509633395417,-23.168388249448114,-16.908231382525905
240,-24.28562772573972,-33.27134843536023,-23.777689215711515,-17.139775205954397
241,-24.2987706752051,-33.405782741939504,-24.193494504420773,-17.214118874912646
242,-24.035807114131693,-33.21796584135576,-24.40876609414014,-17.13153761547071
243,-23.502558827157696,-32.71772094197506,-24.421945622358344,-16.89716290035545
244,-22.714405810550097,-31.924918829669778,-24.237012601689127,-16.52087860184379
245,-21.696034900916366,-30.868801172314193,-23.86330342064385,-16.017011677193537
246,-20.48073939429687,-29.586859956535385,-23.315100957866125,-15.403829659027405
247,-19.109285322181517,-28.123322740443484,-22.611017763541145,-14.702867597319607
248,-17.62838517828315,-26.52731704591628,-21.773207411241774,-13.938116089286213
249,-16.088843776786238,-24.850806802640918,-20.826448011853188,-13.135109132058169
250,-14.543461847531667,-23.146407696272895,-19.79714830906814,-12.319955389845362
251,-13.044799331662517,-21.465195435591806,-18.712329785883636,-11.518358875059807
252,-11.642910789021585,-19.854620788780863,-17.598637707529562,-10.754674900660735
253,-10.383168954936824,-18.356637840240612,-16.481430276771263,-10.051044476233194
254,-9.304288930125928,-17.006137978833834,-15.38398857276277,-9.426645214430044
255,-8.436654999146393,-15.829762824145224,-14.326881207668867,-8.897089541265412
256,-8.369735489793618e-11,-1.0408190493367586e-10,-9.143825075594269e-11,-3.5393950007483334e-11
257,-1.7659537293960675e-09,-2.225337011423867e-09,-1.863730048919894e-09,-7.796804424914261e-10
258,-1.9437371041062675e-08,-2.4773195456182338e-08,-2.1044452953326098e-08,-9.241965576017179e-09
259,-1.414929640773425e-07,-1.823499215051129e-07,-1.5654270991139356e-07,-7.219246628747014e-08
260,-7.716944002989632e-07,-1.006484825087735e-06,-8.725342339040696e-07,-4.2146342518885976e-07
261,-3.3748091741504846e-06,-4.457106874740401e-06,-3.898904188812146e-06,-1.9666986549952533e-06
262,-1.2370867677362929e-05,-1.6548942549356725e-05,-1.4600603583933513e-05,-7.663672756499853e-06
263,-3.922871961657334e-05,-5.3152310035555106e-05,-4.729127246462928e-05,-2.572471026622857e-05
264,-0.00011020055029481014,-0.00015117458494085865,-0.000135666140702127,-7.614175877503425e-05
265,-0.00027939819304888394,-0.0003877709013227632,-0.0003511286219924191,-0.00020239843425024734
266,-0.0006489648681254403,-0.000910278855124751,-0.00083207712368936,-0.0004903723754883071
267,-0.001397950595820906,-0.0019791631063039695,-0.0018270539549962539,-0.0010961832066846582
268,-0.0028212082093513626,-0.004025460196893735,-0.003753965314259964,-0.0022841760622739665
269,-0.005379248601189802,-0.007723183490281887,-0.007276427998505906,-0.004475511807066107
270,-0.00975953401255107,-0.014075995356985328,-0.01339681762114155,-0.008307119224020205
271,-0.01694910087629139,-0.0245162078165133,-0.02356392904270504,-0.014700113935748485
272,-0.028317601652903045,-0.04101275661580849,-0.03979136433028506,-0.024936155054534153
273,-0.04570878266828947,-0.06618310968954791,-0.06478084217642473,-0.04073951061913899
274,-0.07153709012540437,-0.10340207923887997,-0.10204259121396454,-0.06436177224643931
275,-0.10888463876257921,-0.1568983374771952,-0.15600292559214637,-0.09866517634469654
276,-0.16159236340025118,-0.23182740910078387,-0.23208714811975215,-0.14719936601644965
277,-0.23433797054678937,-0.33430847190385926,-0.3367642551260148,-0.21426523346434923
278,-0.3326924190034076,-0.4714118776946409,-0.47753879798612126,-0.3049583847901074
279,-0.46314610087044455,-0.651085189572655,-0.6628750659706099,-0.42518402596809624
280,-0.6330956959298851,-0.8820078002781856,-0.9020399757540233,-0.5816349849825203
281,-0.850783030695565,-1.1733677180673865,-1.2048540872174036,-0.7817254403186008
282,-1.1251787067180585,-1.5345586104809292,-1.5813451874655065,-1.0334749791151754
283,-1.4658065251269914,-1.9748003120228503,-2.0413056862604795,-1.3453411115684923
284,-1.882510482074286,-2.502691347904398,-2.5937630983441187,-1.7260035115917671
285,-2.3851743549116087,-3.125707268920376,-3.2463813579178598,-2.1841098944414585
286,-2.983413540068521,-3.8496635338058693,-4.004818766834811,-2.728000744581913
287,-3.6862675307600252,-4.678166274355626,-4.872075259007561,-3.365436404780623
288,-4.501926308390273,-5.612078543872419,-5.847866780035917,-4.103353247846337
289,-5.437522762781704,-6.649033420517477,-6.928067578703133,-4.947674261648685
290,-6.499016094091722,-7.783028008714727,-8.10426188293739,-5.903193500561287
291,-7.691180924442326,-9.004132889731244,-9.363444651095843,-6.973545653636859
292,-9.01770817021233,-10.298348732002207,-10.687906654268902,-8.161264801795053
293,-10.481419987943426,-11.647634978094962,-12.055331909145732,-9.467932832457755
294,-12.084601708391293,-13.030125323864587,-13.439125522745181,-10.894417722111232
295,-13.829453683195156,-14.420532834894452,-14.8089778349447,-12.441201622981914
296,-15.718658942802438,-15.790736227457192,-16.13165719114881,-14.108793800339274
297,-17.75604474539111,-17.110529730983984,-17.37200971696908,-15.898211136740926
298,-19.947289041992967,-18.34851240758771,-18.49413096913973,-17.81149011707973
299,-22.3005930329981,-19.473087938943927,-19.462662015270176,-19.852173532790463
300,-24.827216837350676,-20.453541373340872,-20.24415204069922,-22.02569880594368
301,-27.541763997250296,-21.261154379125838,-20.808421831955684,-24.339608071949712
302,-30.462105503677332,-21.870315579901902,-21.129858534497338,-26.803505330195385
303,-33.608854138349734,-22.259578990248983,-21.18857300824979,-29.428702000189528
304,-37.00433052831579,-22.412623173463565,-20.97135753537079,-32.22751541657231
305,-40.67099740720602,-22.319067589871416,-20.472393254331763,-35.21221047561089
306,-44.629373471541804,-21.97511052998036,-19.69367215148484,-38.39359894627344
307,-48.89547128700725,-21.38396364157032,-18.645115653421524,-41.779332215256936
308,-53.47783637995686,-20.55606938233952,-17.344388717960484,-45.37194233529516
309,-58.37429957879707,-19.50909795029677,-15.816423373627577,-49.166705679914905
310,-63.56859320171316,-18.267728208011288,-14.092678434212496,-53.149425521243444
311,-69.02702234084425,-16.863222458524405,-12.210172876095701,-57.2942546448128
312,-74.69542099100815,-15.332807942661555,-10.210339389496735,-61.561704074978
313,-80.49665311340318,-13.71887938294422,-8.137751624443286,-65.89700423419706
314,-86.32893430987593,-12.068037791609422,-6.038782726437495,-70.22899483136337
315,-92.06524441711474,-10.429981992224445,-3.9602529354467353,-74.46971498095363
316,-97.55407052736294,-8.856271387676006,-1.9481200473280216,-78.51484341011982
317,-102.62166257092211,-7.398981417028827,-0.046259171340819874,-82.24510097360884
318,-107.07590280199051,-6.10927650426337,1.7046311455891927,-85.52867740625756
319,-110.7117930117366,-5.03592874375906,3.2679694013263534,-88.22468582667565
320,3.695494841042518e-10,-3.5594403097862733e-10,3.723688099394387e-11,2.5812110331746603e-10
321,8.275394391321485e-09,-7.659302452680307e-09,8.386687157104134e-10,5.862688033109248e-09
322,8.962804102802446e-08,-8.255608004947444e-08,5.0755312129012925e-09,6.721849833330142e-08
323,6.398193294492085e-07,-5.875524625546602e-07,8.924844997137428e-09,5.048278255702818e-07
324,3.3924987727972506e-06,-3.1191605693716037e-06,-1.0183992208964633e-07,2.8067248721082154e-06
325,1.4295628194722977e-05,-1.3226911603466828e-05,-1.079468699504662e-06,1.2370773445500058e-05
326,5.0032197992902006e-05,-4.685352434729875e-05,-6.157425708246005e-06,4.520455692117251e-05
327,0.00015011204272271367,-0.00014316803219059413,-2.601988655794586e-05,0.00014145358941581947
328,0.0003956043367633627,-0.00038672281680816287,-8.97874268347745e-05,0.00038860904628150407
329,0.0009338621330185511,-0.0009415064643621726,-0.00026574572512203215,0.0009562605598645441
330,0.002006986587821199,-0.00209871095358157,-0.000695746100441809,0.002142853610753057
331,0.003981464970665196,-0.004339301773317092,-0.0016467108084678391,0.004434020379917131
332,0.007377796768946954,-0.008412014567357776,-0.003581711217196229,0.008572208717018548
333,0.012901217478594792,-0.015427110416170703,-0.007251973211772384,0.015638135464743477
334,0.021476410697943933,-0.026965755195855555,-0.013809930494671892,0.027144948774885228
335,0.034289207073051706,-0.04520388679520868,-0.02494183227366623,0.045144818564791835
336,0.05283643758217321,-0.07304766676105101,-0.04301606068202913,0.07234454474424232
337,0.0789820230482692,-0.11427507043006865,-0.07124019479465059,0.1122221716592277
338,0.11501419450454238,-0.17367505691419183,-0.11381640169462208,0.169131739575971
339,0.16369639082006784,-0.2571724962933741,-0.17608163624208853,0.24837956415300694
340,0.22830322242922194,-0.37192417859446153,-0.26461696470271434,0.3562537764835452
341,0.31263287993054883,-0.5263694023662155,-0.38730923036659376,0.4999896055981761
342,0.4209885425745736,-0.7302183675651444,-0.5533481285425922,0.687655954987497
343,0.5581238462825457,-0.9943630942881078,-0.7731424727869243,0.9279538662179506
344,0.7291510598967879,-1.330698643725025,-1.0581413004699756,1.2299238615121382
345,0.9394142600229151,-1.751846486841511,-1.420548977925906,1.602565967285158
346,1.1943320001931033,-2.270776461206948,-1.872929032841387,2.0543824590721043
347,1.4992137723221362,-2.900328733123208,-2.4276989830812905,2.592858508266896
348,1.8590522958526272,-3.652642755870871,-3.09652733576539,3.2239001458994117
349,2.278290971215491,-4.538506655491914,-3.889653176033215,3.951253004339569
350,2.760564781769018,-5.56664783956858,-4.815157314369641,4.775929801844011
351,3.30841504254329,-6.742993593966032,-5.878221125378659,5.695679614114076
352,3.9229839668902273,-8.06993830452341,-7.080414735781953,6.704536941931347
353,4.60370290885087,-9.545660679957543,-8.41906006804188,7.7924919828542025
354,5.347996011308529,-11.163538752071798,-9.886716094475547,8.94532338912325
355,6.151026057018528,-12.911711428105939,-11.470832762614696,10.144629371766115
356,7.005509439154757,-14.772832338631392,-13.15361545318395,11.368081526938669
357,7.901621915741072,-16.724054639870694,-14.912132963627691,12.589909074972587
358,8.827007807035388,-18.737274783930598,-16.718689098424093,13.781601725471218
359,9.766895547054917,-20.779649893579542,-18.541462131529446,14.91280036100939
360,10.704315028028844,-22.814388204166868,-20.345399374144865,15.952329213372037
361,11.620408671295632,-24.801795979168805,-22.09333754578272,16.869313065503974
362,12.494828398339898,-26.700548206041407,-23.747304922597653,17.63431858476335
363,13.30621287438602,-28.469135046159323,-25.26994900583704,18.220459248035667
364,14.032741167442811,-30.06742232132208,-26.62602393961878,18.604407088910783
365,14.652758300283676,-31.4582532136445,-27.783865127807193,18.767260599851827
366,15.145464078742652,-32.609010790580655,-28.71677468294476,18.695226127118254
367,15.491649335140409,-33.49305776036433,-29.40424105357759,18.38008004787336
368,15.674454761859542,-34.090971627836296,-29.83292028247375,17.8193911026635
369,15.680118983685901,-34.391500478696734,-29.997315550934648,17.01649639714693
370,15.498676653230227,-34.39217694904711,-29.90010612877973,15.98024025503111
371,15.124565727530959,-34.09954506664348,-29.552095870589902,14.724501226269226
372,14.557106162999862,-33.5289756753019,-28.97177349304454,13.26754762509371
373,13.80081928630394,-32.70406978536818,-28.184500007203948,11.631274249371883
374,12.865566372409997,-31.655673846048323,-27.221360753536608,9.840380671536707
375,11.766494432241164,-30.420554775508798,-26.117738728023998,7.9215532639173745
376,10.523785179769819,-29.039803626170894,-24.911681114017416,5.902708142453732
377,9.162208893642335,-27.55705314987705,-23.642141633895257,3.812340745315724
378,7.710488939083269,-26.016604889968168,-22.347187431099425,1.679011249110317
379,6.200486568658551,-24.461565186696962,-21.062260858515955,-0.46902411800072213
380,4.666220976084525,-22.93208685764842,-19.818583986331063,-2.6040447907625346
381,3.1427475101798628,-21.46380506556431,-18.64178703938189,-4.698985828407082
382,1.664927411817305,-20.086542954358602,-17.55083152992478,-6.7274831143886455
383,0.26613423363960914,-18.823345917971896,-16.557284839975445,-8.663887057157066
384,-3.169687282964893e-11,-7.856384316272128e-11,-1.0818581641773493e-10,-2.1069681509381312e-11
385,-6.910947565944449e-10,-1.6700206102232619e-09,-2.017266360833954e-09,-4.860047702560411e-10
386,-7.93871923043156e-09,-1.875055196812897e-08,-2.255643715087796e-08,-5.895136601704232e-09
387,-6.026589312434376e-08,-1.3920223743701412e-07,-1.6436323777538332e-07,-4.7292053478129324e-08
388,-3.4258483823204114e-07,-7.744303120473088e-07,-8.998574848382523e-07,-2.8390704151637677e-07
389,-1.5606549742581078e-06,-3.4545058798145416e-06,-3.956378198986378e-06,-1.3633025037530271e-06
390,-5.9568758310773135e-06,-1.2912725928670261e-05,-1.4595944667178778e-05,-5.467023561515935e-06
391,-1.9664414201640228e-05,-4.173480682062632e-05,-4.661413371160246e-05,-1.8874224489217694e-05
392,-5.7504403805429406e-05,-0.00011941813682075915,-0.00013191251515867674,-5.7394779281086715e-05
393,-0.00015178335031608688,-0.00030813895916045615,-0.0003368623349433581,-0.00015651785654442857
394,-0.000367080004290112,-0.0007277168621082741,-0.0007877135764451724,-0.0003884061442413533
395,-0.0008233349961750489,-0.0015921379258112224,-0.0017069843253252265,-0.0008878103088544445
396,-0.0017296559900605568,-0.0032595643493969814,-0.0034620876445188437,-0.0018885816185024442
397,-0.003431018737920312,-0.006297080620950479,-0.006626481478610105,-0.0037718394942660625
398,-0.006469441508021258,-0.011560538524070922,-0.012052388128269552,-0.007126142442716009
399,-0.011660312528883656,-0.020288760515283638,-0.020952716352386255,-0.01281928904309583
400,-0.02018349976122684,-0.03420999566816366,-0.0349883588506535,-0.022080623730848816
401,-0.03368778615805571,-0.05565686962492403,-0.056355651651115106,-0.03659187290463737
402,-0.05440605786092899,-0.08768415598305017,-0.08786754670825656,-0.0585835141930164
403,-0.08527743379800823,-0.13418163072123465,-0.13302091393375493,-0.09093244041446456
404,-0.1300710417409218,-0.19997223335331069,-0.19604134715191568,-0.13725524725467086
405,-0.19350437644787916,-0.29088399313931296,-0.2818959701700593,-0.20198999759580488
406,-0.2813472259690019,-0.41378299029475524,-0.3962643338408829,-0.29045806645726324
407,-0.4005002875463251,-0.5765543194754766,-0.5454579650427351,-0.4088969537637439
408,-0.5590361883794635,-0.788018861404517,-0.7362809034584823,-0.5644549792674828
409,-0.7661900562191475,-1.057775764030366,-0.975826815134583,-0.7651395798427509
410,-1.0322873262243493,-1.395963862533368,-1.2712128887852303,-1.019712413126468
411,-1.3685982109100274,-1.8129396789345844,-1.6292562379930642,-1.337526502146716
412,-1.7871110920431337,-2.3188749250509946,-2.0561043241111068,-1.728303159834984
413,-2.300220776067084,-2.9232823114267608,-2.556836374944456,-2.2018493854299814
414,-2.9203318313957265,-3.6344845924978757,-3.135057408688952,-2.7677197883297335
415,-3.6593819004461796,-4.459047725464408,-3.7925099728988116,-3.4348307501635373
416,-4.528294824822029,-5.401204301889286,-4.528730778537253,-4.211038263449764
417,-5.536378516378757,-6.462297567080903,-5.340779788044169,-5.102694383189558
418,-6.6906875775724775,-7.640278983012525,-6.22306770808643,-6.114200163106038
419,-7.99537548243252,-8.929293136124786,-7.167304106550265,-7.247575043964642
420,-9.45106537973985,-10.31938264180669,-8.162582534369138,-8.502063773665865
421,-11.054271940094898,-11.796342433322302,-9.1956113596383,-9.873802080223012
422,-12.796908771600005,-13.341747391633836,-10.251089920965878,-11.355561577168233
423,-14.665916403567486,-14.933169740797922,-11.312219651087606,-12.936592798095429
424,-16.643044349364455,-16.544593233149165,-12.361329663750592,-14.60258275359811
425,-18.704817076566695,-18.147020356648905,-13.380586643386874,-16.335739836641235
426,-20.822707753769226,-19.709257348756704,-14.352750497085877,-18.115014198142788
427,-22.96353553112605,-21.19885062101072,-15.261930863977758,-19.916455989225902
428,-25.090092201045874,-22.583138246676224,-16.094296005477673,-21.713707434690246
429,-27.161992958964756,-23.830372240507707,-16.838685476306498,-23.478618003111254
430,-29.13673435133353,-24.910861999752708,-17.487081806109853,-25.181965433958787
431,-30.97093103763216,-25.798086715798135,-18.034904302793603,-26.794259484071564
432,-32.621692237950285,-26.469724835373317,-18.48109967595254,-28.28660029989023
433,-34.048089077634714,-26.90855164858888,-18.828018576777957,-29.631559557670677
434,-35.21265584532813,-27.103161654752117,-19.081083127881485,-30.80405012047722
435,-36.08286191024815,-27.048480277294324,-19.248266619878635,-31.78214905982728
436,-36.632487282046746,-26.74603943526874,-19.33942133105384,-32.54783956014682
437,-36.84283416052823,-26.204002931591667,-19.365502574599827,-33.08763948546878
438,-36.7037098297382,-25.43693992378243,-19.337745534169738,-33.39308818261476
439,-36.21412316803828,-24.465357098683224,-19.26685558918051,-33.461068282388325
440,-35.38264780466786,-23.315011736008373,-19.162272417485415,-33.29394565580108
441,-34.22741912755957,-22.016037847184702,-19.03156335349235,-32.89951809931509
442,-32.77574921273459,-20.60192541436305,-18.879992602785112,-32.290771578109066
443,-31.06336237033033,-19.10839806689649,-18.7103004456075,-31.48545169990473
444,-29.13327335027951,-17.57223720108612,-18.522711087674427,-30.505467122492345
445,-27.034349243267055,-16.030100679953538,-18.31517016767679,-29.376150220953402
446,-24.819613659349557,-14.517382112727846,-18.083794286835822,-28.12540783023264
447,-22.54436677516895,-13.067152660604009,-17.82349683086172,-26.782800516065684
448,-2.555135952379241e-10,-1.1252110549576843e-10,-5.3121428659192215e-11,-1.2715375876786993e-10
449,-1.6498222592152903e-09,-2.124184448917098e-09,-7.769187038073534e-10,-2.5939433286906206e-09
450,-2.21287738197543e-08,-2.3931409414285964e-08,-8.914097332382734e-09,-2.8999219876989248e-08
451,-1.6510177447866125e-07,-1.7708831528770748e-07,-6.609145127233221e-08,-2.1321747542568496e-07
452,-9.325892047402592e-07,-9.84257981839041e-07,-3.700143240856957e-07,-1.1758798943352948e-06
453,-4.222701871991029e-06,-4.393215566390923e-06,-1.6697135858810624e-06,-5.203126808686477e-06
454,-1.6001870010893963e-05,-1.6453828517340194e-05,-6.350335466536031e-06,-1.9305469338768756e-05
455,-5.236758692227393e-05,-5.3341701584316084e-05,-2.100038727533881e-05,-6.1974586455015e-05
456,-0.00015146833361213218,-0.00015320540866905168,-6.180254264714922e-05,-0.00017622075447956098
457,-0.00039434559507815504,-0.0003969625824129404,-0.00016475785851043247,-0.0004520197328606882
458,-0.0009378059699603148,-0.0009414243717014151,-0.0004034157277343996,-0.0010613898085403497
459,-0.002062036172181468,-0.0020678652858349806,-0.0009172188333868942,-0.002308872370245515
460,-0.004234741336393584,-0.004248355556310804,-0.0019535027593468503,-0.0046992457132651756
461,-0.008192492036327477,-0.008230952552118809,-0.0039254566077360515,-0.00902303947689439
462,-0.015038591411943867,-0.015143308583963335,-0.007486981750322581,-0.01645898776929585
463,-0.0263552462614985,-0.02661249172833914,-0.013623647990320674,-0.02869105486969905
464,-0.044325839665871,-0.044896846534613205,-0.02375716664035481,-0.048036029989213504
465,-0.07186072454102731,-0.0730235574124949,-0.03985919958520248,-0.07757581287845039
466,-0.11271732672619375,-0.11492324648937129,-0.06456890338006407,-0.12128630085919694
467,-0.17160271211530037,-0.17555053277911348,-0.1013071889837561,-0.18415231062879053
468,-0.254244707453586,-0.260977226197406,-0.15437902225333,-0.2722555009343763
469,-0.3674163561441276,-0.37844304239303167,-0.22905314246845115,-0.39282026133679654
470,-0.5188984399972961,-0.5363478329000548,-0.33160658571853174,-0.5542015449296575
471,-0.717366017994355,-0.7441697172746711,-0.4693199300251361,-0.7657990997869674
472,-0.9721877613882831,-1.012295498942979,-0.6504089670377643,-1.0378847891922034
473,-1.2931311550334395,-1.3517534621624632,-0.8838801417440372,-1.3813337077229666
474,-1.6899725460444472,-1.7738440579668608,-1.1793008411017036,-1.807255420359548
475,-2.172018169389747,-2.2896708526048286,-1.5464811687043143,-2.326528493272963
476,-2.7475504601716287,-2.909582043626776,-1.995070528466922,-2.9492490927498127
477,-3.4232224859420888,-3.6425412575957936,-2.53407929384824,-3.684112284713382
478,-4.203431465509018,-4.495454527704095,-3.171342397665891,-4.53775224428379
479,-5.0897093299175,-5.4724875825434385,-3.9129475466659964,-5.514074346831763
480,-6.080173139968656,-6.574413175678689,-4.762655890363694,-6.613617504215763
481,-7.169080381044331,-7.798031626124356,-5.721347323682246,-7.832988633740982
482,-8.346532976186463,-9.135708607777374,-6.786525875127736,-9.164412334168526
483,-9.59836921472269,-10.575072274458131,-7.951922280757054,-10.595437324508998
484,-10.906274503845474,-12.098906870225399,-9.207230162377204,-12.108836667828815
485,-12.24813042863151,-13.685272046277037,-10.53800868004255,-13.682731124491708
486,-13.598607468622042,-15.307866312164519,-11.925777912627503,-15.290954255471028
487,-14.92999078183066,-16.93663979179955,-13.348323817877512,-16.90366460085372
488,-16.213211709094068,-18.538646403902433,-14.780218018685288,-18.488195184264146
489,-17.419041146124776,-20.07910974384943,-16.193544608072667,-20.01011479640195
490,-18.519386110371563,-21.522661529295316,-17.558812457133033,-21.434460137695414
491,-19.488618792710575,-22.834697777538846,-18.846018037090083,-22.72708408983978
492,-20.304859534398442,-23.98278711841944,-20.025811586794998,-23.8560542474235
493,-20.951132317535883,-24.93805873339009,-21.070709662637306,-24.793028380033295
494,-21.41631441126566,-25.676494971127667,-21.956290694538378,-25.51453058729834
495,-21.695810836295635,-26.18005597561306,-22.662307777462104,-26.00305408255975
496,-21.7918991870721,-26.437570668608707,-23.173654808437817,-26.247923878892262
497,-21.713709964177802,-26.445339839232236,-23.481128057120998,-26.24586468710285
498,-21.476830653423004,-26.20741233606612,-23.581934903227374,-26.00123520727835
499,-21.102546471813085,-25.735513500071608,-23.479914181568642,-25.52590855715284
500,-20.616755101297525,-25.048624813925006,-23.18544773848151,-24.83879860653165
501,-20.04861506030483,-24.172233836790223,-22.715059757317878,-23.965052219200604
502,-19.42900574430094,-23.137292370900855,-22.090718364516434,-22.934946632144005
503,-18.788890370699168,-21.978937133276894,-21.33887195136903,-21.78254828782646
504,-18.157679872134835,-20.735039894393285,-20.489269242938505,-20.54420330883811
505,-17.56169587270976,-19.444662380077766,-19.57362605641872,-19.256939549857332
506,-17.02282411744849,-18.14649481799025,-18.624211674412713,-17.95686504702722
507,-16.557436770900143,-16.877355800467456,-17.672432945210897,-16.67764730479227
508,-16.17564380418191,-15.670825360250502,-16.74749416990146,-15.449152180341752
509,-15.880911616294494,-14.55607330924596,-15.875205556929538,-14.296310523535228
510,-15.670062748086934,-13.556931711686184,-15.077002969354103,-13.238265980243622
511,-15.533645888138954,-12.69124481049068,-14.369227713858345,-12.287839601001558
512,-1.020036310658674e-10,-9.096819944857865e-11,-9.66381906113392e-11,-1.1345952619837336e-10
513,-2.139251655964616e-09,-1.931948408881111e-09,-1.886527845617655e-09,-2.4522091008737673e-09
514,-2.353291771158747e-08,-2.1354337683967414e-08,-2.0954635112069137e-08,-2.770289144598012e-08
515,-1.714810583118133e-07,-1.562035710041777e-07,-1.534820439640851e-07,-2.0639087272290778e-07
516,-9.380757014692838e-07,-8.563077540305376e-07,-8.446659580075583e-07,-1.1508196088983899e-06
517,-4.123452775105253e-06,-3.7649693844153137e-06,-3.7353991508179996e-06,-5.138242881017858e-06
518,-1.5224206867851625e-05,-1.3877478882490023e-05,-1.3869645287356317e-05,-1.9199307856361877e-05
519,-4.871933223131119e-05,-4.42539133629052e-05,-4.460095715793999e-05,-6.195546238110455e-05
520,-0.00013834526032732082,-0.0001250186198249813,-0.00012712695909997249,-0.00017680610429197604
521,-0.0003550155469858579,-0.0003187356400916837,-0.00032703137752183333,-0.00045459190462498686
522,-0.0008353448810489472,-0.00074436199475406,-0.0007703642979317463,-0.0010689645845990844
523,-0.0018236924322717184,-0.0016118320711008792,-0.0016816173318753287,-0.0023273329462597963
524,-0.0037302389254054167,-0.0032689543021931925,-0.003435519323925647,-0.00473948506453196
525,-0.0072069114977392325,-0.006261757859411561,-0.006624001000182023,-0.009104903163782851
526,-0.013241987954173227,-0.011408715322731473,-0.012138943218121511,-0.016618428496833117
527,-0.02327288792102819,-0.01988835384097423,-0.021270316649820088,-0.028992300552284862
528,-0.03931486198402897,-0.03333860015861659,-0.03581786286565142,-0.04859066404963555
529,-0.06410095229482565,-0.053964770043918794,-0.05821250936722884,-0.07857042192683557
530,-0.10122581578004872,-0.08465144109788338,-0.0916413754306814,-0.12301987793008906
531,-0.15528309098976986,-0.12907163100913494,-0.1401678026065647,-0.18708410939024522
532,-0.2319833950919921,-0.19178488026049703,-0.20883564667936436,-0.27706372026954545
533,-0.33823817323291044,-0.27831419448171535,-0.3037453230569661,-0.40047192887633776
534,-0.4821937573866136,-0.3951905696639784,-0.4320879485647056,-0.5660342775288811
535,-0.6732002194003122,-0.5499532505338527,-0.6021234882245095,-0.7836159472323344
536,-0.9217009501462409,-0.7510941931244194,-0.8230893445321381,-1.0640638943375371
537,-1.23903140837558,-1.0079365716659363,-1.1050276605829432,-1.4189547766145836
538,-1.637119268637521,-1.3304396434477879,-1.4585230814477885,-1.8602447618173963
539,-2.1280833403899524,-1.7289258041548439,-1.894347885318424,-2.399823558428416
540,-2.7237350950673345,-2.2137300959493897,-2.4230179327927717,-3.0489820378811547
541,-3.4349941718649184,-2.794777564178494,-3.0542701107380656,-3.8178101836209652
542,-4.271237351167079,-3.481099427332244,-3.7964790998503,-4.714549297494669
543,-5.23960850441098,-4.280304675521156,-4.656037779092415,-5.744928898025793
544,-6.344324158115228,-5.198029030871848,-5.636731072642727,-6.911524034439352
545,-7.586014784972626,-6.237387759207496,-6.739137436650293,-8.213172293714933
546,-8.961145103355998,-7.3984622167784275,-7.960095327164169,-9.644491050722424
547,-10.461557048062273,-8.677851919325493,-9.292273578289697,-11.195534041827962
548,-12.07417635454438,-10.068324060917556,-10.723884109809328,-12.851621859620801
549,-13.780917779739141,-11.558590584446952,-12.238572181062793,-14.593373535610294
550,-15.558815025246359,-13.133238983848655,-13.815513042857942,-16.396956387293407
551,-17.38038990845606,-14.772837001306105,-15.429734243304338,-18.23455941980948
552,-19.214261982193616,-16.45422343757489,-17.052670446199585,-20.075082587655647
553,-21.025985546631034,-18.15098779118948,-18.65294336361382,-21.885020997826484
554,-22.779086783413433,-19.834130923473715,-20.197344532288035,-23.629510524747932
555,-24.436260483735957,-21.472888083929497,-21.651984464421094,-25.273490141922043
556,-25.96067438843452,-23.03568516407353,-22.98355930420044,-26.78292737973589
557,-27.317320282361063,-24.491189729776618,-24.16067634451008,-28.126047461279867
558,-28.474345402716647,-25.80941093037,-25.155173176399117,-29.274504497793775
559,-29.404296031536898,-26.962797407120984,-25.94336221496201,-30.204435003464013
560,-30.085207768060965,-27.927280278645984,-26.50713312995407,-30.897339896812255
561,-30.501484031331206,-28.683209401047257,-26.83485042703644,-31.34075064183112
562,-30.644515562616682,-29.21613539457204,-26.921992032643608,-31.528647487947936
563,-30.513008384622864,-29.51739716531103,-26.771486904862307,-31.46161196241339
564,-30.113004761973702,-29.584484391862883,-26.393724850323224,-31.14671088896483
565,-29.457599849028107,-29.42115605756999,-25.806229069089646,-30.597124298191638
566,-28.56637445143375,-29.03730881198006,-25.03300055614042,-29.83154368394977
567,-27.464580276997584,-28.448601876774344,-24.103562295168867,-28.87337917772236
568,-26.1821270321399,-27.675857522209593,-23.051748964968496,-27.749823442268124
569,-24.752429887933182,-26.744267090065684,-21.914303270700263,-26.4908257227083
570,-23.211180708089852,-25.682441552706486,-20.72935163668998,-25.128031143555273
571,-21.595106882844284,-24.521352275367736,-19.534838779836836,-23.693738018678914
572,-19.94077786569498,-23.293211715017314,-18.367002098038366,-22.219920064465676
573,-18.283512100682888,-22.030345054110683,-17.258962994040388,-20.737351745532635
574,-16.656426759386626,-20.764102132121632,-16.239503880703555,-19.274864533624523
575,-15.089660537460995,-19.523854564911044,-15.33208760206546,-17.858750665461077
576,-1.1851431081130847e-10,-8.234532194286783e-11,-9.042469457367619e-11,-1.0807754140746364e-10
577,-2.09274881152707e-09,-1.7092103640538803e-09,-1.938332386470231e-09,-2.2142850898612265e-09
578,-2.4496697343843857e-08,-1.9311774304436143e-08,-2.148615373633032e-08,-2.4754026255419317e-08
579,-1.8565383114476187e-07,-1.4382517205029914e-07,-1.5771747338610489e-07,-1.8211035175359196e-07
580,-1.0558585587122498e-06,-8.018294612613749e-07,-8.677353609439626e-07,-1.0053755096601022e-06
581,-4.813786871919173e-06,-3.5801057430540555e-06,-3.829439351960302e-06,-4.455499314345697e-06
582,-1.8377038679802807e-05,-1.3381132954894178e-05,-1.416895268126435e-05,-1.6564712647888092e-05
583,-6.058782881340487e-05,-4.3209039932679036e-05,-4.5358664339006036e-05,-5.330534013998614e-05
584,-0.00017653119846043082,-0.00012344495849789288,-0.00012864173116571378,-0.0001519897749220892
585,-0.00046279450345352896,-0.0003179027792640768,-0.0003292580327787097,-0.0003910355477613735
586,-0.001107528951928875,-0.0007491326308974521,-0.0007719076983226617,-0.0009210536573784204
587,-0.002448377710504914,-0.0016353259856541158,-0.001677754737748705,-0.0020098210913650424
588,-0.005049769238165405,-0.00334079798693957,-0.003414890282125179,-0.004102789644018946
589,-0.00979912911396819,-0.006441440001765128,-0.006563626105044868,-0.007899529957205683
590,-0.018019592466704988,-0.011805762024598826,-0.011997289668841454,-0.014445097447555913
591,-0.03159502854004456,-0.020691145085523076,-0.02097824470547331,-0.025233870892511515
592,-0.05310149703513449,-0.03485359755902596,-0.035267488145887496,-0.04232192787035759
593,-0.08593739056545296,-0.05666757082471909,-0.05724426100773899,-0.06844238505058556
594,-0.13444219103796462,-0.08925021659940922,-0.09002971135109383,-0.1071162466232947
595,-0.20399100054373678,-0.1365819838739768,-0.13760601320784485,-0.16274922504622913
596,-0.30104919368929384,-0.20361293029354588,-0.20491984709143393,-0.2407029573209483
597,-0.43316939398099336,-0.29634194750672516,-0.2979571752020938,-0.34732743329794846
598,-0.6089123602836507,-0.42185470272055264,-0.4237751367173534,-0.4899407866128365
599,-0.8376748989172049,-0.5883058324677415,-0.5904768924821562,-0.6767433280039944
600,-1.1294118902614634,-0.804832008004515,-0.807116529427674,-0.9166551090976874
601,-1.494245736407262,-1.081384949221832,-1.0835237501398312,-1.2190703301291566
602,-1.941964524438711,-1.4284771853194727,-1.4300419456613374,-1.5935271966555797
603,-2.4814192860315987,-1.8568381446585236,-1.8571781388447224,-2.0492978634492585
604,-3.1198402780071737,-2.376983801379419,-2.3751688600736403,-2.5949094310307306
605,-3.862101664703222,-2.9987094058470003,-2.993471963364966,-3.2376132624252874
606,-4.709972800849811,-3.7305215465855888,-3.7202005008052423,-3.9828259219221755
607,-5.66140192873121,-4.57903260758803,-4.561520910492842,-4.8335704871652325
608,-6.709883761616826,-5.5483471166699,-5.521043728211837,-5.789951361122293
609,-7.843965368603115,-6.639474911722587,-6.599240371086477,-6.8486984304342675
610,-9.046944243575052,-7.84980976740797,-7.792923520848735,-8.002816889786573
611,-10.296807933230097,-9.172713457407221,-9.094830341805608,-9.24137685903445
612,-11.56645583975023,-10.597243662167926,-10.493346403728177,-10.549471862276757
613,-12.824230926775822,-12.108059435888254,-11.972403389861618,-11.908367437823744
614,-14.034772437774052,-13.6855301808526,-13.511575682832254,-13.295851004862127
615,-15.160181165189258,-15.306063616672013,-15.086390450519355,-14.686782294986486
616,-16.1614673252267,-16.94265569519278,-16.66885382110722,-16.053830984339115
617,-17.000229087909172,-18.56565162234113,-18.228183039487256,-17.368375507332505
618,-17.640488908907585,-20.143693049463746,-19.73172190700554,-18.60152527313281
619,-18.050596746843667,-21.64481308663218,-21.146004998410874,-19.725218463369725
620,-18.205095756267035,-23.037629072125544,-22.437925768670944,-20.713340058824205
621,-18.08643856652446,-24.2925739306258,-23.575955334583092,-21.54280039408466
622,-17.686441915828286,-25.38310126317081,-24.531353046441012,-22.194513897370253
623,-17.00737475356623,-26.28679759463674,-25.27930748994653,-22.654221015963348
624,-16.06258995781211,-26.986337759971136,-25.799947707111556,-22.913103699997478
625,-14.876631854531627,-27.470226241425348,-26.07916941535224,-22.968155927847118
626,-13.484779576671231,-27.73327812019137,-26.109229753567078,-22.822284962155617
627,-11.932018271843315,-27.776807637274867,-25.889076142420578,-22.484135285814443
628,-10.271464263582379,-27.608509361228805,-25.424389457567333,-21.967644184473244
629,-8.56230432842451,-27.242035540306016,-24.727337931534567,-21.29135437554957
630,-6.867341017754073,-26.69629206201882,-23.816054999437817,-20.47752373472272
631,-5.2502633229245745,-25.99449313071865,-22.713870610450407,-19.551084113253246
632,-3.7727829920368734,-25.163029900884514,-21.448340172917764,-18.538509755299124
633,-2.491789865762058,-24.23021966144027,-20.050127053940727,-17.46666041303114
634,-1.4566834462168274,-23.225008850600883,-18.551802275769372,-16.36166460383941
635,-0.7070318585806168,-22.175704709960186,-16.98662800196368,-15.247904526531348
636,-0.27069332055633083,-21.10880672797893,-15.38738948899023,-14.147156217399798
637,-0.16250994485325654,-20.0480005844988,-13.785333962720063,-13.077927149167575
638,-0.3836506996703468,-19.01336487130484,-12.209265342354726,-12.055019485335462
639,-0.9216418894045526,-18.020825483882565,-10.684831887958914,-11.089331649978366
640,-7.197488878862975e-11,-7.852877406018402e-11,-5.983891237590589e-11,-7.228656927343742e-11
641,-1.5977182239327554e-09,-1.6433543733454256e-09,-1.2196031013501585e-09,-1.5439639256490482e-09
642,-1.7710382841819106e-08,-1.8689072136392537e-08,-1.3365660372465212e-08,-1.7360004685921212e-08
643,-1.2999125321124264e-07,-1.3977469273090302e-07,-9.695556449009809e-08,-1.2911969719952594e-07
644,-7.136421653720663e-07,-7.831794824077574e-07,-5.286232958463564e-07,-7.196984195752788e-07
645,-3.1372913113317184e-06,-3.5155991555478586e-06,-2.319731369985937e-06,-3.2160210371710847e-06
646,-1.1547931199534631e-05,-1.3209204788375287e-05,-8.57058862434923e-06,-1.2038811284582302e-05
647,-3.674279851083655e-05,-4.285771454141443e-05,-2.752469099446237e-05,-3.8949651411439807e-05
648,-0.00010352248976764052,-0.0001229258214723486,-7.868514226388707e-05,-0.00011150282713662967
649,-0.0002632159626434355,-0.00031747846761286076,-0.00020390268648783706,-0.000287698252443053
650,-0.0006131970056973724,-0.0007493691899531933,-0.000485809654842255,-0.0006790686635188921
651,-0.0013251289771278366,-0.001636444105655182,-0.0010761695659417744,-0.0014842887102111241
652,-0.002683339897028918,-0.003340131114198008,-0.002236462564627036,-0.003034996153381942
653,-0.005134113600930429,-0.006427073611400846,-0.004392290842144357,-0.005854912706349219
654,-0.009345796545504837,-0.011743677104558986,-0.008202103478109367,-0.010732550190837015
655,-0.016278537725271665,-0.020502496384911275,-0.014639570914209579,-0.01880677252751619
656,-0.027261305863949124,-0.034378144572679424,-0.02508790231434768,-0.03166322910462048
657,-0.044072651618798815,-0.05560877498654181,-0.04144351918414803,-0.05143817257645874
658,-0.06902055177132412,-0.08709724133670663,-0.06622558136391293,-0.08092443863090475
659,-0.1050156180239769,-0.13250402817887647,-0.10268661350000886,-0.1236724828940923
660,-0.15563102418015065,-0.19632228188707096,-0.15491769406062347,-0.18407752643966624
661,-0.22514179153639127,-0.2839240541703791,-0.22793940077812616,-0.2674423314452731
662,-0.31853571196858427,-0.4015664179144761,-0.32776733711509065,-0.38000421079962504
663,-0.44148835187278646,-0.5563465586073365,-0.4614392321013948,-0.5289147901676206
664,-0.6002954231330213,-0.7560963752416964,-0.6369900077893126,-0.722161904593307
665,-0.80175740398137,-1.0092095689562728,-0.8633623143589146,-0.9684248506608109
666,-1.0530136116483024,-1.3243976401680193,-1.15024289077013,-1.2768570336903153
667,-1.361325859819968,-1.710375542634549,-1.5078193202261465,-1.6567938245544447
668,-1.7338152262868318,-2.1754827611322884,-1.9464566966137906,-2.117388094098535
669,-2.1771591073051226,-2.727250981410456,-2.4762988475108454,-2.66718122486187
670,-2.6972593573238433,-3.3719349266784664,-3.106803778340606,-3.313623078764022
671,-3.2988955413006855,-4.114027933774474,-3.8462278601537507,-4.062559986823153
672,-3.985379798878832,-4.955788028174519,-4.701078007627648,-4.917714814862275
673,-4.758231275646155,-5.896803275078499,-5.675555633764359,-5.8801870417251685
674,-5.616888408403668,-6.933626685436508,-6.77102028709504,-6.948003130564827
675,-6.558476581513797,-8.059510618923403,-7.985504156019924,-8.115748022672525
676,-7.577646891153708,-9.264268146535423,-9.313310487990085,-9.374307264135888
677,-8.666499079669961,-10.534284045114072,-10.744728806945176,-10.710746132657222
678,-9.81459826279933,-11.852691036034843,-12.265897121827628,-12.1083471932802
679,-11.009091023237964,-13.1997179104347,-13.858835912122366,-13.546820980089546
680,-12.234921960569713,-14.55320593214136,-15.50167075349267,-15.002696052126918
681,-13.475147050674796,-15.889279187131356,-17.16905056252796,-16.449884825601995
682,-14.711335359452326,-17.183144174212824,-18.832757325940392,-17.86041095788754
683,-15.924045988559444,-18.409984620419024,-20.462491604548013,-19.205273479784275
684,-17.093362881148,-19.545909844978684,-22.0268068129039,-20.45541321861362
685,-18.199466609661386,-20.568909448473175,-23.494155028660526,-21.582739096661648
686,-19.22321981922893,-21.459764064509482,-24.833998659901912,-22.561166235958282
687,-20.146741833306887,-22.202861680625503,-26.017936384850096,-23.367614870281802
688,-20.953948144832413,-22.786871836220264,-27.020788843854035,-23.982919112807455
689,-21.631032097993046,-23.20523591722174,-27.821589750860706,-24.392597734099503
690,-22.166868882778473,-23.45644070533204,-28.404431288392907,-24.587445188055725
691,-22.553325764288815,-23.544053942306753,-28.759118614796524,-24.563909899032367
692,-22.78546688885891,-23.476514269322287,-28.88159679918732,-24.32423779934715
693,-22.86164564566505,-23.26668251485647,-28.774124242200504,-23.87637158673781
694,-22.78348208957888,-22.93117577396746,-28.445179280156935,-23.23360933912726
695,-22.555727198003435,-22.48951890568078,-27.90910064055188,-22.414039144086868
696,-22.186019779802386,-21.96315901707292,-27.18547691102154,-21.43977849559507
697,-21.684545828642598,-21.374396558596406,-26.29831420394818,-20.336057707406017
698,-21.063614138744942,-20.745291455714337,-25.275023682975096,-19.130194904192642
699,-20.337166030404646,-20.09660409976328,-24.14528061597378,-17.850515784313046
700,-19.520240762596174,-19.446828995613245,-22.939813416926427,-16.5252739047959
701,-18.62842112953763,-18.811373512512308,-21.68918431624903,-15.181626469383497
702,-17.677285316029657,-18.201925757778955,-20.422622718647506,-13.844716460756446
703,-16.68189100052468,-17.626044536001626,-19.166968094041327,-12.536904661693477
704,-5.573432581376216e-10,-9.052449737622901e-11,-1.0779404737551282e-11,-1.2405303373469054e-10
705,-1.6715791613572401e-09,-1.829443174947209e-09,-1.1827856272238201e-10,-2.161863801311547e-09
706,-2.727855225150928e-08,-2.0260550610049577e-08,-1.7950522502648515e-09,-2.4310939772977236e-08
707,-1.9790824253195507e-07,-1.4804242174980483e-07,-1.6407458832528887e-08,-1.7826655105568207e-07
708,-1.0982282857386787e-06,-8.11275127869964e-07,-1.1049138960190212e-07,-9.815169483679989e-07
709,-4.881603039862074e-06,-3.567824927187172e-06,-5.850472106334677e-07,-4.338115231057598e-06
710,-1.8140348409474376e-05,-1.316288646678237e-05,-2.551150279232392e-06,-1.6087805189985057e-05
711,-5.82063186900433e-05,-4.204378788187233e-05,-9.465763485501488e-06,-5.1661827001628534e-05
712,-0.0001650819885141207,-0.00011904797817099753,-3.063915379224377e-05,-0.00014708065753789396
713,-0.00042163416764366614,-0.00030437451539833214,-8.825110658265715e-05,-0.00037810953247866626
714,-0.0009844488358969315,-0.0007130930431439924,-0.00022990743924631787,-0.0008906296697848048
715,-0.002127379594644236,-0.0015492776824207676,-0.0005491384799940987,-0.0019450634692382974
716,-0.0042989436191567774,-0.0031523869379494955,-0.0012164392755275092,-0.0039769287941070096
717,-0.008193975686887487,-0.0060568284201243305,-0.0025234642158950163,-0.007674372218520283
718,-0.014838836045950552,-0.011064811461298386,-0.004942749570332365,-0.01407194252565014
719,-0.0256883864307337,-0.019331617441439734,-0.009204728502285974,-0.024658074399490054
720,-0.042731357299434655,-0.032461234876147285,-0.016392681949335502,-0.04149183270163782
721,-0.06859889948066483,-0.05260883907182251,-0.028054580544698397,-0.06732250233077494
722,-0.10666912294654395,-0.08258481595611768,-0.04632858252191918,-0.10570366690955256
723,-0.1611582742457577,-0.1259530415085454,-0.07407645693945938,-0.16109158850280542
724,-0.23718758686524127,-0.18711416602583422,-0.1150166546104005,-0.23891613415711613
725,-0.34081355477796565,-0.27136304073141776,-0.17384639359376244,-0.3456113479757571
726,-0.47900924113399407,-0.38490851405149734,-0.25634016200722903,-0.4885923296899806
727,-0.6595849561075584,-0.5348438880072541,-0.3694106044257175,-0.6761656698679679
728,-0.8910388604804252,-0.7290575296305505,-0.5211169799004146,-0.9173626873073739
729,-1.1823312419834897,-0.9760754933740912,-0.7206064175595535,-1.2216883063059338
730,-1.5425807809561465,-1.2848314358039974,-0.9779743094246227,-1.598783589288667
731,-1.9806863754756867,-1.6643633920077776,-1.3040326847060715,-2.05800635569615
732,-2.5048842011339456,-2.1234418968377207,-1.7099795863152945,-2.607941472492127
733,-3.1222559873324593,-2.6701392126491865,-2.206968377467507,-3.2558596727623974
734,-3.8382105746632993,-3.311354810373113,-2.8055832923580226,-4.007150527640992
735,-4.655966367284345,-4.052317459868722,-3.5152358226765275,-4.864760866570766
736,-5.576066354054134,-4.896088964588048,-4.343504895914811,-5.828673923592851
737,-6.595959941250104,-5.8430983114704125,-5.295451404052452,-6.895466338177424
738,-7.709685961917155,-6.890737318769248,-6.3729437700936,-8.057979502060984
739,-8.907689097212462,-8.033049290204595,-7.57403545431181,-9.305138485930819
740,-10.17679690374709,-9.260540330526949,-8.892437381591845,-10.621945892220348
741,-11.500377316761087,-10.560138653294405,-10.317128083431836,-11.989669696430592
742,-12.858686729542868,-11.915320479157574,-11.832141650412717,-13.386233834174064
743,-14.229407614517841,-13.306412363461773,-13.416568028083585,-14.786808543335901
744,-15.588362428146072,-14.711069621975073,-15.044791448926027,-16.16458495836201
745,-16.910378295311105,-16.104919700607713,-16.68698092551375,-17.491705919894937
746,-18.17026546682154,-17.46234861518793,-18.309832328688422,-18.74031324982164
747,-19.34386238058144,-18.757398656094896,-19.877545768721603,-19.883661707041266
748,-20.409092555745207,-19.964737031599448,-21.353006190760226,-20.897242414180102
749,-21.346973766031848,-21.06064856796172,-22.699120646992025,-21.759854514503694
750,-22.14251914664863,-22.02400151521089,-23.880253707620575,-22.45456379336016
751,-22.78547300518824,-22.837134350498147,-24.863693655609758,-22.969491209524723
752,-23.270831752698342,-23.486613532236152,-25.62107694335403,-23.29838264562719
753,-23.59911173437464,-23.963817528320146,-26.12969715302315,-23.440923191493138
754,-23.776340534115196,-24.265310970402215,-26.37362758365087,-23.402774102164518
755,-23.813765220695828,-24.392984016760707,-26.344593650681258,-23.195327076417875
756,-23.727288781418856,-24.353945217174548,-26.042542420819924,-22.835187390024632
757,-23.53666353029058,-24.160170421568342,-25.47587140557122,-22.3434134203512
758,-23.264485831698895,-23.827924529327305,-24.661296423514184,-21.744554079666678
759,-22.935049356484956,-23.376986140173205,-23.623357747889944,-21.065536806605188
760,-22.573122839804245,-22.82971654856377,-22.393583454577406,-20.3344664438499
761,-22.202722875377383,-22.210023303473257,-21.009347389747035,-19.579399256415112
762,-21.84595204680276,-21.54227418609775,-19.51247515866372,-18.82715638890381
763,-21.52196809038489,-20.85021961388973,-17.947664015446083,-18.102237319503846
764,-21.246141020390034,-20.155980062589645,-16.360790934312693,-17.42588659090914
765,-21.029442743304788,-19.479150254319634,-14.797187276122164,-16.815356719018748
766,-20.878098388496298,-18.836063965591723,-13.299958419104916,-16.283397349957365
767,-20.793511378586956,-18.23925294370915,-11.908422750987262,-15.837986341345959
768,-1.2782279762762216e-10,-9.907967862315855e-11,-9.58435743899252e-11,-1.745172656193627e-10
769,-1.7150299058856552e-09,-1.9602484315353266e-09,-2.001971110394728e-09,-2.1833456838205786e-09
770,-1.985476787947629e-08,-2.223429064951522e-08,-2.224911091482741e-08,-2.5355293878694415e-08
771,-1.4598658784483797e-07,-1.65932422125248e-07,-1.6330074438721493e-07,-1.8501671210191184e-07
772,-8.085057710750226e-07,-9.285892739501954e-07,-8.977772038549906e-07,-1.0152025774013966e-06
773,-3.5988697785136584e-06,-4.167460023931532e-06,-3.956054759942513e-06,-4.468575102350689e-06
774,-1.3453280612637823e-05,-1.5674832141765518e-05,-1.4605503277867704e-05,-1.6491823065264187e-05
775,-4.3577704424773313e-05,-5.098207907904619e-05,-4.662948459414598e-05,-5.268032596398799e-05
776,-0.00012519265525209034,-0.00014679923916028855,-0.00013184408409223767,-0.000149146262707201
777,-0.00032480824294182854,-0.00038115049677840565,-0.00033640315384956523,-0.00038125350798025125
778,-0.0007720742153636699,-0.0009055785910894607,-0.0007863589965649611,-0.0008930553948620507
779,-0.0017011657111847553,-0.001992630775125777,-0.0017049774608392178,-0.0019400864087300252
780,-0.0035080312615831566,-0.0041011503691702565,-0.003464174292640428,-0.003947483308653491
781,-0.006824740577339814,-0.007960736521964067,-0.006652117431761919,-0.007584351128025325
782,-0.01261071402463437,-0.01467517788429592,-0.012158385701317003,-0.013853856110940189
783,-0.022259010734421155,-0.025842823382625082,-0.0212769059384316,-0.024196925846777958
784,-0.03771413887607389,-0.04368979143331592,-0.03582508730830508,-0.0406056850522331
785,-0.06159606684321995,-0.07120969581647006,-0.058275214720793035,-0.06574095487225717
786,-0.09732314290627671,-0.11230123214260594,-0.09189154746006215,-0.10304619114798524
787,-0.14922449452750375,-0.1718926165633877,-0.14086409231004116,-0.15684817585942482
788,-0.2226303316239069,-0.2560396990032261,-0.21042800593281216,-0.2324327523014201
789,-0.3239267423465491,-0.37198287263108865,-0.3069561233870934,-0.336082225020782
790,-0.46056054039688965,-0.5281470569003035,-0.4380111254730619,-0.4750602640313328
791,-0.640979875911299,-0.7340694090399081,-0.612343252610422,-0.6575306128766061
792,-0.8744979921528527,-1.0002413266627528,-0.8398193826848707,-0.8923979389247341
793,-1.1710707200547599,-1.3378548777399468,-1.1312701240059742,-1.1890627436931587
794,-1.540982995194288,-1.758449018311623,-1.4982438889241012,-1.5570873160728433
795,-1.9944455718738734,-2.273457608455322,-1.952661100842681,-2.0057759249349014
796,-2.5411099247586417,-2.8936689274955545,-2.5063677503290593,-2.543679510654279
797,-3.1895166335968956,-3.6286145500377236,-3.1705949846371473,-3.1780425338934224
798,-3.946499824584017,-4.485913397586213,-3.9553395052104334,-3.9142168265633837
799,-4.81657690736871,-5.470603820326231,-4.86868742099933,-4.755073706728
800,-5.8013582464122635,-6.584502019457663,-5.916111187058098,-5.700450626051275
801,-6.899015063665797,-7.825628449636665,-7.09977494877077,-6.746671767575867
802,-8.103845314387037,-9.187744605156851,-8.417887804018072,-7.886182770728403
803,-9.405976229411285,-10.660040520913332,-9.864147030997616,-9.107337849415988
804,-10.791238375719754,-12.227008273297201,-11.427313906499542,-10.394372675476884
805,-12.241239410772087,-13.868528820448443,-13.090962885915177,-11.727588549437723
806,-13.733656287858961,-15.56018893082829,-14.833440107779408,-13.083762677809009
807,-15.242752996034111,-17.273832216027234,-16.628059150272456,-14.436786371228878
808,-16.74011763153764,-18.978334111978246,-18.44355089497947,-15.758518363582205
809,-18.19559857521087,-20.640575969557123,-20.244770951872432,-17.019825253878427
810,-19.578405703637028,-22.22657929410946,-21.993653386284237,-18.191766387141094
811,-20.85832979114077,-23.702748743509524,-23.65038454494058,-19.246867422704483
812,-22.007022515305263,-25.037162838125823,-25.174756546555486,-20.16041656456911
813,-22.999271584178008,-26.200845325869437,-26.527647245647827,-20.911710878171288
814,-23.81420130254894,-27.168948401100746,-27.672562856080205,-21.485178140833593
815,-24.436328935475867,-27.921781770082557,-28.577171561454875,-21.87130258191479
816,-24.856411853005582,-28.44562884979546,-29.214752000157752,-22.067290698638644
817,-25.07202949697709,-28.73330277814435,-29.565480114743924,-22.077425591113588
818,-25.087857252574626,-28.784409688066642,-29.617481999521228,-21.913074373248183
819,-24.915605441329795,-28.605303830077027,-29.367589270581213,-21.592332291120332
820,-24.57361485168508,-28.208737390244906,-28.821746897088477,-21.139308275216578
821,-24.086119289405225,-27.613225929075316,-27.995040609319634,-20.583078456113274
822,-23.482204405096898,-26.842166960534982,-26.91133071090936,-19.956355171413364
823,-22.794509458126367,-25.922763154682787,-25.60249987115843,-19.293937595537283
824,-22.057733629519284,-24.884812027176352,-24.10734278959559,-18.63102478161905
825,-21.307020127270448,-23.759430121213303,-22.470144295974798,-18.00148156713032
826,-20.576298866299716,-22.577781238584333,-20.739008581510472,-17.436151733045413
827,-19.896671543559645,-21.36987524847409,-18.96401522845019,-16.961310922423927
828,-19.29492132456682,-20.163496744079517,-17.195287029316987,-16.597344280726837
829,-18.792223244327293,-18.983311992837262,-15.481059823499457,-16.3577211685163
830,-18.403121150646804,-17.85018915071197,-13.865845307196007,-16.248322392443907
831,-18.134823129438,-16.780751665070653,-12.388773668144342,-16.267155213464843
832,3.457722874083495e-13,-9.481471632022784e-11,-9.54930179297653e-11,-6.681965822493091e-11
833,6.140642656302714e-12,-2.052390940839675e-09,-2.083769043392409e-09,-1.462111803312272e-09
834,-2.210445649096736e-11,-2.3021872320845554e-08,-2.378182010568018e-08,-1.6566177304008755e-08
835,2.798324571674415e-11,-1.7055430310399023e-07,-1.7928100223887405e-07,-1.2418656408541483e-07
836,-2.3589200773165482e-11,-9.461115931318765e-07,-1.012931441941032e-06,-6.969881752435301e-07
837,2.1323673415127755e-11,-4.204405742113795e-06,-4.588207291045581e-06,-3.133131127302095e-06
838,-2.3653815306620294e-11,-1.5641580196647536e-05,-1.7408199715918364e-05,-1.1787176366822502e-05
839,2.4347183617877145e-11,-5.026729270436342e-05,-5.7066103938332596e-05,-3.828910396788779e-05
840,-4.640584658467751e-11,-0.00014288327827631072,-0.00016542074911586073,-0.00010994932494076421
841,-5.454873415451768e-10,-0.000365949609606859,-0.0004317532796004246,-0.00028431005448126484
842,-6.684169775170328e-09,-0.0008572256020441076,-0.0010294464999451897,-0.0006720010426182676
843,-5.193408045499942e-08,-0.0018592086315992345,-0.002269055318979865,-0.001469892625841743
844,-3.045479758096115e-07,-0.0037717268604863094,-0.00466927007423905,-0.0030061999084390104
845,-1.4344736990651538e-06,-0.0072181611991703285,-0.009045523313813478,-0.005798760413973673
846,-5.662465267914368e-06,-0.013124715431760603,-0.01661424002678447,-0.010627157590524863
847,-1.9304725829713312e-05,-0.022810931248659103,-0.029109248787465423,-0.01861857919657692
848,-5.812538974448339e-05,-0.03808825903798331,-0.04890566873164557,-0.0313461682271543
849,-0.00015729077339712627,-0.06136198246804952,-0.07914543273746463,-0.05093713822305159
850,-0.0003879682172905994,-0.09573021563805355,-0.12385716797470758,-0.0801861881655683
851,-0.0008824831084685223,-0.1450721281943955,-0.18806123846800507,-0.12266792239319162
852,-0.0018693849626316872,-0.21411613309959274,-0.27784848420701436,-0.1828402000415313
853,-0.0037189289304588725,-0.3084776714730181,-0.40041905867348804,-0.2661287276166187
854,-0.00699859379901425,-0.4346556988017589,-0.5640665129509987,-0.3789819136580992
855,-0.012537538838074489,-0.5999772828313954,-0.7780926125072278,-0.5288842198663408
856,-0.021498375122175527,-0.8124811024587429,-1.0526407322238127,-0.7243161979584624
857,-0.03545412562480943,-1.080733203187084,-1.398440020576003,-0.9746502891241878
858,-0.056467484344703084,-1.4135720801382745,-1.8264584039129559,-1.2899734002043475
859,-0.08716828348629024,-1.8197848063793163,-2.3474692042692884,-1.68083027669857
860,-0.13082348914473718,-2.3077211609246233,-2.9715429308512955,-2.157885712287326
861,-0.1913923894192471,-2.8848581154218067,-3.7074820960725807,-2.7315085298508954
862,-0.2735584361668999,-3.5573321763394357,-4.562222363374051,-3.411285812373354
863,-0.3827288966012023,-4.329461543201664,-5.5402278535765594,-4.205481716338168
864,-0.5249943199199801,-5.203283476570467,-6.642912000762692,-5.1204609461379675
865,-0.7070417289504513,-6.178134403701853,-7.868117876394987,-6.160102159385133
866,-0.9360181268468196,-7.2503009278958865,-9.209693099110668,-7.325230791784069
867,-1.2193439857163058,-8.412768921452582,-10.657193837918946,-8.613103690288577
868,-1.5644795521229564,-9.655095165760063,-12.19574945171175,-10.016979245587933
869,-1.9786498677696458,-10.963421496883878,-13.806113633181786,-11.525806204742544
870,-2.4685372304480695,-12.320645141342323,-15.464919555861094,-13.12406184853427
871,-3.0399523907388044,-13.706751077373612,-17.14514592455414,-14.791765624071276
872,-3.6974980606912586,-15.099303222738921,-18.81678877565991,-16.504687612498905
873,-4.444240285642951,-16.47408161865928,-20.44772127167066,-18.234762529431723
874,-5.2814047325228755,-17.805843251935798,-22.004711475532115,-19.95070964423473
875,-6.208115720071305,-19.06917545757297,-23.454557024870198,-21.618847606010277
876,-7.221195468944821,-20.239403651178797,-24.76528657498714,-23.204081365219935
877,-8.315039295510841,-21.2935100234595,-25.90737156579374,-24.67102695206879
878,-9.481579188791398,-22.2110172341581,-26.854888822460186,-25.985229640690687
879,-10.710343615097019,-22.974791338099653,-27.586574942644265,-27.114422825254714
880,-11.988615927176289,-23.571721237935733,-28.086717290903977,-28.029769528280525
881,-13.301688018709854,-23.99323773260665,-28.345833425607367,-28.70702640445606
882,-14.633200435946552,-24.235643370774078,-28.361100526659413,-29.127571617873315
883,-15.96555547531111,-24.300234310039258,-28.136508380082272,-29.279242926783457
884,-17.280386142235482,-24.193206608460777,-27.682723151864177,-29.15694034853113
885,-18.559061283082052,-23.925351128112172,-27.01666392063434,-28.762958445685427
886,-19.78320572045412,-23.511552755728538,-26.160809055048855,-28.10702610034222
887,-20.93521374891001,-22.970120194016285,-25.142264258055402,-27.206046080249404
888,-21.998734908873164,-22.321981479228274,-23.991637572767985,-26.083542054003594
889,-22.959112569617034,-21.58978713107891,-22.7417778706865,-24.7688361241671
890,-23.8037585326732,-20.79696710789686,-21.42644132086498,-23.29599444498749
891,-24.522450471265426,-19.96678936112875,-20.078954255622296,-21.70259107850054
892,-25.107543292638834,-19.121466719614507,-18.73094026813585,-20.02834997414724
893,-25.554090108140528,-18.281355152461945,-17.4111743691564,-18.313731044618866
894,-25.859873059333694,-17.464280338331395,-16.14461816070387,-16.598528249230455
895,-26.02534842415487,-16.68502122529926,-14.95167818536158,-14.920545262161973
896,-2.730280576763238e-10,-1.1880978382426295e-10,-8.305782275221987e-11,-1.6587809806233817e-10
897,-5.683683445801369e-10,-2.4476418702742785e-09,-1.6695574926985932e-09,-1.845608640710726e-09
898,-1.0965841745331011e-08,-2.745051400128982e-08,-1.8454465716413052e-08,-2.190576825999824e-08
899,-8.182690088978894e-08,-2.0245180142215784e-07,-1.343795451777519e-07,-1.5989409313115237e-07
900,-4.7131850997496606e-07,-1.1189939411008386e-06,-7.330652597086285e-07,-8.790391899463644e-07
901,-2.1804446634207677e-06,-4.958084536314252e-06,-3.2062862608471276e-06,-3.878344895184158e-06
902,-8.447122555134707e-06,-1.840437396682508e-05,-1.1756723682428357e-05,-1.4351374651331989e-05
903,-2.8279974471930274e-05,-5.9054746556991256e-05,-3.731064332613427e-05,-4.5975620548561124e-05
904,-8.367412021472221e-05,-0.00016769857617196111,-0.00010497128841246899,-0.00013055425386731536
905,-0.0002227233381372326,-0.00042926782615571675,-0.0002667822213773644,-0.0003347143025684419
906,-0.0005409970316560717,-0.0010052206410273107,-0.0006217516744739602,-0.0007862076321504919
907,-0.0012134061215582671,-0.002179598235422126,-0.0013450796269110356,-0.0017121320250128849
908,-0.002538104497632251,-0.004420078640066607,-0.00272829901991836,-0.0034906635542283305
909,-0.004993192163294371,-0.008454237284475342,-0.005231587194887911,-0.006716826995295837
910,-0.00930601981376154,-0.015360038684052087,-0.009548810715223859,-0.012281481678339864
911,-0.016534067474249407,-0.02666836274517109,-0.01668494368321056,-0.021461313458644077
912,-0.028155323816443947,-0.04447402165518905,-0.028044343501301663,-0.03601618668929267
913,-0.04616492617625336,-0.07155015473809807,-0.04552700877754917,-0.05828878141700785
914,-0.07317322358368632,-0.11145904407303038,-0.07162842779915388,-0.09129986181039147
915,-0.11249859841699189,-0.16865036826053748,-0.10953703472153216,-0.13883083381138342
916,-0.16824650984621956,-0.2485359492044089,-0.163221709417709,-0.20548360315678252
917,-0.24536448607256742,-0.3575285119852114,-0.23750027522320458,-0.2967064123302898
918,-0.3496617278284731,-0.5030312942729799,-0.3380787045106798,-0.41877376535740496
919,-0.4877816441792511,-0.6933658450937014,-0.4715499411637253,-0.5787089930770307
920,-0.6671165354772988,-0.9376272544983755,-0.6453411991565532,-0.7841398028257172
921,-0.8956556479580986,-1.2454593586288234,-0.8675996030161431,-1.0430803064992828
922,-1.181761214774452,-1.626747031403821,-1.1470083079391438,-1.3636375474459477
923,-1.5338714581412016,-2.091228210982018,-1.4925287605395974,-1.7536460961068392
924,-1.9601347773240103,-2.648034453230983,-1.9130693304321753,-2.220240514385673
925,-2.4679849529357396,-3.305175123401459,-2.4170858216567264,-2.7693818469836438
926,-3.0636727699170665,-4.068986401434491,-3.012124996495393,-3.4053602680314783
927,-3.7517747387794027,-4.9435716859218015,-3.7043278537729827,-4.130301120193979
928,-4.534704042961161,-5.930264344140363,-4.4979146369157,-4.943705282835095
929,-5.412252413804329,-7.027146702122758,-5.394678067303153,-5.8420567919437465
930,-6.381193765493157,-8.22866030105585,-6.393514770842548,-6.818530554546785
931,-7.434981065212203,-9.525341426239702,-7.490026965083408,-7.8628308293782805
932,-8.563566526968241,-10.903712480389364,-8.676226821593962,-8.961186775226338
933,-9.753371849511053,-12.346353853613932,-9.940374136287577,-10.09652490982845
934,-10.987429476813842,-13.832172642167423,-11.266973733480823,-11.248829730326936
935,-12.245708000233899,-15.336874226915947,-12.636952353388512,-12.395693278215063
936,-13.505624816241367,-16.83363085791732,-14.028025866375348,-13.513042436808083
937,-14.742737602951765,-18.293928721886672,-15.415257029635827,-14.576020040738953
938,-15.931593829854618,-19.68856235883303,-16.77179230628847,-15.559983497714393
939,-17.046705297682138,-20.98873370359606,-18.069754250449833,-16.441573709641276
940,-18.063603995116228,-22.167203443957025,-19.28125441602207,-17.199798809242935
941,-18.959927165638707,-23.199435664309043,-20.379481489477964,-17.817072371757142
942,-19.716474428885427,-24.064673547968905,-21.33981120703207,-18.280144928618476
943,-20.31817821106975,-24.746884606130177,-22.14087936684281,-18.58087085294293
944,-20.7549308883135,-25.23551858838476,-22.765557554486243,-18.71675989791312
945,-21.022217437378565,-25.526029706058058,-23.201773478462282,-18.69127328845026
946,-21.121510917344605,-25.62012663109609,-23.443124139663333,-18.513837728169932
947,-21.060399084062297,-25.525728231142068,-23.48924010584957,-18.199566103226122
948,-20.852423685227848,-25.25661931627882,-23.34587228855469,-17.768690218881094
949,-20.516628744590566,-24.831817811635666,-23.024687963709038,-17.24572757260341
950,-20.076830023546982,-24.27468168409813,-22.54277939767694,-16.658419962876184
951,-19.560633899242475,-23.61179958823764,-21.921905355678465,-16.03649572425358
952,-18.998249119528527,-22.871722528462755,-21.187501988942795,-15.410318570373706
953,-18.4211482245542,-22.083603951742337,-20.3675141138847,-14.809493658644573
954,-17.860645466945343,-21.275821817293657,-19.491109690149795,-14.261504766831617
955,-17.34646406979343,-20.474657815520978,-18.587348415561184,-13.790455053840091
956,-16.905366815176013,-19.703105795290718,-17.683878985811923,-13.415977690524102
957,-16.5599203270013,-18.97987373483954,-16.80573822679649,-13.152372243530245
958,-16.327455386835837,-18.318631780196984,-15.974318946866426,-13.008008975004504
959,-16.219274057585576,-17.7275438636925,-15.206562425715553,-12.985027340980839
960,-1.9471868433227681e-10,-1.2659528218053456e-10,-6.086919799910735e-11,-1.0583123137747217e-10
961,-4.194124010029629e-09,-2.6570190873476303e-09,-1.027016353753462e-09,-2.3580526449895004e-09
962,-4.608693799812592e-08,-2.990805968183241e-08,-1.2430274918740044e-08,-2.6458847060620275e-08
963,-3.3573988093154127e-07,-2.2178164182815747e-07,-9.779701792872202e-08,-1.966144512611085e-07
964,-1.8340646651758559e-06,-1.2319284528762114e-06,-5.784341557003366e-07,-1.093493386038351e-06
965,-8.041936011823303e-06,-5.482712268375301e-06,-2.7423263760153236e-06,-4.87265326893331e-06
966,-2.9589015800504013e-05,-2.0429607316165054e-05,-1.0870025727661518e-05,-1.8188635383868667e-05
967,-9.429209528029654e-05,-6.576240189865773e-05,-3.711578380817471e-05,-5.871317005916335e-05
968,-0.0002665474573213201,-0.0001872364004592277,-0.00011165044775920599,-0.00016789207395400256
969,-0.0006810348198538219,-0.0004803175642835125,-0.0003012097214497071,-0.000433418815721901
970,-0.0015966179337250272,-0.0011268177641664847,-0.0007394750116305138,-0.0010256270718357224
971,-0.003476964357594483,-0.0024471303826547964,-0.0016724222297128345,-0.0022525730274472037
972,-0.007104566343776563,-0.004969624076605437,-0.003520997125537092,-0.00463886657135487
973,-0.0137340027384699,-0.009517414508814616,-0.006962457192828,-0.009032995823853874
974,-0.02528764548591725,-0.017311315094904262,-0.01303056304948993,-0.016746449854511482
975,-0.0445920195201948,-0.030086407300398927,-0.023233429590659452,-0.02972492436585811
976,-0.07564603850738924,-0.05021827967753775,-0.03968601751575183,-0.05074735435256957
977,-0.12390507529424645,-0.08085325442364542,-0.06525182032985935,-0.08364339519747542
978,-0.19655996727617314,-0.12603440544844863,-0.10368533778479296,-0.13351596560419945
979,-0.3027900120426382,-0.1908116073406423,-0.1597637577099089,-0.20695427745378445
980,-0.45397442991852227,-0.2813194486449244,-0.23939335296010678,-0.3122250550337781
981,-0.6638556428482436,-0.4048024448593128,-0.34967385018794706,-0.45943427353827215
982,-0.9486557991598832,-0.5695639798278778,-0.4989027067674124,-0.6606561683502096
983,-1.3271506785409142,-0.7848152529038726,-0.6965009009768973,-0.9300278712255688
984,-1.820700154092474,-1.0604042211470763,-0.9528425458340161,-1.2838058425296404
985,-2.4532236258168245,-1.406412133896262,-1.2789725431610521,-1.7403757965121731
986,-3.2510977494818833,-1.8326158027906236,-1.6862000932609238,-2.3202042783611265
987,-4.242948469086671,-2.3478257020733646,-2.1855618422161682,-3.0457203244425246
988,-5.459312922970925,-2.959121939287987,-2.7871573735081094,-3.941120255952866
989,-6.9321575199774,-3.6710212185932916,-3.4993716201673,-5.032095300014624
990,-8.694250921043972,-4.484617866250674,-4.328012673546887,-6.345486559147676
991,-10.77839859373747,-5.396750947620926,-5.27540761112719,-7.908871673736842
992,-13.216545083431418,-6.399257661087753,-6.339511168523876,-9.75008140568636
993,-16.038741264223056,-7.478380311533606,-7.5130905627914,-11.896633903164998
994,-19.271960762304364,-8.614399049003787,-8.783053718912026,-14.375062870585495
995,-22.938739199692794,-9.781563033514592,-10.129987819650774,-17.210107025738743
996,-27.055608688882828,-10.948386207269897,-11.527971193941994,-20.423725248514096
997,-31.631312454183952,-12.078358645862195,-12.944714537014738,-24.033906524263113
998,-36.664810801027464,-13.131100388485354,-14.342077022189498,-28.05325619924119
999,-42.14312595530089,-14.06395348352334,-15.676988171976458,-32.48735858847315
1000,-48.03911299751348,-14.833972801325421,-16.902786498828913,-37.33293817304806
1001,-54.30928051923875,-15.40024042575876,-17.97096071464851,-42.57586539344022
1002,-60.891812985325025,-15.726395223233919,-18.83324970658469,-48.189077436437216
1003,-67.70496507612863,-15.783240980157688,-19.444025715055172,-54.130509512782666
1004,-74.64600649848848,-15.551275344218203,-19.76285430486978,-60.341158099704714
1005,-81.59089450198053,-15.022969439916158,-19.757098134019017,-66.74342352517117
1006,-88.39484064927997,-14.20462590591156,-19.404412304804186,-73.23990226046313
1007,-94.89391729988964,-13.117652247743159,-18.69496965926103,-79.71281470307319
1008,-100.90781609142694,-11.799107370900341,-17.633256264846906,-86.02425654603807
1009,-106.24382382301222,-10.301411847911849,-16.23929081030617,-92.01744631656828
1010,-110.70201988633607,-8.691155942907978,-14.549145800691248,-97.51910610388536
1011,-114.08162482626105,-7.046991735613997,-12.614681489117746,-102.34305801840601
1012,-116.18834505719485,-5.456654003684907,-10.50244331833797,-106.29504953537757
1013,-116.84246989009532,-4.013215148568182,-8.291718278041234,-109.17874206014345
1014,-115.88739143777696,-2.8107380395082115,-6.071793210753297,-110.80271435776632
1015,-113.1981441838061,-1.9395424982744314,-3.938506696109986,-110.98825076422095
1016,-108.68950717773238,-1.4813416504051513,-1.990233153848917,-109.57760758306937
1017,-102.3231846430002,-1.504529584184339,-0.3234801005213705,-106.44238413064133
1018,-94.11358485777244,-2.059908800568941,0.9716863646086903,-101.49157270959154
1019,-84.13175467744591,-3.1771333304543545,1.8161500084558218,-94.6788302977287
1020,-72.50709763109096,-4.862111190969738,2.1459402121632087,-86.00850958041943
1021,-59.426604209207326,-7.0955596706388135,1.9158750300668745,-75.54001208042854
1022,-45.13144850067179,-9.832841852236298,1.102433905572345,-63.39008291334939
1023,-29.9109483692927,-13.005137176015252,-0.29432059235474467,-49.73275382308658
1024,-1.2372641926728685e-10,-1.599877912622022e-10,-2.834407011599337e-10,5.30108325991164e-10
1025,-2.351758559038136e-09,-3.525239269204038e-09,-6.07111725810498e-09,1.1574201643968454e-08
1026,-2.395287080887418e-08,-3.9444764915278787e-08,-6.549673342113923e-08,1.258503032363192e-07
1027,-1.5995533852199137e-07,-2.9248869106489925e-07,-4.667255747981563e-07,9.027397102726363e-07
1028,-8.000045889046197e-07,-1.6241738980683744e-06,-2.4826606539998854e-06,4.822967959323524e-06
1029,-3.215861624576581e-06,-7.220697623806895e-06,-1.055709473499101e-05,2.0541119402977623e-05
1030,-1.089798472710721e-05,-2.6840640238261225e-05,-3.752315382825826e-05,7.289294399263915e-05
1031,-3.223744262281344e-05,-8.603828457375752e-05,-0.00011507962507454871,0.00022242664210357204
1032,-8.543660523733766e-05,-0.0002434708216542747,-0.0003119534800889806,0.0005977153333233897
1033,-0.00020679953600815062,-0.0006196043741943841,-0.000761739649618229,0.0014414685080487966
1034,-0.0004634419953739074,-0.0014396837229382804,-0.0017015113122290219,0.0031682237807312726
1035,-0.0009704264649213086,-0.0030929446873851963,-0.00352146954960175,0.006428929320912664
1036,-0.0019099738215546504,-0.0062091363930111155,-0.006825676516593514,0.012177789619729831
1037,-0.0035470013316368653,-0.011752773967995716,-0.01250433245872758,0.02173973979541065
1038,-0.0062318306324468655,-0.021135092112921364,-0.021818528144693712,0.0368812476366558
1039,-0.010378882096294097,-0.036342987618686734,-0.03649805620339128,0.05989000818661356
1040,-0.016410520662895386,-0.060082756616194416,-0.05885111369530256,0.09366817524112837
1041,-0.024657965350287768,-0.09593380105216766,-0.09188168095171521,0.14183872053167143
1042,-0.03521539702851752,-0.14850383462397596,-0.13940674052000515,0.208857186405943
1043,-0.04774774025336447,-0.2235731385030138,-0.20616224659306917,0.30011454554209666
1044,-0.06125616705922327,-0.32821205001975345,-0.29788460735835165,0.42201371948416444
1045,-0.07380831103133814,-0.4708539110382756,-0.42135367899992554,0.5820034155145699
1046,-0.0822435654080469,-0.6613055029998469,-0.5843837698561458,0.788557176716561
1047,-0.08186879448295559,-0.9106784192100094,-0.7957505913501218,1.0510905096184389
1048,-0.06616660437222106,-1.2312275061122826,-1.0650442147136783,1.3798123661569053
1049,-0.026546076187059727,-1.6360861139393388,-1.4024408307606708,1.7855080293606216
1050,0.04782716854512993,-2.138892327757967,-1.8183895979060325,2.279249063156669
1051,0.17008037689411587,-2.753305700406096,-2.323215283683457,2.872024093888063
1052,0.3555211334842049,-3.492420448931377,-2.926642849116037,3.574283820625265
1053,0.6213261598071799,-4.368088626743717,-3.6372564630256394,4.395396386414189
1054,0.9860044826929264,-5.390175179589955,-4.4619123150748425,5.343015691655803
1055,1.4686224229159242,-6.565775431981567,-5.405131505840021,6.422374869243627
1056,2.087795978845228,-7.898433574020086,-6.46850558819214,7.635528537622034
1057,2.860476664170328,-9.387407149963966,-7.650152302334301,8.980578707265934
1058,3.800578098303176,-11.027026445104017,-8.944261926098557,10.450928481117726
1059,4.917510930214945,-12.806198282972703,-10.340774769128302,12.034613601802516
1060,6.214711283576417,-14.708100652359928,-11.825227159883553,13.713763841367212
1061,7.688261245843856,-16.71010775952261,-13.378796591721201,15.464244356727095
1062,9.325707546669213,-18.783974894186844,-14.978566645451721,17.255522096604878
1063,11.105185345933876,-20.896299550850927,-16.598019465763276,19.050794924972468
1064,12.99494719701796,-23.009260353111628,-18.207748916593225,20.807411871165733
1065,14.953382442558613,-25.08161935073362,-19.7763723539091,22.477602015353707
1066,16.929589637354397,-27.069957082475355,-21.271604571444197,24.009516835636447
1067,18.864534685291364,-28.930094337998586,-22.661445059408656,25.34857617003945
1068,20.69279141841385,-30.61864077317885,-23.91542011331045,26.439091273069803
1069,22.34482131505422,-32.09459941638816,-25.00581501903751,27.22612024980092
1070,23.749707746119874,-33.320948605391905,-25.90882876064068,27.657492520839
1071,24.838220994225907,-34.266119835294255,-26.60558460637598,27.6859215417706
1072,25.54605700342055,-34.90529196551211,-27.082934786796102,27.271110684612225
1073,25.817068791974034,-35.2214294577952,-27.33400661336879,26.381747797857997
1074,25.60629740599097,-35.206004601931575,-27.358450985905694,24.997280900208544
1075,24.882610862148532,-34.85936035601299,-27.16237197622987,23.10937150649614
1076,23.63077520443915,-34.190690379604646,-26.757936990895697,20.722933333719023
1077,21.85281080555678,-33.21763463335173,-26.16268910920101,17.85668201366184
1078,19.56852748797157,-31.965510964629267,-25.39860434867902,14.543144794277692
1079,16.815181084899667,-30.466223835474615,-24.490954641417098,10.828106437527971
1080,13.646248249748629,-28.75690940128975,-23.467050452654764,6.76949677218153
1081,10.129371824788914,-26.87839043139129,-22.35494418215611,2.435754739216799
1082,6.34358197872424,-24.873524279607576,-21.182176439729684,-2.0962685044424294
1083,2.375944840635594,-22.78553174197039,-19.974642305247308,-6.7437803486417405
1084,-1.68217289590481,-20.65639390136287,-18.755644503509973,-11.420784283882139
1085,-5.739010699209285,-18.52539796012584,-17.545185948321368,-16.0409626624458
1086,-9.706269725389944,-16.427901958690256,-16.359536261417563,-20.52057475595083
1087,-13.50269999155387,-14.394372934625851,-15.21108661645645,-24.781238512963775
1088,-1.448366468381822e-10,-1.1132162176271833e-10,-4.635925913682736e-11,-1.3741552213906055e-10
1089,-3.1428127342937124e-09,-2.3178197583789517e-09,-7.155372884114752e-10,-3.0028705820240474e-09
1090,-3.478750759279862e-08,-2.5898217754692636e-08,-8.49873866265312e-09,-3.428760049346783e-08
1091,-2.546259154731062e-07,-1.9062392092667546e-07,-6.492846748203971e-08,-2.580113848722958e-07
1092,-1.3954609988578908e-06,-1.05162340682589e-06,-3.714914035934212e-07,-1.4517356771751714e-06
1093,-6.128444091862166e-06,-4.651672219583131e-06,-1.6993958067356217e-06,-6.5335770656771644e-06
1094,-2.25439136631527e-05,-1.7241525501344174e-05,-6.500785249566532e-06,-2.4576274375740423e-05
1095,-7.16857532045174e-05,-5.525549597463414e-05,-2.1471715959931134e-05,-7.97170102861313e-05
1096,-0.00020176854153767902,-0.00015676048213115145,-6.275173549861383e-05,-0.0002282825684546458
1097,-0.0005120856244177536,-0.00040100999590749804,-0.00016544658798985874,-0.0005878962865242198
1098,-0.0011895037031959181,-0.0009387499540585059,-0.00039970574459982465,-0.001382017376826335
1099,-0.0025598377318312784,-0.00203550404174809,-0.0008961147400673251,-0.0030023126712377963
1100,-0.005155459704075326,-0.004129290975028831,-0.0018834871187815433,-0.006089802751079485
1101,-0.009799436614838734,-0.007903258756809804,-0.0037420016222950814,-0.011634307933860485
1102,-0.017705455259951937,-0.014372671932602322,-0.007073767840668815,-0.021090589710614973
1103,-0.030591758590612438,-0.024984575081917128,-0.012791296411123892,-0.0365086488571098
1104,-0.05080609797451412,-0.041727158175394866,-0.022222222572851807,-0.0606745036636074
1105,-0.08145706319256475,-0.06724422643768846,-0.03722637684206384,-0.09725600823569425
1106,-0.12654496896799577,-0.10494815616735374,-0.06031922412619252,-0.15094568523026666
1107,-0.1910829052951659,-0.1591224255095131,-0.09479389944719518,-0.22758937034215085
1108,-0.281196012087453,-0.2350025654739632,-0.14483249872000373,-0.3342863209383067
1109,-0.4041850545961688,-0.33882262291400883,-0.21559583118956205,-0.4794441488333118
1110,-0.5685394406194262,-0.47781342277727906,-0.31327953999763963,-0.6727712310983803
1111,-0.7838852287403373,-0.6601393924744229,-0.44512351016046353,-0.9251904939190915
1112,-1.0608555295314528,-0.894762630226656,-0.6193611332378868,-1.2486615821445235
1113,-1.4108739261607066,-1.1912261966407725,-0.8450956620058424,-1.6559029972970176
1114,-1.8458459611116347,-1.5593530736858114,-1.132092993993459,-2.1600113057591805
1115,-2.3777590879085637,-2.0088625542450482,-1.4904840921361453,-2.773980577966209
1116,-3.0181974703950014,-2.548911699036708,-1.9303760221661,-3.5101316103118894
1117,-3.777784305586216,-3.1875756354913833,-2.461378033487045,-4.379467095208201
1118,-4.665570633210036,-3.931286586196152,-3.0920576105354383,-5.39097561387996
1119,-5.688395555412638,-4.78425726525125,-3.8293500040453887,-6.550913872090906
1120,-6.850248073384177,-5.747919245009639,-4.677952249670752,-7.8621025360545955
1121,-8.151664978110672,-6.820410611645514,-5.63973805301575,-9.323275775598047
1122,-9.589201981932952,-7.996149202840996,-6.7132324813745985,-10.92852750738605
1123,-11.155016082634999,-9.2655275185052,-7.8931850522124885,-12.66689771076917
1124,-12.836595530432088,-10.614762645092114,-9.170276899745355,-14.522139536535455
1125,-14.61666935599838,-12.025929037215358,-10.530992819825961,-16.47270198751852
1126,-16.473321109262102,-13.477193773863947,-11.95768256189751,-18.491953782912113
1127,-18.38032154020294,-14.943263296347462,-13.428827867794471,-20.548662076849617
1128,-20.307683066713842,-16.396038289169873,-14.91952222216841,-22.607725758083937
1129,-22.222425910942167,-17.805460195756954,-16.40215882590409,-24.631148131323325
1130,-24.089532718975292,-19.140519892728086,-17.847308982061982,-26.579218966918358
1131,-25.87305625104186,-20.37038727515348,-19.22475862575505,-28.411862206821336
1132,-27.537334183017467,-21.46561080494317,-20.504656604997887,-30.090093836815143
1133,-29.048256877651852,-22.39932910971177,-21.658716474690827,-31.5775251473235
1134,-30.374528685620188,-23.14843297250381,-22.66140589795432,-32.84184025974242
1135,-31.488861260279947,-23.694615797415413,-23.491055473066684,-33.85617379663873
1136,-32.36903871115847,-24.025253998675183,-24.130822164711088,-34.60031535174887
1137,-32.99879922976133,-24.134065690233925,-24.569450788614088,-35.0616723268525
1138,-33.36848601518556,-24.021506352683122,-24.801788933706696,-35.23593194642444
1139,-33.47543162326591,-23.694873405203488,-24.829024962603885,-35.12737671074782
1140,-33.324053730715846,-23.168107163807903,-24.658634244464256,-34.74882467958055
1141,-32.92565591978077,-22.461292594518852,-24.30403475815751,-34.12118579514648
1142,-32.29794338549848,-21.599883424481895,-23.783969028863197,-33.272646562965036
1143,-31.464279246045983,-20.61368629392771,-23.121644372866534,-32.23751620323731
1144,-30.452721168164693,-19.535656469736647,-22.34367685025411,-31.05478628396417
1145,-29.294889186443438,-18.400567145096627,-21.478895359227536,-29.76647156400324
1146,-28.02472302473071,-17.243620757978544,-20.557070134226283,-28.415811423698166
1147,-26.677190471260836,-16.09907271990521,-19.607633821480768,-27.045418391728628
1148,-25.28700746471727,-14.998935501835998,-18.65846275979253,-25.695462760786167
1149,-23.887426001585546,-13.971824575788215,-17.734780905853558,-24.401980190016854
1150,-22.50913850595474,-13.041997906895178,-16.858239353967413,-23.19538267978147
1151,-21.17933768470529,-12.228628313559328,-16.046211539704814,-22.099242609943392
1152,-1.1653043640473444e-10,-1.0423738007910696e-10,-3.12597475510504e-11,-1.6633041591319713e-10
1153,-2.57068663107114e-09,-2.2117733893273956e-09,-1.5060527687928022e-10,-3.5742891872284064e-09
1154,-2.880259270288617e-08,-2.4925467406293614e-08,-2.3132549092918976e-09,-3.9480734381957e-08
1155,-2.1369975537303122e-07,-1.852611553815731e-07,-1.8980436703689246e-08,-2.8832852050397314e-07
1156,-1.1879137108672288e-06,-1.032356242207735e-06,-1.1791290097006536e-07,-1.5775383582823914e-06
1157,-5.293970229877183e-06,-4.613821191224824e-06,-5.837225949117398e-07,-6.920806680394761e-06
1158,-1.9766442170111046e-05,-1.7281741197496218e-05,-2.4106700538163676e-06,-2.5449030303240985e-05
1159,-6.379815023215845e-05,-5.597176585089407e-05,-8.566001079747015e-06,-8.095021422761217e-05
1160,-0.00018223204936313088,-0.00016046124454186696,-2.6818114128695264e-05,-0.00022808232946719528
1161,-0.0004691937597785822,-0.0004146863592027144,-7.536721626362738e-05,-0.0005798689962542514
1162,-0.001105071791704979,-0.0009803281000453723,-0.0001930319557945908,-0.0013501076083589564
1163,-0.0024097660957890454,-0.00214545375423015,-0.0004562878027088792,-0.002913752744629397
1164,-0.004914125711774341,-0.004390066221770586,-0.0010059944765795576,-0.005887272992560692
1165,-0.009450166684202439,-0.008469144514914467,-0.002087121563036902,-0.011229620184484252
1166,-0.01725920030298173,-0.01551231832928753,-0.004104969216815516,-0.02036298116724512
1167,-0.030115553564657817,-0.02713779518599198,-0.0077010206696353,-0.035310994943332646
1168,-0.050462149544782384,-0.04557651241888917,-0.01385038219794572,-0.05885053324472925
1169,-0.08155272920212665,-0.07380065485843351,-0.023980748991854314,-0.09467128578666159
1170,-0.12759374410268123,-0.11564863330711334,-0.04011019293238189,-0.14753509317495436
1171,-0.19387679510991193,-0.17593645621955453,-0.06499822344526596,-0.2234242316080445
1172,-0.2868900156956166,-0.2605433707575222,-0.10230191060518924,-0.32966491036666673
1173,-0.41439439018314944,-0.37645802955309526,-0.15672654541694456,-0.47500955531504396
1174,-0.5854492945247164,-0.5317706591333679,-0.23415826815900906,-0.6696596246074841
1175,-0.810371212341444,-0.7355971450717914,-0.34176406090630135,-0.9252103293777882
1176,-1.1006110628366117,-0.9979229074938125,-0.4880424119714673,-1.2545001591619034
1177,-1.46853895178148,-1.3293580190484102,-0.682806113091555,-1.6713516707539937
1178,-1.927130132634338,-1.7408001084007922,-0.9370778337688843,-2.1901953876255
1179,-2.4895520097430146,-2.2430078647651386,-1.2628802586532053,-2.825575398540387
1180,-3.1686585446581774,-2.846094955190294,-1.672906437966618,-3.5915427999476583
1181,-3.9764049397987513,-3.55896134648227,-2.1800627659837946,-4.500951042118339
1182,-4.923201637947048,-4.38868583800934,-2.796886269692881,-5.564675210702477
1183,-6.017232309567126,-5.339909533406152,-3.534848746043822,-6.7907850729816275
1184,-7.263765473138928,-6.414244518999621,-4.403571621841602,-8.183709034696093
1185,-8.664493514780066,-7.6097447738295685,-5.409986180016637,-9.743432524756921
1186,-10.216935796130617,-8.920476981023889,-6.557483161426532,-11.464779093513787
1187,-11.91394379826655,-10.336227218513493,-7.845103198603885,-13.336824938326501
1188,-13.74334536031637,-11.842375321056915,-9.266824669421052,-15.342496960436591
1189,-15.68776168380561,-13.419961991181857,-10.81100798851308,-17.458400342154306
1190,-17.72462475326139,-15.045964608547989,-12.460054446032624,-19.65491386731369
1191,-19.826414310694656,-16.693786513714485,-14.190332702813494,-21.89658002835484
1192,-21.96112293515539,-18.333951942634382,-15.972416245450805,-24.142802901735926
1193,-24.092945816293934,-19.934985621329812,-17.77166028875523,-26.348850583564875
1194,-26.183179374458625,-21.464443285041312,-19.54912724698168,-28.467141539479115
1195,-28.191300937479053,-22.890048075291823,-21.262847196220957,-30.448776550196108
1196,-30.076191107566963,-24.180878842870705,-22.869375434347205,-32.24526114549287
1197,-31.79745188032426,-25.30855062573837,-24.325585251354777,-33.81034867060454
1198,-33.3167673991519,-26.24832555215942,-25.590612324774483,-35.101922500705875
1199,-34.59925061754998,-26.980094417838405,-26.627849540607812,-36.0838282783323
1200,-35.6147181637565,-27.489175180505594,-27.40687911010633,-36.72756402152964
1201,-36.33883736654316,-27.766884247177064,-27.905223813174683,-37.013737898483996
1202,-36.75409369222884,-27.810849065155093,-28.109801859162513,-36.933210527335504
1203,-36.85053367046568,-27.62504528735286,-28.0179804645482,-36.48785071062608
1204,-36.626247534718004,-27.219557650874687,-27.638141601644826,-35.690850143005036
1205,-36.0875668678347,-26.610079592474193,-26.989698747509564,-34.56656308553302
1206,-35.24896493730315,-25.817181452999623,-26.102534700145473,-33.14986022232029
1207,-34.1326604025854,-24.865389916132198,-25.015865905878556,-31.485010579532528
1208,-32.76793791420251,-23.78213125601395,-23.77657598289544,-29.624130013910285
1209,-31.19021110055139,-22.596597439153435,-22.43709747603602,-27.62525786457839
1210,-29.439863988752144,-21.338596781485172,-21.052953305257343,-25.55014351604371
1211,-27.560915638448435,-20.037449616778797,-19.680094991162232,-23.461840700544936
1212,-25.599559444822788,-18.72098444234926,-18.37219117862487,-21.42221853098128
1213,-23.602633066991785,-17.414681651528692,-17.178025726817133,-19.489503950528814
1214,-21.616077200394955,-16.141000817407182,-16.13915923080893,-17.71597019897335
1215,-19.683441401449063,-14.918914316889133,-15.287991858792346,-16.14587992137111
1216,-1.1941927368892386e-10,-8.541237632627901e-11,-3.962276908056233e-11,-9.433891978995987e-11
1217,-2.6114851387829356e-09,-1.8366732142330456e-09,-8.077889731868199e-10,-2.084467283062692e-09
1218,-2.8522131138069402e-08,-2.0770416151472388e-08,-9.22718410049578e-09,-2.3287151528343108e-08
1219,-2.0626534425531053e-07,-1.5505422144512972e-07,-6.979555350463375e-08,-1.7230736196010808e-07
1220,-1.1161550076508694e-06,-8.673879033684213e-07,-3.975590474127582e-07,-9.547890905635808e-07
1221,-4.8383726315187235e-06,-3.888909707926235e-06,-1.8230015281307385e-06,-4.239102721072507e-06
1222,-1.756578423454787e-05,-1.4599583386956894e-05,-7.0275491116353594e-06,-1.5757121310607903e-05
1223,-5.512903459102088e-05,-4.7341421897726004e-05,-2.347990552504076e-05,-5.058918389651558e-05
1224,-0.00015317794334126765,-0.00013572687433085074,-6.955294863155341e-05,-0.00014361875868812066
1225,-0.0003839033149100585,-0.00035039077256251365,-0.00018590851221444418,-0.0003672282664688225
1226,-0.0008809911164705591,-0.0008266092992253442,-0.00045471550270542624,-0.0008584035060141512
1227,-0.001874043982925204,-0.001803740654349941,-0.001029437664499227,-0.0018569475926764017
1228,-0.0037331496559174747,-0.003677649663981995,-0.0021776470922281145,-0.003755836217692367
1229,-0.007023784146252151,-0.007066370921711677,-0.004338551481699202,-0.0071640526352515395
1230,-0.012571846930728369,-0.012888380459585673,-0.008195747937204808,-0.012981586087087838
1231,-0.021538209549007082,-0.022451987490671343,-0.014764318348204554,-0.022485579733825013
1232,-0.03550148731356252,-0.0375533785146942,-0.025489943845733543,-0.03742569864847269
1233,-0.05654663444212728,-0.060579570328449635,-0.04235634328237458,-0.06012550149051913
1234,-0.08735541152948552,-0.09461085480684017,-0.06799601108694153,-0.09358489631379395
1235,-0.13129299173681525,-0.1435153293979129,-0.10579785580526506,-0.1415767712153311
1236,-0.19248330090943114,-0.21202607301132423,-0.16000385504449027,-0.20872891652293443
1237,-0.275864468632346,-0.3057898437758148,-0.2357852930095103,-0.3005807997625785
1238,-0.3872152379818495,-0.4313752657763842,-0.3392877539303925,-0.4236039914066475
1239,-0.5331434279549984,-0.5962286571988283,-0.47763316642149106,-0.5851752829593011
1240,-0.7210285268979765,-0.8085671027418289,-0.6588672410406403,-0.7934928162156352
1241,-0.9589121069186767,-1.0772010666775178,-0.8918419335238321,-1.0574277442928497
1242,-1.2553318705719907,-1.4112826165359882,-1.1860252470061718,-1.3863069285792702
1243,-1.6190976903809955,-1.8199799079616406,-1.5512346891721873,-1.789625809239255
1244,-2.0590109552623366,-2.3120836722310165,-1.9972957685152182,-2.276694749101182
1245,-2.583531896989828,-2.895556759401121,-2.5336326246869616,-2.8562266885866183
1246,-3.2004032930948605,-3.5770430643220075,-3.168803713518559,-3.535878660790189
1247,-3.9162428591162137,-4.3613571440300225,-3.9100008513477684,-4.321764345416632
1248,-4.73612042029684,-5.250980214074042,-4.762534363778546,-5.217959070737259
1249,-5.663139150853631,-6.245591619262277,-5.729330226024331,-6.2260221291066715
1250,-6.698042360329085,-7.341666882173728,-6.810466749240574,-7.344563544674197
1251,-7.838868195144074,-8.532173638166299,-8.002778568258083,-8.568883164266154
1252,-9.080674090420521,-9.806394844196529,-9.29955451923301,-9.89070890182219
1253,-10.415350897879806,-11.149904438677028,-10.690353543727323,-11.298058090897621
1254,-11.831543480424866,-12.544714139159638,-12.160958966822262,-12.775241271294869
1255,-13.314690397519568,-13.969601510097869,-13.693486198942592,-14.303021561219186
1256,-14.847190286575854,-15.400619226527764,-15.266651936733439,-15.858935349982401
1257,-16.408696826584922,-16.811774234957397,-16.856204373541697,-17.417771789103547
1258,-17.976537916855047,-18.175854087687508,-18.43550429862696,-18.952199937506347
1259,-19.526248177976353,-19.465367021652465,-19.976237239597065,-20.43352394982495
1260,-21.03219748805839,-20.653553269436205,-21.449228197440153,-21.832538917687447
1261,-22.46829251932897,-21.71541836377916,-22.825324114742656,-23.120453391949866
1262,-23.808723667227454,-22.628735350058644,-24.076305621703288,-24.26983971019135
1263,-25.028726798640058,-23.37496214730321,-25.175788816206694,-25.255570450641137
1264,-26.10532815220609,-23.940022927640236,-26.100079375706304,-26.0556989495276
1265,-27.01804154954423,-24.314908272810197,-26.82894453493904,-26.652243975418088
1266,-27.74948964373663,-24.49605778878921,-27.34627294277898,-27.031843214069397
1267,-28.28592486660638,-24.485500348404038,-27.640597963482012,-27.186246766403638
1268,-28.617630577545725,-24.29074051230397,-27.705466599125327,-27.112629791811226
1269,-28.739188252428715,-23.924394112453786,-27.539643749655315,-26.81371206691892
1270,-28.649602130729228,-23.40359055824449,-27.14714956748068,-26.297680998547275
1271,-28.352278466503243,-22.749173213528977,-26.53713549766767,-25.577923143913182
1272,-27.85486234995027,-21.98474126599521,-25.723611425762172,-24.67257733495792
1273,-27.168940814680298,-21.135585996455763,-24.72504155534827,-23.603929896173014
1274,-26.309626268593192,-20.227580483498066,-23.563829891866412,-22.39767887542672
1275,-25.29503872073636,-19.2860839938136,-22.26571755207398,-21.08209920500578
1276,-24.145708427841623,-18.33492036185878,-20.859113850315985,-19.687143781469363
1277,-22.883922288332204,-17.39548369055592,-19.37438169534518,-18.24351630556609
1278,-21.5330376760324,-16.486015235241652,-17.84309577592585,-16.781750410390917
1279,-20.11678672520205,-15.621083212349472,-16.2972897831394,-15.331326500598607
1280,-2.8771175177397213e-11,-6.692956946857228e-11,-2.1656412058717175e-10,-1.4130975412354429e-11
1281,-5.292444604353519e-10,-1.437682400368503e-09,-4.175726389796677e-09,-2.709267188154553e-10
1282,-6.242714515049817e-09,-1.6047120062785867e-08,-4.6631496457565426e-08,-2.8756812717438384e-09
1283,-4.7817813210732475e-08,-1.1869713229484436e-07,-3.4095989563716994e-07,-2.0144296427456418e-08
1284,-2.7340024178638457e-07,-6.586042171104566e-07,-1.868837363371832e-06,-1.0612305507386531e-07
1285,-1.247190310906291e-06,-2.93288630398886e-06,-8.210121406463678e-06,-4.5022636407017257e-07
1286,-4.7444134617915145e-06,-1.0953553655021216e-05,-3.0206928119995587e-05,-1.6088614453663354e-06
1287,-1.5535097024168484e-05,-3.539680372995108e-05,-9.602659254980288e-05,-4.999210057943253e-06
1288,-4.485074851475111e-05,-0.00010132465068460832,-0.00027000258106192783,-1.3831007318242953e-05
1289,-0.00011636670392824671,-0.00026168670044237995,-0.0006839022864492877,-3.4695253138971663e-05
1290,-0.00027557193380121534,-0.0006188268679625394,-0.0015837356290299889,-8.005111068559144e-05
1291,-0.0006033676742534359,-0.0013561806841278774,-0.0033940186564419394,-0.00017185642859792344
1292,-0.0012346790860644295,-0.002782049466033157,-0.006799894008380959,-0.00034659829475599705
1293,-0.002382798167982226,-0.005386805283384301,-0.012846114685947221,-0.0006620358647640451
1294,-0.004370032978595088,-0.009914133735699224,-0.023050701017843043,-0.0012060823933814462
1295,-0.007664921698880371,-0.017445969946897972,-0.03952987648563447,-0.002108385362987993
1296,-0.01292570890774329,-0.029499618454090267,-0.06512924831413873,-0.0035552262927018813
1297,-0.021049007663913908,-0.048134160913386514,-0.10355390309838398,-0.005808285449281273
1298,-0.033221678035102925,-0.07606164232823227,-0.15948726309297004,-0.009227591510186253
1299,-0.05097305426992306,-0.11675672390919717,-0.23868565562948144,-0.014298650935777644
1300,-0.07622382547784394,-0.17455660345911128,-0.34803324674006464,-0.02166337918482904
1301,-0.11132716270337241,-0.25474122286551465,-0.4955408403564395,-0.03215406202078713
1302,-0.15909714146213114,-0.3635823765235898,-0.690272515233657,-0.04682916780350455
1303,-0.22281919740384423,-0.5083496037101607,-0.9421863404822272,-0.06700943379228941
1304,-0.3062373686966559,-0.6972609708574976,-1.2618794635387678,-0.09431230607863658
1305,-0.4135134999958047,-0.9393682101561758,-1.6602333817328987,-0.13068254999148565
1306,-0.5491544756243306,-1.24436823290134,-2.1479618052913265,-0.1784166363673482
1307,-0.7179049312415327,-1.622336679721366,-2.735070774888926,-0.24017827548507853
1308,-0.9246047510138077,-2.0833836899908977,-3.4302482729726633,-0.3190021658440981
1309,-1.1740129182176662,-2.6372371824079255,-4.240208126018327,-0.4182826901502412
1310,-1.4706018463983175,-3.2927643444129573,-5.169020033869107,-0.5417440633978082
1311,-1.8183290245763413,-4.057447444023082,-6.217463502600978,-0.6933884885023106
1312,-2.220395472753369,-4.936835214626442,-7.382447600524529,-0.8774193392038468
1313,-2.67900287974058,-5.9339955953007095,-8.656540245399231,-1.0981373208207441
1314,-3.1951230976216016,-7.048999157196934,-10.027649690266234,-1.3598089296858202
1315,-3.7682946514913507,-8.278464715605198,-11.478896773659276,-1.6665082484235754
1316,-4.396460935747519,-9.615199052062302,-12.988709217209832,-2.0219350507664435
1317,-5.075863790857737,-11.047961079255801,-14.531158953769786,-2.429214214195165
1318,-5.8010042317898005,-12.561377021549216,-16.076550526432943,-2.8906834370201495
1319,-6.564679301546128,-14.136027270026352,-17.59225373625029,-3.4076781290638567
1320,-7.358100403714676,-15.74871771254585,-19.043757895907827,-3.980323982393712
1321,-8.171094128239574,-17.372938974938844,-20.39590937686164,-4.6073490021479016
1322,-8.99238170337058,-18.979506764636085,-21.614279814513402,-5.285927552899272
1323,-9.809928076740023,-20.53736611068766,-22.666600455882076,-6.011569150732742
1324,-10.611346616144347,-22.014532453691757,-23.52418976297988,-6.778064235598297
1325,-11.38434092584815,-23.379133867384326,-24.16329735113352,-7.577497929196658
1326,-12.117161711713704,-24.600511694126833,-24.566288249744733,-8.400340727810471
1327,-12.799054385176396,-25.650331962177365,-24.722597419083826,-9.235622103435372
1328,-13.420672508694881,-26.503657471292083,-24.629395091397047,-10.071189064945461
1329,-13.97443343344414,-27.139930628454678,-24.291917982844396,-10.894046979645225
1330,-14.45479553101093,-27.543820080303114,-23.723438749248924,-11.690774633913247
1331,-14.858440983422941,-27.70588980899276,-22.944865184815477,-12.447999984785342
1332,-15.184353715606376,-27.623057320204282,-21.9839806308755,-13.15291774223164
1333,-15.433788226828218,-27.29881736629108,-20.874356925931732,-13.79382526891699
1334,-15.610131382021745,-26.74321871069371,-19.6539898839335,-14.360649731156403
1335,-15.718665364513031,-25.972593075359512,-18.36372353377342,-14.845437366489643
1336,-15.766245739975774,-25.009046922834443,-17.045541875810084,-15.242775428052271
1337,-15.760913698601149,-23.8797374369816,-15.740814655953741,-15.550118954998121
1338,-15.711465681237724,-22.61596338794059,-14.488585940680233,-15.767997992781646
1339,-15.627006319864934,-21.2521090426571,-13.323991015614517,-15.900086111871737
1340,-15.516511487630954,-19.824484617568256,-12.276878742286469,-15.953117802089604
1341,-15.38842697073345,-18.370109833572297,-11.370703825616197,-15.936650195299322
1342,-15.250324869422236,-16.925487944000952,-10.621737566002384,-15.862673158028988
1343,-15.10863470468127,-15.525416321081714,-10.038627790894195,-15.745080644835209
1344,-8.211127252388347e-11,-8.555076703586724e-11,-8.465737386493117e-11,-1.4766979230936405e-10
1345,-1.716038899097342e-09,-1.8587916775689182e-09,-1.801542527881254e-09,-3.1395255193470593e-09
1346,-1.911031447931987e-08,-2.0850305493887537e-08,-1.988336290812053e-08,-3.487130119195213e-08
1347,-1.4088775438883e-07,-1.548095331375672e-07,-1.4543281059236257e-07,-2.556362449108495e-07
1348,-7.799078152991483e-07,-8.620504131233304e-07,-7.983211241002882e-07,-1.403789696865097e-06
1349,-3.4685902124790757e-06,-3.8512407942317525e-06,-3.52046551872219e-06,-6.178705072595578e-06
1350,-1.2951643506228937e-05,-1.4422499577784733e-05,-1.3038593396142234e-05,-2.2783270825762145e-05
1351,-4.188721477427344e-05,-4.670296787627798e-05,-4.185785024779358e-05,-7.26335811446649e-05
1352,-0.0001200946716613984,-0.0001338554588594537,-0.00011926259115737769,-0.0002050071861948547
1353,-0.00031081624435887986,-0.0003458014090535615,-0.00030716781650335344,-0.0005219039606629091
1354,-0.0007367159220414785,-0.0008171009572056761,-0.0007256226774307461,-0.0012164663848155625
1355,-0.0016182358067556577,-0.0017873074735167923,-0.0015907759891063903,-0.0026279340811322326
1356,-0.0033264797571849317,-0.0036554263752406565,-0.003267693398747846,-0.005315347957942136
1357,-0.006452079118175512,-0.007049211727339056,-0.006339609166961007,-0.010151145753940235
1358,-0.011890555127819948,-0.012909052500405686,-0.011694147351685563,-0.018434400032982377
1359,-0.020943487525164957,-0.02258516422915457,-0.020625923850808844,-0.032021708125129486
1360,-0.035433221408458615,-0.03794562269148104,-0.03495377293580959,-0.05347159651610766
1361,-0.05782684552098263,-0.061491330563604514,-0.05714946951224977,-0.08619575470550965
1362,-0.09136284190088381,-0.09647222996287746,-0.09047298403221671,-0.13460755881900843
1363,-0.14017138741906968,-0.14699705008988964,-0.13910690448977492,-0.20425539928518688
1364,-0.20937709206464933,-0.21812684800773757,-0.20827991321785996,-0.30192563711950837
1365,-0.30517125195479383,-0.3159408919207516,-0.30436664015813303,-0.43569798202740967
1366,-0.43483966946468683,-0.44756239602989617,-0.4349494177016747,-0.6149351387069469
1367,-0.6067319047229623,-0.6211315279060837,-0.6088268005892417,-0.850189063399246
1368,-0.8301586792287727,-0.8457141686659053,-0.8359542378525834,-1.1530083992337283
1369,-1.1152062887352499,-1.131137181230822,-1.1273038457567406,-1.5356357589867882
1370,-1.4724604920846847,-1.4877443856520096,-1.4946327411738685,-2.0105894839659153
1371,-1.912637434308118,-1.9260718871856486,-1.9501529454929805,-2.590132077201954
1372,-2.4461255085420004,-2.4564466037579327,-2.5061006757900794,-3.285636234663209
1373,-3.0824492007541604,-3.0885174714314285,-3.1742090124941926,-4.106868658697822
1374,-3.829673303293475,-3.8307345065542187,-3.9650952899120475,-5.061220963692559
1375,-4.693772821533858,-4.689796301437789,-4.887582557480956,-6.152925320261637
1376,-5.677999881306596,-5.670091269897169,-5.947982315147459,-7.382299370260183
1377,-6.782283511665924,-6.773161710755246,-7.149372591748976,-8.745069705921187
1378,-8.002700912620355,-7.99722218907747,-8.490910612552614,-10.231825137834141
1379,-9.331059354782003,-9.336764523202293,-9.967222378203282,-11.827649488114789
1380,-10.754625881984575,-10.782280512175415,-11.567912302531544,-13.511978367885176
1381,-12.256037318991963,-12.320130246327837,-13.277234614076884,-15.258715319694996
1382,-13.813415733222271,-13.932578362453045,-15.07396443950104,-17.036630147519084
1383,-15.400704722607292,-15.598013081000582,-16.93150016525053,-18.81004687097882
1384,-16.98823018351475,-17.291353632019575,-18.81821960849204,-20.539811415871664
1385,-18.543476230160447,-18.98464126647698,-20.698100732288655,-22.18451099198711
1386,-20.0320535139302,-20.647798144713747,-22.531603523136766,-23.701899346854766
1387,-21.41882427683511,-22.249527786663286,-24.27679406790055,-25.050466021754396
1388,-22.66913710340179,-23.758321278353847,-25.890675998326472,-26.191074678963705
1389,-23.750115500422506,-25.143525780273357,-27.33067960929267,-27.088586707251455
1390,-24.631938935869577,-26.376426629418567,-28.55624632345011,-27.713382638344505
