,TP9,AF7,AF8,TP10
0,0.12423670881513414,-0.13392621956449602,-0.13123027781329688,0.05397637260416151
1,0.27823526842988233,-0.5541283151944689,-0.5648976904323201,0.1827627992568986
2,0.4829815368095761,-1.4211659213767351,-1.4701273766283118,0.3967066522397408
3,0.7837362777446852,-2.7415107950837023,-2.8932556001230285,0.7677306897445546
4,1.3112413396871552,-4.5254133320146535,-4.672945393445136,1.221637847854602
5,2.166253774959008,-6.512231962656356,-6.876311374530935,1.6341308107857526
6,3.138873702225048,-8.226202676406997,-9.056554848018507,1.9057246112496298
7,3.9201606943330325,-9.329037785571623,-10.73541947180178,2.0065289309756658
8,4.317044778046804,-9.76958121567086,-11.665200457896947,1.9603958215486648
9,4.332211364751846,-9.690006837069971,-11.856100253152523,1.9659315388922032
10,4.327223895979961,-9.697745478648656,-11.780060156905666,2.030121055904258
11,4.37960633316831,-9.841706465900769,-11.812030144643597,1.945113936601926
12,4.255731256702513,-9.629573398410178,-11.784611044725914,1.6047711699395033
13,3.7058783650321465,-8.671161244842278,-10.983709877592602,1.0051623601203343
14,2.787090783482175,-6.8723288073589455,-9.215372094856052,0.2583829549993413
15,1.699743584247639,-4.413831204960056,-6.535082216848481,-0.5007341945291622
16,0.66184080544703,-1.6955164557214244,-3.3091953065962145,-1.0796232388613642
17,-0.23670658378803577,0.9070252453808824,-0.008937404806695026,-1.4870102547954547
18,-1.1744370261598776,3.476279926469126,3.2331663026925606,-1.6840373077905517
19,-2.0728604560525397,5.784169567781337,6.267181447670362,-1.7182400879711772
20,-2.810000485390105,7.729215784111712,9.095828220999683,-1.6940431505231701
21,-3.374651743151702,9.201956213424383,11.425420189845136,-1.7163457298671234
22,-3.90801978778657,10.144155495908597,13.004473966090677,-1.8023038396768198
23,-4.619192316019954,10.612587017933764,13.788974966493424,-1.880705250490105
24,-5.42079211500468,10.750317126402004,13.920768966032556,-1.8944120256478016
25,-6.0832489162729,10.71463880761061,13.864827864007278,-1.9020886178701177
26,-6.439109214174142,10.696307533048044,13.850953630247067,-1.9446897427454553
27,-6.469795688336866,10.72549844322346,13.787583992316405,-2.025654636002403
28,-6.471322431524582,10.687236597990214,13.258669360067199,-2.1112585982624923
29,-6.526496581313789,10.527355973489048,12.271587120288263,-2.1574031540403733
30,-6.427139105606144,10.249898863326916,10.969006993291078,-2.171496059786568
31,-5.883010336953504,9.88965796161646,9.639307291787533,-2.152051084695503
32,-4.904626659953704,9.49395533297509,8.54739240956863,-2.1335942482270194
33,-3.6636509974830145,9.07688714008306,7.654259688551382,-2.0717925725451902
34,-2.371106756075484,8.556099077062342,6.953254900037807,-1.9985151487191444
35,-1.2074184033583182,7.914823943935971,6.45703394055029,-1.9338849641522269
36,-0.21309640316698286,7.153131724507224,6.136541919747989,-1.939251857554269
37,0.48606958487701285,6.309341091898699,5.968078886476684,-1.951132163131139
38,0.8187248546001079,5.44948627981799,5.892904271080492,-1.9099708684470846
39,0.84099430333027,4.630774474807593,5.872078437343213,-1.8298858401168727
40,0.796462641467818,3.8638811712306094,5.881521059065507,-1.7521618674529345
41,0.8204743742362054,3.1085188911789325,5.847796991739803,-1.6838296228214102
42,0.792258572965412,2.3052540770926706,5.693687816871767,-1.7118768345700535
43,0.5355229635446767,1.415424478254579,5.286409383447959,-1.782096219933021
44,0.08694616980927251,0.4416531504254605,4.571935343390191,-1.7211954794556223
45,-0.45310780772549253,-0.5800395231904802,3.560213070673363,-1.446326681326444
46,-0.9412474365308737,-1.60468746783472,2.3443627887066674,-0.8912712062488676
47,-1.2464125123601661,-2.5968507196465493,0.9802430249018967,-0.11193520326035061
48,-1.40918760290861,-3.533635530645448,-0.5224688357043319,0.7359902171943328
49,-1.4817508604494982,-4.396290983798822,-2.1333940905699302,1.4995722334905008
50,-1.4701684232997652,-5.17881643862857,-3.7575153990690753,2.1936444195639897
51,-1.4990177787095735,-5.864968281784392,-5.480724936821695,2.8138024274278273
52,-1.5464956905541067,-6.386767532230059,-7.078155864408604,3.3697017912561753
53,-1.4791344001342441,-6.7042475406367155,-8.278400316560449,3.839905029416658
54,-1.1284456595933436,-6.8354406704859745,-8.945518246791934,4.244828758736302
55,-0.3896663210230395,-6.838026064996254,-9.136195385859263,4.560148390599266
56,0.6959441639482215,-6.8245710685072165,-8.997352633523386,4.771781174732847
57,1.8758174448488718,-6.831048091615706,-9.026969717461728,4.885060995374729
58,2.9204479523624225,-6.815357808950486,-9.17928890584093,4.917111267250907
59,3.7643795977595285,-6.712444667507028,-8.945963338951508,4.882747413972731
60,4.30022268592895,-6.500636005141526,-8.146535190603906,4.899343173146836
61,4.57130575546923,-6.1651121605634,-6.817303617571205,4.9539881744499255
62,4.669902721601109,-5.706604348810009,-5.231633949018815,4.888536902190894
63,4.6597284731737885,-5.12818265237261,-3.7650568944259333,4.570792250852252
64,4.641769474497143,-4.400511148565961,-2.673771900102842,3.9075779770394763
65,4.663501331861421,-3.5523777987834184,-1.6148722348911846,2.9062041928124764
66,4.656117773515202,-2.6176036374677594,-0.7040196709441331,1.678725056366575
67,4.535945379281957,-1.6338243553225658,-0.04898795856949724,0.36852071912559325
68,4.219657062820565,-0.6603236942152889,0.3003693099971377,-0.9921854202347672
69,3.707585122325906,0.3743624106344793,0.37776319026944877,-2.2994813944392134
70,3.1406998651601006,1.335400071723414,0.32249980900556463,-3.5155983242371787
71,2.6971028217692874,2.057751318959987,0.3395863387577529,-4.549483777380724
72,2.3909481749124106,2.4539834348443352,0.384696898988842,-5.290139122109639
73,2.1110895371391027,2.5476327418293785,0.1671408449608079,-5.70043893198955
74,1.6857580922313506,2.4898118646939675,-0.44857531270664497,-5.838932943724348
75,1.1037099959118237,2.4863198569657894,-1.6230191988479767,-5.8042988240712114
76,0.47313967485981,2.517065195860121,-3.0167887284015693,-5.800603139489533
77,-0.08999131341617847,2.3291747455962493,-4.1477631149198775,-5.846512874708728
78,-0.5044229913940013,1.880548131132101,-4.748353879079571,-5.792313442491746
79,-0.7702514170752164,1.2210084503472234,-4.845032986523075,-5.513204384173884
80,-0.9135303327397439,0.4686444342262672,-4.838318423939869,-4.941722969421
81,-0.9517157879523708,-0.150665237765586,-4.868168436109293,-4.079105630537326
82,-0.9279276944569361,-0.5266679568958228,-4.744743834246607,-3.015937891264532
83,-0.9172883182683009,-0.7092993197744661,-4.041141510185036,-1.877997725725245
84,-0.9232771364037587,-0.7268373538361523,-2.737909504995677,-0.6795027972516501
85,-0.9161666957471754,-0.7205186134239949,-0.9183766578192123,0.4773944057521037
86,-0.8878979164706585,-0.7322328212732204,1.05587159836042,1.6029717235861574
87,-0.8449807410601705,-0.7045205086843734,2.6338727146883927,2.596309744522825
88,-0.8028364062664558,-0.5068671744919857,3.6977666121932184,3.3268164009400776
89,-0.77808127256826,-0.11165835653141386,4.158387445642861,3.730267729393332
90,-0.7680633930649914,0.49468027083493554,4.166832509294905,3.849772946204059
91,-0.7716359264180319,1.129218135064323,4.109484234540054,3.801287730304516
92,-0.7418123777729089,1.5917437119486373,4.125069663214075,3.783534181065685
93,-0.7866344562530532,1.8439884721293562,4.049349601027419,3.8298536782860193
94,-0.9535555394668733,1.8766583066069689,3.7521546634020266,3.76848316339707
95,-1.18923985368832,1.8747689830223395,3.3144691114221194,3.57225414503832
96,-1.4043557999952117,1.889639901618825,2.85831878543889,3.3069344227760826
97,-1.5222018205871009,1.835220381452894,2.4793004359461017,3.0737859834909083
98,-1.5182308360467622,1.5376022080374576,2.1604655359542857,2.9575255828180005
99,-1.4934515855254644,0.9757769407657317,1.644217065620488,2.985358266391735
100,-1.531391442311841,0.21384577784559952,0.9083605964251438,2.9784383455782715
101,-1.4868449319104584,-0.6607866683354378,0.13838506295644193,2.9517223369683627
102,-1.3055130906382484,-1.5252859950138957,-0.4425777427633305,3.0128255040247014
103,-1.043928424029462,-2.29167629425641,-0.7236207824149113,3.212827064661085
104,-0.8214572786056105,-2.8092318463912376,-0.7453575348264804,3.5033292471066857
105,-0.6852253528222624,-3.041491180754778,-0.7039232045791957,3.8441672314333064
106,-0.4972061461777423,-3.0333598709906413,-0.7015160902193835,4.130218391738535
107,-0.007031500491896825,-3.0382297492547075,-0.6787059643057968,4.290590850828893
108,1.2139939620914162,-3.10371618296474,-0.5549913935076843,4.38781203490297
109,2.8591779281800878,-2.950255421424946,-0.33735173510184735,4.412364881556251
110,4.350669091613189,-2.5328454060403147,-0.015492493729270918,4.370589759402906
111,5.259298434204208,-2.01514193826983,0.45511041033526467,4.442187825334381
112,5.452769326865695,-1.5984741444686812,1.1682923963132126,4.526346764871977
113,5.377564435371936,-1.4698762071896116,2.2501562972306512,4.290331223699654
114,5.493584784008062,-1.490495302925797,3.6598076852848687,3.4291034948382317
115,5.473444485917648,-1.4593778065255805,5.302119541457102,1.759490578793001
116,4.383398988402254,-1.5284451606698175,6.811066866606467,-0.6777426131650417
117,1.8675023713957013,-2.045639757062373,7.884295313412045,-3.6528293772681604
118,-1.901160379751957,-3.0392175103566834,8.390932540517658,-6.8294834336520935
119,-7.355540063717134,-4.793796781437553,8.505277419672568,-10.765109786819263
120,-13.110969148578377,-6.837485246247825,8.468857045811001,-14.801617500023442
121,-17.80927280414422,-8.510840729301696,8.507477080034054,-18.06008283316871
122,-20.665032963380554,-9.535832037198013,8.594671879565611,-19.96374900892517
123,-21.512067931941083,-9.850307723045896,8.602410463934037,-20.508409100501225
124,-21.122127958128615,-9.714007415301301,8.542286706079148,-20.24438309365425
125,-20.6836331397407,-9.550895801267556,8.441655663219153,-19.9581548490519
126,-20.902492890866448,-9.630545990630447,8.38184922231284,-20.10403029258542
127,-20.902492890866448,-9.630545990630447,8.351190065549222,-20.10403029258542
128,-0.24327724306815912,-0.3823053026653458,0.137566151041342,-0.09404190198981272
129,-1.1901011346641273,-1.6206742282067197,0.5419260560719359,-0.4343915233705151
130,-3.0456138448854064,-4.199004781229378,1.389070286618315,-1.1268180310334093
131,-6.132591461656821,-8.191526523260556,2.5904103446701905,-2.2988497411938402
132,-9.753238038752045,-13.622368846121226,3.767959200830051,-3.817621102206495
133,-12.86402985444508,-20.00761501025827,4.5948953598516615,-5.269028916050232
134,-14.760531596089042,-25.85587188401848,4.954649295885671,-6.283941972889524
135,-15.396034932976004,-29.911137757782523,4.916244810557431,-6.7373732392075105
136,-15.080417204089446,-31.768920503861917,4.908728072392211,-6.6742866348254655
137,-15.158837231377365,-31.703175178518688,5.006572570459495,-6.7200502253013985
138,-15.564987846395827,-31.728654543299168,4.886823795072161,-6.892384379545044
139,-15.007291182998927,-32.122285329386756,4.211122114931238,-6.643291795105031
140,-12.71373213342661,-31.435004656465274,2.800411700646766,-5.427944329481996
141,-8.393641448174662,-28.131303258533343,0.6553578764445145,-3.0496612802937886
142,-2.4069080382207915,-21.885388301181298,-1.9861331771634496,0.23377683097741953
143,4.29326085328473,-13.286492298130543,-4.770713254994541,4.121974422484932
144,10.582752143860288,-3.706607353741088,-7.579859365485516,7.687615812978187
145,16.96840783922429,5.560718062140988,-10.28802411790703,10.47295719870467
146,22.393972561042336,14.86071589421577,-12.537688163329667,12.029916171528022
147,26.111905966815794,23.4874955359678,-14.059268442617308,12.481246644266982
148,27.97065705801193,31.534513794039142,-14.806071820736689,12.247279384561015
149,28.340462147340265,38.16520859198328,-14.892426096503131,12.206957305472555
150,28.087054382077753,42.65037633896403,-14.885298385001375,12.424138810933266
151,28.034685430237978,44.85920191387532,-14.927343892967427,12.157700953262015
152,28.132653187604728,45.203376333135644,-14.768263285024933,11.13936774499067
153,27.33603552227617,45.06789532128793,-13.904619308989261,9.337207297923145
154,25.40643706304861,45.02626524299191,-12.329333446675237,7.011271001087168
155,22.29718624692065,44.801410656001906,-10.277585938945235,4.611334970794962
156,18.38736822183822,43.24710649088474,-8.1535820669382,2.5333728954166252
157,14.299427656615,40.36454592173739,-6.2630404486942854,0.45553644224225354
158,10.330964428134626,36.4745430306392,-4.41909180985984,-1.3129652464587915
159,6.494740237521255,32.24941507690161,-2.6493832354452334,-2.538095340754934
160,2.8452812207714526,28.2872358398092,-0.9281352696133056,-3.1554794506790365
161,-0.630204603471862,24.367303558865732,0.7785108628744268,-3.278939904075807
162,-3.766202848959781,20.692816955700934,2.5510708061569454,-3.1939283382578956
163,-6.5281513441379815,17.306783295519693,4.503291649656078,-3.1732842147244633
164,-8.642939199036634,14.198717697503872,6.68762221244892,-3.221007671595199
165,-9.97271818863535,11.339110078525298,8.991188773541019,-2.9291938978069827
166,-10.600274723822226,8.709752986925112,11.318796467787628,-2.365532624073572
167,-10.7272315073075,6.311514613900372,13.282312218110388,-1.729876528972439
168,-10.650078857860246,4.150402383739069,14.584056306757066,-1.262026771133508
169,-10.60734665214061,2.2167604895635318,15.189781123781657,-1.1028017363887348
170,-10.633793911028336,0.47246027046949124,15.27515646896098,-1.1842740429070975
171,-10.435393865939938,-1.1405833065751216,15.198146818317053,-1.1830645352368454
172,-9.96372463933776,-2.674801855473305,15.200347943414092,-1.1103662503394192
173,-9.190017931048514,-4.161542296194962,15.207619786025981,-1.1971703002595797
174,-8.241154722568309,-5.618958074399282,14.86755208694593,-1.6284905221609987
175,-7.369990847925216,-7.066829814825727,14.097756808659177,-2.2995388805727246
176,-6.74195058347513,-8.528198588169648,12.892446871841422,-2.960944592021809
177,-6.316159515325982,-10.014285865978948,11.385275392637976,-3.3682959486160913
178,-5.988317942843587,-11.511727002133828,9.80796439404419,-3.434483815806371
179,-5.6795972432095425,-12.993198607726473,8.312778678722594,-3.384888531087991
180,-5.4041955837338715,-14.442041621129622,7.042628370064498,-3.334793516516158
181,-5.2404749542637585,-15.861406949659266,6.085351370245874,-3.359251894366389
182,-5.231726759917924,-17.24346424872945,5.367687545808079,-3.3560530683095493
183,-5.246224239436682,-18.62115337293522,4.71322814711786,-3.3528542422527092
184,-5.212919710868816,-19.94634132554828,3.9505564051316897,-3.3578564197299094
185,-5.282144301072331,-21.027945763150537,2.962254685127131,-3.340088336817637
186,-5.481859745729127,-21.721884794411988,1.7125663775548898,-3.3336129423805465
187,-5.743784791085478,-22.01816156946099,-0.013906346414648385,-3.3724839806375044
188,-5.96925469042125,-22.00517118191819,-1.98533799540948,-3.4527498744514435
189,-6.075893140769448,-21.99840727325006,-3.720499247989042,-3.544249338487716
190,-6.060738770865091,-22.048636597998712,-4.834853501948946,-3.6113992478433246
191,-6.039370506019633,-21.95126596662066,-5.231077333460633,-3.6288848970560577
192,-6.0403174789239795,-21.513125680979226,-5.137228718742612,-3.5936403940526245
193,-6.0385606757874974,-20.72186183709778,-5.038853205673934,-3.6230250649471047
194,-6.011285408410628,-19.680060803753765,-5.144760170676619,-3.6626531234598527
195,-5.931749186138441,-18.567603090648664,-5.224702906478386,-3.592985450331253
196,-5.787406498020626,-17.510424398697012,-5.283471081794735,-3.28245683879414
197,-5.516183398234801,-16.38841305579246,-5.226687998709988,-2.6201790025188347
198,-5.011326400938878,-15.23116458313897,-5.093619211421802,-1.5806056441401675
199,-4.237330288329689,-14.072765053158005,-4.928724034402043,-0.2972241350439462
200,-3.3048441367442916,-12.97514127891451,-4.794939310591433,1.1201491947421331
201,-2.422405645456715,-11.994986096559256,-4.645155248827975,2.419105539339435
202,-1.7851882375604822,-11.136722842903191,-4.520958027547804,3.329871519556127
203,-1.3620756133442928,-10.337878161837548,-4.404976398341252,3.774566515125075
204,-1.071365891620684,-9.504495527168105,-4.270734845801509,3.8443703200878216
205,-0.8282090283989487,-8.562743558075232,-4.234242722364265,3.7815302146500587
206,-0.6442378622978315,-7.487136426376964,-4.209964646326095,3.80366062736144
207,-0.5562355717697445,-6.290036086411002,-4.130913096040821,3.820385865133154
208,-0.5501589526384226,-4.988777303830514,-3.713581084525301,3.51445824605949
209,-0.549628263421122,-3.5872637952794784,-3.030484963741681,2.813020774660556
210,-0.5262863431521766,-2.0877420974306893,-2.3323131799268535,1.7507743045791293
211,-0.5177072912367771,-0.5108044046438491,-1.8639600964557306,0.47851373572556605
212,-0.5272826531875567,1.1051010980729163,-1.7436622295229247,-0.7804963751548966
213,-0.5504024612927785,2.7265024534919213,-1.8204390731647675,-2.103777969175074
214,-0.47295070943805184,4.342357579741448,-1.6972531027420792,-3.3712193073720855
215,-0.22300107729138463,5.953384108938079,-1.7769565343419789,-4.329608492289573
216,0.17285039121807608,7.544846434921094,-2.295254271938812,-4.8514103557757045
217,0.627175444664319,9.076313261464877,-3.0458020827937435,-4.95101561642951
218,1.105093408145656,10.504073976835071,-3.7367202626854117,-4.909955865484343
219,1.653528352339309,11.809335295846076,-4.0857276370600815,-4.948902107616274
220,2.3219176445573,12.997350564878799,-4.04709686283709,-4.9296558218304165
221,3.0404584691870755,14.069332771627545,-4.003512168718486,-4.405878880042891
222,3.666189355179258,15.088885039184417,-4.0791521250851055,-3.2496314149325958
223,4.204896034630888,15.953972763053093,-3.607360847631294,-1.528015568850876
224,4.826201973943451,16.554789655377157,-2.505792473237353,0.5688808861606264
225,5.653816596107735,16.85927082424174,-0.8554260192667982,2.708311445029676
226,6.643585969744736,16.89291983180972,0.8531596934716332,4.527204820001647
227,7.592204646288306,16.90075765530277,2.059082830835052,5.76608809496462
228,8.276232152279764,16.935878045258068,2.5973465318316777,6.322788824601668
229,8.636825022517538,16.863185533912244,2.7541982102503835,6.333401035466817
230,8.760474891364709,16.40394097720717,2.679564202790496,6.300786503461901
231,8.743767929160349,15.47872141820383,2.692826824563808,6.344925900363917
232,8.750873756127586,14.138162119473659,2.704724235180075,6.2182851077161425
233,8.778207967964752,12.56474095044487,2.5788534113086747,5.615557410520528
234,8.73026884980762,10.947066638986747,2.362234759963235,4.674323675444245
235,8.48726401645022,9.244620835264202,2.1456161086177965,3.729914446178806
236,7.956121787488988,7.508929074413169,2.0337878891539276,3.1196740216674526
237,7.118908641123839,5.76255566872638,1.994518420441981,3.0190633438318026
238,6.073870083433807,4.030870827226417,1.9840875249074994,3.0421013466324807
239,5.1171485316601215,2.3760545244017193,2.081923141351276,3.040841867760426
240,4.419126597315332,0.668064434291689,2.4296755366533294,2.907775224046493
241,4.100907981872614,-0.8915138139979917,2.8810303425498116,2.7469183741392396
242,4.068850921774567,-2.0521826048815974,3.260460690080979,2.5953663065029247
243,4.139823948809234,-2.6837146265833267,3.4095812761939746,2.5854899203734605
244,4.170288292992167,-2.8405666526047453,3.384661905820762,2.646186243892725
245,4.0842363215092785,-2.729852704557191,3.376998016826416,2.561939794018156
246,3.9574291763219467,-2.7186238590048695,3.352201944058117,2.2634579107785737
247,3.811890168375112,-2.7541984355532643,3.0410307303115562,1.508638420078974
248,3.6860519837335035,-2.5883853121562317,2.4457510608398016,0.5123939574057934
249,3.6989018561076885,-2.2480752540634863,1.6940799580462407,-0.37103699760424136
250,3.7762319893984113,-1.8176114880509968,1.0052990538718563,-0.8652379713307836
251,3.738942350513734,-1.4162110899159555,0.5311236896020248,-1.0211861103541062
252,3.129540293096358,-1.1490153435849464,0.2413384940488045,-0.9527500463269033
253,2.0780989675626613,-1.0258628362864646,0.07613268893986952,-0.8720364329820046
254,0.9602093142524646,-0.9066432004462859,0.00194469836642399,-0.9115138950386247
255,0.18993139625949387,-0.8771834988671334,-0.014992663168763857,-0.9115138950386247
256,-0.1076167404201013,-0.157095362463544,-0.1577629724437416,-0.06247581116948457
257,-0.25441801981606615,-0.613870188457192,-0.5637212493037623,-0.2457293121545765
258,-0.38783147402982654,-1.5220948451555016,-1.3262151451653215,-0.4672350039664229
259,-0.44032009430661134,-2.9133789682343916,-2.4742941648319663,-0.6422377141642199
260,-0.4686192696913377,-4.636633780903152,-4.025017032770974,-0.7065033863017554
261,-0.4776953326820689,-6.744528035483999,-6.066559629680356,-0.6880339201951755
262,-0.39006022165940835,-8.814853923248124,-8.161777967282266,-0.7095394525595051
263,-0.1462314209191214,-10.396329785957823,-9.793509433774572,-0.6831711085683271
264,0.15349154917835867,-11.258938371324907,-10.663784552866817,-0.5216868448224629
265,0.392549755817345,-11.464628183225043,-10.76885580923724,-0.293624419535608
266,0.4645482617344932,-11.296123379387826,-10.744654270694479,-0.08767477587487285
267,0.46615670304329326,-11.302376267780085,-10.793741244522728,0.012518568416694032
268,0.45950074704420213,-11.450518871922995,-10.615764709341788,0.008654499460086104
269,0.37484169410603685,-11.12565526780968,-9.659111245740798,-0.02513396337816033
270,0.13587575313369035,-10.08215482168937,-7.891189420197726,-0.02703929782721709
271,-0.2067344569144477,-8.2177137828591,-5.533418438556731,-0.11637771049464803
272,-0.6183302709820646,-5.702290973443634,-3.0010759473537387,-0.2866057930947693
273,-1.1157345283599067,-2.9057376753210944,-0.6099183533174672,-0.5274180257086817
274,-1.6015074390410469,-0.13434476073516644,1.851100262016036,-0.87574244089404
275,-2.058217625802892,2.6444559003600214,4.29514444380419,-1.2596458303566727
276,-2.332530166018968,5.2632350397359,6.640784528024814,-1.60183765733857
277,-2.3781988757468127,7.632532873122875,8.755489629614928,-1.8251870805846575
278,-2.35568418119973,9.676425681004993,10.703665132304394,-1.89889994119861
279,-2.3918279056959384,11.403486403095032,12.317816600152408,-1.8464638997319331
280,-2.3662716643283637,12.757620749348881,13.440028712852332,-1.8645913620857577
281,-2.0378911474508254,13.670888062438776,14.022463669951598,-1.9388000637360001
282,-1.384582775091632,14.155972110626022,14.137609249838235,-1.857614404119725
283,-0.5093277070721237,14.312362366161969,14.058737935590996,-1.4628936538341613
284,0.44183788375735766,14.277415074555453,14.094136523512256,-0.648964685589431
285,1.3623632487008788,14.251624260127128,14.124496085894103,0.5445388895826901
286,2.4623281844011147,14.28649120284063,13.684905053153313,2.152681699654303
287,3.67710405422983,14.256779631659768,12.67318768234467,3.832798475258805
288,4.719030254445662,14.080105689026722,11.21916215332614,5.266678188409293
289,5.353394162433642,13.710637374700688,9.692551330226607,6.147119959838873
290,5.554023457759589,13.129704915142742,8.515246386322639,6.4448612486813674
291,5.458626066153994,12.35570167290415,7.833228731938238,6.32793093001809
292,5.449014082620152,11.424076153448189,7.493026887617374,6.311869346476615
293,5.548797050122026,10.325810586644181,7.273323488935685,6.43434654673929
294,5.424922300108705,9.143596641179888,6.792467080846199,6.260090143065972
295,4.92940554415848,7.964745737554386,5.731769953813311,5.617665500616842
296,4.0308552204105546,6.851649257172995,3.809605107719582,4.493568024448224
297,2.841858548980417,5.813926483791733,1.3624727468291833,3.0280994159194705
298,1.581971852614403,4.809872984319332,-0.8753519249695522,1.4854380413547528
299,0.47579574024752674,3.7709984788201902,-2.3085970551742396,-0.09246844338901389
300,-0.466781303965183,2.6326840876121635,-2.797285225450832,-1.6922317295223295
301,-1.111091859640986,1.3574493421525777,-2.810888018846072,-2.958110207918359
302,-1.4876811575362878,-0.05313754474219479,-2.8147768445599866,-3.6907522387946883
303,-1.7593060434306558,-1.5388355010609152,-3.1515969988806414,-3.9136560949267962
304,-2.0851786488451847,-3.0965444289627553,-3.57087706789506,-3.812045280116179
305,-2.482472730548958,-4.575012598102539,-3.945403760045784,-3.79187862064396
306,-2.8386221593080023,-5.734066376766394,-3.989084685935313,-3.877678904941936
307,-3.132435896189631,-6.430795486904733,-3.914259084109387,-3.70830587230544
308,-3.424669386857553,-6.68872966840857,-4.120232751084474,-3.3153363215384295
309,-3.734843064942667,-6.649425911332232,-4.771984588472204,-2.870645682664459
310,-4.020364727703254,-6.620319505251433,-6.118164740765588,-2.5254728213158013
311,-4.197549497596024,-6.6689734493574795,-7.691205016839662,-2.3731008726418605
312,-4.207298217962893,-6.602918383309415,-8.938669966675121,-2.4180255734523604
313,-4.198293744104453,-6.295363932438872,-9.51141708289539,-2.348512805901988
314,-4.254226200731698,-5.716265161032663,-9.619570003460952,-2.169231967421107
315,-4.218917461726824,-5.046531168729398,-9.578255080484054,-2.0100495041228545
316,-3.861373769077044,-4.529038836274674,-9.631786239668722,-1.9572284664432182
317,-3.1157070975470025,-4.306654651757693,-9.591580032917218,-1.9022312121439988
318,-2.0005176571382,-4.283032849461754,-8.914240799121385,-1.7084240917301987
319,-0.8650321694241278,-4.283142915182968,-7.441588859190894,-1.279652200063665
320,-0.07320258449096892,-4.267193834879622,-5.24943576213656,-0.4608317908094558
321,0.31219520212170243,-4.332850074822799,-2.722187435119455,0.4737498977538971
322,0.34945235546695524,-4.627090388333674,-0.10671076140760799,1.2080800202679527
323,0.3407807754718331,-5.121013228531185,2.2552903059436424,1.5868096163334582
324,0.37650416419045274,-5.8543015232307045,4.008242178031687,1.6870512394633799
325,0.302262738945587,-6.618260738010146,4.951009215818924,1.6187045844397172
326,-0.15660212910201854,-7.184396398862629,5.196779916046265,1.631031400170897
327,-1.0419997118678102,-7.532991614849132,5.03020136966613,1.6931870907026438
328,-2.4659918573791124,-7.619009048038142,5.008219960873871,1.4948002746031575
329,-4.0190049245770005,-7.575872830046657,5.15384099390158,0.8471805643540675
330,-5.208726549141838,-7.613328102905639,4.970645420947765,-0.10899052809535453
331,-5.899002409318824,-7.636072353392737,4.328208491520693,-1.0283359347534586
332,-6.0621144050199645,-7.291025927776457,3.262857509624344,-1.5887216451208879
333,-5.990548112301115,-6.4448225834858555,1.96243869494482,-1.7191953197252465
334,-5.966792455098128,-5.102295698946223,0.6217672952804285,-1.6362349464792971
335,-5.978496434101633,-3.4517955817590082,-0.6531185265402487,-1.6591545946909472
336,-5.577920618877625,-1.7864963894417671,-2.2961087070121935,-1.6742605840883957
337,-4.588770552144994,-0.21034719886914555,-4.061075091269604,-1.5225472174065124
338,-2.9821556078474716,1.2488455358389094,-5.528546439336115,-1.2681831202641083
339,-0.986776066559238,2.3695159024427297,-6.397524312063198,-1.0138190231217052
340,1.0515200438242474,3.0474110784654576,-6.6650257520369,-0.8825152515453238
341,2.970469757482859,3.3188002699493153,-6.524503001192943,-0.8465142555576481
342,4.633496653469247,3.3159352901016814,-6.514399774426842,-0.8266448913795982
343,5.9778645635874765,3.2651603238185034,-6.663783271129438,-0.8762206777521526
344,6.947171974461557,3.2838000671965513,-6.483221457787225,-1.347283654919577
345,7.553477174170602,3.2860275713005596,-5.815259221086771,-2.0940710897902446
346,8.14543560635124,3.1266992392129564,-4.322432791357601,-2.836173335398772
347,8.818441683220982,2.6979803832995013,-2.3048196423080154,-3.2955902706860205
348,9.485537351122895,1.9069632563231855,-0.42571445629846577,-3.3236452133805527
349,9.967911092649501,0.7263965594346946,0.5987236202798297,-3.288774296529113
350,10.130534643304562,-0.8032394288895812,1.0135518966347696,-3.392844932646624
351,10.037583557208277,-2.650169794823791,1.1214100663110331,-3.1905087862583543
352,10.073711262552074,-4.769454304508799,1.3283516089355385,-2.5898480053111017
353,10.217309695456416,-7.208211914998596,1.8870796534144425,-1.8269056250887805
354,9.872211028117412,-10.097424590939905,2.398837790441719,-1.1983814601222949
355,8.609423074146168,-13.667400797411762,2.6980279518006456,-0.9390093611357964
356,6.253553560326101,-18.27614398190805,2.7567844404822024,-1.0225245136822332
357,3.085177334920513,-24.413207690199094,2.795331930326323,-1.1144074096577266
358,-0.30992757484343714,-32.66182304331299,2.7825237508000282,-1.108131718578894
359,-3.4304500718349407,-43.53899369676563,2.763456737320236,-1.1929919834724774
360,-6.4313267604752244,-57.23105679940154,2.7649235900988134,-1.291525605165861
361,-9.002815881222892,-73.42860145427893,2.7594141975384994,-1.3654751228407487
362,-10.83433153454916,-91.37155011729168,2.8509534444028946,-1.3890869548545326
363,-11.784661262681075,-109.62883917156583,2.7941200699941,-1.3628247321163247
364,-11.915183093816617,-128.89846631114688,2.5439583805470827,-1.3478861004332332
365,-11.879913384877483,-146.46569129878202,2.1839832164003177,-1.3969205916174772
366,-11.973144195270896,-159.40090127371008,1.8541849191664364,-1.4377326858620738
367,-11.838217376262454,-166.34711193345458,1.7442751731450037,-1.2942203860374657
368,-10.67265502930238,-168.02876010808222,1.6274382958707299,-0.7608320572662186
369,-8.363586260455373,-166.43358357927164,1.5452171024077233,0.22893089483973383
370,-5.2593507469735465,-166.70493018292925,1.891396365175554,1.5138432105781443
371,-2.0410823450596784,-168.429352372109,2.821942670253423,2.812514780246442
372,0.7401712796254785,-165.74805055189515,3.9710025260849955,3.9738803604767075
373,3.251933856189237,-155.47490055510133,4.891719322069105,5.129714238401363
374,5.5246282184113165,-136.67203317419583,5.247600432000113,6.395138099179883
375,7.6897059212918935,-107.21485150474,4.99577978129636,8.204511362905466
376,9.501983977984501,-70.3239266201316,5.066800453287658,10.24565590968596
377,10.721654812721532,-36.05177732699058,5.340273943316625,11.97081360072705
378,11.320323611825366,-10.672859748904669,4.720573258107167,13.000818547387947
379,11.459925779447591,1.5431264430828486,3.281604495696274,13.304242595586649
380,11.375182981827727,2.7998023739533022,1.5421887582015694,13.16571049910805
381,11.290831251726303,-0.1545589806011085,0.1756627349266342,13.00637383839837
382,11.338449735252176,-0.6770719325456324,-0.3429531576061518,13.0854491432205
383,11.338449735252176,0.0,-0.08978663562276354,13.0854491432205
384,-0.21777745876091226,-3.3362639758972126,-0.19550062793615922,-0.14091224068610725
385,-0.860005010575577,-13.950727045011497,-0.5721944721299508,-0.49899281883258795
386,-2.385190462530426,-35.91981916456304,-1.1348150202358231,-1.4967251765331269
387,-4.409682957863876,-70.64700906638956,-1.7985108899084201,-2.911261009649866
388,-6.230662589724287,-114.76991523182113,-2.4339250634946406,-4.2522454305574815
389,-7.343349015932678,-171.09349494725183,-2.956892965207582,-5.125745644770334
390,-7.630826390880524,-228.1303065209939,-3.355736605386061,-5.388083080427432
391,-7.4030761812581645,-272.79380598506606,-3.7142559856337347,-5.226748044747488
392,-7.552524942112945,-297.7966699125351,-4.2384494151633145,-5.302630687732978
393,-7.771680686516071,-303.8727372974337,-5.167721043468914,-5.466097083109611
394,-6.905530387816846,-299.49107269236646,-6.31077429032027,-4.841886653137258
395,-4.4337470636272585,-299.8645607359082,-7.294439103703659,-3.14066914402587
396,-0.37322716730200056,-303.3659562611793,-7.84487717022991,-0.40448790765184156
397,3.9619917104688893,-291.4500260324118,-7.933689767705395,2.4773334718450313
398,7.060986890470554,-257.3995412345303,-7.877310803003677,4.504410821621277
399,8.316206653773836,-199.80027557201615,-7.854785847584626,5.301519023689459
400,8.450829337790218,-125.50071531881777,-7.820601948782316,5.409130943804466
401,8.32360604399567,-46.116421163752435,-7.542210116807848,5.29529640680612
402,8.311675054153904,30.817374021537923,-6.9279604568348745,5.259733761162048
403,8.150646814331305,106.78260867517508,-5.8344389093589735,5.23031649080577
404,7.34048302678513,176.97212340740754,-4.146491248583486,4.898041543186915
405,5.813653291490552,240.9345973506674,-1.8268795449113346,4.416126326022039
406,4.031192549189815,295.68336886405444,1.113356512598226,3.9661905125012904
407,2.634026629993624,335.9221531566229,4.456930979677161,3.713407225369261
408,2.0031393229110366,359.24515974634306,8.12052642877876,3.7243731297753717
409,1.8370156493678176,367.83436578430656,11.443351499977204,3.716139719137379
410,1.9152926362831686,366.69017278872724,13.817678042803987,3.6823681602319045
411,1.9739730534716387,365.96426737963935,15.011272913778091,3.8040964700115243
412,1.9646903125610247,367.58392828593793,15.104023227474608,4.120489652239374
413,2.1865691791488606,365.13084068914173,15.166303704386223,4.503686356774644
414,2.703032753110559,353.98618201577136,15.275694227588843,4.8046656429647285
415,3.3702953472447965,333.8220094654302,14.805072940550527,4.91036610498684
416,3.946280071524286,307.2322861083682,13.064957193789137,4.858711209252643
417,4.2518457692534986,278.99936292363753,10.32134402177858,4.826569816927952
418,4.3157185113893135,252.96733641824466,7.495706168357819,4.823100034110482
419,4.257245390406979,226.92144928378895,5.591119148655082,4.774141284898127
420,4.326816537426104,202.0410619824426,4.971199388342409,4.654744674302411
421,4.387956506875866,178.60944953549813,4.863475580717134,4.364175429663321
422,3.9557262716715296,156.7232452007432,4.963264157671319,3.8020711214283223
423,3.016451192872715,136.3297402128623,4.830104450098851,2.956492494457592
424,1.888049626732547,117.26788600856771,4.084357574495812,1.8431183890184835
425,0.9968897318085447,99.30947418828809,2.9794374610062384,0.6444044584110664
426,0.6172840978357313,82.19752693159836,1.8974330681722817,-0.36625624199965834
427,0.7306695200568745,65.67960926898918,1.1604908655440318,-1.0197870409367535
428,0.8240436168676146,49.534507297884815,0.9959611801237424,-1.3036908541292667
429,0.725626214722234,33.59144262720799,1.0657307173929402,-1.307835187789752
430,0.578898132610447,17.74166253544455,0.9272991794432953,-1.2742709259372917
431,0.44425234397117763,1.9428190338883145,0.48750953951369586,-1.3423671371063406
432,0.32746864981022683,-13.782997398906545,0.0015300029458808415,-1.2388846523396808
433,0.3915027299823878,-29.356385181993055,-0.20129731464776715,-0.8917062042282072
434,0.4983233773138966,-44.65155290352343,-0.25416355866822354,-0.4403727295389687
435,0.35267746345996176,-59.50961137130925,-0.5282930715354897,-0.06040280176222457
436,-0.09784981433765477,-73.75286823379169,-1.1847827354474634,0.0841013112398448
437,-0.859437887851509,-87.19890122517687,-2.0453714191177426,0.0630034661617948
438,-1.7807743729237462,-99.67339522262492,-2.7133625116315256,0.07054775503248772
439,-2.635686432579638,-111.02097708662365,-3.007328026697256,0.03953909528793337
440,-3.266031072572935,-121.11354663010455,-2.96930575647489,-0.3406548974165081
441,-3.7878155086825416,-129.7611043965706,-3.0156918251132,-1.1364806349044456
442,-4.157698450680637,-137.33294981826884,-3.154116725590844,-2.3258520951192816
443,-4.353356257977681,-143.3396532645507,-3.2357536180468833,-3.789589216629645
444,-4.370580210363944,-147.32068095117285,-3.3192032818385098,-5.344365838125001
445,-4.539676837795094,-149.26594117096937,-3.436958145978137,-7.325632014361273
446,-4.927485034016781,-149.5758797473685,-3.7113233672794355,-9.439681862969463
447,-5.425791335694457,-149.43042403529446,-4.18395264824556,-11.173014756295927
448,-5.84617227181201,-149.4231100380184,-4.903303303166116,-12.194289020590642
449,-6.023954323154234,-149.288505654001,-5.863513356847161,-12.465078218724685
450,-5.972246579640182,-147.89693668522185,-6.959934504636362,-12.298999036433798
451,-5.950731614758808,-145.0977521372628,-8.051255185882543,-12.310592123236798
452,-6.026244848172451,-141.02835886963294,-9.229696552208026,-12.44289078745175
453,-5.813213283102811,-136.1795358032444,-10.349975500062111,-11.919259096440337
454,-5.121721860965964,-131.03945208946857,-11.21685160938835,-10.48041243339043
455,-3.8976132696762167,-125.41918833798711,-11.712081611378125,-8.119143919581775
456,-2.309841384976538,-119.39549750255085,-11.844953780016649,-5.18791799049333
457,-0.6190203506892282,-113.03814850738554,-11.717229619583657,-2.221873964043337
458,1.0735309215548385,-106.3919016686367,-11.804688240147472,0.45845543301471525
459,2.883447508363502,-99.46621747687844,-11.965213332324081,2.9138675522486475
460,4.942914516295485,-92.2810220869096,-11.56195393307018,5.0112496190735785
461,7.168987126880069,-85.00293924982613,-10.298298940370852,6.757585669247663
462,9.111822706006128,-77.75583151815202,-8.198515443203428,8.051145945395767
463,10.391823279271678,-69.68168910985538,-5.608105120549706,8.843903080254314
464,10.936432062365569,-57.71337487004325,-2.962131512847205,9.193931358146923
465,10.881245966829109,-36.28968138143764,-0.4232759532453383,9.203611916007588
466,10.925724666398377,1.1727481570455822,2.3342216608218624,9.217891594405682
467,11.066050709235476,59.56698916779262,5.652302943057503,9.270962962088772
468,10.782331824184483,139.72935455948078,9.044668976881931,9.15620167135259
469,9.620546247981656,235.0346568949765,11.765521435088134,8.581611835519872
470,7.5219940286148725,350.0765447374607,13.346086006079485,7.498933248151366
471,4.673791408474931,463.14843940115634,13.816040929733665,6.000794101561017
472,1.4838715023835496,550.0122838041777,13.54925589126697,4.312976263160351
473,-1.6087221813343964,597.8863088420579,13.521084284310604,2.682345953085389
474,-4.634233282970842,608.3019615209919,13.775998979620118,1.138662167309855
475,-7.229610101024987,602.4585043507723,13.434934729691511,-0.2044177389655303
476,-9.30707933813494,603.2561319876359,12.23423301766588,-1.2035547484377673
477,-11.02132409606972,605.0762974645061,10.220226129405674,-1.8052313469163015
478,-12.570238631175386,573.5954592088797,7.820191897247028,-2.071140023524759
479,-14.055953764475055,499.08187521591844,5.658855479057986,-2.114095377236922
480,-15.42250535559465,382.49300465113225,4.15671828937037,-2.0696361448383596
481,-16.47096064334537,239.30462921480876,2.961328540676068,-2.0862283389482905
482,-17.10546686264556,90.79579654588227,2.0531217609356163,-2.1497256103628684
483,-17.3740337534852,-54.9888362989103,1.2810782044298843,-1.9204664678687504
484,-17.362473990673816,-197.06170498398313,0.476901424144018,-1.3897745703290607
485,-17.372566630378333,-326.74542680255536,-0.4672569953289075,-0.7367510991629523
486,-17.43844388667184,-446.0597923933878,-1.5521193295050255,-0.20897718614030242
487,-17.34309613660006,-545.3536671227641,-2.6853165698561896,0.01825441989118958
488,-16.809272431934595,-614.4303730095171,-3.63523305951043,-0.06791626712831622
489,-15.713931261298395,-650.579398328023,-4.244231625905579,-0.04724954592233532
490,-14.08103871780806,-660.3020623363998,-4.501364748679302,0.07277122065386077
491,-12.140556418582738,-654.7761092096312,-4.5551540074888806,-0.09192566721987627
492,-10.188454427232704,-653.6078043825785,-4.576854604301751,-0.7794293515298237
493,-8.20920957051526,-658.502756100731,-4.585518524365535,-1.9994659019423133
494,-6.157536920594813,-653.0380016397069,-4.591166005367137,-3.580470749309736
495,-3.839036473806802,-631.6337360268357,-4.780883526287964,-5.010891350778588
496,-1.1488200602984902,-593.211332561057,-5.180610720749348,-5.875519701209048
497,1.764105636147129,-542.9453797972725,-5.660656980747419,-6.291824844594532
498,4.5504025090522155,-490.08559019134486,-6.056339471361817,-6.358935753019046
499,7.102972513882636,-441.91180386645414,-6.21559668567998,-6.266153392510818
500,9.30170646533806,-393.9587849203589,-6.1650558623903144,-6.257588448878256
501,10.972797642339328,-348.42243405636475,-6.103517961450741,-6.32819535598301
502,12.009447092002974,-305.75968226426016,-6.124273128571476,-6.266773245912715
503,12.428929494285727,-266.08698366440774,-6.065050101469488,-5.991473103766617
504,12.400247604176657,-229.25273988652214,-6.008865431491781,-5.412397660001471
505,12.330226892518162,-194.91516910050396,-5.924490175813115,-4.548220910296312
506,12.367356771232124,-162.61947875726028,-5.797356934737229,-3.288369114474486
507,12.28816677499061,-132.98130141870809,-5.7852396812311415,-1.928276058236962
508,12.007869625943787,-101.07002633902307,-5.681642041656939,-0.7629718146372301
509,11.633659497825134,-70.15397826717401,-5.45815674050288,-0.06682158958215907
510,11.307658969351575,-45.71080225429725,-5.170435467632315,0.1389648771093721
511,11.147197110851137,-31.432276784698452,-4.927502835918879,0.05233590191964595
512,0.003511208890948239,3.230377629830185,-0.085323798020218,0.046444532540582256
513,-0.002269914161807239,13.507958870056925,-0.379034702128376,0.21502032914302371
514,-0.014769420692236065,34.77979594391813,-0.9503693421412446,0.5533098020465276
515,0.006709137455189154,68.4048142926404,-1.7344825459373294,1.1685118783499682
516,0.11899112788681607,111.1273476621933,-2.8655061274643967,1.9007147094352008
517,0.34085869360021676,165.66332960461514,-4.1083811697865915,2.5268789655752713
518,0.6540321579223007,220.88990685262903,-5.15032863201259,2.8953205416785064
519,1.0707045797553585,264.13587617070976,-5.786099754196947,2.9836040485396245
520,1.6773421631097707,288.34519920284833,-5.977700550377705,2.9475213839133105
521,2.5413779473974074,294.22744245235674,-5.847316931685972,2.9332840945589855
522,3.6606817732380117,289.9819209269908,-5.895207436724771,2.9275250549397587
523,4.755712842658378,290.33984584662346,-6.034848056487157,2.7288640184484816
524,5.53278911407837,293.7350129128587,-5.649576199319477,2.3465551254220993
525,5.886153938181001,282.2076111434372,-4.558892154175745,1.8636538078466807
526,5.911384424629832,249.18263985520503,-2.9126674010855083,1.4244969501593976
527,5.836130521582781,193.0960435883033,-1.2396331086066656,1.140840539349828
528,5.91358826317897,120.26000823781699,-0.11771633992464098,0.9643942765644357
529,5.976448156818044,41.55523463377589,0.2373052850335508,0.7956309914835432
530,5.603902292191009,-36.0246404663428,0.2970528056852765,0.5412249720845862
531,4.5253946267728455,-114.07630449893013,0.3306003382114155,0.11813566562504974
532,2.646986195417941,-188.46951915556104,0.5640680443420223,-0.5339191323178583
533,0.14073413876049934,-255.7661291865669,1.0433386988010493,-1.4351600620323188
534,-2.5688796465815207,-317.9856793932999,1.674512628554959,-2.52563491780413
535,-5.487275682608158,-369.38557241331716,2.3325532310424855,-3.734443120953687
536,-8.248156436098096,-404.49813740242666,2.9008727807190495,-4.811023300739898
537,-10.31277307129807,-422.1160294509456,3.3510947609718698,-5.547787675507764
538,-11.43171431944671,-425.69014187927564,3.7045221672541344,-5.8934984295058905
539,-11.653950389926665,-422.8678429926137,4.005387976096538,-5.942981253243352
540,-11.582798463918643,-422.559474469903,4.290894858920465,-5.896421047148816
541,-11.586509647020584,-424.142019981497,4.578984899553595,-5.876034222863904
542,-11.482309385766143,-417.39682797763305,4.871416579817147,-5.875805195442444
543,-10.605346863091082,-400.0264557515165,5.163468444524396,-5.771349990358724
544,-8.96751568620085,-371.98547978732597,5.434984260116319,-5.578791902292201
545,-6.783977019741364,-336.9343154460018,5.814502830800924,-5.325018445841641
546,-4.393039151897344,-300.1746688708548,6.300167468826177,-5.049635544233782
547,-2.238981267730416,-264.12988406959465,6.7847723646088625,-4.766970016527431
548,-0.49642279575798437,-227.69320072033415,7.145872412982004,-4.427129183456746
549,0.6303491257236398,-192.29585985558342,7.310467783694423,-4.008744303692877
550,1.0813737518489208,-158.6406884627654,7.230217263532231,-3.498407061239508
551,1.0461787931179254,-127.2137288875167,7.316696301414353,-2.8907379914852056
552,1.0074002695311375,-98.2429443565407,7.482823102164278,-2.195487945307096
553,1.0770389912443508,-71.6868603985234,7.217103655588762,-1.4439327819617969
554,0.9887462488930591,-47.273970742174996,6.120332545934083,-0.6958361638678097
555,0.4172803377428548,-24.577353585225495,4.485870015286445,0.04031656191812638
556,-0.5294790157937119,-3.0938170313399516,2.9265579013199363,0.6970187757118429
557,-1.5145149352668503,17.680485132347094,2.0165892559869225,1.190538571036629
558,-2.17454458820632,38.17377981053674,1.9282792260366308,1.4807146932005044
559,-2.3485848910658484,58.66693851267782,2.0688359335337467,1.5840607531875888
560,-2.2378151334376595,79.23737022339384,2.1480607641172287,1.5622442150430496
561,-2.3015306636145128,99.73675072585071,2.096151316471678,1.5338019250665575
562,-2.440460756729805,119.81937090179798,2.096151316471678,1.5637176706309406
563,-2.1972376039686914,139.0085998410829,2.070060207252311,1.6035521832166055
564,-1.3184858644041983,156.60957174245613,2.0999352971580985,1.6375050480783067
565,0.23350629167258163,172.76672392466799,2.179348751594385,1.6367236778688143
566,2.2794688623064143,186.5470939435462,2.1340575092207024,1.6311763897421327
567,4.432130036696811,196.54678753872207,1.7411847045240914,1.6775092454600198
568,6.427298565628198,202.183343795879,0.8565311500415447,1.8024287795622862
569,8.198925094457568,204.09536141924008,-0.4891319364059792,1.9597506142261147
570,9.396378868550538,203.61956662064824,-2.0758916284519437,2.114878135385707
571,9.950988231424425,203.46532115221748,-3.5783166262901656,2.261175177116127
572,10.027312509336149,204.02085228356316,-5.043003484372094,2.438425443948855
573,9.937584883134566,203.3169110763532,-6.317812185573227,2.714831037726048
574,9.945029002010445,200.14493375415688,-7.231019329320844,3.091726501623499
575,9.963867952256754,194.21582832881745,-7.722601257485579,3.5455174053388423
576,9.715848970015314,186.08526695642456,-7.8167802395574455,4.0528542396465586
577,9.185770954813377,176.9838336469408,-7.775088520257319,4.59344933034587
578,8.372618910359833,167.9922645032914,-7.852106882425851,5.130448068874855
579,7.3165729906437695,158.58585984269686,-7.852085915603808,5.59966356019992
580,6.124760268879257,149.22534830570265,-7.216804179903384,5.981001834538966
581,4.9274560784463155,140.14122737681487,-5.743926166793902,6.251242062317477
582,3.8847662139166097,131.49448715020168,-3.5501530426087395,6.411820291348819
583,3.204753832673118,123.3371740174124,-1.144942055896243,6.4857586837576715
584,2.8517824222266563,115.58157234286423,1.005490845179997,6.488186397233333
585,2.6444663462233486,108.01871133878454,2.6004251417435738,6.491742986363146
586,2.4495780866985437,100.38933586646965,3.6090627095270817,6.528484403861283
587,2.2538361201074784,92.46712912457645,4.066883735917315,6.52148373888586
588,2.0440341857154016,84.10795631522093,4.118814814263814,6.297999975095997
589,1.6823249452780367,75.24743100765198,4.104126065415339,5.7217779121379255
590,0.9841471922709029,65.87636487267174,4.146017688836697,4.730822570714846
591,-0.045821108202800054,56.02940253243877,4.081774215963429,3.4389773175731815
592,-1.3269275252873602,45.779861683204764,3.5294789773335484,1.8674828161597905
593,-2.535244703081397,35.224893638089235,2.4314462454405836,0.32553354026833126
594,-3.3930951763076065,24.47267169197434,0.9288133740824669,-0.8539271412984886
595,-3.832472749278196,13.65031075990728,-0.6481742539491987,-1.4941951023806266
596,-3.9536642442135985,2.92984899818485,-2.047878994679559,-1.6404450971800046
597,-3.882692077977178,-7.456173555676475,-3.2228572639965534,-1.5462687281550958
598,-3.879638457310523,-17.239349800514557,-4.067198996479729,-1.552537633588371
599,-3.958921448392415,-26.175951730273162,-4.536093988862597,-1.5949541545400678
600,-3.9003378037229606,-34.067518147176855,-4.690339428096549,-1.2230096208949133
601,-3.438984203231252,-40.90961387639223,-4.644224453267305,-0.5536116735258839
602,-2.668861305286407,-46.81774533403846,-4.619748707519497,0.1654072054263081
603,-1.8734192026874488,-51.37207423420217,-4.685090062292103,0.6606951975781827
604,-1.3491292934840868,-54.25448119225785,-4.661674060260992,0.7440370625781687
605,-1.2511469103629853,-55.54043471145206,-4.363830529716895,0.7203761574820111
606,-1.2734977483405763,-55.56134328016413,-3.6447652492672855,0.7579750012897615
607,-1.2950418910525228,-55.57969589448071,-2.5248998643552114,0.6339654219453867
608,-1.3127026301058602,-55.78044824234124,-0.8694382642047846,0.07150319788384046
609,-1.6478930108817123,-55.38265629241239,0.8981744017670226,-0.93426511412428
610,-2.36921148466652,-53.37229977793108,2.3512572423603824,-2.2522681991259645
611,-3.5564615258253367,-49.7472342085342,3.199116895228608,-3.6398608115600726
612,-4.859478590613632,-44.40718059096332,3.3969459504508683,-4.875159176960216
613,-5.8557702909264435,-38.93753825428786,3.3262410228008723,-6.162161098638082
614,-6.408156568047509,-35.007481088416455,3.352446097826737,-7.3671925943266645
615,-6.511443530263971,-32.768053782608455,3.3297526486559126,-8.311515233290358
616,-6.427524553398294,-32.26488287534734,2.6151835820888722,-8.883978844433017
617,-6.460246094038518,-32.553911774325826,1.100600518628661,-9.095680576291745
618,-6.479435805856528,-32.53151156629727,-1.1536798198138671,-9.046973476739634
619,-6.107419701401982,-32.41732404419641,-3.9792782054826112,-9.029492880683314
620,-5.312248528336198,-33.7824215705619,-6.595571529230925,-9.089572709592398
621,-4.192623506538373,-37.04396351604459,-8.509907263143207,-8.997546231518463
622,-2.945870079421758,-42.11398201717203,-9.54465236481133,-8.650154190436709
623,-1.7791534880965825,-48.18506486693573,-9.666890998395564,-8.063073634228186
624,-0.7624960428361113,-54.262707811621695,-9.67049441385735,-7.340188006888534
625,0.14978900942853202,-60.1156045641031,-9.749191031474876,-6.61673734976643
626,0.8305108478585332,-65.16105535165578,-9.482235803848884,-5.950542838465484
627,1.240034298616321,-68.598517804606,-8.16481344999333,-5.177503489020542
628,1.4578449565553326,-70.24873831097132,-5.8342559545347195,-4.261868849163467
629,1.5740495971209816,-70.35359691178603,-2.688260657654656,-3.194865484535967
630,1.6425080221110426,-70.35065313539215,0.465871703402552,-2.073550787282783
631,1.6991874435543979,-70.54270770160393,2.7378754828388066,-0.738564389252053
632,1.7714986553797805,-70.12379584266722,4.140762334580115,0.6100425278919369
633,1.8297483769758063,-67.8144768328888,4.645782042124977,1.6960070608184297
634,1.8584106573354424,-63.31614369387736,4.539255519578841,2.3416564187569135
635,1.8417231811337733,-57.23337864595672,4.557916429508549,2.5408868472863095
636,1.757687220867449,-48.99276945731204,4.559637717701517,2.457838560536104
637,1.650956170359306,-40.52281908853193,4.26356864421721,2.3531001203734143
638,1.5675545524242542,-33.32886828206972,3.74052383419934,2.4043117324443846
639,1.5214539459059977,-28.980351447020535,3.2174790241814715,2.4043117324443846
640,-0.027753650194593363,0.47042305239056614,-0.14475682368857,-0.015477597840000083
641,-0.007690420572255889,1.9777216768301957,-0.5199048575312184,-0.012721604484396548
642,-0.04376644929410078,5.0883959317570735,-1.2256455188719317,0.004200331523020673
643,-0.09001932958281002,9.982603208917066,-2.2648470774861185,-0.03867667696222651
644,-0.007192327094797335,16.15414377410784,-3.522397943253849,-0.07503748783489567
645,0.27147459137552604,24.099771846476905,-5.170211883129389,0.02566240091715488
646,0.7176836774096723,32.22712425925938,-6.9048029446963115,0.35132132087124335
647,1.2623188082167873,38.663653062573744,-8.320203333078917,1.092060779524807
648,2.0190195962716637,42.32103240271497,-9.149282179047763,2.0523924825077797
649,2.836967554687502,43.270615299430624,-9.32570792783121,2.8918635428939643
650,3.595254501408042,42.442241604939575,-9.331377640387823,3.365701690512404
651,4.106017985764113,42.637416286637595,-9.310410085840186,3.509272994460199
652,4.25520861559904,43.58119878371472,-9.132434648972351,3.4146549848170027
653,4.179178419693588,41.897500275807595,-8.358180076742464,3.404527986712004
654,4.185270759467286,35.642184841776334,-7.104220631221975,3.494197666593503
655,4.248733936456442,23.73736678800362,-5.619365475229634,3.3511346501569665
656,3.9478076077341964,6.840711233010082,-4.192671833290126,2.868193657135284
657,3.1393376281523286,-12.91570933702618,-2.9149194793017124,2.011882486008242
658,1.883603226212586,-33.072694840678615,-1.3796548909664845,0.8815121719234169
659,0.4629409373601337,-54.609290138206575,0.4968337891553398,-0.3094817335625569
660,-0.9012541972548975,-75.28400765335748,2.748746006662196,-1.5813735695905238
661,-2.126204048046591,-91.73391908327588,5.281007507410423,-2.853648736536823
662,-3.1687624833506356,-101.81381349699095,7.8385397493667055,-3.845905995987444
663,-3.9024152288268126,-105.6665384850389,10.194263018126925,-4.409076743862158
664,-4.262110285519081,-104.94093431107956,12.005199509112343,-4.548851001267479
665,-4.279686833069359,-104.8635185121796,13.102447440651128,-4.4722735698386975
666,-4.238599532105315,-106.02033491640715,13.561775275290517,-4.465336083028921
667,-4.285884068081503,-104.36012922152344,13.6049893329098,-4.504157120297794
668,-4.234768147867567,-96.90964514235074,13.537604428832326,-4.220379159345549
669,-3.8507600259316113,-83.03761821154377,13.560767343370669,-3.564065874487696
670,-3.1416596184735,-64.26282455619278,13.568611920745896,-2.486370568362106
671,-2.292595675257381,-43.81677497569034,13.272681398690954,-1.3153066748265083
672,-1.601931896127251,-24.626464415903442,12.640698611473201,-0.443743569240403
673,-1.272573864208284,-5.785503759206919,11.75546765508757,-0.017402378746968705
674,-1.1914911262625323,11.500777661852911,10.794041350472398,0.0812492268151438
675,-1.1940716462127998,26.562660187001597,9.9000251096085,0.009325184564696509
676,-1.1755491910083624,39.552581655698376,9.006058529850785,-0.008325574229011173
677,-1.1183869565843225,49.900581314562395,7.938654080772684,0.02529326014436324
678,-1.0651401886916572,56.93839692939745,6.629581733475803,-0.10838333730102828
679,-1.0649049985888506,60.634401253548965,5.123901315887532,-0.41821529106780325
680,-1.1139062442200098,61.730590379215975,3.471697602272848,-0.8826946712035906
681,-1.1694598565932772,61.35083175831199,1.9601063022933098,-1.4291192019869141
682,-1.2270557824284192,61.19332615317397,0.8882980264000391,-1.955604703865451
683,-1.302732008344422,61.51959786369236,0.30398900138878293,-2.464292835773745
684,-1.3757057828613872,61.137061729224136,0.09488887480397697,-2.9382254703189874
685,-1.475493037458992,59.58837083570023,0.050304131980460555,-3.2767383923225597
686,-1.6774798440139098,56.87189686002013,-0.030656898422686464,-3.4481945100793565
687,-2.069852967970904,53.41437591519107,-0.2237927319940387,-3.484072864908813
688,-2.568712562878329,49.9206811977639,-0.29581270091823775,-3.431798404784317
689,-3.0298230168904032,46.917727573780425,-0.35687525090071454,-3.4619485420804654
690,-3.302476613080489,44.04090658523339,-0.6127890695415115,-3.5289417086362267
691,-3.313401877133595,41.40054585214486,-1.1899549453389673,-3.4219201972232676
692,-3.3361561480348314,38.95900685624308,-2.1867750174103175,-2.986793473093209
693,-3.4207277756134187,36.66620020562391,-3.5375581740680597,-2.117437983245673
694,-3.306845394206319,34.47485134063432,-5.314346362540338,-0.8650395001162223
695,-2.651893852313991,32.33388760269316,-7.2007295047038316,0.8324048665857194
696,-1.416203217160081,30.17766152616221,-8.840631041062334,2.6053145805176654
697,0.18253779594764308,27.923395073133914,-9.873146310040676,4.102840190562844
698,1.9416784111362215,25.490521378897178,-10.233361291139177,5.003929230610611
699,3.407320683916813,22.835180852826568,-10.104188475197757,5.288910369912955
700,4.461929566851591,19.961937283989236,-10.074944756242276,5.129502210466319
701,5.030502710123505,16.90207645906702,-10.210141095663475,5.1424539323359575
702,5.141815847795245,13.688040400161759,-10.020338223041785,5.32185367373852
703,5.12034259435829,10.339963073832589,-9.321558166649996,5.074748053070559
704,5.118075195149857,6.867907747980487,-8.128532202245859,4.148487649567068
705,5.058902211473038,3.2914921845299814,-6.574778595836881,2.5706558734486302
706,4.557047735482565,-0.34380850822995024,-4.882706192333544,0.43722813643405534
707,3.5301402932936394,-3.966887519135117,-3.479846638852598,-1.5971424590402334
708,2.0567681044975665,-7.482069393510161,-2.4249781966670487,-2.9411678226960136
709,0.4706175346067189,-10.767241964818199,-1.8896929628752726,-3.688967579289069
710,-0.7654622579081445,-13.669238144172823,-1.8541166246624319,-3.858272831984115
711,-1.5390962432110864,-16.115316390806775,-1.7781847386780336,-3.7387735185421387
712,-1.822966865973912,-17.924222678092992,-1.8449749905214607,-3.729553939828063
713,-1.7912539496456146,-19.042138281591086,-2.138188331522381,-3.80725876318224
714,-1.7865901409280622,-19.53887422881123,-2.6759031757912974,-3.4896625784927093
715,-1.8212978006696974,-19.661545348192796,-3.213618020060212,-2.628906867223244
716,-1.726447430096473,-19.66106063952244,-3.534168929924903,-1.1881500983758817
717,-1.3651522195145644,-19.732950540912274,-3.528330421414136,0.6714280356521517
718,-0.7251876762438633,-19.823887515605893,-3.44259113623462,2.642779957334243
719,0.1918967526130727,-19.84492295743034,-3.5425273871770373,4.688428222818848
720,1.3151426409094744,-19.930208396531444,-3.2873467709957476,6.7396168092072735
721,2.573321000957451,-20.233754686018052,-2.5916353596881163,8.422756408129057
722,3.8155343618765603,-20.93078902197206,-1.498613321723167,9.4884530806246
723,4.711364242861801,-22.046320044024856,-0.23359387219330296,9.915781379197597
724,5.135569134822379,-23.513938868852037,0.9112636122082717,9.853284806400358
725,5.175716952442616,-25.167418012202745,1.7869750361236916,9.837469572836754
726,5.129938006953199,-27.033561803229038,2.5194772598144572,9.947757801548558
727,5.152076683490508,-29.01696084244859,3.067129245864178,9.776947197618519
728,5.112637143593432,-30.763246443983597,3.475013127049965,9.036518114356197
729,4.785343491027189,-31.963126217789558,3.7573338538638428,7.690773071448331
730,4.195894525987335,-32.5213378050445,3.9275539290352723,5.903402857815962
731,3.412663392377757,-32.51566280687414,4.008778410792134,3.9729120752258824
732,2.4839367271804185,-32.52253253903274,4.027240770950703,2.121731892021067
733,1.4141000206255778,-32.632064109477334,4.004937189716323,0.16844100333799272
734,0.14605845614078777,-32.44162337587703,4.024739582741578,-1.8235907297388216
735,-1.200715380085775,-31.477789474744135,4.053054768691087,-3.7805769745822038
736,-2.3971632050599228,-29.620530197848513,3.990269996583513,-5.68305088551852
737,-3.4766790754875627,-27.00657147850723,3.723819439957958,-7.466204612852335
738,-4.40758673211398,-23.99694849645199,3.3108907721447256,-8.90128698962164
739,-5.13547742672801,-20.93131372105168,2.902374997074547,-9.824105343644185
740,-5.590151174324631,-17.679565868000598,2.645894677275771,-10.229228781216992
741,-5.745517600014144,-14.395685334970663,2.5888321618715717,-10.219782033089688
742,-5.693037695660085,-11.197488760062065,2.6256579688586514,-10.211996127969085
743,-5.632954605899728,-8.199730044073734,2.6498133709860205,-10.28686120167312
744,-5.671386205293921,-5.474965201995713,2.6132524438014686,-10.17044210688895
745,-5.669394036040657,-3.036665092920736,2.6144162415725156,-9.53810319372988
746,-5.604694255112764,-0.8577573495183559,2.728823750942048,-8.292401870801536
747,-5.424695524662302,1.0978279762062482,3.037287110939504,-6.520365413539549
748,-5.081781231605915,2.8582187613819663,3.7717577329979544,-4.333433942047761
749,-4.553904870667031,4.452975483671043,4.7527302026881255,-2.304001592063014
750,-3.848831228303366,5.9292522417234395,5.643593636314346,-0.7432007289345703
751,-3.0182658843495735,7.343273951937807,6.2049830375104875,0.08421347793574452
752,-1.9379593762754033,8.731775788492314,6.366961683538044,0.20561507329052786
753,-0.7998361964918124,10.098356042262482,6.228050399401067,0.19195498028601168
754,0.1311045234088207,11.42469479880983,6.279521607737018,0.2059628164588643
755,0.6803266988138064,12.686901531419327,6.445354805949848,0.08155148241202498
756,0.8337489227888513,13.862612641888955,6.149860239529408,-0.8437558786145701
757,0.7190662359836242,14.928356169045038,5.095208348525621,-2.296678557514976
758,0.8194168059207739,15.83354546651147,3.2761597096052455,-3.737864107588779
759,0.8025153529729637,16.66297176214494,0.546762067249239,-4.633996319817818
760,0.3928368121868109,17.367788830694675,-2.317599895939111,-4.759483644186994
761,-0.23526984816941618,17.878187141604936,-4.4702859404842,-4.653077418132459
762,-0.837540926846073,18.16186412561913,-5.747756767959931,-4.71694975925241
763,-1.182999593171581,18.244912318671265,-6.11029339655325,-4.787074721584019
764,-1.1795772191236717,18.208375443790136,-5.932642910414979,-4.037419306520283
765,-0.9997347114006284,18.16339709077832,-5.740667761806294,-2.6461704071702363
766,-1.0621427455635062,18.18631950437919,-5.838725769578503,-1.124976860190174
767,-1.0621427455635062,18.18631950437919,-5.838725769578503,-0.0523161781603923
768,-0.20100617217189576,0.09557091516062988,-0.05593101109070464,-0.11422429827643815
769,-0.677713692128675,0.4272072356618888,-0.3088973673242682,-0.3734647618165239
770,-1.3194200667310838,1.1573688350838944,-0.8717604835119426,-0.8498933862569534
771,-1.890222703003658,2.3709720456315972,-1.778210732626507,-1.4063139767014727
772,-2.2009580148115395,3.9696166226110554,-2.909497548204813,-1.8539060668778133
773,-2.2314653952354466,6.092996244033204,-4.542383531133643,-2.0978112245407803
774,-2.2202929950496846,8.291917008528493,-6.375096584608358,-2.1418425918305704
775,-2.2624739513980296,10.037227054547664,-7.953942189512025,-2.1159087992837624
776,-2.195620317639708,11.026051059301878,-8.941287497226705,-2.1381565295281173
777,-1.7755646031236274,11.253543677193086,-9.167648506397517,-2.1337308797549883
778,-1.040713242458676,11.120737780423697,-9.187326197685042,-1.9017342312303038
779,-0.09108769331164135,11.164640306826506,-9.254235559079401,-1.4069736459422113
780,0.8115195647307913,11.234888141723905,-9.067149531895605,-0.704551596037187
781,1.4115877002127883,10.519389025033213,-7.747134411784444,0.05460401526834541
782,1.7428735587350974,8.735215983263169,-5.250751270474945,0.6822862217827992
783,1.8683815581688161,5.881161056586471,-1.5643278557199825,1.1027294594617993
784,1.8534227725936294,2.3394861728711636,2.1938965358853584,1.3336181274638643
785,1.825584147079309,-1.31767419702547,4.85463932616452,1.4425826635356664
786,1.8545978111948356,-4.785995779278643,6.278442922620199,1.5583232408755927
787,1.8461868051578976,-7.995175205907792,6.620439048639636,1.725581753390499
788,1.7067847607417048,-10.857995719475545,6.370241897508232,1.9063390674434808
789,1.3632943221406588,-13.103400570856968,6.296214689851804,2.026955557408244
790,0.8169179901192282,-14.550241670937897,6.456502305825894,2.0325064236769514
791,0.24037283173467033,-15.226664098093352,6.123158920416476,2.048180624603654
792,-0.1762207193161811,-15.31761228055958,5.302428111624855,2.0831268113753554
793,-0.37945006235012513,-15.267140832952997,4.242613180486222,2.0187461583752366
794,-0.38136409029876633,-15.258449918582656,3.313044136334593,1.7204699864301563
795,-0.38005797239032457,-15.198964546128636,2.857487109834406,1.158753229789571
796,-0.40565415275850575,-14.742370854745392,2.831834716555462,0.40242366898247073
797,-0.3361007422554228,-13.875214687304897,2.8114868963688675,-0.39063050452864045
798,-0.06798801313203404,-12.673041791045362,2.7220895098931885,-1.124782777143455
799,0.33744170105139865,-11.313443198643705,2.589863489041106,-1.767275766502173
800,0.8777965553444856,-9.956421157597715,2.535769594492512,-2.2137807787206523
801,1.4086030757815422,-8.53716235313753,2.6053232201681875,-2.441633110571127
802,1.7701949996034878,-7.134383438554422,2.7301832145982523,-2.495914730564172
803,2.015002566946556,-5.8064170777429025,2.776727091199514,-2.451709904758359
804,2.1451645800207944,-4.6065856431097805,2.886968140761908,-2.443763502394337
805,2.1775320102635187,-3.563186835325415,3.1968293811036506,-2.486958498808887
806,2.1944009295242815,-2.6653000886470313,3.7356531670419075,-2.455335983536525
807,2.2545425512231207,-1.8731639520895058,4.392403427894046,-2.2811833144451876
808,2.279484285780954,-1.1601185421243485,4.91059005159374,-1.9152431997162356
809,2.25983644851047,-0.4829615491813797,5.1315681102718855,-1.3654020126953794
810,2.2664942344217303,0.08900406756977268,5.145927210575244,-0.6857875215124747
811,2.2992151483841137,0.48026284401634833,5.129321106917666,0.08029629823340106
812,2.3486993289140874,0.6706280889397633,5.107940105357218,0.9884920444420678
813,2.4015323335438743,0.7082719678517828,5.1358024451439,2.031008567284047
814,2.4138334355004374,0.6761708991466306,5.153827344804126,3.2361654776637825
815,2.438518413283773,0.6539188411588417,5.0975324814034195,4.445445868673938
816,2.4678212097626724,0.6705909015501164,4.956350908948663,5.411086607661789
817,2.4527063631331583,0.6748838068703678,4.7637507127708085,5.982324246774842
818,2.198529939068548,0.6845254514658032,4.554439367636894,6.178917034491923
819,1.5243536588591364,0.6970500218739621,4.314429657286797,6.1419818477976795
820,0.35580708100692404,0.6550806365866982,3.9606799649192763,6.117161479622707
821,-1.1285480237197079,0.6289142221399462,3.3593427123431523,6.1222874776683565
822,-2.8002550374376973,0.754912153688994,2.552286779324736,6.063425411896113
823,-4.332465632325736,1.150191634574521,1.6649120935031396,5.9477828543436715
824,-5.4116849908986,1.8591946421021937,0.818091723713466,5.8626910012663584
825,-5.9598441798960184,2.832212472654571,0.05786489988557994,5.790852263100657
826,-6.061520082312642,3.9664239679436677,-0.6417641800405973,5.730661362541732
827,-6.025558607661904,5.202813667778937,-1.316571761236586,5.680163672228435
828,-6.029234193077529,6.537141059325621,-2.0193625960887744,5.538505410604869
829,-5.991972749166529,8.102795594379486,-2.6637407710142216,5.486096140197813
830,-5.560443741231412,9.650770290099734,-3.138922863583515,5.499997673622114
831,-4.66710690229457,10.857305937126375,-3.3969006466192457,5.415486028838113
832,-3.3485396676906376,11.534099141542223,-3.4686628672504884,5.0083607943128605
833,-1.7689058837953653,11.687771972970657,-3.4219709670321636,4.2080357124496794
834,-0.3380353578753875,11.600735372738418,-3.423400806587749,3.020356396759799
835,0.7191094164775931,11.62248933456824,-3.489098821685929,1.5846830471506235
836,1.2815852302977617,11.662749449646547,-3.42590819301053,0.11402406686029476
837,1.4100273142840374,11.19394339000645,-3.114763146878194,-1.3528813177366894
838,1.3211660642056593,10.04457653097046,-2.6362762906887864,-2.7534152325067147
839,1.318008192997027,8.224798795615644,-2.1697108419648137,-4.056921772398741
840,1.3664478883840714,5.9956229938361805,-1.8881990086751317,-5.253381260994854
841,1.2600367191041943,3.77251131587906,-1.8769395487175553,-6.311789391077285
842,1.0142946876004026,1.5649295745713763,-1.8764117705075425,-7.180941582108515
843,0.7287956736594967,-0.4133732717289844,-1.8572358571861778,-7.828190752117793
844,0.4818779894247344,-1.8301500203372028,-1.9407374376961368,-8.282967022350068
845,0.27229257122620815,-2.5693890675822186,-2.256645553762567,-8.644252402107995
846,0.01292245758199606,-2.7356595564206367,-2.771550949828293,-9.010201545325803
847,-0.37975325027824613,-2.600225575332302,-3.381793262048393,-9.48182194381239
848,-0.7465329886854358,-2.590006793100402,-3.963047196587569,-9.981501262633197
849,-0.9534766533246279,-2.6914475037813768,-4.376715426875123,-10.380114585088208
850,-0.9700551169942564,-2.4487773759995854,-4.674110680901012,-10.597640713136704
851,-0.9645814376921624,-1.7327843580958395,-4.817731418244805,-10.621706663904439
852,-1.0094011074128377,-0.5272678401930462,-4.838828125828914,-10.631249604539638
853,-0.9558712728230293,1.0667341421651237,-4.815119522952278,-10.6653776866802
854,-0.6037917129436143,2.8117281152065527,-4.8119838693546635,-10.602538403218285
855,-0.052946892451427925,4.296055178606495,-4.8284163027976215,-10.231651404249911
856,0.49047285955058295,5.357224143884009,-4.77722579099438,-9.509045725525473
857,0.8240958206115624,5.86142471153341,-4.60989348225225,-8.489198116610751
858,0.8427932803072372,5.882036223170644,-4.159191067591998,-7.304325581101319
859,0.8424305723868202,5.8660117565153325,-3.524826911269129,-6.068895521399506
860,0.8687914110017025,5.918573935215617,-2.9547103195775177,-4.714394449557495
861,0.7546870892800406,5.790036972984809,-2.593891053051032,-3.2594015188606376
862,0.3854809357610052,5.167809592084728,-2.4451948723258417,-1.7510266866176332
863,-0.2166680034301528,4.028998924138291,-2.3999874801458447,-0.2443542713833693
864,-0.8558053363432663,2.50092011905002,-2.2822606681089312,1.2019023379893066
865,-1.3029737929226843,0.8687717320972795,-1.9901999719262595,2.5345652424238914
866,-1.4552952901434426,-0.820008567836174,-1.859632274989499,3.720596011160386
867,-1.4884747168951018,-2.467639219937901,-1.8094682257559205,4.757874663177027
868,-1.4657449323110587,-3.7223455138154513,-1.6024229066734477,5.6555252955989905
869,-1.470041608576882,-4.411691804844647,-1.0267239763828286,6.506809459918042
870,-1.4854016302250934,-4.585919297563349,-0.06624348411972064,7.247776615733109
871,-1.3775280619122448,-4.452868812814256,0.9933340920307512,7.781961878686831
872,-1.069018470662722,-4.429598810847578,1.7555052057868634,8.063685643656088
873,-0.49674660899166995,-4.547335565105813,2.019797637742537,8.121691563628378
874,0.3864726505240053,-4.352531544097024,2.016620447636137,8.068638554673734
875,1.35842305905823,-3.904698096371975,2.0027822365598427,8.093804746025915
876,2.1534565428404653,-3.366320561038692,1.9919600598901748,8.143325964550495
877,2.6247691430327613,-2.9464498079751458,1.9068800952944733,7.946489658129502
878,2.7532390346948743,-2.833195098240192,1.7245031915783513,7.352963923540842
879,2.6639972415798576,-2.847754922249616,1.532010278764282,6.290916837427373
880,2.6952887393015676,-2.813678618941596,1.4042597118355145,4.8360572164948925
881,2.7683310421493603,-2.926517133875278,1.3862197162986876,3.180744553099343
882,2.606922150301542,-3.4711234412571375,1.435336022739389,1.4501673178615895
883,2.1304499158733226,-4.449777351450252,1.419476217679953,-0.1005957337162745
884,1.4864075878396195,-5.699741366620465,1.42542803270845,-1.1745549202731427
885,0.9187912100613054,-6.970584227560369,1.465694180840092,-1.688274502238197
886,0.6195832669684842,-8.054486157688624,1.5466400073746251,-1.742154410624134
887,0.6754189874253712,-8.942568286456824,1.729219373823003,-1.7109000265970453
888,0.7069150975929203,-9.512470500382705,1.971076002002466,-1.7501714939273376
889,0.6878939731864318,-9.764838994849653,2.192052565575758,-1.602191666166966
890,0.537955379157933,-9.764356250645344,2.3396997815903386,-1.1337685358427998
891,0.3333361398442208,-9.799393712441312,2.3883697866474645,-0.5482678805542018
892,0.13396007228178727,-9.772805495688567,2.369121900047719,-0.07338439958007162
893,0.011784569322228863,-9.629467617456646,2.3450991683294804,0.12007604030527606
894,-0.01270082753416981,-9.367690071185514,2.3564077559771954,0.0352965358898283
895,-0.019245791160517528,-9.10591252491438,2.3564077559771954,-0.03345072141840894
896,-0.16463898098593263,0.027733785547868706,-0.20474017339280226,-0.10450079135414525
897,-0.2580723369898477,0.11022868140204296,-0.7937548684652438,-0.34207706578441716
898,-0.3210860082536928,0.31350147744708295,-1.9051815523473241,-0.8292125198251319
899,-0.3201723746585106,0.5873957436303524,-3.460460948850213,-1.4354120760038434
900,-0.30952097348938606,0.8366699386111406,-5.482596536981609,-1.953614410893709
901,-0.3451820206972905,0.9908475997613292,-7.523103095985092,-2.2580549090813906
902,-0.3373589443721872,1.0297706283343275,-9.102108970361465,-2.3204334356469585
903,-0.16188553829476665,1.007658930100967,-9.974311239261484,-2.298456476482097
904,0.3039757951316255,1.0169056670016285,-10.141746650057133,-2.322011825661333
905,1.0541517550720994,1.0326503155265938,-10.093043936323532,-2.311659297851836
906,1.9398963827453435,0.9166985154605528,-10.102220191314325,-1.990496015739527
907,2.8122587875331657,0.6267663474881441,-10.02676378116003,-1.2461673923511947
908,3.516451072912064,0.13432292642285443,-9.277036535472615,-0.05261687929148895
909,3.9569558476700086,-0.4108376716612602,-7.73649982672693,1.4445385830335353
910,4.165108568437799,-0.8232192381287399,-5.480193459635426,3.2350137843562092
911,4.160977200072322,-1.0242462604818856,-2.8258610339556136,5.004435954974122
912,4.2185394120330795,-1.0663013035699862,-0.15949221522672707,6.385818837677705
913,4.29586269711078,-1.0443591387329583,2.451677761868571,7.146310006745125
914,4.145879305312512,-1.0171833959842855,4.829101574339685,7.293765636768084
915,3.4585243660580702,-1.0115307696773672,6.855079121852594,7.253292369656671
916,2.169964992117631,-0.9774623217971116,8.500484734812954,7.245522428229374
917,0.4505581907153039,-0.943393873916856,9.780903012928094,7.163145579467046
918,-1.460381608282698,-0.9328694341599714,10.901971575385902,6.5706273373944954
919,-3.2383415998964047,-0.9008483173874813,11.852238639743787,5.483646241307195
920,-4.7373579283614715,-0.9152930168652147,12.550206357731335,4.070186177514466
921,-5.699904260257233,-0.9681310538131802,12.942927945958077,2.6201662264290166
922,-6.104249578784929,-1.0607875593426244,13.045907390157128,1.358429430016679
923,-6.08119805349627,-1.1534440648720683,12.970414883396495,0.1683978061182275
924,-6.070697337961827,-1.204622542513145,12.998360437819407,-0.9504290714668017
925,-6.1154832962958405,-1.1798580167958745,13.088856817355355,-1.9996113945471996
926,-5.965320510247644,-1.210371943101086,12.841743858287014,-2.9978903975606888
927,-5.472919785155969,-1.2888847540343034,12.004739326970611,-3.9775167839258803
928,-4.676928043888341,-1.1450019202784545,10.456397445788985,-4.963174598364823
929,-3.6598619992866612,-0.5131643509382403,8.35744574716787,-5.943977164011136
930,-2.5743306897164695,0.8372943578470613,6.10239857551761,-6.875205538415535
931,-1.5985525188525758,2.9946858709840924,4.0567909515660965,-7.716153556103517
932,-0.7205802510967723,5.7830146248838386,2.305833281660977,-8.441909012195472
933,-0.16275070878794465,9.320471845202722,0.9322607536027689,-9.176299114237276
934,0.060914633760078295,13.272021900627212,-0.10158633578604828,-9.87055713680411
935,0.10704946963354864,16.726317862709383,-0.8506028903238506,-10.417613769060578
936,0.15932944747167593,18.98692485279465,-1.3757375311922455,-10.736795508713463
937,0.30234244239744223,19.897419370970226,-1.767834890305207,-10.814576068019264
938,0.5198214813114347,19.69993537996377,-2.142878198654021,-10.750396944959324
939,0.7628524990416341,19.72649677201289,-2.610670388491848,-10.808774494989427
940,1.0163097216820232,20.068751659063402,-3.2318062287896003,-10.880544748957117
941,1.250718653296518,19.57783809436835,-4.045326191677322,-10.555642360156234
942,1.4294277666862534,17.40405375120092,-5.038369239331722,-9.586910656258988
943,1.532914082514538,13.312988167144754,-5.993866975843857,-7.857617864932564
944,1.5679069368307508,7.698937220038151,-6.694172194069239,-5.463446342209648
945,1.5403331771726776,1.4622702698438914,-7.041683672264144,-2.6761761098824484
946,1.5575486346106115,-4.553727633584149,-7.075768784446184,0.26001138232547927
947,1.623770399566703,-10.561937526735253,-7.042378500163217,3.2802814571577756
948,1.5834127235754143,-16.1465103759409,-7.0478466396216595,6.1251060758523135
949,1.2434792923036415,-21.250130660407056,-7.0089879264389845,8.89080237987537
950,0.5410008079720487,-25.337033523311476,-6.757738034278894,11.330105109113404
951,-0.4320956134743975,-28.00435626839392,-6.235392272641256,13.128881748529242
952,-1.3543199138322806,-29.2476647931398,-5.369718839740988,14.129236867064574
953,-1.9348034386045854,-29.37789572995577,-4.105934791888258,14.422090937011054
954,-2.1734832829655453,-29.302881103130122,-2.4561070216322087,14.26672736766487
955,-2.163520676620881,-29.33007629824387,-0.09834452556977291,14.231497804857323
956,-2.1712575787019066,-29.154610534459447,2.4400297669497566,14.380449598260094
957,-2.2083276844158117,-28.105138712311323,4.496027037640288,14.213454075223932
958,-2.143034164419867,-26.147035683907305,5.662331319094402,13.555951604277741
959,-1.755808693159983,-23.458753926213213,5.907301371208396,12.382309632887226
960,-0.9331255313352237,-20.43735393280329,5.852236746355563,10.871159039783057
961,0.32525248333962054,-17.43852780583309,5.780286205178018,9.31810895153752
962,1.8535049145993248,-14.305535285415548,5.626177363944487,7.937340644597159
963,3.4488307783502714,-11.226304489603415,4.916602690302798,6.563868483176697
964,5.091720894715724,-8.312474046674437,3.828650787356977,5.223395797840821
965,6.863300738559186,-5.637027633051427,2.6385764278413877,3.908412742919802
966,8.535333929526846,-3.227973235783645,1.6728985291675602,2.6188200466359937
967,9.821206600898197,-1.0750053695555644,1.0958509664102578,1.3486042024485603
968,10.532963968173824,0.8603336608123286,0.612681228848704,0.09694134865008269
969,10.699256774064812,2.636753939565363,0.1955430193548697,-1.1050664623263322
970,10.563052484608864,4.322229969741015,-0.2749825720724529,-2.195271352692261
971,10.550163326460055,5.947918047802167,-1.0754052331434716,-3.1213501194269977
972,10.666363351651,7.632891154855419,-2.2119493703625417,-3.89192913854526
973,10.448402806430153,9.26455648809445,-3.376577844269451,-4.588755939790899
974,9.723342740521007,10.576412107519449,-4.227046292668017,-5.305105133624933
975,8.45688134453034,11.38071591323017,-4.6030155064853195,-6.135291691607871
976,6.799439843372827,11.679493056871014,-4.592769578109645,-7.038027926326611
977,4.948322325044747,11.615113936637382,-4.526056416553997,-7.82552125348528
978,2.977186993104735,11.604278027374091,-4.516000219028358,-8.344137484993256
979,0.7739713584435995,11.687182651932304,-4.484645648226607,-8.563620304509392
980,-1.520127654548011,11.547823382856752,-4.371721487285199,-8.553351440864084
981,-3.6833012165026213,11.02068313591947,-4.213263187211757,-8.541064050297315
982,-5.585258586226726,10.12711146099898,-4.108200615529801,-8.567647080304086
983,-7.256509305730834,9.025528637466557,-4.0400752615615705,-8.504015310432813
984,-8.87373047818725,7.944975916546613,-3.9859654628799417,-8.246796279986862
985,-10.310905710190049,7.031342128135203,-3.8419554266970817,-7.801491250686723
986,-11.34338230829614,6.145502998902897,-3.8238807952484675,-7.239925288887903
987,-11.854363777162009,5.183100838070223,-3.6831707856200313,-6.71490245473535
988,-11.912253604708157,4.25335157088223,-3.433366050221158,-6.364671797704102
989,-11.871903321945922,3.5241652607208986,-3.119309526118985,-6.1545852712660984
990,-11.909179681470096,3.1033457447618953,-2.848543371599274,-6.096715087538131
991,-11.845264443074992,2.987960283650429,-2.6592073299436656,-6.102435151094983
992,-11.35986502402108,3.0664003506774233,-2.6562967867079372,-6.056323701397607
993,-10.47925098605049,3.0660996135105485,-2.65557568210911,-5.8740134468914915
994,-9.343713050276744,2.9942620310233026,-2.365992630390032,-5.508959323637945
995,-8.110720377024391,3.157229896347284,-1.9927543674421606,-4.919402474906037
996,-6.864698922261385,3.656057498421803,-1.6576086585088248,-4.0969239266666975
997,-5.538082901996127,4.501643678416556,-1.5899288343295979,-3.107179616029228
998,-4.274257597580951,5.566075815044572,-1.5484168569369394,-2.0828158019048044
999,-3.3222587868116538,6.621715606179771,-1.2154282125152733,-1.1634069947632533
1000,-2.7210345938828566,7.667177673910794,-0.18183799773289955,-0.38713436777928206
1001,-2.233737776286454,8.665168535520111,1.4347767108666287,0.3493103866998447
1002,-1.5761027998173496,9.425608042841835,3.1872622830289625,1.2218569075941637
1003,-0.6870476387656667,9.854595559366325,4.5152030453881355,2.348210528786014
1004,0.2516450985966804,9.973670657122804,5.180779030302929,3.688428529693293
1005,1.0478427136420678,9.883125823347351,5.408595840136194,5.129202058713035
1006,1.588898971125992,9.875829382276637,5.35593207984789,6.421038995607966
1007,1.895119226913274,9.963663558632343,5.358680774599515,7.3397485829332005
1008,2.0503438967095065,9.85863958058487,5.437453581481877,7.820656878390139
1009,2.1222681308481026,9.455339315805965,5.27818897812599,7.9575300302243495
1010,2.128508614638745,8.668960169822666,4.8451605551154255,7.882628358870475
1011,2.142068969008853,7.472180067006457,4.301146627795873,7.906219798960474
1012,2.1840834244731386,5.899464955460779,3.8806566841762655,8.015049614905445
1013,2.2375553261158285,4.016533465012115,3.727357354261515,7.89309011273004
1014,2.299116578471133,1.8538384409297637,3.7727455440317916,7.299612280736287
1015,2.3661174369033566,-0.726384967922217,3.730611131812073,6.2090139381145875
1016,2.4066811961993966,-3.2686464121341556,3.566702421138161,4.850558440883776
1017,2.3996941782427177,-5.242930604942538,3.4025189038551584,3.605138788496688
1018,2.3304047980817626,-6.357619200717805,3.436190395998014,2.6393227151362466
1019,2.245611379544879,-6.663231587916655,3.614503683289602,1.7362637003031585
1020,2.1336200282301534,-6.50534601185954,3.340712408613629,0.927603122422122
1021,2.0063098155576626,-6.341598909352127,2.559216175457097,0.3116071055007785
1022,1.9019191067671675,-6.427122658618787,1.5688591949884292,-0.018278205618054197
1023,1.8257987896184145,-6.427122658618787,0.7523551518373803,-0.07442315395038604
1024,-0.3458019618314333,-0.2770817592285635,-0.18856307913593223,-0.1722828549896866
1025,-1.0372381583120682,-1.2623521328380622,-0.5962114955014126,-0.5190499025607286
1026,-2.0830632463855254,-3.5923721393557915,-1.3166515730636301,-1.0765904756662261
1027,-3.286692047814554,-7.856870634111692,-2.342449517337482,-1.7849897236535113
1028,-4.4949294270288815,-14.501464858291786,-3.583630487030273,-2.5819041524574615
1029,-5.818379970519443,-23.857337559873688,-4.918661627063334,-3.4381726115014013
1030,-7.1083241463018005,-36.04539870113204,-6.165074434507702,-4.538657224335002
1031,-8.13284183917133,-50.94243263667112,-7.275695200722545,-5.7165631582153535
1032,-8.710359165126492,-68.17038514039737,-8.136109966825469,-6.692828709851805
1033,-8.763263479112165,-87.20577447518292,-8.696546423857738,-7.268743530252775
1034,-8.806216195589844,-107.50419462847945,-8.980968920079102,-7.3700447693296764
1035,-8.913109759688961,-128.023332591642,-8.98189578077922,-7.392642635459551
1036,-8.692595296413765,-150.0541723384912,-9.030791734193773,-7.461105963355927
1037,-7.586318871634891,-170.50357396625463,-9.218269403784374,-7.324823321474893
1038,-5.546559306228388,-185.74365397775944,-9.103124267610287,-6.417992750337773
1039,-2.899495999282877,-193.96402087876066,-8.055235497733808,-4.662524225822398
1040,-0.24420403016814185,-195.41924099442195,-5.368873137455994,-2.3537018712236875
1041,1.9058636998156917,-195.00918776279136,-1.6601461474094594,-0.08685065812576004
1042,3.6942684330021227,-195.38417008817405,1.7498204847138075,1.6253228833982751
1043,5.083437172243027,-194.65130391884844,3.7520971388324322,2.8988865100163625
1044,6.104195358961905,-186.36848803256203,4.392067335200071,3.8851612701971536
1045,6.795928192294522,-168.54005289299278,4.052163960429487,4.789564397660426
1046,7.2615082915031035,-141.22073089448907,3.8241733819770976,5.745527572913658
1047,7.699334543067893,-107.05388579870404,4.214634282014318,6.7982898527618545
1048,8.183737701018739,-69.3962881274725,4.694762566187084,7.859336218773424
1049,8.658460868310367,-28.18320684862215,5.1503775880687215,8.725020833695101
1050,9.022870712574402,15.400981526032211,5.466672005724238,9.27811474876627
1051,9.208753642700264,59.82305898872546,5.373713279038227,9.527443465722484
1052,9.245587219595663,103.65055049780291,5.158754504282181,9.561616224195973
1053,9.241665693398517,145.51621615497788,5.405477906433281,9.578298992346452
1054,9.265049159942793,183.97671851655355,5.990590825472017,9.668226001848605
1055,9.249526474991063,218.70059138315702,6.915076323583954,9.775221898104764
1056,9.311942030164277,248.97234505331673,8.06166744340058,9.844116045604805
1057,9.304595048222044,271.9916836521204,9.282175812605768,9.882783900102813
1058,9.183124587711662,286.0732673425349,10.973232798274775,9.878163671444515
1059,8.982794789426713,291.9068875622547,13.088918935648925,9.859794311237554
1060,8.765454744564618,291.7997386801719,14.995299811465076,9.883247019599951
1061,8.685613689842564,291.45265000236236,16.190800322484833,9.868809340541906
1062,8.699177042431327,292.1705060956904,16.455779096415817,9.805262314681562
1063,8.669862877034866,290.8184347210341,16.436736799469625,9.677415976859725
1064,8.448047632772433,283.9200083451791,16.516453509806947,9.60878350649054
1065,8.218923154063908,271.044119056908,16.352014397576866,9.624306295463505
1066,7.987886831792304,253.4458483624249,14.924123502027316,9.552714093155569
1067,8.0579148387496,233.82311066623583,12.025086838635026,9.042993239483856
1068,8.231144656215438,214.4815930964114,7.96800189131971,7.75779262494315
1069,7.996088965132097,194.1550651388124,3.6733676936724504,5.651892873965885
1070,7.132877355518647,173.63143488959756,0.08102972403292386,3.0029276243977785
1071,5.777804380639162,153.21466655303325,-2.61784366077083,0.32282964470849507
1072,4.358151074063882,133.12759077810395,-4.297964316654581,-2.0206185248071016
1073,3.3638986615149173,113.52140550707563,-5.07242053376958,-3.815888852271375
1074,2.9880868013945907,94.48787628127685,-5.2834019583100345,-5.08374855644138
1075,2.7911640087304326,76.07291778057551,-5.210957645212107,-5.888840396222401
1076,2.553738306761844,58.290361273935275,-5.226950401239396,-6.327295388706958
1077,2.1181260481202653,41.13489924959798,-5.331327396169728,-6.50500294724065
1078,1.396782114924651,24.59342566771152,-5.1638973410589415,-6.524612067982389
1079,0.28116207049697794,8.654235664075946,-4.56191032477584,-6.497989170252265
1080,-1.339892081550451,-6.686208026854546,-3.719307244961431,-6.48252294058251
1081,-3.4431605535249137,-21.4190100253752,-2.9559564519685737,-6.48500744886706
1082,-5.802934406237366,-35.52095377376818,-2.5509679772133302,-6.4671788190298125
1083,-8.113148148172243,-48.95471197699733,-2.5928161046730853,-6.449350189192565
1084,-10.14433604376301,-61.67077046935481,-2.6308476265156235,-6.4565609383403775
1085,-12.08376848937044,-73.6106171518119,-2.5711922875293705,-6.436463377754628
1086,-13.819560827894298,-84.71072727419515,-2.613241546411292,-6.3823612675605075
1087,-15.149716425221971,-94.90689306460675,-2.9869030667690866,-6.411553913318858
1088,-15.914546484688618,-104.13849240753875,-3.9749664876532185,-6.698587790080912
1089,-16.124814922189845,-112.35235981318907,-5.716846159778852,-7.326121075720785
1090,-15.958093777420418,-119.41881662462572,-7.691688813435308,-8.217511748057532
1091,-15.957001919292773,-125.69784115266623,-9.239203491960268,-9.30957419334398
1092,-16.121039551272553,-130.76310462783223,-10.080491485213981,-10.306653221579456
1093,-15.90927659838067,-134.17704720776962,-10.160509900833588,-11.032820447098096
1094,-15.157451909205262,-135.87684548839525,-10.148856596514637,-11.431003221880921
1095,-13.880647764862095,-136.20661436013802,-10.19177533200242,-11.491624630990543
1096,-12.290300453240418,-135.95568616616137,-9.917503014696665,-11.509272143125605
1097,-10.627564946119785,-135.94710398835474,-8.992001254738636,-11.54669095989268
1098,-8.978181280658413,-136.06776960357678,-7.657851512819893,-11.438020332666262
1099,-7.096635145354735,-135.2661612903212,-6.35421178449463,-10.839609254998358
1100,-5.172240504887219,-133.2502922769295,-5.295646003218028,-9.73284205716376
1101,-3.5882048386518575,-129.95473544766733,-4.647209181030677,-8.284040709094521
1102,-2.6151420349544523,-125.6890681487747,-4.073008367377103,-6.777462446802744
1103,-2.248083726197793,-120.92525133130425,-3.6868892348488225,-5.419597336017715
1104,-2.2080465728452086,-115.80678527865598,-3.5578924353570347,-4.072070245768597
1105,-2.223132322453073,-110.21261456695794,-3.5598045204357276,-2.7382085457047136
1106,-2.166060973825715,-104.25276408711794,-3.614164973300306,-1.440067228432151
1107,-2.1112841239912035,-97.98385984643792,-3.6719764955006102,-0.219402652087595
1108,-2.073522556669956,-91.45886727538436,-3.853822319692796,0.9008171396183904
1109,-1.9664003131761354,-84.72737061757478,-4.059892885875449,1.9127808529219035
1110,-1.7798268723875434,-77.83595416203153,-4.210049640533095,2.7797935862481493
1111,-1.5539907415404048,-70.82862719333775,-4.220943703768559,3.4461476672456985
1112,-1.3377087888815633,-63.74724199393108,-4.2392393560210895,3.8672345946773063
1113,-1.0340672203230161,-56.631864116847446,-4.285114492422574,4.0632161028421026
1114,-0.47238845523259654,-49.52106536571943,-4.173750498574955,4.1126768201224175
1115,0.48829051211761354,-42.4515794153333,-3.7776843908458164,4.095914238277053
1116,1.7491079460264036,-35.459752942982746,-3.078859169079371,4.0902107825058085
1117,3.1227155705469323,-28.5764556744527,-2.1543314477830733,4.119821008793591
1118,4.759371622960794,-21.8126535772257,-1.1585324677766589,4.127584940972656
1119,6.45614534095181,-15.205587842898675,-0.23080906142792418,3.9957528249868175
1120,7.88761902787883,-8.884946975083992,0.6723062234607985,3.6272209244201292
1121,8.784094961865915,-2.839636830635823,1.4009357844521113,2.7862169842073854
1122,9.078652123057807,3.6930971185159702,2.032002011506459,1.6862649846709084
1123,8.936063427496112,12.7092008221338,2.5606427950836728,0.706581152886726
1124,8.893409792461398,27.383175055758397,2.9588075124426507,0.10846997405074658
1125,9.037406469184546,51.57592355804787,3.1983859562133374,-0.042401471343075446
1126,8.870007489614348,89.04414332465888,3.2467464244010253,0.021221100656152098
1127,8.251186128476602,142.45102715402118,3.2295847186919664,0.019614775139294993
1128,7.2435643891438515,212.4037168659405,3.2910383076402483,0.004064348737133627
1129,6.114022369767227,294.272827049996,3.487858283124304,0.4107995817883487
1130,5.128650367755622,393.5514393916935,3.684287431747741,1.3271812157752712
1131,4.33006843109056,491.8452054979177,3.7720558688180286,2.474549558470147
1132,3.377004852069803,567.8122683427973,3.7893380538995305,3.42937902479024
1133,2.2184748551804336,609.9008473071267,3.822624906160358,3.8889141480155915
1134,0.9424442869790384,618.6911429785785,3.9516520254656085,3.9104509007732435
1135,-0.3573934093223988,614.6367006034104,4.1249128729166875,3.8735151128816634
1136,-1.7556007975137422,615.7237255687251,4.295986085398607,3.886676510890065
1137,-3.0867038710733405,615.437010851902,4.428770782313313,3.822904719095629
1138,-4.124126454010406,582.6542658983651,4.43792257867115,3.4777954298075935
1139,-4.702029548719291,508.8103168854773,4.419374245026031,2.8850064342008856
1140,-4.806478497623895,395.58832322250595,4.450390531209876,2.0021138693714535
1141,-4.750027862037207,257.8260475965087,4.979222512796015,1.0829270127291848
1142,-4.748650149178388,119.078992423503,5.950628064891339,0.4048064226016886
1143,-4.719833927791807,-33.32071412575991,7.008629290904366,-0.004017921161915076
1144,-4.339075580741653,-180.5156218982334,7.75312717299032,-0.12179633052469577
1145,-3.5733379777247887,-293.68011448982145,7.985355146526453,-0.07003102150696325
1146,-2.4275555981093433,-357.2063293528948,7.858703022697879,-0.007015848381189862
1147,-1.254856917649942,-374.5118662386401,7.845836970122768,-0.030861965887957803
1148,-0.42548315354634036,-365.5595461178918,7.882209001023735,-0.018120787310360514
1149,0.004292990497942906,-356.24328020864465,7.679745411476219,-0.005379608732763268
1150,0.09076650847346757,-361.12758700264175,7.356236060259869,0.002406667064657249
1151,0.020036048188184677,-361.12758700264175,7.037490139514376,0.00283137301724382
1152,-0.04281702485802984,3.230377629830185,-0.0906348132942173,0.03564955677151113
1153,-0.02524052152127626,13.507958870056925,-0.3196808759556521,0.14130337616912425
1154,0.21104466091518176,34.77979594391813,-0.7434448787930819,0.3872800127799596
1155,0.7922408236233642,68.4048142926404,-1.3830144592039275,0.8321713644757137
1156,1.7051136445757558,111.1273476621933,-2.2342040953424123,1.4576768472140644
1157,2.756934402947226,165.66332960461514,-3.3656517775448913,2.3781323273684176
1158,3.999279207733557,220.88990685262903,-4.669754003762625,3.3925498337156634
1159,5.2386133737439735,264.13587617070976,-5.844687621125149,4.229929773661844
1160,6.240153944329776,288.34519920284833,-6.628695403739525,4.719155372399257
1161,6.852890217130595,294.2283095545961,-6.950619994770983,4.854993015603611
1162,7.022313414111526,289.9858652145482,-6.914101156643089,4.749551892903628
1163,6.9743559704472196,290.34779207485667,-6.888269191126989,4.761175849287234
1164,6.969995481076647,293.73786459883644,-6.965154710401353,4.875354631475197
1165,6.9860562469069,282.19849296908484,-6.891666548340926,4.688519442632556
1166,6.520982670690568,249.22500412255525,-6.396507133724159,3.9963357758299876
1167,5.3664594155195875,193.44825066123093,-5.344736733722689,2.67444652632748
1168,3.480258947360452,121.50053985119662,-3.7589155584266676,0.7894849255070893
1169,1.1129118477969717,44.63051078811269,-1.8488851761583638,-1.4174905318061368
1170,-1.3425923340797694,-29.864917776005576,0.08922090678674466,-3.685790276510489
1171,-3.729670713067237,-103.42052545960584,1.9529009136833744,-6.074257896854148
1172,-6.003174192529612,-171.381378606832,3.5041931832350275,-8.496055555949612
1173,-8.272647483632241,-233.31626725744567,4.557102782100862,-10.591028738102063
1174,-10.32282554972416,-286.3268607382892,5.112619404869743,-12.037962891535049
1175,-11.833476928159872,-325.28322292966055,5.304287949264557,-12.733795654463849
1176,-12.634400275529618,-347.8573589193542,5.2797630318387565,-12.78276020600714
1177,-12.830541480903708,-356.16527842091597,5.264624341670226,-12.752234876838761
1178,-12.682554754463467,-355.05158724294023,5.427949423027709,-12.808867908918751
1179,-12.691075672130607,-354.3493254472513,5.707655471262351,-12.665098880652527
1180,-12.812393082617453,-355.92140857618324,5.991197160442871,-11.885346883771891
1181,-12.627532139515694,-353.54347124953375,6.200467566693403,-10.419545285815973
1182,-12.022323842246138,-342.7461550669597,6.233892894946566,-8.414347042070498
1183,-10.99881813690277,-323.210833806632,6.250553285992043,-6.182293798474193
1184,-9.63552457647966,-297.45074532469783,6.283422867291031,-3.971354348301319
1185,-8.040673454127166,-270.1003326382288,6.149869352540423,-1.602833616755781
1186,-6.31313406315195,-244.88832654174058,5.776558852875203,0.8638316932707155
1187,-4.360614202202371,-219.6668187707422,5.321891022069055,3.3541525840402437
1188,-2.4185878140786765,-195.5617103871475,4.944530658430193,5.739012456175288
1189,-0.6021818917693558,-172.8564178213448,4.7557140860198235,7.864648404417492
1190,1.1331825211947075,-151.76232986035825,4.743842102185047,9.759353829776769
1191,2.8645356876451324,-132.5149289992945,4.683601456304041,11.276405772837375
1192,4.508851567786558,-115.39433676764068,4.628946700975819,12.294964628156208
1193,6.028522479475347,-100.65214045967724,4.630062159867057,12.80165952793427
1194,7.224479611561883,-88.39210091939637,4.584153056096667,12.88023522689075
1195,7.990325758028387,-78.50616954664055,4.234814306208114,12.844085664042426
1196,8.362916015609754,-70.71133499767875,3.649053580656137,12.859301421158417
1197,8.42993518488736,-64.62415247951685,3.0421902980179967,12.825477473389878
1198,8.419611529170925,-59.794083975908435,2.6405107717572447,12.387941301462964
1199,8.422447459302171,-55.68298249847196,2.5407892452750653,11.457388828401132
1200,8.38982273543396,-51.64172561628912,2.5863294394274923,10.060177203564367
1201,8.04315641542854,-46.94344114083199,2.6408079361949057,8.350300349220062
1202,7.269407914554727,-40.8809092628861,2.637642112561043,6.499667264587982
1203,6.034840555002364,-32.87988572292481,2.677028282665679,4.504641494330273
1204,4.527856519191732,-22.562941726373396,2.7164144527703136,2.462736112555027
1205,2.9912043177470906,-9.733450644705627,2.733538249151333,0.5087154220712419
1206,1.6736902174137875,5.679506591229858,2.7330905176245386,-1.2203191831697162
1207,0.8196381246095977,23.645188685031343,2.7534726535947813,-2.750187088404599
1208,0.44503321917814337,44.00104977711261,2.7679513126699375,-3.9723548184984017
1209,0.382125472858349,66.39787081735459,2.641738358073672,-4.795495331304965
1210,0.45104242119046495,90.26291153667809,2.2769609561316826,-5.207458204511096
1211,0.45959732317016433,114.81431511138157,1.627642639322431,-5.282973970014843
1212,0.41868191724736836,139.11495040149808,0.6876574444439051,-5.23978355119397
1213,0.46670264243154125,161.96221728851694,-0.5591540960316198,-5.228299775733988
1214,0.6249822536388818,183.74871180353068,-2.1557934540056696,-5.232651219657689
1215,0.9612320792863759,202.0470584994509,-4.285839822487406,-4.983911458328727
1216,1.5307078741712057,214.61375622950837,-6.870945332748319,-4.556604303047376
1217,2.1703104962461155,220.88350599123515,-9.31760957468815,-4.106857595556409
1218,2.676600279272936,221.82099806280522,-11.054807576783592,-3.8029937809631384
1219,2.9838114054760987,221.53760525901748,-11.866596918397828,-3.725087394297706
1220,3.0368917565217344,221.53789150412703,-11.8979316284465,-3.7688444702680997
1221,3.0035746021183636,220.693829822376,-11.838127488191933,-3.7936254291688933
1222,3.0045565733114343,215.4892409395154,-11.888032009093127,-3.776824615715776
1223,2.975042565328213,205.84840195257928,-11.699843975756172,-3.799945723909724
1224,2.780149837034772,192.80856077859158,-10.947798992471856,-3.839893447700295
1225,2.484444667764446,178.49200626168297,-9.75762402199269,-3.8805096174128653
1226,2.213609266244174,164.69542009892518,-8.39306190122463,-3.9059990559369884
1227,2.0431604206906364,150.49420111020098,-7.124437427378914,-3.8975381972917815
1228,1.8932080758091123,136.52101000937802,-6.0075308497725395,-3.897542333262337
1229,1.5378378559492105,123.07270756493295,-4.682725815988461,-3.9303385244534375
1230,0.9038752472992759,110.39420395843933,-2.9215291748762127,-3.9141347575457064
1231,0.10917763797053964,98.65093943416213,-1.0502823458236363,-3.759034031215748
1232,-0.6950685957735588,87.89557880298815,0.4583209682594085,-3.395069942720367
1233,-1.5071298566220623,78.05658351851756,1.3139879778552546,-2.818421816076076
1234,-2.4484675398128624,68.96707784657055,1.5194594108753345,-2.0886307715788255
1235,-3.547276105519691,60.41930866626048,1.447786853714627,-1.2824956401971963
1236,-4.775523027412984,52.21477531997363,1.3231730538594764,-0.4175862537855945
1237,-5.859518852250717,44.1933814424153,1.2862680365778345,0.46128143361946095
1238,-6.58016887462787,36.239148719843776,1.1219212530313603,1.283914198212845
1239,-6.9135274586319575,28.272328026556288,0.9575744694848867,1.986196694780158
1240,-6.9465639451039225,20.25082922758597,0.8768295680702438,2.557036089678158
1241,-6.9603190560814685,12.190139930433553,0.8502412155217521,2.972995074660142
1242,-6.968453089314516,4.180961715204955,0.8280120639730368,3.2335341938441307
1243,-6.876345243948279,-3.61838315019785,0.8541063260889242,3.357568058979904
1244,-6.477827742728578,-11.014454369589133,1.204057474950725,3.3665429708875827
1245,-5.738680514700082,-17.820116667459697,1.8818218918880787,3.368791794571854
1246,-4.64501530603271,-23.88792908225315,2.7021883851632116,3.384168743198808
1247,-3.2686495663082393,-29.12901849956496,3.3811282752382583,3.3505145980480253
1248,-1.762779962372543,-33.52810684072418,3.732649645558171,3.164495334316486
1249,-0.20213477170586064,-37.15878658842026,3.8698566801791,2.789937809058419
1250,1.253125503659082,-40.177677046890786,4.074201555111151,2.230204830729399
1251,2.4899029197130824,-42.78426318702477,4.375174209978996,1.5660760155821376
1252,3.4110004713608384,-45.16941000798309,4.68212226811374,0.7570854788460902
1253,3.9848229431204536,-47.483609596265794,4.885578885919782,-0.09324530178112422
1254,4.233629580394606,-49.83049631246299,4.939604602841357,-0.7747545590819406
1255,4.246246547412471,-52.270654861026145,4.90607603724332,-1.1666854312469301
1256,4.174679972888245,-54.81940658847028,4.925082238057901,-1.239148962866713
1257,4.181742289979709,-57.37982316159578,4.962085371391066,-1.2519189448151262
1258,4.221974694740694,-60.104616485189865,4.799190857668431,-1.2681262674735339
1259,4.199218109000916,-62.611663492174486,4.299188186061597,-1.1763981170767777
1260,4.049619334394049,-64.46655417127438,3.3875330330217426,-0.7114004817525259
1261,3.771972901030419,-65.46215828651039,2.2039258966839097,0.276749955804717
1262,3.4139829570032205,-65.68293479988704,1.113138622773683,1.505912712975022
1263,2.9885152764520777,-65.51537468279875,0.3943895177746829,2.532243081047587
1264,2.4507892701047775,-65.54056863227828,0.07095211536828902,3.0505125475887716
1265,1.7427076674575501,-65.66817360201846,0.03940781455396902,3.166065949635677
1266,0.9191538716644465,-65.13509909836927,0.09960547056882221,3.13553268397836
1267,0.12906688200327526,-63.62010260476432,0.12154220888635366,3.1184311713282042
1268,-0.5570297151090864,-60.99769823382289,0.06321963533810813,3.0698189598274843
1269,-1.3409243521199992,-57.4714219886061,0.10329793697615063,2.6843547062538606
1270,-2.2466843121492275,-53.448784983189604,0.250710142781861,1.9945396346983824
1271,-3.1045590152114357,-49.17610385741564,0.45440150637642124,0.9560689156928832
1272,-3.691142998842222,-44.59113738830455,0.6357727336456879,-0.12847071795123888
1273,-3.9072668323617106,-39.84056258399262,0.7064875376578778,-0.9258645591819502
1274,-3.8422947716368445,-35.02723901990592,0.763243697556822,-1.3885335147455105
1275,-3.8349199099471085,-30.396743525078698,0.7219235325213323,-1.517713944323698
1276,-3.8483310273806954,-25.511460222130346,0.6142346611740214,-1.4539349608595202
1277,-3.7298857032548,-20.962830081381078,0.3867556885007965,-1.3839795019839256
1278,-3.525905288613951,-17.51596964259656,0.14344407503254325,-1.4198347043351318
1279,-3.3219248739731024,-15.59128757463582,-0.021078996215306834,-1.4198347043351318
1280,-0.14937894630986065,0.33899082778553624,-0.1229957546118341,-0.05155274077312996
1281,-0.3688038805007201,1.403230778640608,-0.5401619661613095,-0.15204721257460768
1282,-0.5879387943181577,3.7139990747261438,-1.4111539561859092,-0.30671189776633234
1283,-0.7333168418467785,7.619065535417981,-2.778418540864924,-0.4906014634048407
1284,-0.8367702450111726,13.193867044267678,-4.492718711012566,-0.7374789722691203
1285,-0.9470354318560767,20.054796446086346,-6.466590557219031,-1.0552675198190868
1286,-1.0833035076429298,28.820263035478114,-8.33195967130499,-1.3788449212455187
1287,-1.207893376800837,37.787053724125364,-9.723104499122048,-1.6270006188525092
1288,-1.2417830559185612,44.88032484510678,-10.482224902414146,-1.7488743490945342
1289,-1.2439687137491462,48.892211014190636,-10.699321755861073,-1.7256165428148462
1290,-1.2745194043068688,49.74406074871607,-10.559727027569165,-1.7471815747961195
1291,-1.2587852590282136,49.39597320381617,-10.579951751253185,-1.8164091197231516
1292,-0.9934628553766902,49.5386154029161,-10.757917481633296,-1.7286536258268914
1293,-0.3793286217849961,49.463595702357445,-10.58364314363207,-1.2860869352128081
1294,0.48730514730172514,46.050365360372126,-9.678692303589322,-0.457602383024465
1295,1.4388260424974306,38.389463533038615,-7.8101340688640475,0.8053115432055514
1296,2.211170922859022,26.64906611372573,-5.022723830946546,2.1302121592518586
1297,2.704411624479419,12.362034615334938,-1.6799944897102668,3.1040482083014327
1298,2.92912486048354,-2.472982258931485,1.9324685634753045,3.653505485058758
1299,2.9875803519059256,-17.31738937612512,5.624279427560391,3.7651174654876756
1300,2.9444481095045663,-31.611845791270476,8.664545933875633,3.731645526586113
1301,2.950243266174862,-45.49422003034058,10.581481756838585,3.735407773781815
1302,3.0136854582689474,-57.53410316931106,11.349907342965164,3.692217270251788
1303,2.96799441086265,-66.15765670097637,11.309949060716939,3.2421378296550576
1304,2.656107459242711,-70.76216569545791,11.210793323133093,2.35180275727263
1305,1.9481508491184825,-72.01413124933771,11.28307965670827,1.0599001510430113
1306,0.8336095357191773,-71.25926581635635,11.172804199331607,-0.44120745867980476
1307,-0.42450917533594645,-71.14727956126106,10.469929643773584,-1.7304189249970097
1308,-1.4378928550934682,-71.85032623787811,9.387660559035709,-2.6298707135665476
1309,-2.0543603376868522,-71.04721991719767,8.328935094093268,-3.065905904465641
1310,-2.2562277250640235,-67.88997303430786,7.6845832505981715,-3.096616531920705
1311,-2.2063914916977803,-62.18712234096642,7.583738464057717,-3.068852058725713
1312,-2.2076735557887632,-54.690754579792504,7.680366163924792,-3.087949623965608
1313,-2.2378502386596795,-46.77661064179348,7.754014841655281,-2.9979931495121854
1314,-2.1265073764011984,-39.55444552466692,7.688298733639711,-2.606161277913261
1315,-1.850688829270063,-32.41426825504665,7.6476671323643,-1.9557133862694849
1316,-1.5061184763292619,-25.698435011723223,7.591223280040954,-1.1603996340238907
1317,-1.1703503279992904,-19.490502429631547,7.551654995800666,-0.36956667806320687
1318,-0.8683535817250047,-13.826976886549835,7.662610129876972,0.3139792328328448
1319,-0.5832056260072275,-8.724921985818444,7.714321657964344,1.045714883508463
1320,-0.21859404611662295,-4.200775051426873,7.386216607418084,1.728192823900327
1321,0.09707600423330129,-0.26728474209111375,6.319915327479084,2.244723714686741
1322,0.35188206235075126,3.0819111366026393,4.689000118747469,2.5349853887590283
1323,0.6717016159173003,5.882646669839461,3.0612502226149236,2.62681015126054
1324,1.0862081785931963,8.19425415123102,2.0219108605940046,2.595910206042344
1325,1.5052176093378025,10.08418009061325,1.734385772136213,2.5919586435761115
1326,1.7913411251528755,11.625539374944724,1.7700833680954708,2.6146178151257717
1327,1.8768829496693877,12.910229716886429,1.7670126531309103,2.5567242772192853
1328,1.8431144686532697,14.053799105321623,1.548056319999833,2.412898824886704
1329,1.8288651653182773,15.178380664364457,1.3489629496544175,2.2359070055635906
1330,1.8716766033118997,16.380555676361087,1.2155276116903866,2.0895616562603885
1331,1.8965382268864783,17.698135071826485,1.2448421585853955,2.0014594707181055
1332,1.8949393528933556,19.0987952877963,1.3131275058690401,1.9347321431598716
1333,1.8767732335984533,20.509039892538933,1.2333769711541847,1.7804350567066012
1334,1.8349574844488867,21.824366941467837,0.945456423842167,1.5572773959797837
1335,1.8446013882361112,23.2038994024103,0.4784129394771162,1.2772252953235796
1336,1.8496974965990367,24.507691977856105,-0.09138754935538257,0.9110382872917612
1337,1.7636702134904427,25.52478380067329,-0.6858183419206404,0.38719300895642433
1338,1.5373022895678983,26.115683158289656,-1.3016822054181123,-0.36535989512661526
1339,1.1356765278222358,26.23382621752694,-2.0977470496428703,-1.3724884149356744
1340,0.4658826170506881,26.151506374185328,-3.1048647304616757,-2.6147577070183776
1341,-0.5691636607777661,26.320141750276974,-4.311238017763419,-4.0078540897831365
1342,-1.9478486314739796,26.422195388693627,-5.675694043352644,-5.70482414272563
1343,-3.510805680750204,25.45610326276305,-7.136700598868806,-7.420423225110909
1344,-5.1658221846413035,22.714334206028443,-8.693389750116484,-8.780088431977662
1345,-6.603683869713901,17.898021556270358,-10.258078865492791,-9.553469878578179
1346,-7.609444798838707,11.36105652863285,-11.570596553815875,-9.752361088438109
1347,-8.147114467891758,4.1260159102429395,-12.429250783327173,-9.580385842667368
1348,-8.265830177380987,-3.848816366810696,-12.801365721123421,-9.629627017525243
1349,-8.23854472049321,-11.392482454946748,-12.771195866630421,-9.81360585190448
1350,-8.258339116689818,-17.019659095243867,-12.78421189688582,-9.429338769757752
1351,-8.240413971906193,-20.04958589801732,-12.880454899866775,-8.151482048312088
1352,-7.709912826258857,-20.718723177281085,-12.730499282514112,-5.908839952932731
1353,-6.474820160398631,-20.268122130222288,-11.983657585779492,-3.0154373886918906
1354,-4.510570904154504,-20.276810333994973,-10.514963381260028,-0.05299068740471713
1355,-2.106165495000734,-20.524007510402015,-8.393339162729145,2.4838400540580055
1356,0.232021302762224,-18.970885852660526,-5.895227678349703,4.662088772474867
1357,2.377921149156435,-15.044545090900257,-3.3911324297332324,6.221785844246098
1358,4.060051657081629,-8.744677997221862,-0.8312998344504754,7.11083546819065
1359,5.120097690845023,-0.9159450468411623,1.3209147754583859,7.456030915779629
1360,5.620514734460182,7.199643195830879,2.750177498197678,7.461978743011216
1361,5.693495679612836,14.97632934916484,3.41624903597659,7.440301568091041
1362,5.689370729152124,22.44417835601964,3.53100494618397,7.4589760432016625
1363,5.690524968146573,29.110136125573423,3.4021421000245367,7.419055379070891
1364,5.609251668929553,34.91239509613356,3.366405896674106,7.0618442774310175
1365,5.138312017635447,39.557373854602204,3.4450878758528916,6.493062107001988
1366,4.165705632224265,42.72996759395328,3.349798284370759,5.923579710162834
1367,2.7572467712609168,44.41422333331193,3.1354931112352973,5.564628045732073
1368,1.3611410581292147,44.938544703764215,2.8803462085738762,5.500351909687339
1369,0.4101256647918452,44.79589170853221,2.6835357465557874,5.561372193613388
1370,-0.07639050444963305,44.71715223632045,2.61514185378697,5.563018141797061
1371,-0.09382300398453751,44.847640458370215,2.666773313785531,5.5088191477276665
1372,-0.06646301521358132,44.71024425248388,2.6778052834339454,5.615473372938293
1373,-0.1272785460028003,44.05138900206279,2.6449644840296984,5.947595103150859
1374,-0.005477930402239095,42.78744644488071,2.6600598738995513,6.531970753447592
1375,0.5893663971507661,40.969674083797315,2.79803628112387,7.184984264884804
1376,1.5978683481197167,38.75478999296573,3.1091126062822947,7.675479969598149
1377,2.7615855713126516,36.25332222527628,3.709368591770855,7.88762545590785
1378,3.7637556199516244,33.25406110368636,4.439093786031905,7.913993809276436
1379,4.621046643656389,29.779756983502075,5.0582753742048085,7.888442561094277
1380,5.462002212886103,25.83118832555516,5.422590095800699,7.915513666885369
1381,6.179633063281395,21.43116803347703,5.490729093619717,7.915592800908291
1382,6.645958923632285,16.62940456895278,5.477610841571963,7.673241635351566
1383,6.770366776763258,11.507716628938256,5.529755823531147,7.082735365971204
1384,6.746065416821825,6.177240671094398,5.500694865481472,6.1289536478019855
1385,6.748746729459613,0.765099529166948,4.983734661645573,4.911693940675139
1386,6.7178645449388075,-4.595418706950531,3.79876789337506,3.5750872634734017
1387,6.305110646002071,-9.767961189267929,1.9948322807241088,2.1569236175525623
1388,5.475169870723313,-14.620144585213868,-0.3646529200318872,0.6602997337583649
1389,4.369736318693573,-19.038754731826934,-2.6339377075428523,-0.887138518608261
1390,3.276392070718682,-22.945241322072857,-4.339360411977962,-2.4376757972892764
1391,2.2896243126573173,-26.26556781107785,-5.2614920626809045,-3.9610032663385684
1392,1.4100130492539815,-29.11393792885429,-5.427165759905289,-5.4497600804251505
1393,0.7106949496310567,-31.321238775261705,-5.381528417782297,-6.708502085562628
1394,0.26190248502958885,-32.74679288192129,-5.355832229481848,-7.563462016947804
1395,0.08844618061204906,-33.42057931979873,-5.238565106750373,-7.970081970738189
1396,0.13145380864406997,-33.54122558478925,-4.574463124823993,-8.01002610828443
1397,0.1723216127033363,-33.445335549381326,-3.4367068607658715,-7.976449067210616
1398,0.09080246176357404,-33.41514801154076,-2.075146179644501,-7.9892997619158
1399,0.17798395644396503,-33.40050956339667,-0.7547587253539287,-7.937934271221258
1400,0.44108077715948435,-33.228936751046014,0.201491830581521,-7.608250851292192
1401,0.7829897193269503,-32.990334566390736,0.8688032970666565,-7.010489277057024
1402,1.0707461943256817,-32.737706085803985,1.19913978750874,-6.263829285570251
1403,1.1992354537932042,-32.55155762978908,1.2733142560064548,-5.565998417380787
1404,1.1595743780587424,-32.454321427654385,1.2231618897891832,-4.918235345566112
1405,1.107493264576712,-32.38073952658087,1.1796752544293199,-4.294257729024294
1406,1.1300110135629822,-32.293574164672506,1.205265293242865,-3.7925340964892493
1407,1.1300110135629822,-32.27771739714134,1.205265293242865,-3.4794823511024218
1408,-0.045307086052739254,0.1060960476707466,-0.06752169792378557,0.003736047275220359
1409,0.03581519209252032,0.4787060880828553,-0.2598617935754313,0.004517682562133412
1410,0.39261314893566085,1.260490811587914,-0.70148185035404,0.00397622861678849
1411,1.073937282384504,2.4660920927172274,-1.518936258734732,-0.0006067139231951367
1412,1.8999222021198867,4.0608099799193536,-2.7466145634076513,0.002454547869069382
1413,2.679177539815911,5.868242811028404,-4.666325678543472,0.019586127771992694
1414,3.243791131619589,7.473100600353185,-6.848805002670438,0.04760789062260783
1415,3.5644848137564265,8.556005843019832,-8.681716551615835,0.08384731645295469
1416,3.720475024842964,9.03854279872182,-9.754712664818491,0.07371154150869935
1417,3.7875459948499546,9.020714228805659,-10.010875380263581,0.05418364111047143
1418,3.7550281059352275,9.019139263610159,-9.884621607443528,0.10767792442145135
1419,3.7812233671898507,9.113581781690694,-9.87385759337237,0.31614581228691496
1420,3.8687173996533404,8.950524291455821,-9.904582767398843,0.6886418159356804
1421,3.791321775616237,8.149025862065352,-9.28727490960232,1.2651273528997462
1422,3.3033878404148975,6.6246073492418756,-7.880414757030795,1.8841569098101072
1423,2.2465561083200236,4.514655677312216,-5.7520743493977795,2.3615279251656607
1424,0.6944350007807683,2.1490923408205846,-3.2633897722591625,2.642719980574072
1425,-1.034878877665414,-0.16889443747522392,-0.8722007760155502,2.7172854084219114
1426,-2.6127110524486277,-2.5498305489209074,1.2797183818025735,2.646536667526265
1427,-4.094213382806126,-4.886345961707771,3.2307636995674707,2.6717419237448365
1428,-5.311729847568451,-7.123458234213956,4.943264435771868,2.7501226681372013
1429,-6.165718065567747,-9.206262078914904,6.41015880754774,2.6121767771572415
1430,-6.619138511217855,-11.059816672614232,7.711848031296613,2.1388386577445075
1431,-6.696553899246169,-12.76491029244568,8.75325294834667,1.3026851915654132
1432,-6.663528397057199,-14.179225542273187,9.444674969091036,0.19183940633036917
1433,-6.67818704972802,-15.156442675547439,9.785124295330185,-1.0329584662083766
1434,-6.644309444721533,-15.655346380555628,9.854358817996093,-2.211100731601883
1435,-6.241292507553171,-15.742795458294204,9.789201299334342,-3.479338960675067
1436,-5.402284219298673,-15.708492678348911,9.802849696173748,-4.612516093631074
1437,-4.2531193530441,-15.705380977721708,9.860665869454637,-5.414272097744722
1438,-3.1100151426952576,-15.667529246399969,9.694104937424965,-5.818270258450895
1439,-2.265122600905153,-15.299930324936584,9.184035074152048,-5.8803993998559365
1440,-1.541919635532587,-14.560109721796852,8.302910742958133,-5.857291358538553
1441,-0.918774063754356,-13.470963436868512,7.185510126916208,-5.867564551946387
1442,-0.40337780320546146,-12.135136142928944,6.068138216537436,-5.82598155242565
1443,-0.05868212879957993,-10.650499329012415,5.114566539325638,-5.470208859591728
1444,0.052521755032428015,-8.947828610875886,4.255918460600138,-4.762906269650988
1445,0.017266786731627053,-7.052788655343166,3.4728263108184345,-3.750215739786393
1446,0.0049412322217573384,-5.012962377387476,2.820132155285028,-2.5834048934159175
1447,0.03991705902582174,-2.8877788805013203,2.3711393089469315,-1.4598766654254232
1448,-0.17915496350306026,-0.7494351708326397,2.1578582692011654,-0.3708058000362923
1449,-0.7112768103779714,1.3287011840002592,2.1577307027295105,0.524056941481556
1450,-1.3948442590144483,3.253753757330472,2.1531314470931684,1.1024453369057319
1451,-1.9760245326008525,5.142025495654587,2.1170688789858283,1.3646365065266146
1452,-2.2646074493816273,6.798734463593312,2.190706379594519,1.403515720852785
1453,-2.2568943091624325,7.997215823368576,2.538645792548783,1.3533399423954873
1454,-2.255068574232704,8.635341340076954,3.1653487359044714,1.3885791135287484
1455,-2.3092543249444093,8.782220000720626,4.254507240144094,1.372986892304592
1456,-2.197366640483686,8.687003041729167,5.518559517190327,1.2049698070187274
1457,-1.7392608578960806,8.663451751907424,6.557991282666607,0.9598144291178169
1458,-0.9959278381031579,8.70610699796496,7.220637078157736,0.7328589611188819
1459,-0.14422053515443076,8.482212664295135,7.423127266018609,0.6229057629506575
1460,0.6601441984203242,7.987607059404684,7.270936937440712,0.6294460288785277
1461,1.4056654163068467,7.309571466320296,7.313884216647393,0.6237501095438873
1462,2.2900018779633458,6.635532517210879,7.487746770370298,0.6077244031463
1463,3.2245047993150693,6.144394390447966,7.164805393423113,0.8550257955320033
1464,4.015947679937538,5.854200692188809,6.073605462186955,1.4372311806672615
1465,4.561037055627395,5.642674287286901,4.167413556048365,2.2989946840629587
1466,4.96193255821942,5.481771298093185,1.7218018361776735,3.37836721482022
1467,5.38727529280665,5.339216198343894,-0.7791721397233156,4.371979381599373
1468,5.9396194584295205,5.202362213998388,-2.9527150064332695,5.074155439843902
1469,6.494881976921509,5.061242138994064,-4.938391475048516,5.465957073030452
1470,6.887019742160169,4.910149898936041,-6.607366410053868,5.558344422156897
1471,7.061527442420647,4.771389328796171,-8.059080390444443,5.48616911865474
1472,7.079986058630243,4.675525607423094,-9.243093145006679,5.4848275102387705
1473,7.039435425201681,4.627321454596957,-10.072787055546627,5.541575586675002
1474,7.071584015112404,4.61127697364808,-10.515171763617012,5.396029887187264
1475,7.095594258478293,4.607964224597581,-10.63494843763663,4.970724440545379
1476,6.958150502840576,4.588761702609465,-10.556853382927862,4.2624984287647445
1477,6.600443510217926,4.552924075580712,-10.554533911534183,3.3692698565228287
1478,5.964382683643732,4.535361897536266,-10.632166034854528,2.4264990239140483
1479,5.028297407019466,4.536137677816867,-10.530006744776562,1.5096265825202013
1480,3.8704179704905153,4.520211538491897,-10.166530485092856,0.5880672021340536
1481,2.6364305129148424,4.454409337131941,-9.57716947953616,-0.24105484785129375
1482,1.41683037724274,4.307737202738647,-8.907102836421204,-0.9002635563733884
1483,0.3357147930510148,4.055541522447154,-8.31373097176625,-1.369329877596738
1484,-0.6646748918571381,3.700005430318008,-7.838351877324087,-1.7017971099955718
1485,-1.6746180670142645,3.240419661481861,-7.266734702880421,-1.9971157251699763
1486,-2.6309370146145157,2.6551531060760163,-6.498522191092672,-2.3540747896188954
1487,-3.4960220629429872,1.940185049187574,-5.527490127216976,-2.832419027111433
1488,-4.14875020842247,1.1180690736641468,-4.144388149394709,-3.5039652904900027
1489,-4.548656201108649,0.23011733854991331,-2.6172808999948467,-4.362692083411977
1490,-4.746408966416903,-0.6618386084436876,-1.3365492492374123,-5.205699233309927
1491,-4.80911796207033,-1.5156901980699404,-0.5721871434987991,-5.821243253817078
1492,-4.776661227538033,-2.2283457934180153,-0.3731125476462411,-6.1168543247601495
