,TP9,AF7,AF8,TP10
0,-3.8032780276481707e-16,-3.8061759948127766e-14,-5.161071068099391e-14,-3.704465007112367e-14
1,-1.5953768468341066e-14,-8.473764292961264e-13,-1.1344326594737237e-12,-8.377295511388307e-13
2,-9.573520380844929e-13,-1.0061302415844972e-11,-1.3518803348129361e-11,-1.0036917841635357e-11
3,-1.4078593445138303e-11,-7.992492013896069e-11,-1.0783479455781231e-10,-8.044761324315433e-11
4,-1.2382912373187686e-10,-4.782273000970886e-10,-6.480310991894701e-10,-4.857412174593157e-10
5,-7.8693743068929e-10,-2.305612532171613e-09,-3.1381895199445634e-09,-2.3628579678149165e-09
6,-3.941730161668833e-09,-9.356127729302697e-09,-1.2792348200889593e-08,-9.670513420508608e-09
7,-1.638169791701178e-08,-3.2954372203168494e-08,-4.526360130226989e-08,-3.4330377813559484e-08
8,-5.847515491648564e-08,-1.0307887470952664e-07,-1.4223493138515238e-07,-1.0813427761857567e-07
9,-1.8385023164761628e-07,-2.9143378983761345e-07,-4.0401583658119306e-07,-3.0754333899830615e-07
10,-5.190692216355634e-07,-7.552888350411829e-07,-1.0520099765146928e-06,-8.008483781057233e-07
11,-1.336313877345297e-06,-1.8147524409277827e-06,-2.5398256432393298e-06,-1.931086813424893e-06
12,-3.1762454668182086e-06,-4.080397019311279e-06,-5.7385642348378605e-06,-4.352216195631258e-06
13,-7.04194942790307e-06,-8.65239463303113e-06,-1.2228875603544076e-05,-9.239787705482853e-06
14,-1.4687641903513836e-05,-1.741601580246454e-05,-2.473894461037724e-05,-1.8600137907080044e-05
15,-2.9027017912788598e-05,-3.346091077805113e-05,-4.777277166863635e-05,-3.570332828551777e-05
16,-5.468523142518738e-05,-6.165245954823906e-05,-8.847600174919039e-05,-6.566420260247168e-05
17,-9.871514565940283e-05,-0.00010938215081255613,-0.00015778629079436286,-0.00011619265209793355
18,-0.00017149253331400115,-0.00018752007931180918,-0.0002719111020505288,-0.00019852833207086433
19,-0.00028779642972896795,-0.0003115860758869015,-0.0004541674740549974,-0.0003285667361578471
20,-0.00046807012673358766,-0.0005031467697159222,-0.000737205566912932,-0.0005281729968426209
21,-0.0007398457868549579,-0.0007914343242189084,-0.0011656208597500438,-0.0008266675262726123
22,-0.0011393019723943405,-0.0012151692026970407,-0.0017989392432619339,-0.0012624542873331643
23,-0.0017129093045094854,-0.001824554807083861,-0.0027149357340732266,-0.0018847488589653848
24,-0.0025191058855990357,-0.002683397026782199,-0.004013222206520626,-0.0027553503648451837
25,-0.0036299319427902025,-0.003871287538858074,-0.005819013680462602,-0.003950389610540668
26,-0.00513254324181769,-0.005485777024733557,-0.008286957751825905,-0.005561976222693127
27,-0.007130515974875629,-0.007644454161962883,-0.011604889198581407,-0.007699660941480484
28,-0.00974485276835963,-0.010486839049118173,-0.015997353103839457,-0.010491626137556852
29,-0.013114600787077645,-0.014175996205759898,-0.021728726351325958,-0.014085518643331907
30,-0.017396999019448602,-0.018899772845782495,-0.02910576019076388,-0.01864884447582451
31,-0.02276708282864553,-0.02487157292761647,-0.03847936656450397,-0.024368855132233958
32,-0.02941668959482817,-0.032330586497441804,-0.050245478498065294,-0.031451869744862596
33,-0.03755282936491497,-0.0415414068095452,-0.06484483017366532,-0.04012199609182177
34,-0.047395408252913517,-0.05279298418712305,-0.08276152505200228,-0.05061923559487924
35,-0.05917431902920602,-0.06639688496702047,-0.10452028998083517,-0.06319698205306791
36,-0.0731259417916626,-0.08268484540719846,-0.13068234874291174,-0.07811894979686092
37,-0.08948912653998903,-0.10200563327758873,-0.16183988881817105,-0.09565559288835347
38,-0.10850075751788432,-0.1247212530884373,-0.19860913892392648,-0.11608010156020379
39,-0.1303910249825916,-0.15120255359230836,-0.24162212063914582,-0.13966408393168273
40,-0.15537855227425237,-0.1818243173960346,-0.29151718348368166,-0.16667305893389556
41,-0.18366554342725566,-0.21695993136166986,-0.3489284775272129,-0.19736189929028322
42,-0.21543312799102077,-0.2569757521848358,-0.4144745592868403,-0.23197037057810635
43,-0.2508370843684935,-0.3022252934800644,-0.4887463637776722,-0.27071891340230725
44,-0.29000412030746625,-0.3530433684150298,-0.57229480670904,-0.3138048104236798
45,-0.3330288789629683,-0.40974032515161557,-0.6656183047774002,-0.36139886857318465
46,-0.3799718212359416,-0.47259651100342737,-0.7691505178374106,-0.4136427297012018
47,-0.4308581102313712,-0.5418570954339134,-0.883248623738065,-0.47064690086723177
48,-0.48567759235785185,-0.6177273721070341,-1.0081824343824186,-0.5324895694406804
49,-0.544385932850858,-0.7003686466364891,-1.1441246500174895,-0.5992162393477742
50,-0.6069069226746994,-0.7898948000656423,-1.2911425281333542,-0.6708401945089448
51,-0.673135930382572,-0.886369599148487,-1.4491912142296939,-0.7473437651797394
52,-0.7429444282797286,-0.9898048039427564,-1.6181089449755859,-0.8286803439345903
53,-0.8161854789424869,-1.1001591018267796,-1.797614291067198,-0.9147770717213487
54,-0.8927000276356712,-1.2173378755371105,-1.9873055586758068,-1.0055380919049897
55,-0.972323810192381,-1.341193791856743,-2.1866624161876667,-1.1008482524184167
56,-1.054894655996629,-1.4715281777434,-2.3950497584470827,-1.2005771236658984
57,-1.1402599430592077,-1.6080931324605814,-2.6117237654360905,-1.3045831929767324
58,-1.2282839476993763,-1.7505943080560449,-2.8358400577703184,-1.4127180951455554
59,-1.3188548256201758,-1.898694276636439,-3.066463799038544,-1.52483074255961
60,-1.4118909644383089,-2.052016391558164,-3.302581546264142,-1.640771226952459
61,-1.5073464598935264,-2.2101490410821274,-3.5431146058974416,-1.7603943770683852
62,-1.6052154885921228,-2.372650187359799,-3.7869336148725874,-1.8835628714819272
63,-1.7055353785598029,-2.5390520809057575,-4.032874035302626,-2.010149822491587
64,-1.808388214223022,-2.708866040969322,-4.279752228059504,-2.1400407644724013
65,-1.9139008536404816,-2.8815871953559453,-4.526381755305143,-2.2731349975365247
66,-2.0222432815884157,-3.0566990790791624,-4.771589555322982,-2.4093462541746704
67,-2.133625270992416,-3.233677999459454,-5.0142316348748475,-2.548602672258742
68,-2.2482913756147105,-3.4119970855593067,-5.253207934723109,-2.690846072074119
69,-2.366514327252904,-3.591129951731017,-5.487476042679907,-2.8360305477906516
70,-2.488586959418854,-3.770553918110665,-5.716063455163657,-2.984120395005068
71,-2.6148128250305445,-3.94975274468379,-5.938078122169957,-3.135087405853369
72,-2.745495716643399,-4.128218849677867,-6.152717051041981,-3.2889075719512126
73,-2.8809283329268967,-4.305454997154019,-6.3592727905304995,-3.4455572433842567
74,-3.021380363464912,-4.48097545247092,-6.5571376672779556,-3.60500879946647
75,-3.1670862847966297,-4.654306617500364,-6.745805700789038,-3.7672258943053776
76,-3.318233173414866,-4.824987169818028,-6.924872178744007,-3.9321583475572033
77,-3.474948845895251,-4.9925677413068605,-7.094030930617116,-4.0997367581895245
78,-3.6372906323542304,-5.156610181431607,-7.2530693923465535,-4.269866926523519
79,-3.805235077191956,-5.316686458630936,-7.401861606634796,-4.442424177115449
80,-3.978668840981501,-5.47237725963206,-7.540359350813037,-4.617247681887272
81,-4.157381050036661,-5.623270350889671,-7.668581625758775,-4.794134889009852
82,-4.341057306409801,-5.768958768733869,-7.7866027740735095,-4.972836168043088
83,-4.529275531788979,-5.909038905216624,-7.89453952290102,-5.1530497854189665
84,-4.7215037751013895,-6.043108555199623,-7.992537266031249,-5.334417326213743
85,-4.91710006684302,-6.1707649871373365,-8.080755911250312,-5.516519678019779
86,-5.115314354550398,-6.29160309555921,-8.159355622505315,-5.698873690346746
87,-5.31529250471132,-6.405213687785763,-8.228482782824887,-5.880929618145334
88,-5.5160823080778165,-6.51118195131268,-8.288256493701654,-6.062069450612898
89,-5.716641379122678,-6.6090861419783895,-8.33875591052266,-6.24160621637113
90,-5.915846797597367,-6.698496526902064,-8.380008692375519,-6.418784343476776
91,-6.112506302030269,-6.778974610605268,-8.4119808188956,-6.592781137708534
92,-6.305370812557756,-6.850072667994178,-8.434567997443029,-6.762709425397459
93,-6.493148034429318,-6.911333604158549,-8.447588851442367,-6.927621387996947
94,-6.674516874312628,-6.96229115830276,-8.45078004574786,-7.086513594912095
95,-6.848142389330298,-7.002470467518939,-8.443793467912725,-7.238333219164296
96,-7.012690983547625,-7.031389005403511,-8.426195545691073,-7.381985397674875
97,-7.166845568182242,-7.048557910485802,-8.397468741427646,-7.516341674845153
98,-7.309320409818276,-7.05348371979875,-8.35701522367072,-7.640249445354997
99,-7.438875405084539,-7.045670523351403,-8.30416267592485,-7.752542290483116
100,-7.5543295403619535,-7.0246225554165065,-8.238172162552054,-7.852051082632439
101,-7.654573320905873,-6.989847238086712,-8.158247933057345,-7.937615715999584
102,-7.738579985041924,-6.940858691176509,-8.063549008930387,-8.00809730828741
103,-7.805415355460787,-6.877181720004521,-7.953202362335195,-8.062390709749765
104,-7.854246220613546,-6.798356288699801,-7.826317463622319,-8.099437152253264
105,-7.884347184141727,-6.7039424813237565,-7.6820019452083415,-8.118236872809979
106,-7.89510596825769,-6.593525946242887,-7.519378103146174,-8.117861553275866
107,-7.886027206787868,-6.4667238108489835,-7.337599935041611,-8.097466430390861
108,-7.856734813646645,-6.323191043992042,-7.135870394231395,-8.056301947467523
109,-7.806973061015677,-6.162627232523606,-6.913458525730286,-7.993724839867079
110,-7.736606546502795,-5.984783726371084,-6.669716139832084,-7.909208569668265
111,-7.645619268003195,-5.78947109387178,-6.404093674938842,-7.802353049109709
112,-7.534113056821683,-5.576566816043747,-6.116154902826982,-7.672893615776431
113,-7.40230564186805,-5.34602313545746,-5.8055901378907935,-7.520709243359016
114,-7.250528628683606,-5.097874962820125,-5.472227627775036,-7.3458299884820395
115,-7.079225675365829,-4.832247732716723,-5.116042827045469,-7.148443685142081
116,-6.888951132275432,-4.549365089573973,-4.737165288782676,-6.928901902617433
117,-6.680369383388451,-4.249556276191775,-4.335882951465022,-6.687725179622405
118,-6.454255084482478,-3.933263090425715,-3.9126436499453052,-6.425607536738395
119,-6.2114944377892565,-3.6010462710269664,-3.4680537388772064,-6.143420250988556
120,-5.9530875756832895,-3.253591171380912,-3.0028737832614905,-5.84221485152343
121,-5.680152049366361,-2.8917125799702426,-2.5180113420750097,-5.523225264886506
122,-5.39392733480532,-2.516358548781015,-2.0145109450710783,-5.18786900376646
123,-5.0957801802423015,-2.1286130954676508,-1.493541437367855,-4.837747256403971
124,-4.787210530590501,-1.7296976517515117,-0.9563809387824852,-4.474643697076312
125,-4.469857677330282,-1.3209711390873542,-0.40439973242845106,-4.100521803715202
126,-4.1455062015805,-0.903928562950045,0.16095854257294812,-3.717520439212997
127,-3.8160912062386245,-0.4801980290769253,0.7381969684738754,-3.3279474308160806
128,1.3352777392521901e-15,-6.132668084070474e-14,8.734039001142993e-15,-4.5921231451109876e-15
129,-3.981475044054024e-15,-1.3459979598569028e-12,2.3819477225369064e-13,-1.1430053560017125e-13
130,1.397831214815475e-15,-1.595358629703073e-11,2.5276530827394247e-12,-1.60547603508897e-12
131,-2.862177518645708e-15,-1.2645909534718037e-10,1.7592032634703857e-11,-1.4612881456985698e-11
132,3.886091980969836e-14,-7.550642552599266e-10,9.053696352876007e-11,-9.797882881007066e-11
133,8.677207883726698e-13,-3.6324553155969155e-09,3.676522007989827e-10,-5.193874580857066e-10
134,1.0015911949193039e-11,-1.4708060951689965e-08,1.2241571721028278e-09,-2.2799387859001187e-09
135,7.636072482057269e-11,-5.1689480493085534e-08,3.4176804607912414e-09,-8.564476386479995e-09
136,4.3405091043785305e-10,-1.6131864360340527e-07,8.064863779591071e-09,-2.822041267832446e-08
137,1.967680803857499e-09,-4.550850713829996e-07,1.588953323736875e-08,-8.315974542121743e-08
138,7.427942519786831e-09,-1.176885220583823e-06,2.459614019349597e-08,-2.225911019810252e-07
139,2.4073523283218183e-08,-2.8219957601742077e-06,2.2329618672662926e-08,-5.481337079454794e-07
140,6.852768405505179e-08,-6.333254904634748e-06,-2.606113147232345e-08,-1.2550148201204352e-06
141,1.7438638911103712e-07,-1.3406966977264215e-05,-2.0490338233714664e-07,-2.6955507027379205e-06
142,4.0228275346425363e-07,-2.694705278124852e-05,-6.928453882170978e-07,-5.471782131377069e-06
143,8.505943435855869e-07,-5.171058853409934e-05,-1.8371454549042806e-06,-1.0564293137688293e-05
144,1.6628002989021318e-06,-9.519033924245898e-05,-4.270331056532694e-06,-1.9503715810118393e-05
145,3.024793888470352e-06,-0.0001687794996292657,-9.086246427211183e-06,-3.4590094920658206e-05
146,5.142463840101961e-06,-0.0002892600314866097,-1.8096416452409735e-05,-5.916310943391077e-05
147,8.186909968145099e-06,-0.0004806483251147877,-3.41911636528502e-05,-9.792315805160085e-05
148,1.219220687330524e-05,-0.000776420213834532,-6.183236855471973e-05,-0.00015729960843480854
149,1.68891881717482e-05,-0.001222121672743841,-0.00010770545810941386,-0.0002458582222370743
150,2.1458782282872835e-05,-0.0018783521342718738,-0.00018155649205818376,-0.00037473506626626717
151,2.4190355812744347e-05,-0.0028240848261812186,-0.0002972356024926756,-0.0005580792932442779
152,2.203452408067208e-05,-0.004160263723403875,-0.00047396027692399485,-0.0008134822322709202
153,1.0046006499088248e-05,-0.006013590692480381,-0.0007378011022937784,-0.001162365495011278
154,-1.9279817491519397e-05,-0.00854039048877153,-0.0011233789482501164,-0.0016302965234976713
155,-7.676334622806767e-05,-0.011930416872497154,-0.0016757467794958683,-0.0022471964414275862
156,-0.00017736626468580825,-0.016410441726735447,-0.0024524121898090224,-0.0030474024940470514
157,-0.00034105137432717623,-0.022247452138718326,-0.0035254393552578314,-0.0040695460317563175
158,-0.000593631759848609,-0.029751269270826605,-0.004983552532541119,-0.005356207139772213
159,-0.0009675554560443724,-0.03927639861958582,-0.006934148643712692,-0.0069533088288589555
160,-0.0015025650667597262,-0.051222924792643586,-0.009505115009700126,-0.008909217322388757
161,-0.002246167926736868,-0.06603627576163452,-0.012846340894546148,-0.011273520489780444
162,-0.0032538519921103443,-0.0842057018605254,-0.017130808941143768,-0.0140954639065774
163,-0.004588986109105503,-0.10626134340377622,-0.02255515527470277,-0.017422033310353312
164,-0.006322350824494197,-0.13276979711226902,-0.029339595195404748,-0.021295683236936074
165,-0.008531257412058938,-0.16432813457772844,-0.03772712489179398,-0.02575172416409197
166,-0.011298228036400338,-0.20155637442311752,-0.047981928176665106,-0.030815394302913454
167,-0.014709228473287579,-0.24508846197256254,-0.060386940375894316,-0.036498656939118405
168,-0.018851465829999043,-0.2955618642470278,-0.07524054850900623,-0.042796779539143
169,-0.02381078630526664,-0.35360594193064226,-0.09285243694963738,-0.04968476621829403
170,-0.029668731087091355,-0.41982931153719366,-0.11353861987440743,-0.057113730067337
171,-0.03649933082329856,-0.49480645831149206,-0.137615734916325,-0.06500730564279768
172,-0.044365739495246845,-0.5790639014982988,-0.16539470533805675,-0.07325821400073358
173,-0.053316825759160844,-0.6730662467551443,-0.19717390941002147,-0.0817251023351195
174,-0.06338385273345701,-0.7772024841758228,-0.23323202407129104,-0.09022978693680526
175,-0.0745773848572486,-0.8917729034504309,-0.2738207338437921,-0.09855503127250655
176,-0.08688456223024477,-1.0169769993204998,-0.3191575138677297,-0.10644299010163112
177,-0.1002668786080792,-1.152902730335584,-0.36941870652280995,-0.11359444549777502
178,-0.11465858921491247,-1.2995174720855867,-0.4247331134433382,-0.11966895140722209
179,-0.12996585934272253,-1.4566609731435218,-0.4851763183581607,-0.12428599011391954
180,-0.14606674521525342,-1.6240405789160388,-0.5507659411591721,-0.12702722698483346
181,-0.16281207591940555,-1.8012289368548826,-0.6214580005098262,-0.12743992955079342
182,-0.18002728058252032,-1.9876643377217689,-0.6971445321542437,-0.12504159382606092
183,-0.19751517961584755,-2.182653783720681,-0.7776525741785713,-0.11932579532358696
184,-0.21505973381840143,-2.385378807329126,-0.8627445902598962,-0.10976925504306069
185,-0.2324307213000912,-2.594903996615653,-0.9521203588952072,-0.09584008236535715
186,-0.24938929018065858,-2.8101881157104067,-1.0454203121641907,-0.07700712784254518
187,-0.26569431524948295,-3.030097644748195,-1.1422302631018946,-0.0527503498575999
188,-0.28110946935455405,-3.25342250367753,-1.2420874175344245,-0.022572070512701093
189,-0.29541090506297246,-3.47889367022594,-1.3444875255221933,0.013991031705788706
190,-0.3083954287308619,-3.7052023551734594,-1.4488929906134256,0.057355371578191906
191,-0.31988903707794647,-3.9310203587985892,-1.5547417231951468,0.10787755331384231
192,-0.32975567524405375,-4.155021201573342,-1.661456498602876,0.165841340583769
193,-0.33790606473580365,-4.375901600326253,-1.7684545625277948,0.2314447485564934
194,-0.3443064393779819,-4.59240284840164,-1.8751572167007216,0.3047875239461652
195,-0.34898701724701664,-4.803331654887323,-1.9809991175785964,0.38585929347681236
196,-0.352050026708622,-5.007580003686772,-2.08543703008308,0.4745286713964552
197,-0.3536770954992506,-5.204143607875375,-2.1879577970488135,0.5705336219663457
198,-0.3541358039014552,-5.392138558090267,-2.2880853120904696,0.673473372382408
199,-0.35378519722683927,-5.570815795232145,-2.3853863178167174,0.7828021645614185
200,-0.35308004989853553,-5.7395730769626505,-2.479474891161928,0.897825119939276
201,-0.35257367435955594,-5.897964153696297,-2.570015521419468,1.017696469327881
202,-0.35291907382367127,-6.045704922216978,-2.6567247326946544,1.141420369602294
203,-0.3548682494950825,-6.182676382769899,-2.739371249350942,1.2678544904290836
204,-0.359269491138409,-6.308924287440796,-2.817774749050736,1.3957165075765283
205,-0.3670625053843523,-6.424655432677226,-2.891803291689854,1.5235935850598339
206,-0.37927126926346827,-6.5302306156855305,-2.9613695524608192,1.6499548672837316
207,-0.3969945372317404,-6.626154341840307,-3.026426022157402,1.7731669355833246
208,-0.4213939780929619,-6.713061436817926,-3.086959366550789,1.8915121125737842
209,-0.45367997300463236,-6.791700781547408,-3.1429841583663114,2.003209424233597
210,-0.4950951660104263,-6.862916448914601,-3.194536209457578,2.1064379556464945
211,-0.5468959227303692,-6.927626577174826,-3.241665736862037,2.199362263971893
212,-0.6103319191317325,-6.986800365037432,-3.2844305944523065,2.28015944374493
213,-0.6866241486411171,-7.0414336163339994,-3.3228897920992186,2.3470473772567577
214,-0.7769416999845207,-7.092523297184959,-3.3570975071846134,2.3983136486753023
215,-0.8823777176787838,-7.141041594936189,-3.387097769821791,2.432344556717577
216,-1.0039250096586159,-7.187909985330523,-3.412919974436626,2.4476536288440007
217,-1.142451809854811,-7.233973822074845,-3.4345753378419257,2.4429090216186458
218,-1.2986782356000426,-7.279977960989932,-3.452054389128358,2.4169591882778008
219,-1.4731539987618494,-7.326543919263659,-3.4653255411039776,2.3688562065493195
220,-1.6662379340533737,-7.374149049075418,-3.474334758008508,2.2978761878611067
221,-1.87807989705361,-7.42310817425181,-3.4790063009669665,2.2035362333215187
222,-2.1086055575946077,-7.473558099005404,-3.4792445020716825,2.085607461813182
223,-2.3575045713972678,-7.525445349692313,-3.4749364908388274,1.9441237102716347
224,-2.6242225547116864,-7.578517454547042,-3.465955773645134,1.7793855942760075
225,-2.907957214276404,-7.632318003337043,-3.452166547985002,1.5919597165279995
226,-3.207658899678539,-7.686185659842266,-3.4334286191376213,1.3826729192375038
227,-3.5220357492213754,-7.739257226221222,-3.4096027769863224,1.1526015910291039
228,-3.8495634962074354,-7.7904747810794985,-3.380556484967559,0.9030561565196067
229,-4.188499893008346,-7.8385968339706364,-3.34616973100546,0.6355609937163321
230,-4.536903598522092,-7.882213359803807,-3.3063408913637162,0.35183013726196233
231,-4.892657263822133,-7.9197644989292355,-3.2609924622482813,0.05373923077842266
232,-5.253494444198551,-7.949562634226112,-3.2100765204614286,-0.25670571415595894
233,-5.6170298664767095,-7.969817486954828,-3.153579783273551,-0.5774021144298565
234,-5.980792491315074,-7.978663809958607,-3.0915281488335498,-0.9061864650561173
235,-6.342260733588578,-7.974191201350055,-3.023990611783417,-1.2408710936869234
236,-6.698899141990389,-7.954475515261426,-2.9510824641607103,-1.5792812444862196
237,-7.048195793233944,-7.917611309547961,-2.8729677090032406,-1.919291708238114
238,-7.387699627887254,-7.8617447442899415,-2.7898606330812257,-2.2588622272349226
239,-7.715056944645891,-7.785106330116877,-2.7020265055274484,-2.5960709336344685
240,-8.028046278018012,-7.686042922147061,-2.60978139031388,-2.9291451272839706
241,-8.324610910793842,-7.5630483638517685,-2.5134910818602587,-3.2564887617228435
242,-8.60288831677789,-7.41479220534572,-2.41356919374916,-3.576706083100627
243,-8.861235890193688,-7.240145952163634,-2.31047444970552,-3.888620953729018
244,-9.098252394667018,-7.038206342952052,-2.2047072428700174,-4.191291487425484
245,-9.312794655081037,-6.808315206894671,-2.096805543289778,-4.484019725142335
246,-9.503989117832619,-6.550075513097751,-1.987340243992743,-4.766356184098645
247,-9.671238016777489,-6.263363293415796,-1.8769100427387726,-5.038099219368008
248,-9.814220000909858,-5.94833519598253,-1.7661359594815367,-5.299289241436637
249,-9.932885202882115,-5.605431507600828,-1.6556555888438071,-5.550197934645529
250,-10.027444851970666,-5.235374567610275,-1.5461171827933122,-5.791312717857767
251,-10.098355658053721,-4.839162582279134,-1.438173651666253,-6.023316778508108
252,-10.146299311585825,-4.418058935472479,-1.3324765623285593,-6.247065092944303
253,-10.17215755551962,-3.973577176594588,-1.22967020129901,-6.463556918437811
254,-10.176983385888706,-3.507461948839451,-1.1303857588304522,-6.673905304475465
255,-10.161969025803208,-3.021666197886854,-1.0352356779961882,-6.879304222276359
256,-5.0156604875721525e-14,-3.3313468092433993e-14,-5.838865191493902e-14,-4.702642337367326e-14
257,-1.1801792654288647e-12,-6.939617377061839e-13,-1.2862151615963328e-12,-1.0341856708723772e-12
258,-1.495915777576055e-11,-8.248828995770096e-12,-1.5234693365509138e-11,-1.2613671924761147e-11
259,-1.260212130469308e-10,-6.586230006889706e-11,-1.2046200096802345e-10,-1.0293576519560186e-10
260,-7.941872520557974e-10,-3.968359572278722e-10,-7.158333535016943e-10,-6.321343865102998e-10
261,-4.004861369276567e-09,-1.9296072049426526e-09,-3.4195371945666285e-09,-3.1238901137836117e-09
262,-1.688343322369035e-08,-7.908857586155768e-09,-1.3718671629675134e-08,-1.2975314299070909e-08
263,-6.138170760632301e-08,-2.8172963093561742e-08,-4.7673599377713314e-08,-4.6708747184701225e-08
264,-1.9700313055859118e-07,-8.922561886252818e-08,-1.4686539902368503e-07,-1.4910010069369746e-07
265,-5.684706716297951e-07,-2.556746674678077e-07,-4.0837669675022003e-07,-4.296022241551869e-07
266,-1.496698585522796e-06,-6.721182782981292e-07,-1.0398222308567314e-06,-1.1332004840579566e-06
267,-3.6390621749607347e-06,-1.6391697049539968e-06,-2.453103786076884e-06,-2.768145838010642e-06
268,-8.253172951700901e-06,-3.7428974230706174e-06,-5.4144216398308254e-06,-6.321582893922477e-06
269,-1.760634929195056e-05,-8.063186794426082e-06,-1.1271906485468464e-05,-1.3603300946275573e-05
270,-3.5579729527349005e-05,-1.649287076315448e-05,-2.2285839698383045e-05,-2.7766778888481688e-05
271,-6.85204005600344e-05,-3.220523040095856e-05,-4.2089600302049365e-05,-5.4064248379565216e-05
272,-0.0001263959322410341,-6.031182654135412e-05,-7.631195249923165e-05,-0.00010089742986936193
273,-0.00022430242053894165,-0.00010875476948144197,-0.00013339270984917212,-0.0001812266863532249
274,-0.00038436894521687493,-0.00018947672357440422,-0.0002256237264381452,-0.0003143975196024051
275,-0.000638087971736681,-0.00031990761176761153,-0.00037044508150594144,-0.0005284338005099782
276,-0.0010290827670877759,-0.0005247988156144763,-0.0005920218212173255,-0.0008628314462132172
277,-0.0016162998501200038,-0.000838423637059337,-0.0009231194675029883,-0.0013718644464965773
278,-0.002477587766768537,-0.0013071471789898779,-0.0014072867351943928,-0.002128387696273351
279,-0.0037135943357874354,-0.0019923501701627376,-0.002101341822464988,-0.003228088976860194
280,-0.005451884458958752,-0.002973670395826394,-0.0030781447501547128,-0.00479410704035565
281,-0.007851151266261194,-0.00435250326097898,-0.004429623076298457,-0.006981895851916792
282,-0.011105366468438271,-0.00625568068207917,-0.00627000240290178,-0.00998417869178183
283,-0.015447693031352853,-0.008839226095021744,-0.008739176823038259,-0.014035802261400023
284,-0.021153966316169334,-0.012292063984319104,-0.012006138155111121,-0.019418272474394718
285,-0.028545540086444943,-0.016839546003050473,-0.01627236681086969,-0.026463732421701087
286,-0.03799129236272923,-0.02274664335848992,-0.021775071877584658,-0.03555813097714633
287,-0.0499085936844952,-0.03032064741570562,-0.028790154067542907,-0.04714332913509064
288,-0.0647630571680046,-0.03991321797661003,-0.037634753406032444,-0.06171790141768498
289,-0.08306691564463292,-0.05192162179945055,-0.04866923487631246,-0.0798364119555346
290,-0.1053759054899397,-0.06678901282310912,-0.06229846081048963,-0.10210697892361767
291,-0.13228457841214827,-0.08500362024966672,-0.07897219970062191,-0.12918698608295945
292,-0.16442000997117887,-0.10709673092185601,-0.09918452825324742,-0.16177685484647494
293,-0.2024339251940176,-0.13363937792542177,-0.12347209757535128,-0.20061185267162104
294,-0.24699331544770173,-0.1652376774926883,-0.1524111555956988,-0.2464519814077634
295,-0.29876967476761673,-0.2025267903677494,-0.18661324594919926,-0.30007005992328134
296,-0.35842703613419213,-0.2461635209585148,-0.22671953787545765,-0.36223818614791903
297,-0.426609036815334,-0.2968176068604067,-0.2733937811011713,-0.43371283175912995
298,-0.5039252850710189,-0.355161791593734,-0.32731392279027266,-0.5152188853406277
299,-0.5909373367148685,-0.4218608134684713,-0.3891624688704041,-0.6074330143441278
300,-0.6881446179669968,-0.4975594821406777,-0.45961571770669146,-0.7109667602579735
301,-0.7959706496792164,-0.5828700504082095,-0.5393320385037417,-0.826349813049302
302,-0.9147499365875637,-0.6783591208989853,-0.6289394083072501,-0.9540139286538362
303,-1.0447158832670547,-0.784534354404484,-0.7290224584361695,-1.0942779560108062
304,-1.185990085780345,-0.9018312677000798,-0.8401093120974887,-1.2473344274320086
305,-1.3385733247939944,-1.030600422927676,-0.9626585184931231,-1.4132381381158126
306,-1.50233855262987,-1.171095317334545,-1.0970464038673333,-1.5918970981268141
307,-1.677026124041415,-1.3234612809055757,-1.2435551659526032,-1.783066184469432
308,-1.8622414694659977,-1.4877256799425047,-1.4023620348128283,-1.986343753778135
309,-2.0574553514200162,-1.6637897068972476,-1.5735298101603048,-2.2011713998065017
310,-2.262006781138715,-1.8514220109471677,-1.756999063111288,-2.426836956780042
311,-2.4751086052511493,-2.050254390342039,-1.9525822594991262,-2.6624807624182742
312,-2.6958557030695496,-2.259779727147259,-2.1599600228599276,-2.907105105753097
313,-2.9232356659186416,-2.4793522986087146,-2.3786797087327765,-3.1595866975138795
314,-3.156141762893899,-2.708190548164265,-2.60815640882274,-3.418691917500257
315,-3.39338793460758,-2.9453823445119864,-2.8476764449483074,-3.6830945165596995
316,-3.6337254998491884,-3.1898927006287745,-3.0964033499468226,-3.9513953828180433
317,-3.8758612114272313,-3.4405738677758007,-3.353386267624057,-4.222143924626872
318,-4.118476258270037,-3.696177663866307,-3.617570638532898,-4.49386057784248
319,-4.360245782346782,-3.955369842558162,-3.88781097520096,-4.76505991366054
320,-4.599858462006298,-4.216746260397211,-4.162885471780777,-5.034273805993649
321,-4.836035708435145,-4.478850555460672,-4.441512141169311,-5.3000741145721575
322,-5.0675500292318,-4.740193013262853,-4.7223661292820465,-5.561094351455342
323,-5.2932421323287855,-4.999270265059932,-5.00409782277479,-5.816049823976752
324,-5.512036374075384,-5.254585440834413,-5.285351344047144,-6.063755785486313
325,-5.722954196291894,-5.504668384691599,-5.5647830164136725,-6.303143175428006
326,-5.925125247244978,-5.748095534533728,-5.841079383146963,-6.533271590815029
327,-6.117795939162812,-5.98350907091783,-6.112974376650419,-6.753339200250899
328,-6.3003352582495875,-6.20963495205266,-6.379265258010993,-6.962689387285444
329,-6.472237710180807,-6.425299472922316,-6.6388269820625805,-7.160813989922302
330,-6.633123352729459,-6.629444016345384,-6.890624688069459,-7.347353085248668
331,-6.782734935454975,-6.8211377019571335,-7.133724070177205,-7.5220913501327615
332,-6.920932232300256,-6.999587684942908,-7.367299443529968,-7.684951108441768
333,-7.047683714655538,-7.1641469089432395,-7.590639389642264,-7.835982250088866
334,-7.163055768388553,-7.314319175876616,-7.803149935928602,-7.975349275428057
335,-7.267199707222792,-7.449761458406371,-8.004355296407061,-8.103315778325035
336,-7.360336875610849,-7.57028344719108,-8.193896270380696,-8.220226731133607
337,-7.4427421660174025,-7.675844393332785,-8.37152646024362,-8.326488973569537
338,-7.514726297652987,-7.766547374463373,-8.537106525508097,-8.422550334238997
339,-7.576617215906224,-7.84263117801601,-8.690596734897177,-8.50887782798186
340,-7.628740974116235,-7.904460054390682,-8.832048109173352,-8.585935374368876
341,-7.671402452254792,-7.952511642862163,-8.96159246180706,-8.654161473155442
342,-7.7048662509342805,-7.987363411246263,-9.079431640863886,-8.713947251931687
343,-7.729338074294017,-8.009677973715194,-9.18582625309962,-8.765615270411361
344,-7.744946882272683,-8.020187656978427,-9.28108411136785,-8.809399425755128
345,-7.751728052515639,-8.01967867072234,-9.365548592021664,-8.845426255400477
346,-7.74960774632137,-8.00897520166295,-9.439587024525006,-8.873697879999673
347,-7.738388623962547,-7.988923690847426,-9.50357916646526,-8.89407677177962
348,-7.717737005476088,-7.960377471626347,-9.557905749360119,-8.906272476023384
349,-7.687171527254763,-7.924181843657547,-9.602937019591831,-8.909830358983607
350,-7.646053306557799,-7.881159541046999,-9.639021149429636,-8.904122408229341
351,-7.59357759945381,-7.8320964267696995,-9.666472359698249,-8.888340075002587
352,-7.5287669261286005,-7.7777271187811445,-9.685558581679999,-8.861489125780656
353,-7.450465643006816,-7.7187201345030685,-9.696488493641588,-8.822386463783307
354,-7.357335964058095,-7.655662038532679,-9.699397797822513,-8.7696588908006
355,-7.247855472491975,-7.589040001845407,-9.694334655981313,-8.701743803895516
356,-7.120316215794907,-7.5192221368238865,-9.681244273079749,-8.616891857313407
357,-6.972825537718787,-7.44643496719683,-9.659952705145352,-8.513171663498687
358,-6.803308865903209,-7.370737429788233,-9.630150063199014,-8.388476654324965
359,-6.609514738763781,-7.291990888375439,-9.5913733840187,-8.240534270370137
360,-6.3890224157409685,-7.209824769622441,-9.542989534077432,-8.06691768841559
361,-6.139252466788825,-7.123597606026426,-9.484178599547812,-7.865060331653645
362,-5.857480775975463,-7.032353488570666,-9.413918288133043,-7.632273429866839
363,-5.54085641617215,-6.934774188141152,-9.330969924033184,-7.365766904793987
364,-5.186423853050084,-6.82912749367516,-9.233866652798644,-7.06267384599085
365,-4.791149913341126,-6.713212628319838,-9.120904485998713,-6.720078812156475
366,-4.351955901493991,-6.584303932344942,-8.990136804942601,-6.335050140217902
367,-3.8657551682405136,-6.439094330989311,-8.839372907262451,-5.904676368383458
368,-3.329496323046574,-6.273640422953754,-8.666181120180145,-5.426106779864868
369,-2.7402121402952004,-6.083311315659378,-8.467896921246224,-4.896595952290367
370,-2.095074038516575,-5.862743580587987,-8.2416364041547,-4.313552056786011
371,-1.3914518172692698,-5.605804889785343,-7.984315307871159,-3.6745884947584306
372,-0.626978123516788,-5.30556900748369,-7.692673696247608,-2.9775782955210146
373,0.200383103901383,-4.9543048350764,-7.363306236986237,-2.2207105310174446
374,1.0922651884176575,-4.543482132281247,-6.992697887403564,-1.4025478423446507
375,2.0498254638412465,-4.063796354557874,-6.577264653847732,-0.522084023771421
376,3.073671614980423,-3.505214752944215,-6.113398955732238,0.42119951969025365
377,4.163789188794717,-2.857045478078263,-5.59751899799446,1.4272797290291965
378,5.319472002036443,-2.108030920605748,-5.026121441481776,2.49554162256391
379,6.539257280937698,-1.246465915621426,-4.395836563297323,3.624733197912333
380,7.820867433983147,-0.2603407542207584,-3.703485022050386,4.812926895775683
381,9.16116037561114,0.862491799944479,-2.946135289034155,6.057488968501618
382,10.55609028348603,2.134127073819247,-2.121160777334628,7.3550580038645545
383,12.000680582750904,3.566399006484411,-1.2262956972800398,8.701533718401974
384,-2.699976538019092e-13,5.279166303371233e-13,1.9200707470764743e-13,-1.8714117885606703e-13
385,-5.9988500101690745e-12,1.1468504872897931e-11,2.037048306101419e-12,-4.039604237265977e-12
386,-7.191834524787983e-11,1.3671629087739682e-10,2.7337220482207423e-11,-4.807436332864779e-11
387,-5.76564176919189e-10,1.0845385395196583e-09,2.2648875647138934e-10,-3.832479818057844e-10
388,-3.4783838002887693e-09,6.478448865325134e-09,1.4119112055285356e-09,-2.301479046809852e-09
389,-1.6891724799394443e-08,3.1163700139969777e-08,7.047958844378157e-09,-1.1136697140273795e-08
390,-6.897715069253636e-08,1.2610541146674312e-07,2.9457260034557813e-08,-4.536487006823186e-08
391,-2.4426211104652077e-07,4.4265104182812423e-07,1.0632473537902616e-07,-1.6042945888064542e-07
392,-7.675640998688832e-07,1.3790193814028198e-06,3.392416880579435e-07,-5.039851004457911e-07
393,-2.1788251740842504e-06,3.881067520183727e-06,9.742743415245465e-07,-1.431603345667847e-06
394,-5.666832067145567e-06,1.0007358245825321e-05,2.555262547540402e-06,-3.7291318264410797e-06
395,-1.3660462717762179e-05,2.3913060166066132e-05,6.192853937669954e-06,-9.009701100591966e-06
396,-3.081111445221727e-05,5.345423217348547e-05,1.4004707964804207e-05,-2.037887340538234e-05
397,-6.553652999878178e-05,0.00011265816408845683,2.9793024665465367e-05,-4.348879711060223e-05
398,-0.000132330546464758,0.00022534044945836824,6.003245677585737e-05,-8.812886499183538e-05
399,-0.0002550708973414601,0.0004301691137506103,0.00011524282445715328,-0.0001705231261970889
400,-0.00047157348140603047,0.0007874747322198317,0.00021181542518250017,-0.0003165202217854998
401,-0.0008396422129646667,0.0013880786753928459,0.00037434858569230264,-0.0005658667328593355
402,-0.0014448452184502069,0.002364356735095816,0.0006385274507684422,-0.0009777469118656583
403,-0.0024102084125428667,0.003903671843764706,0.001054555749969857,-0.0016377489979202296
404,-0.003907955424662805,0.006264198934300195,0.0016911146309035647,-0.0026663799102084086
405,-0.006173339061157457,0.009793030863534459,0.0026397873509940196,-0.004229196421578579
406,-0.009520506185802188,0.014946302217616001,0.004019850435247392,-0.006548553421012444
407,-0.01436021878776238,0.022310904772128645,0.005983293812439598,-0.009916891090683812
408,-0.021219124079709314,0.032627202460364296,0.008719896295414632,-0.014711396122647314
409,-0.030760131776489535,0.04681199345136815,0.012462150223799514,-0.02140978152229954
410,-0.04380332408161655,0.06598082088331979,0.017489801683116046,-0.030606839583848047
411,-0.061346700658206056,0.09146860995462741,0.02413375158426138,-0.043031337969355
412,-0.08458595434254619,0.12484751478200184,0.03277904922558119,-0.05956275407540417
413,-0.11493239052232535,0.16794080001453285,0.04386670466045323,-0.08124728222818953
414,-0.1540280500640424,0.22283156484345218,0.057894050266200474,-0.10931250523908037
415,-0.2037570773793045,0.2918651444836591,0.07541339596120791,-0.14518009913441757
416,-0.26625239517096466,0.37764409856183,0.09702874704696347,-0.19047593909407134
417,-0.34389680741309625,0.48301481743273256,0.1233903885163714,-0.24703699635841453
418,-0.43931775212479435,0.6110449448136129,0.15518718446369908,-0.31691445955887987
419,-0.5553750634627554,0.7649910250051517,0.19313649486803863,-0.40237257800608384
420,-0.6951412746767559,0.9482560304956206,0.2379716732290902,-0.5058828064168432
421,-0.8618741939977088,1.1643367045263553,0.29042717552540853,-0.6301129271289646
422,-1.0589817076636898,1.4167609556249336,0.35122138198244796,-0.7779109333086625
423,-1.2899790001070544,1.709015858514972,0.42103730626293134,-0.9522835710569713
424,-1.5584386222306792,2.0444671387588094,0.500501440200457,-1.156369555787766
425,-1.8679340758558178,2.4262713370484303,0.5901610545897161,-1.3934075952059868
426,-2.2219778071832557,2.8572821530243626,0.6904603463280512,-1.6666994645768662
427,-2.6239547063947883,3.3399527477759783,0.8017158880541361,-1.9795684872576924
428,-3.077052387095309,3.876236028976397,0.9240918966351566,-2.3353138727831038
429,-3.584189661984437,4.467485143902158,1.0575758896176624,-2.7371614548250203
430,-4.1479447350571075,5.114356555320765,1.2019553417749484,-3.188211451220595
431,-4.770484692343834,5.816718166743153,1.3567959848773719,-3.6913839374733346
432,-5.453497890865366,6.573564991755325,1.5214224102781866,-4.249362783458231
433,-6.198130818804429,7.382944823911165,1.6949016337485778,-4.864538850476123
434,-7.004930930067474,8.241896257798569,1.8760302632837342,-5.53895328241312
435,-7.873796845967253,9.14640123935521,2.0633258722035976,-6.27424175075699
436,-8.803937169505664,10.091354087317526,2.2550231212147627,-7.071580528827442
437,-9.79383897858098,11.070548632905835,2.4490750947801785,-7.931635275994941
438,-10.841246859156737,12.076684778304784,2.6431602205867955,-8.854513408006964
439,-11.943153114381394,13.101395384630663,2.834695028756051,-9.839720914773803
440,-13.0957995475545,14.13529397651072,3.0208528829626835,-10.886124461856081
441,-14.29469097253419,15.168043303729192,3.1985886828276593,-11.9919195760258
442,-15.534620361388454,16.188444341738375,3.3646693998895625,-13.154605668073497
443,-16.809705302128265,17.18454485359476,3.5157101723002357,-14.370968586867459
444,-18.113435214885484,18.143766187371124,3.6482155499676896,-15.63707132690767
445,-19.438728567756264,19.053046556243387,3.7586253555579043,-16.94825342674729
446,-20.777999147698807,19.898998653563957,3.8433645105671834,-18.299139497376462
447,-22.123230280481057,20.66807910166719,3.8988960718562273,-19.683657207991203
448,-23.466055759014893,21.34676692919527,3.9217766345287774,-21.095064931920003
449,-24.79784613298448,21.92174802430277,3.9087131830365824,-22.525989118761682
450,-26.109798935252467,22.38010232573156,3.8566204148286576,-23.968471311473778
451,-27.393031372294782,22.709490394413407,3.762677520060091,-25.41402457130717
452,-28.638673986575988,22.898335957477542,3.6243833770947376,-26.853698911743532
453,-29.837963807588665,22.93600103532109,3.439609116682576,-28.27815517807502
454,-30.982335544049498,22.812950350424376,3.2066470178854107,-29.677746645447897
455,-32.0635094308335,22.520901872168732,2.9242547260672596,-31.042607448783603
456,-33.073574428622955,22.05296057216951,2.591693827899414,-32.36274680680781
457,-34.005065579600384,21.403732745479356,2.208761880533845,-33.62814786323024
458,-34.851034446156305,20.569418589349965,1.775817072172082,-34.82886984449921
459,-35.60511169847526,19.54788111695068,1.29379478902075,-35.9551521287149
460,-36.26156106762973,18.33868991162964,0.764215478718035,-36.99751873695076
461,-36.81532403983997,16.943138690262458,0.18918333171025548,-37.946881698592456
462,-37.2620548311829,15.364236133644397,-0.42862455147080303,-38.79464170803168
463,-37.5981453467248,13.606669948773629,-1.0859786793074455,-39.53278448235537
464,-37.82073999054521,11.676744642733883,-1.7791273758146329,-40.15397124937861
465,-37.92774035056531,9.58229400073228,-2.5038364951679215,-40.65162184296164
466,-37.91779993213561,7.332569761315108,-3.255438278215537,-41.01998895819651
467,-37.790309255192405,4.938108459392749,-4.028888794390825,-41.25422222256665
468,-37.545371760187145,2.4105788519993023,-4.818833222675602,-41.35042087000496
469,-37.183771087078235,-0.23738725735714264,-5.619678040020139,-41.305673961868365
470,-36.70693039891425,-2.9923776318182536,-6.425669009740223,-41.118087280669904
471,-36.11686451668181,-5.840392201137852,-7.230973700616302,-40.786796226883745
472,-35.41612571517589,-8.767041979945073,-8.029767124650895,-40.31196427366273
473,-34.60774410095648,-11.75775049259603,-8.816318962263383,-39.69476677574461
474,-33.69516355339105,-14.797953828786584,-9.585080752610645,-38.937360183496025
475,-32.68217425876122,-17.87329547146939,-10.330771367578974,-38.04283697670971
476,-31.57284290575811,-20.969812138000375,-11.048459064291647,-37.015166900660184
477,-30.371441638623292,-24.07410705530943,-11.733638425227824,-35.859125353806206
478,-29.082376881776256,-27.173507346834835,-12.382300549024226,-34.58021003683074
479,-27.710119156854983,-30.25620253765826,-12.990994949161426,-33.18454722064891
480,-26.259135009260234,-33.31136157774106,-13.556881751384648,-31.678789220729783
481,-24.73382214586131,-36.32922623278539,-14.07777295161319,-30.070004870819417
482,-23.138448857648147,-39.301179188117985,-14.55216170077118,-28.36556496545655
483,-21.477098759893927,-42.21978574203458,-14.979238816402049,-26.573024782542728
484,-19.75362182690525,-45.07880851940162,-15.358895977260746,-24.700005900290957
485,-17.971592627816232,-47.8731952015843,-15.691715329597704,-22.75407958348921
486,-16.134276583404972,-50.5990398324178,-15.978945515799918,-20.742654029382006
487,-14.244604961115341,-53.253518809583255,-16.222464420645796,-18.672867731733863
488,-12.305159206269058,-55.83480319445015,-16.424729211289193,-16.551491141953644
489,-10.318165072188176,-58.34194946005452,-16.588714518353523,-14.384838678767338
490,-8.285496861412579,-60.77477123619018,-16.71783986167722,-12.178692964179058
491,-6.208691925702428,-63.13369499366397,-16.81588766040438,-9.938242945840896
492,-4.08897539597981,-65.41960292901604,-16.886913378493283,-7.668037308079337
493,-1.9272949273303852,-67.63366656043434,-16.935149539096276,-5.371954280395416
494,0.27563494822689566,-69.77717472077379,-16.964905490594784,-3.053188628949549
495,2.519279463720516,-71.8513597318298,-16.980464920028474,-0.7142562698801719
496,4.803222050602381,-73.85722556422537,-16.98598318335729,1.6429834195144801
497,7.127095548987414,-75.79538173011068,-16.985386554522208,4.017287886965336
498,9.490507359314137,-77.66588652355072,-16.982275485265337,6.40797495566901
499,11.892959864794891,-79.4681030198262,-16.979833914707687,8.814850669634243
500,14.333767600061854,-81.200570975123,-16.980746571812208,11.238122812321686
501,16.81197276437807,-82.86089743883105,-16.987126076047193,13.678301800649377
502,19.3262607736889,-84.44566850953838,-17.00045146337343,16.136090948573752
503,21.874877611099237,-85.9503842413657,-17.021519548847227,18.61226834817872
504,24.45555076715986,-87.36941824867667,-17.050410287296128,21.107562825501137
505,27.065415557532578,-88.69600307399584,-17.086467014712756,23.6225265882143
506,29.700948565017228,-89.9222418858633,-17.128292151166434,26.157407288975506
507,32.357909875368776,-91.03914657004393,-17.173758628236364,28.712022279172235
508,35.031295662522965,-92.03670177845939,-17.220036977729073,31.28563782170347
509,37.715302530359416,-92.9039540145981,-17.263637691672997,33.87685596830866
510,40.40330483736729,-93.62912437071624,-17.30046814401934,36.483511688037794
511,43.08784602071055,-94.19974309908417,-17.325903059527057,39.10258266114053
512,-9.206446141786244e-14,-1.2884773035303804e-13,-8.543709057641195e-14,-2.896168948493547e-14
513,-2.1157405432103205e-12,-2.8107707642187066e-12,-1.847346688402484e-12,-6.030491125947124e-13
514,-2.5448962977070297e-11,-3.3552429029388463e-11,-2.1682225953335435e-11,-7.563540829228246e-12
515,-2.0386579793631547e-10,-2.6827126950361064e-10,-1.7041277262393e-10,-6.339729307206055e-11
516,-1.2257292165383524e-09,-1.6165207182068761e-09,-1.0094544716419119e-09,-3.988424738287463e-10
517,-5.917501700707334e-09,-7.851355731564576e-09,-4.821003295716829e-09,-2.0139406398731756e-09
518,-2.3967569836897733e-08,-3.21058357463824e-08,-1.9392851089420152e-08,-8.527654064955553e-09
519,-8.401268297791053e-08,-1.1397673086469789e-07,-6.776097770817159e-08,-3.123284146824058e-08
520,-2.6086983251489725e-07,-3.5937528526239305e-07,-2.1043511408808045e-07,-1.0126775730784306e-07
521,-7.307236952888136e-07,-1.024314795887757e-06,-5.91245935527503e-07,-2.9596733770238746e-07
522,-1.8734776187175634e-06,-2.6763625292591885e-06,-1.5242535674183597e-06,-7.910062965630047e-07
523,-4.448913401867619e-06,-6.483320750691889e-06,-3.6471226183512767e-06,-1.955947978410903e-06
524,-9.881217619787385e-06,-1.4697017500576068e-05,-8.175771637697204e-06,-4.518097466121131e-06
525,-2.0694023922686574e-05,-3.141942113937641e-05,-1.7305483384469704e-05,-9.827683606757599e-06
526,-4.1144409835429155e-05,-6.375664664055353e-05,-3.4814290374872126e-05,-2.0265653807061455e-05
527,-7.810823121058673e-05,-0.0001234814589127496,-6.693432221745029e-05,-3.9842832941515974e-05
528,-0.00014226983610590206,-0.00022933417551691186,-0.0001235646620268577,-7.504482154791166e-05
529,-0.00024966585183766864,-0.0004100931898648341,-0.00021990369955466316,-0.00013597971722917242
530,-0.00042362492115103164,-0.0007085378625341616,-0.000378578582183354,-0.00023788454871654383
531,-0.0006971327724529303,-0.0011864070608424348,-0.0006323429416670419,-0.00040304041233724694
532,-0.0011156349223261737,-0.0019304256929198304,-0.001027400775405954,-0.0006631351712311794
533,-0.0017402680333146684,-0.0030594295029814393,-0.0016273938341029523,-0.001062096054621177
534,-0.002651486238653642,-0.004732566288493614,-0.002518062288919383,-0.0016593928245269346
535,-0.003953021649905452,-0.007158491443961972,-0.0038125545157133476,-0.0025337860359204976
536,-0.005776090051329772,-0.010605409865971391,-0.00565732271564198,-0.0037874653815043098
537,-0.008283724876857402,-0.015411747826364766,-0.00823849839009733,-0.005550491608342635
538,-0.011675096495290185,-0.021997170838649622,-0.011788597359749329,-0.00798542369884539
539,-0.016189651178432952,-0.0308736003708717,-0.016593360292474584,-0.011291982736365645
540,-0.022110886410499516,-0.04265582703394058,-0.022998493992597943,-0.015711576942093047
541,-0.029769567727712942,-0.058071273926939206,-0.031416043483389486,-0.02153149047033821
542,-0.03954618807156537,-0.07796843410507115,-0.042330097611610974,-0.029088523167446718
543,-0.051872474372756834,-0.10332349307352075,-0.05630151374395563,-0.03877186083386228
544,-0.06723175805121039,-0.1352446525547647,-0.07397134197992582,-0.05102495642594981
545,-0.08615804617756397,-0.1749736964994974,-0.09606263751899184,-0.06634621251658863
546,-0.1092336575810431,-0.22388438453914128,-0.12338037206833878,-0.08528827415943359
547,-0.13708532218472758,-0.2834773210769355,-0.15680919137918228,-0.10845576858220693
548,-0.17037868101888076,-0.3553710284306372,-0.19730881531055408,-0.13650136302268187
549,-0.20981116731412727,-0.4412890475751767,-0.24590693771016447,-0.17012005342537367
550,-0.2561032943889426,-0.5430429971609104,-0.3036895537901195,-0.21004164339768844
551,-0.3099884222847155,-0.6625116371776214,-0.37178872006929603,-0.25702142344195106
552,-0.3722011208335818,-0.8016161041250922,-0.45136783358544913,-0.3118291136169124
553,-0.44346429069717147,-0.962291605870928,-0.5436046000143748,-0.3752361869537154
554,-0.5244752446440434,-1.1464559825103318,-0.6496719415807146,-0.4480017446227374
555,-0.6158909878526994,-1.3559756505652334,-0.7707171722810249,-0.5308571654594374
556,-0.7183129673962104,-1.5926295480645942,-0.9078398372350114,-0.6244898004543832
557,-0.8322715865001188,-1.8580717840717496,-1.0620686725119743,-0.729526025694326
558,-0.9582107980822503,-2.1537937651658265,-1.2343381894932288,-0.846514003624548
559,-1.096473104137114,-2.4810866209029454,-1.4254654220639282,-0.9759065311926415
560,-1.2472852925909814,-2.84100477867012,-1.6361273943969248,-1.1180443734655399
561,-1.4107452413323627,-3.234331544557997,-1.8668398708955112,-1.2731404919627602
562,-1.586810110272387,-3.661547530537005,-2.117937937499703,-1.441265577725711
563,-1.7752862265988965,-4.1228027295878364,-2.389558934977221,-1.6223352897728673
564,-1.9758209460063068,-4.617892980386171,-2.6816282204617794,-1.8160995800211308
565,-2.1878967438464194,-5.14624148313115,-2.9938481743678067,-2.02213445615869
566,-2.41082775516944,-5.70688593013441,-3.3256907974817222,-2.2398364947267497
567,-2.643758941909178,-6.298471701333941,-3.676394159647651,-2.4684203684117527
568,-2.8856680195343523,-6.9192514488553165,-4.04496286965334,-2.7069195950806564
569,-3.135370225042646,-7.567091259322058,-4.4301726386455345,-2.9541906524416603
570,-3.3915259541103016,-8.23948344123998,-4.830578909788043,-3.2089205326290626
571,-3.6526512385672945,-8.93356584097362,-5.244529428026949,-3.4696377369386098
572,-3.917130977267251,-9.646147448113984,-5.6701805286858775,-3.734726633986823
573,-4.183234775041042,-10.373739912815656,-6.1055168348553845,-4.002445026473255
574,-4.449135187001322,-11.112594467176091,-6.548373973525321,-4.270944694323995
575,-4.712928110281591,-11.858743622900729,-6.996463851171306,-4.538294607180047
576,-4.972655013611148,-12.608046911001953,-7.44740197275541,-4.802506428864376
577,-5.226326648136439,-13.356239838428976,-7.898736245208814,-5.061561872461987
578,-5.471947841710275,-14.098985163256376,-8.347976678427603,-5.3134414087181945
579,-5.707542944538455,-14.831925535900698,-8.792625384181841,-5.5561537841823325
580,-5.931181467603828,-15.550736519894887,-9.230206276138372,-5.787765770270234
581,-6.14100343758688,-16.251178992697948,-9.658293891871683,-6.006431541306587
582,-6.335243983812165,-16.929149935083807,-10.074540789135417,-6.210421069466709
583,-6.512256674621148,-17.58073064662615,-10.476703012110226,-6.398146927897424
584,-6.6705351328701274,-18.20223147401835,-10.862663176760213,-6.568188910391346
585,-6.808732483152119,-18.7902322073444,-11.230450785542248,-6.719315906755356
586,-6.925678216782382,-19.34161738544164,-11.578259448249915,-6.850504517088957
587,-7.020392104215569,-19.85360585329084,-11.904460755658736,-6.960953944905293
588,-7.092094837737561,-20.323774029748634,-12.207614624108794,-7.050096777437672
589,-7.140215149115249,-20.750072470472187,-12.486476000820463,-7.117605340374112
590,-7.1643932163128365,-21.130835445970103,-12.739997890543595,-7.163393402226549
591,-7.164480249099378,-21.46478339561477,-12.96733073333472,-7.18761309893053
592,-7.140534223822297,-21.75101826236655,-13.167818230280922,-7.190647050235493
593,-7.092811820975513,-21.98901185704603,-13.34098977835962,-7.173095743931971
594,-7.021756703400733,-22.178587542400763,-13.486549736824404,-7.13576036974924
595,-6.9279843558670535,-22.31989566313555,-13.60436380489412,-7.0796213895082785
596,-6.812263786218829,-22.413383275770087,-13.69444284329647,-7.005813231423963
597,-6.675496462196601,-22.45975884904009,-13.756924519443874,-6.915595591897883
598,-6.518692924505032,-22.45995270913007,-13.792053196711333,-6.81032191534274
599,-6.342947574007072,-22.41507409211322,-13.800158521485695,-6.691405699249261
600,-6.1494121775736,-22.326365736667583,-13.781633186524038,-6.560285335734774
601,-5.939268671879603,-22.195157001876964,-13.736910365022439,-6.418388250318886
602,-5.7137018663571775,-22.022816526538985,-13.666441316189829,-6.267095132056885
603,-5.473872654952225,-21.810705457153222,-13.570673659805893,-6.107705065160377
604,-5.220892340979917,-21.560132261362057,-13.450030804193862,-5.941402369976483
605,-4.955798660280187,-21.27231011224586,-13.304892989418365,-5.769225940265253
606,-4.679534055422779,-20.948317777191992,-13.135580375628638,-5.592041824183546
607,-4.3929267085982175,-20.589064874179535,-12.942338565744354,-5.410519738821804
608,-4.096674784053181,-20.19526226978993,-12.725326902713249,-5.225114133592982
609,-3.7913342637938796,-19.767398288986396,-12.484609825137513,-5.036050327737233
610,-3.477310684403901,-19.30572128893366,-12.220151502178972,-4.843316143596443
611,-3.154855000062775,-18.810229020356736,-11.931813900579673,-4.646659342414433
612,-2.8240637091981915,-18.280665062870735,-11.61935836488936,-4.445591045816547
613,-2.484883291678126,-17.716522478213406,-11.282450718298042,-4.239395196616288
614,-2.137118912044544,-17.11705468032179,-10.920669817666344,-4.0271439801139115
615,-1.7804472539622882,-16.481293376670674,-10.533519424252493,-3.8077189945700898
616,-1.4144332636757226,-15.808073294120327,-10.120443182936185,-3.579837830011954
617,-1.0385504975467117,-15.096063267450134,-9.68084243888011,-3.3420855908247082
618,-0.6522046922002654,-14.343803142321704,-9.214096562718781,-3.092950782416395
619,-0.2547601067402207,-13.54974582890034,-8.719585404424354,-2.830864878136834
620,0.15443187392332053,-12.712303739763067,-8.196713452654642,-2.5542447918730424
621,0.5760024363479584,-11.829898757727705,-7.644935241147003,-2.261537406354831
622,1.0105339383857286,-10.901014807238973,-7.063781516960161,-1.9512652488984628
623,1.4585280426032106,-9.924252048022232,-6.452885667356902,-1.622072366447701
624,1.9203740318632585,-8.898381672633755,-5.812009893059402,-1.2727694312952018
625,2.396317961378353,-7.822400270752744,-5.14107061563676,-0.9023771083065025
626,2.886433295448672,-6.695582722721289,-4.4401626160150425,-0.5101667339069993
627,3.390593659307569,-5.5175326027840494,-3.709581419612511,-0.09569739617471462
628,3.9084483073801066,-4.2882291082702775,-2.9498434713925974,0.3411514366534057
629,4.439400869382058,-3.008069583897112,-2.161703680994944,0.8001525162332932
630,4.982591885740324,-1.6779067795246059,-1.3461699635313449,1.2807093276507915
631,5.536885584565437,-0.2990800639083388,-0.5045144546874392,1.781841094684172
632,6.1008612846718675,1.126560085092722,0.3617188618864962,2.302174735580868
633,6.672809733807448,2.596634883373901,1.2507103129364798,2.839944097959041
634,7.250734609256361,4.108227785689193,2.1603646109593693,3.392996662712939
635,7.8323593202947634,5.657883093498092,3.088314909966304,3.9588077618281097
636,8.415139159633162,7.2416128111329865,4.031930837853107,4.534502206269359
637,8.996278755141198,8.854911796932608,4.988330436357933,5.116883070252159
638,9.572754675208394,10.492781115329725,5.954395877472557,5.702467230110692
639,10.141342942685386,12.149759355839837,6.926792766987219,6.287527112677593
640,-1.0615664716177823e-13,-4.705718314616594e-14,-4.7504676205987956e-14,-3.316999537120387e-14
641,-2.395801581832263e-12,-9.95442815575891e-13,-9.862312697238521e-13,-7.069908378607914e-13
642,-2.7856548723782124e-11,-1.1865495173309587e-11,-1.1461260137333057e-11,-8.382675001132269e-12
643,-2.1565694110549807e-10,-9.478315902112033e-11,-8.925869057443396e-11,-6.645552842085494e-11
644,-1.2534675770287337e-09,-5.705600848701748e-10,-5.23917658990609e-10,-3.9641612191877116e-10
645,-5.852815702256678e-09,-2.7680233881481636e-09,-2.4792602476460574e-09,-1.90312359966998e-09
646,-2.2941554269182536e-08,-1.130499349548386e-08,-9.8817435142195e-09,-7.682308704836186e-09
647,-7.788201496687452e-08,-4.0080635813795586e-08,-3.421314335518908e-08,-2.689476479028683e-08
648,-2.344162807068051e-07,-1.2620735182693007e-07,-1.0528804975378502e-07,-8.357020052400346e-08
649,-6.371219636502432e-07,-3.592440984088043e-07,-2.931655505412378e-07,-2.3466921267847672e-07
650,-1.5867538076215302e-06,-9.374318023809899e-07,-7.490906466272221e-07,-6.041032365485215e-07
651,-3.664706320185191e-06,-2.2681312847055504e-06,-1.776749133700647e-06,-1.4423551510458251e-06
652,-7.926669627984245e-06,-5.136093313876182e-06,-3.949071140001962e-06,-3.2247376352808372e-06
653,-1.618900968012568e-05,-1.0970130894579928e-05,-8.290224039766846e-06,-6.804958692397981e-06
654,-3.14340776893054e-05,-2.2245635813268613e-05,-1.654714709543209e-05,-1.3644238469307325e-05
655,-5.8362151630316546e-05,-4.3066483778697614e-05,-3.157977696387141e-05,-2.6139394641391548e-05
656,-0.00010411773513517117,-7.997443674861872e-05,-5.79036692989455e-05,-4.807573348818042e-05
657,-0.00017921630189512023,-0.0001430364081602232,-0.00010242259980967444,-8.523192044889833e-05
658,-0.0002986941714378903,-0.0002472592059850242,-0.00017539140968541523,-0.00014616395538047898
659,-0.0004834989751581879,-0.0004143770466542843,-0.0002916503081391287,-0.00024319367018187072
660,-0.0007621311103828295,-0.0006750488684954888,-0.000472170580272476,-0.00039362355852635885
661,-0.0011725377538545788,-0.001071490126846585,-0.0007459478336815954,-0.0006211940490099567
662,-0.001764250557744563,-0.0016605474340377704,-0.001152272414407797,-0.0009577914260411311
663,-0.002600746270412689,-0.002517204479261692,-0.001743397504907558,-0.0014454044692650315
664,-0.0037619964374762476,-0.003738484732410021,-0.002587613899440672,-0.00213831563755782
665,-0.005347158360889612,-0.005447691334694159,-0.0037727267720320144,-0.0031054985591548946
666,-0.007477345088548484,-0.007798898333934646,-0.0054099140467240405,-0.0044331781979146554
667,-0.010298397991234363,-0.010981581208074341,-0.007637928251470683,-0.006227494029703207
668,-0.013983572158117833,-0.015225249698370776,-0.010627583920470982,-0.008617190700241091
669,-0.018736033107667444,-0.02080392362348313,-0.014586450720598207,-0.011756245828138275
670,-0.024791053836310344,-0.028040273800223902,-0.01976364876932706,-0.01582633174863039
671,-0.03241779464729994,-0.03730923657972728,-0.026454617689373898,-0.021038997904733445
672,-0.041920545095293374,-0.049040902781113005,-0.035005705802959045,-0.027637454037971416
673,-0.05363930820106865,-0.06372248072063913,-0.04581840185056645,-0.035897831930341115
674,-0.06794961210591932,-0.08189913910387653,-0.0593530103212724,-0.04612980564426307
675,-0.08526144363831703,-0.10417354902258323,-0.07613155461319579,-0.05867645723359624
676,-0.10601721182670523,-0.13120396516769117,-0.09673968148257053,-0.0739132867850275
677,-0.13068866709292914,-0.16370071437062483,-0.12182733711127817,-0.09224628222296748
678,-0.15977272346785237,-0.2024209942062036,-0.15210799089974167,-0.11410898520791905
679,-0.1937861562880403,-0.24816192487895236,-0.18835619872795986,-0.13995851412954285
680,-0.23325917589948322,-0.3017518429882448,-0.23140332349410703,-0.17027053293424127
681,-0.27872790823330906,-0.36403987483198175,-0.28213126736976224,-0.205533184503945
682,-0.3307258449805906,-0.4358838782902279,-0.34146411705098006,-0.24624003860881577
683,-0.389774358658991,-0.5181368945159108,-0.41035765946530994,-0.2928821361336332
684,-0.4563724102291562,-0.6116323020428577,-0.48978678951558247,-0.34593924234664986
685,-0.5309856081220599,-0.7171679148546154,-0.5807309015700906,-0.4058704514718353
686,-0.6140348066320109,-0.8354893108089615,-0.6841574301221106,-0.4731043118173696
687,-0.7058844577388182,-0.9672727160281019,-0.801003779521128,-0.5480286643585337
688,-0.806830952743502,-1.1131078030207548,-0.9321579548718052,-0.6309804072168561
689,-0.9170912078749976,-1.2734807841604583,-1.0784382730051936,-0.7222354132666405
690,-1.0367917605342274,-1.4487581966885483,-1.2405725908661622,-0.8219988375983451
691,-1.165958649466362,-1.6391717798851146,-1.4191775359935228,-0.9303960553824775
692,-1.3045083524179926,-1.844804838990244,-1.6147382576171336,-1.0474644685762529
693,-1.4522400484260043,-2.0655804737077093,-1.8275892353670002,-1.1731464118307708
694,-1.6088294586229903,-2.3012520218537844,-2.0578966843946738,-1.3072833739703236
695,-1.7738244993120142,-2.551396031420964,-2.305643080247625,-1.4496117317478545
696,-1.9466429542549288,-2.8154080278185405,-2.570614294222346,-1.5997601675875812
697,-2.1265723400798953,-3.09250128842955,-2.8523897809380716,-1.7572489132002536
698,-2.3127721001162307,-3.3817087752420933,-3.1503361959200795,-1.9214909269148006
699,-2.5042782186261348,-3.681888309736044,-3.4636047440118674,-2.0917950750322185
700,-2.7000103002191556,-3.9917310041449996,-3.791132471887507,-2.2673713472730737
701,-2.8987811091620896,-4.309772891462061,-4.131647622648098,-2.4473380943229506
702,-3.0993085113440695,-4.63440962492953,-4.483679070556943,-2.6307312324891887
703,-3.3002297088563735,-4.963914048022792,-4.8455697525697685,-2.8165153174935758
704,-3.5001176045009834,-5.29645636980064,-5.2154939135124625,-3.003596347345104
705,-3.6974990820011424,-5.630126619515637,-5.591477886374139,-3.190836113914207
706,-3.8908749381894765,-5.962958999967443,-5.971424040755325,-3.3770678850392315
707,-4.0787411569758385,-6.292957712452846,-6.35313745329891,-3.5611131644296385
708,-4.259611172486179,-6.61812378831398,-6.734354785944057,-3.741799245901408
709,-4.432038731472974,-6.936482433766133,-7.112774802837743,-3.9179772521289387
710,-4.594640933970011,-7.24611037641468,-7.486089916162539,-4.088540326615103
711,-4.746121007234503,-7.545162693938074,-7.852018126023206,-4.2524416314438644
712,-4.885290352331518,-7.83189860791697,-8.208334710369371,-4.40871179308638
713,-5.011089396281295,-8.104705738656705,-8.552903027589153,-4.556475434602797
714,-5.122606786391159,-8.362122339861447,-8.883703816148806,-4.694966435526647
715,-5.21909647786887,-8.60285706480145,-9.19886241121544,-4.8235415709752445
716,-5.299992291401591,-8.825805857640168,-9.496673345944327,-4.94169219941474
717,-5.364919554103234,-9.030065614153454,-9.77562186316739,-5.049053694178649
718,-5.413703484762881,-9.214944314302555,-10.034401929607453,-5.145412347259032
719,-5.4463740419688556,-9.379967393969206,-10.271930417484999,-5.2307095148061125
720,-5.463167020347971,-9.524880193418385,-10.48735719559877,-5.305042821700445
721,-5.464521254422973,-9.649646394377715,-10.68007095194015,-5.368664296793127
722,-5.451071869789755,-9.75444243455383,-10.849700651159147,-5.421975370035672
723,-5.423639605614571,-9.839647966407288,-10.996112611474643,-5.465518726654232
724,-5.383216318863174,-9.905832504502468,-11.119403265837372,-5.499967080508569
725,-5.330946867070247,-9.953738481164688,-11.219887750363167,-5.526108997406243
726,-5.2681076506338815,-9.984261001988447,-11.298084538380113,-5.544831967881585
727,-5.196082175400983,-9.998424659510603,-11.354696410037388,-5.557102996177142
728,-5.116334069640191,-9.997357823770232,-11.39058811448684,-5.563947036215774
729,-5.030378054484369,-9.982264881352847,-11.406761143352519,-5.566423664541786
730,-4.939749421851662,-9.954396938860656,-11.404326089688514,-5.565602432863048
731,-4.845972617248686,-9.915021541753472,-11.384473114923207,-5.562537387317456
732,-4.750529555568474,-9.865391984548909,-11.34844108628035,-5.558241276406773
733,-4.654828315241883,-9.806716803019928,-11.297485977624769,-5.553659993375267
734,-4.560172859462921,-9.740130043007833,-11.232849146372178,-5.549647810611048
735,-4.46773442256912,-9.66666289364686,-11.155726106963886,-5.546943962685421
736,-4.378525175176614,-9.58721725516896,-11.067236416694707,-5.546151120549201
737,-4.2933747438033585,-9.502541783162162,-10.968395272098007,-5.547716272186437
738,-4.212910110227044,-9.413210912482972,-10.860087383841785,-5.551914485078293
739,-4.137539353750582,-9.319607315444134,-10.743043655886567,-5.558835973896321
740,-4.067439627119902,-9.221908191072727,-10.617821141671108,-5.568376833967998
741,-4.002549675449048,-9.120075716013362,-10.48478668784887,-5.580233728530199
742,-3.942567118724322,-9.013851914061897,-10.344104606350363,-5.593902737115682
743,-3.8869506240474503,-8.902758121540389,-10.195728640129838,-5.608682485301614
744,-3.834926995672729,-8.78609914107717,-10.039398408667155,-5.623681584352743
745,-3.7855031111325737,-8.66297208827187,-9.874640437808178,-5.63783031502662
746,-3.737482532417953,-8.532279845749125,-9.70077379633518,-5.649896395105569
747,-3.6894865244003623,-8.392748948892619,-9.516920280071291,-5.658504577307002
748,-3.6399791205744885,-8.242951638861244,-9.322019004482296,-5.662159735376251
749,-3.5872957908300083,-8.081331733154256,-9.114845189659134,-5.659273013643206
750,-3.529675189246832,-7.90623388388315,-8.894032848183596,-5.648190541290237
751,-3.4652933935639303,-7.715935720868006,-8.658101017593888,-5.627224149034728
752,-3.3922999935026215,-7.508682312459977,-8.4054831158569,-5.594683474651038
753,-3.3088553438245305,-7.282722323193734,-8.134558941286599,-5.548908806232565
754,-3.2131682709041027,-7.036345205364142,-7.843688788576728,-5.488303989448577
755,-3.103533509370416,-6.767918732491911,-7.53124911086738,-5.4113687179634615
756,-2.978368148274171,-6.475926167169154,-7.195669124816202,-5.316729534855048
757,-2.836246384097334,-6.159002354406364,-6.835467732174213,-5.203168897011161
758,-2.675931910212388,-5.815968044458793,-6.449290117902992,-5.069651693385408
759,-2.496407318248904,-5.4458617759991235,-6.035943381742873,-4.915348660562047
760,-2.296899945035435,-5.0479686909205075,-5.5944305674602965,-4.739656203894205
761,-2.076903667835975,-4.621845705193803,-5.123982471671472,-4.542212207833684
762,-1.8361962287345426,-4.167342524974196,-4.624086641909275,-4.3229075030410415
763,-1.5748517543557734,-3.6846180722068866,-4.094513011130995,-4.0818927483870775
764,-1.2932482277182433,-3.174151967761148,-3.5353356627827583,-3.819580580909575
765,-0.9920697629593803,-2.6367508109057707,-2.946950276456866,-3.5366429840523406
766,-0.6723036290064682,-2.073549089896474,-2.330086868677612,-3.234003922016647
767,-0.33523206311343157,-1.4860046576805035,-1.6858175158985733,-2.9128273838093697
768,-9.904888215895681e-14,-3.211920678095606e-14,-6.746911042859778e-14,-4.657620884292609e-14
769,-2.233645543298707e-12,-6.817371530486847e-13,-1.4763134716756675e-12,-1.0313043391112339e-12
770,-2.5531681625128845e-11,-8.146518040817187e-12,-1.7531849487789148e-11,-1.20413926445923e-11
771,-1.941531757752474e-10,-6.528080126292252e-11,-1.3933825571097398e-10,-9.387112738118395e-11
772,-1.1079530693420706e-09,-3.942200814854509e-10,-8.342172078912654e-10,-5.509818343125031e-10
773,-5.077539264438056e-09,-1.91859480098943e-09,-4.02458446252398e-09,-2.605294666775051e-09
774,-1.9529397857547326e-08,-7.860109479384716e-09,-1.634519168425556e-08,-1.0369391326844445e-08
775,-6.504740289491491e-08,-2.7950458982950216e-08,-5.763499569836577e-08,-3.583279626302029e-08
776,-1.920933206664756e-07,-8.826162735479935e-08,-1.8055157496818312e-07,-1.100210240076328e-07
777,-5.123181504682772e-07,-2.519034047451365e-07,-5.115233936989731e-07,-3.055662912888784e-07
778,-1.2523687754522936e-06,-6.589508702038195e-07,-1.3292706964048683e-06,-7.786368713682349e-07
779,-2.8400387965752277e-06,-1.5979008635659322e-06,-3.204796161681962e-06,-1.8413907164342514e-06
780,-6.034328455691356e-06,-3.6255154043993767e-06,-7.2357224103270545e-06,-4.079604400656669e-06
781,-1.2112251490003327e-05,-7.75674099539641e-06,-1.5417408473596457e-05,-8.533518946951398e-06
782,-2.312582089429241e-05,-1.5751024883339176e-05,-3.120232367730489e-05,-1.6962794865829628e-05
783,-4.22423680455342e-05,-3.052524040508402e-05,-6.030636246872415e-05,-3.221831079031842e-05
784,-7.418010449173271e-05,-5.6726025958417516e-05,-0.00011182476334405442,-5.874393818006967e-05
785,-0.00012574861972338818,-0.00010149511780328033,-0.00019971982574802232,-0.00010323002356142728
786,-0.0002065008674917209,-0.00017545978440214243,-0.0003447368082578239,-0.00017543686086596597
787,-0.00032949920310958056,-0.00029397644540813154,-0.000576792785468696,-0.00028920082091175674
788,-0.000512193319591882,-0.00047864883576263204,-0.0009378658609970514,-0.00046362805102294124
789,-0.0007774026830188574,-0.000759132686942664,-0.001485389458460731,-0.0007244709495365066
790,-0.0011543905144358537,-0.001175227058738956,-0.0022961293178156024,-0.0011056712858933736
791,-0.0016800107152455251,-0.0017792385574405475,-0.0034704905166670487,-0.0016510413302711867
792,-0.0023999035544136588,-0.0026385892669330033,-0.005137169781396465,-0.0024160412355891743
793,-0.0033697105904267146,-0.003838622971493197,-0.007458036207799005,-0.0034695978280706603
794,-0.004656274376093361,-0.005485547923338859,-0.01063309302704704,-0.0048958976269696105
795,-0.006338784187076417,-0.007709438803188959,-0.014905345955677017,-0.006796076071026299
796,-0.008509825490011771,-0.0106672064228943,-0.020565381533841888,-0.00928971629897692
797,-0.011276288253220239,-0.014545431845364542,-0.02795544301358382,-0.012516065079699965
798,-0.014760087664586929,-0.019562952565040745,-0.03747278283727876,-0.016634871223516638
799,-0.01909865062915146,-0.025973082692931544,-0.049572070250932306,-0.021826753589662976
800,-0.024445122969550544,-0.03406534708575363,-0.06476664051082515,-0.028293012144908838
801,-0.03096825600373831,-0.04416661128915337,-0.08362838854379359,-0.03625480684840191
802,-0.038851937562338235,-0.056641495158557445,-0.1067861346224228,-0.04595164571866396
803,-0.04829434188251932,-0.0718919680968865,-0.13492232220009795,-0.05763914533557875
804,-0.05950668538486196,-0.09035603791370095,-0.16876794790034716,-0.07158605398384417
805,-0.07271159108926939,-0.1125054631578866,-0.20909566994597428,-0.08807055899438548
806,-0.08814108302482458,-0.13884244008773736,-0.25671109297968897,-0.10737593448038919
807,-0.10603425274358487,-0.16989523980113905,-0.31244228291667997,-0.1297856220597216
808,-0.12663466193953776,-0.20621279795438646,-0.3771276235284062,-0.1555778734306581
809,-0.15018756693744184,-0.24835828837850743,-0.45160218496679655,-0.18502011774298016
810,-0.17693707101891598,-0.2969017421147078,-0.5366828312951358,-0.21836324644373623
811,-0.20712332764977398,-0.35241180421723617,-0.6331523471181866,-0.2558360316231341
812,-0.2409799300914629,-0.4154467513098125,-0.741742910472655,-0.29763990900118914
813,-0.2787316291719228,-0.48654492244127423,-0.863119278299019,-0.3439443620774702
814,-0.32059252000776645,-0.5662147433000534,-0.9978620803884152,-0.39488313855807294
815,-0.36676482948884226,-0.6549245482951049,-1.1464516363309836,-0.45055151345432515
816,-0.41743841911111523,-0.7530924253572137,-1.3092527166699537,-0.5110047852837203
817,-0.4727910925080997,-0.8610763235601159,-1.486500663521762,-0.5762581532766143
818,-0.532989764509646,-0.9791646728992466,-1.6782892670683833,-0.6462880756888029
819,-0.5981925099693032,-1.1075677680370406,-1.8845607627177792,-0.7210351540855758
820,-0.6685514675994643,-1.2464101629549562,-2.105098270026603,-0.8004085280976283
821,-0.7442165285777353,-1.3957243108907424,-2.3395209399115258,-0.8842917022587038
822,-0.825339693804681,-1.5554456635792304,-2.5872820130172185,-0.972549663855641
823,-0.9120799394885346,-1.72540941582688,-2.847669921595149,-1.0650370909636744
824,-1.0046083902733656,-1.9053490463062022,-3.1198124923979123,-1.1616073955651536
825,-1.10311356442295,-2.094896763941923,-3.4026842314978962,-1.2621223001772837
826,-1.2078064284899535,-2.293585922466416,-3.69511659605043,-1.3664616097468538
827,-1.318924981048373,-2.5008554150097897,-3.9958110850124706,-1.4745328153280162
828,-1.436738077712952,-2.7160560075406397,-4.3033549125180075,-1.5862801534351028
829,-1.5615482136919876,-2.938458516314137,-4.616238965462825,-1.7016927456811777
830,-1.693692995971095,-3.167263682004424,-4.932877692021847,-1.8208114576008227
831,-1.8335450648594311,-3.4016135436596877,-5.251630521250148,-1.9437341431068713
832,-1.9815102634403066,-3.640604070667951,-5.5708243764165655,-2.070618980996602
833,-2.1380239022953615,-3.8832987720213237,-5.888776817037595,-2.2016856609400133
834,-2.3035450240942215,-4.128742970541395,-6.203819327417458,-2.3372142366566098
835,-2.478548636296154,-4.375978406335322,-6.514320263447035,-2.477541531407909
836,-2.663515948080393,-4.624057819262378,-6.818706974850292,-2.6230550532025516
837,-2.8589227173030767,-4.872059154982521,-7.1154866370603616,-2.7741844518584444
838,-3.065225882267002,-5.119099043314332,-7.4032653551513645,-2.9313906249462023
839,-3.282848718908517,-5.364345210943402,-7.680765141048556,-3.0951526524041157
840,-3.512164824317602,-5.607027512517679,-7.946838413535012,-3.2659528081615754
841,-3.7534812801762074,-5.846447294131594,-8.200479727013295,-3.444259959490446
842,-4.007021392807819,-6.081984840238853,-8.440834497978914,-3.6305117192473344
843,-4.272907438423709,-6.313104698114544,-8.667204565966259,-3.8250957611007563
844,-4.5511438615408935,-6.5393587220077665,-8.879050496484961,-4.028330741939297
845,-4.841601380623589,-6.760386730952034,-9.075990605277669,-4.240447297942842
846,-5.144002447485479,-6.975914728701089,-9.257796754211657,-4.461569590668805
847,-5.457908486121872,-7.185750690313442,-9.424387037457874,-4.691697876783508
848,-5.782709303140938,-7.389777976414865,-9.575815540669373,-4.930692560011543
849,-6.117615017017764,-7.587946492027169,-9.712259414252026,-5.1782601571576
850,-6.461650798615861,-7.7802617609765,-9.834003553430657,-5.43394157271984
851,-6.813654652744207,-7.9667721382141075,-9.941423221876802,-5.697103029991554
852,-7.172278402046192,-8.147554429859452,-10.034964991712595,-5.966929952138912
853,-7.535991962382395,-8.322698233427824,-10.11512640054965,-6.242424026107609
854,-7.9030909251621635,-8.492289347627644,-10.182434745908495,-6.522403616885034
855,-8.271707388825384,-8.656392631492606,-10.23742544910132,-6.805507631104283
856,-8.63982391079376,-8.815034715731011,-10.280620424752385,-7.090202858639474
857,-9.005290384437131,-8.968186984391503,-10.31250688893461,-7.374794750086946
858,-9.365843584423574,-9.115749251704283,-10.333517028829162,-7.65744151820851
859,-9.719129069472633,-9.257534556790265,-10.344008940343466,-7.936171383859664
860,-10.062725085009971,-9.393255487488604,-10.34424921779138,-8.208902722924083
861,-10.394168070304678,-9.522512423655252,-10.334397552122299,-8.473466811528182
862,-10.710979345882873,-9.644784059966414,-10.31449366184496,-8.72763281339069
863,-11.010692537598173,-9.759420528816422,-10.28444684423202,-8.969134606476286
864,-11.290881283689194,-9.865639395901068,-10.244028394025982,-9.195699006890003
865,-11.549186770241317,-9.962524745371393,-10.192867092998478,-9.405074916714725
866,-11.783344648275579,-10.04902950912007,-10.130447926533149,-9.59506289964346
867,-11.991210901570804,-10.123981127114293,-10.056114133020197,-9.763544674030891
868,-12.170786257406016,-10.18609055415318,-9.969072638374135,-9.908512007487674
869,-12.320238761618027,-10.233964554537225,-9.868402871619795,-10.028094500351333
870,-12.437924173565131,-10.266121151484567,-9.753068898627259,-10.120585757193135
871,-12.522403874673405,-10.281008024334866,-9.621934750339788,-10.184467465814883
872,-12.572460025225563,-10.277023575280728,-9.473782760080853,-10.218430931773792
873,-12.587107747076017,-10.252540320192557,-9.307334662777366,-10.221395653131845
874,-12.565604154360797,-10.205930196674332,-9.121275148357464,-10.192524564595992
875,-12.50745409957548,-10.13559132838888,-8.914277503435956,-10.131235632177386
876,-12.412412548414936,-10.039975739437082,-8.68503092105034,-10.037209538545795
877,-12.280483543466783,-9.917617477568392,-8.432269009119748,-9.910393264858376
878,-12.111915764238734,-9.76716058146927,-8.154798986034237,-9.750999446289317
879,-11.907194739070805,-9.587386316318838,-7.851531017967319,-9.559501454842637
880,-11.66703181319215,-9.377239103924351,-7.521507128726154,-9.336624243109394
881,-11.392350026427364,-9.135850589419743,-7.163929100614395,-9.083331064989467
882,-11.084267103618354,-8.862561315712421,-6.778184784952094,-8.800806272348574
883,-10.74407581027475,-8.556939519167015,-6.363872254213669,-8.490434468223581
884,-10.373221974618227,-8.21879661456224,-5.920821254399517,-8.153776375493408
885,-9.97328052414214,-7.848199002880717,-5.449111456032342,-7.792541852853891
886,-9.545929929001616,-7.44547591036235,-4.949087054475653,-7.408560555530697
887,-9.092925484779402,-7.011223049558895,-4.421367334163606,-7.003750794694419
888,-8.616071902117662,-6.546301980778086,-3.8668528855080466,-6.580087195514305
889,-8.117195698969878,-6.05183514311908,-3.286727246084206,-6.139567787976999
890,-7.598117911434602,-5.5291966160832775,-2.682453827308284,-5.684181186049596
891,-7.060627650029898,-4.979998763343723,-2.055768082149171,-5.21587451879173
892,-6.506457028777332,-4.40607499758835,-1.408664966298252,-4.736522771184964
893,-5.937257983716292,-3.809458987433383,-0.7433818424288573,-4.247900172569346
894,-5.35458147484981,-3.1923607023720546,-0.06237707245311552,-3.751654236739855
895,-4.759859530768189,-2.5571397578808,0.6316953662177935,-3.249283010328703
896,-1.2942404838898738e-13,-4.380570266547031e-14,-9.951638949621209e-15,-7.254387746673844e-14
897,-2.902547026728753e-12,-9.516334137150552e-13,-1.4943627744002053e-13,-1.6446518335498355e-12
898,-3.326125718348778e-11,-1.1392379025410584e-11,-1.981185110019889e-12,-1.9350832287516897e-11
899,-2.5389104033281635e-10,-9.133655251235525e-11,-1.7736926498144144e-11,-1.5192441117056888e-10
900,-1.4564908390791497e-09,-5.515332275730371e-10,-1.1867277293731763e-10,-8.973643015661683e-10
901,-6.7212279437130875e-09,-2.6828327227555376e-09,-6.348017983282381e-10,-4.266661296142813e-09
902,-2.6079329989290004e-08,-1.0981081579358347e-08,-2.8395801216561644e-09,-1.7062227396570854e-08
903,-8.780147043293695e-08,-3.9000328573395364e-08,-1.0964968014084895e-08,-5.9192766322794903e-08
904,-2.626106785106564e-07,-1.2297037888849687e-07,-3.742598442462313e-08,-1.8232121904193955e-07
905,-7.107285795395968e-07,-3.503713215447641e-07,-1.1499035053746607e-07,-5.076112342388562e-07
906,-1.766158185668928e-06,-9.14869449847851e-07,-3.226351271745724e-07,-1.2958194751179332e-06
907,-4.077821596055426e-06,-2.2143169136354945e-06,-8.362588945062357e-07,-3.0682603891475677e-06
908,-8.832787566348093e-06,-5.014636709748221e-06,-2.021377889295465e-06,-6.802847551481513e-06
909,-1.8092348295914183e-05,-1.0708902323156102e-05,-4.592289203067659e-06,-1.4234938597059615e-05
910,-3.527651621206886e-05,-2.170717261200809e-05,-9.870494847096131e-06,-2.829742880943575e-05
911,-6.583595445737434e-05,-4.1997953494280125e-05,-2.018371636809606e-05,-5.3737772200968774e-05
912,-0.00011815180706900166,-7.792578636569006e-05,-3.945463416126158e-05,-9.795070988818707e-05
913,-0.00020470279332560762,-0.00013923069352641748,-7.403447739883161e-05,-0.00017206388974488914
914,-0.0003435347891159333,-0.00024039342120406218,-0.0001338396723542327,-0.000292308841156733
915,-0.0005600605905990471,-0.0004023251485626232,-0.00023384891364092465,-0.00048170169011258976
916,-0.0008892065197511715,-0.0006544313265951981,-0.0003960124009243058,-0.0007720465604679836
917,-0.0013779081304354814,-0.0010370665682493424,-0.0006516139655878861,-0.0012062600388899785
918,-0.0020879398735618162,-0.0016043812702715942,-0.0010441100889700256,-0.001840997812064079
919,-0.003099043698940844,-0.00242754137270002,-0.0016324474621199033,-0.0027495451920909243
920,-0.004512299842931109,-0.003598281009794702,-0.0024948332851723507,-0.004024912418604578
921,-0.006453660240047623,-0.005232724591320455,-0.0037329009871323498,-0.005783054152766728
922,-0.009077542012554961,-0.007475391018273823,-0.005476180018034413,-0.008166111345341438
923,-0.012570356355901728,-0.010503269321892718,-0.00788674384794878,-0.011345553647851635
924,-0.017153827926658795,-0.014529833118796973,-0.011163877654312098,-0.015525082796306973
925,-0.023087942653133773,-0.019808842015409587,-0.0155485788526311,-0.02094314302234736
926,-0.03067334884949385,-0.02663776256298962,-0.021327681926609877,-0.027874874614093954
927,-0.04025302874348421,-0.035360630585174226,-0.028837385820211243,-0.036633342257747406
928,-0.05221305606821858,-0.046370171591376075,-0.038465958735746826,-0.04756987159945971
929,-0.06698226107510778,-0.06010899732206006,-0.050655402126032145,-0.061073336238035146
930,-0.08503063779677593,-0.07706970482431565,-0.06590187291374884,-0.07756825352610452
931,-0.10686634994956802,-0.09779372016873086,-0.08475468989591936,-0.09751157130333984
932,-0.13303122155186878,-0.12286875205098768,-0.1078137858140366,-0.12138805892236981
933,-0.1640946358414672,-0.15292475081465925,-0.13572550924463392,-0.14970425426244727
934,-0.20064581068861945,-0.18862830528476515,-0.16917672859024868,-0.1829809631174454
935,-0.24328446928259945,-0.23067545227179662,-0.20888724219338883,-0.22174435728076164
936,-0.2926099799193889,-0.2797829204364345,-0.255600552108739,-0.2665157713571691
937,-0.3492090964649273,-0.33667787987738623,-0.31007311257845027,-0.3178003540211261
938,-0.41364248952132465,-0.4020863196064836,-0.3730622161168066,-0.37607478506916125
939,-0.4864303152902458,-0.4767202251769413,-0.44531272882318296,-0.4417743229513455
940,-0.5680371222501395,-0.5612637762676514,-0.5275429307353933,-0.5152794961778705
941,-0.6588564426180727,-0.656358827186075,-0.6204297554363799,-0.5969027937404684
942,-0.7591954538131037,-0.7625899703612066,-0.7245937545273768,-0.6868757422315912
943,-0.8692601226879006,-0.8804695125018572,-0.8405841358336439,-0.7853367786739113
944,-0.9891412604526806,-1.0104227140216044,-0.9688642382763463,-0.8923203364960215
945,-1.1188019177847142,-1.1527736537317348,-1.1097978104010944,-1.0077475563306226
946,-1.2580665369662103,-1.3077320821696468,-1.2636364531170727,-1.1314190125967318
947,-1.4066122509860812,-1.475381618090752,-1.4305085702295464,-1.2630098109647814
948,-1.5639626789252987,-1.6556696237519473,-1.6104101432560718,-1.402067361223621
949,-1.729484513720379,-1.8483990660947784,-1.803197610593644,-1.548012065842295
950,-1.9023871341508047,-2.053222633513422,-2.008583086393155,-1.7001410883452763
951,-2.0817253996138243,-2.2696393325386937,-2.2261321026956105,-1.8576352797857494
952,-2.266405706224823,-2.496993736678611,-2.45526400080636,-2.019569248906701
953,-2.455195298496786,-2.73447800220059,-2.695255035980455,-2.1849244652118767
954,-2.646734744890676,-2.9811367043190042,-2.9452441948675463,-2.352605187545661
955,-2.839553400514602,-3.235874483645,-3.204241659543812,-2.521456917381442
956,-3.032087598825809,-3.497466428482662,-3.4711397871042857,-2.6902869892249206
957,-3.222701238971706,-3.764571055238625,-3.744726411404756,-2.8578868334972944
958,-3.409708368877062,-4.035745688436622,-4.023700215210886,-3.023055382747567
959,-3.5913973085251327,-4.309463985101339,-4.306687868197606,-3.1846230423316437
960,-3.7660558148195706,-4.584135296976229,-4.592262580333986,-3.341475613473122
961,-3.931996760149053,-4.858125519368767,-4.878963682531733,-3.4925775409282127
962,-4.087583781967674,-5.129779038363643,-5.1653168182996145,-3.6369938597249125
963,-4.231256360467304,-5.397441359493443,-5.4498543126484,-3.7739102354613183
964,-4.361553795295603,-5.659481981324232,-5.731135278498821,-3.902650529738608
965,-4.477137579216808,-5.914317067297507,-6.007765026875026,-4.022691375309992
966,-4.576811705040254,-6.160431468951146,-6.278413365285341,-4.133673312850378
967,-4.659540490062084,-6.396399663511419,-6.541831398447277,-4.235408120867689
968,-4.724463557409626,-6.620905188687212,-6.796866485934026,-4.327882059742657
969,-4.770907673613451,-6.832758186803059,-7.0424750609991715,-4.411254847373847
970,-4.798395204004096,-7.030910708337687,-7.2777330720422935,-4.485854284319233
971,-4.80664900984522,-7.21446947046596,-7.501843870957553,-4.552166547461186
972,-4.795593671514754,-7.382705818286088,-7.714143438907027,-4.61082226993662
973,-4.765352978968065,-7.535062694016675,-7.914102907883755,-4.662578618377813
974,-4.716243682930826,-7.671158481421033,-8.101328403967207,-4.70829766358154
975,-4.64876554681424,-7.790787657590124,-8.2755583038036,-4.7489214149696775
976,-4.563587779641753,-7.893918250057697,-8.436658057921564,-4.785443950477244
977,-4.461531964471024,-7.980686161678267,-8.584612791040446,-4.818881120526392
978,-4.34355162618805,-8.051386486196805,-8.719517938034942,-4.850238337555794
979,-4.210708609832241,-8.10646199144722,-8.841568211775524,-4.880476982720989
980,-4.064146469692706,-8.14648899232684,-8.951045222788533,-4.910479971697797
981,-3.9050611048512716,-8.172160870087678,-9.048304078275436,-4.941017025600267
982,-3.734668923017058,-8.184269516328685,-9.133759278259285,-4.972710194600618
983,-3.5541728747716226,-8.183684987945943,-9.207870199627743,-5.006000184249411
984,-3.364726776401887,-8.171333652237756,-9.271126416262131,-5.041114040208827
985,-3.1673984308934,-8.148175079133345,-9.324033048359844,-5.0780347572823255
986,-2.9631321606617154,-8.11517790092514,-9.36709627069686,-5.116473392719834
987,-2.7527114773157155,-8.07329481104957,-9.400809042855792,-5.155844279493846
988,-2.5367227264408285,-8.023436815909294,-9.425637059435848,-5.195243948830753
989,-2.3155206510333337,-7.9664467923076385,-9.442004859716997,-5.233434378262697
990,-2.0891969071953116,-7.903072343645745,-9.450281988340526,-5.26883117747067
991,-1.857552631626554,-7.833937897089069,-9.450769064861863,-5.299497305661188
992,-1.6200761949062854,-7.759515948042671,-9.443683603610703,-5.3231428787649
993,-1.3759272715830408,-7.680097343671277,-9.429145428747013,-5.337131571103153
994,-1.123928313370426,-7.595760509040784,-9.40716155453131,-5.338494043900018
995,-0.8625644226325314,-7.506339561339796,-9.377610448128943,-5.323948742147999
996,-0.5899924888978741,-7.4113913311889945,-9.340225660429079,-5.289930292140319
997,-0.3040602722814018,-7.31016141479966,-9.294578896070247,-5.232625604995702
998,-0.002335897367424686,-7.201549514242219,-9.240062692051504,-5.1480176477058945
999,0.3178520356359406,-7.0840744809844205,-9.17587297871465,-5.0319366843203746
1000,0.6593638017905138,-6.9558396539202745,-9.100991900802626,-4.880118618427555
1001,1.0251877505124505,-6.814499269183091,-9.014171373235966,-4.688269887627022
1002,1.418370056538449,-6.657226905206282,-8.913917930367095,-4.452138175632239
1003,1.8419360439211594,-6.480687101583796,-8.798479493821368,-4.167588023182335
1004,2.298804410352658,-6.281011442630999,-8.665834728619453,-3.830680240840999
1005,2.791695962871631,-6.053780514914827,-8.513685677061254,-3.43775386111677
1006,3.323038726913416,-5.794013222371338,-8.339454352729266,-2.985509220293683
1007,3.8948714993003586,-5.496164964692153,-8.140283941731084,-2.471090637837008
1008,4.5087480740784445,-5.154136148307997,-7.91304519461385,-1.8921670687146557
1009,5.165644471633235,-4.76129240078076,-7.654348500842453,-1.2470090462608876
1010,5.865871541701866,-4.31049769754405,-7.3605620199890645,-0.5345602141852185
1011,6.608995287308968,-3.7941613861787955,-7.02783610270912,0.2454982313254179
1012,7.39376716909508,-3.2042998119079766,-6.652134074389901,1.0926918034724937
1013,8.218066499927069,-2.5326129154284542,-6.229269280542925,2.005707197309554
1014,9.07885683195631,-1.7705757995728388,-5.7549481120686385,2.982358331189549
1015,9.972157977946253,-0.9095448555931953,-5.224818547516823,4.019565129437225
1016,10.893035002596948,0.059122384419707436,-4.634523575555783,5.11334599845323
1017,11.835605175643282,1.1439349318637602,-3.9797587008983215,6.258824699445787
1018,12.793063505277464,2.353125246266156,-3.2563325971640413,7.450252048618841
1019,13.757727076920064,3.6944974421215715,-2.460229856011712,8.681042586062782
1020,14.72109801770336,5.175269242730082,-1.5876746977591778,9.943826054292412
1021,15.673944500442968,6.801910441314412,-0.6351944578299206,11.230513223079026
1022,16.60639880148937,8.579980887008315,0.40031835241896174,12.532375295757364
1023,17.508071043577395,10.513971203347003,1.5215465922388403,13.84013584036752
1024,-1.1075062561627184e-13,2.894444652657351e-15,4.6089615818659964e-14,-1.330696566859298e-13
1025,-2.3429057758940237e-12,2.683593502791871e-13,1.070872119751805e-12,-2.856557171879575e-12
1026,-2.7266607919181772e-11,3.490951792349968e-12,1.3896636883722564e-11,-3.4198218902347744e-11
1027,-2.1240079452054263e-10,2.93366759628794e-11,1.1931736670507149e-10,-2.7407905155935085e-10
1028,-1.246603514721724e-09,1.853977429268718e-10,7.678321181106698e-10,-1.6538282171867478e-09
1029,-5.8984811724030185e-09,9.43201837104341e-10,3.959604482454511e-09,-8.035754836851665e-09
1030,-2.3514494575861755e-08,4.031608750601114e-09,1.7091909257707103e-08,-3.284242771970345e-08
1031,-8.147925627836154e-08,1.4915320960581315e-08,6.368680548050856e-08,-1.1643470881567139e-07
1032,-2.511700962281181e-07,4.882384905637855e-08,2.0962550413378436e-07,-3.6638521335307355e-07
1033,-7.012827066134752e-07,1.438369445359436e-07,6.205492023236286e-07,-1.041656978684578e-06
1034,-1.7988048918415782e-06,3.865827225258183e-07,1.6760667843765493e-06,-2.713856614968245e-06
1035,-4.287375209337139e-06,9.58416353196019e-07,4.179139191737059e-06,-6.55401306619649e-06
1036,-9.583951890950197e-06,2.2120251876599705e-06,9.713646655564596e-06,-1.481105692234556e-05
1037,-2.0246946312401404e-05,4.789537112468826e-06,2.121819400038182e-05,-3.15671731509039e-05
1038,-4.0681270657226604e-05,9.792547645283535e-06,4.3857628736236614e-05,-6.387391076618815e-05
1039,-7.815697289160887e-05,1.9011174496466093e-05,8.628316941633368e-05,-0.00012338953794401654
1040,-0.00014422709212657473,3.5212553485672124e-05,0.00016237503719375193,-0.00022865070587675505
1041,-0.0002566359102556259,6.247857893121837e-05,0.0002935558607436216,-0.00040811814695336344
1042,-0.0004418098680830028,0.00010656792860087932,0.0005117471789806978,-0.0007041351632745135
1043,-0.0007380192362959439,0.00017525862634503272,0.0008630141100206062,-0.0011779276133231673
1044,-0.0011992886333110754,0.0002786051344077052,0.001411904578327856,-0.0019157538905820123
1045,-0.001900118383910532,0.00042901923739362667,0.0022464403004577066,-0.0030362823743732897
1046,-0.0029410564611122886,0.0006410582233209565,0.0034836589754614327,-0.004699231928184236
1047,-0.0044551325062649715,0.0009307788943396243,0.005275543745269479,-0.007115258767867808
1048,-0.0066151315790994696,0.001314493821474804,0.007815110688969914,-0.010557011656890094
1049,-0.009641646548252622,0.0018067491952425115,0.011342362058626982,-0.015371208842231787
1050,-0.013811805389126347,0.0024173338151211314,0.016149756439962682,-0.02199151697530004
1051,-0.01946852435232875,0.003147128254884908,0.02258680112383258,-0.030951937502586273
1052,-0.02703009143321628,0.003982613791095772,0.031063340409111576,-0.04290033300686867
1053,-0.03699983841609488,0.004888883591108409,0.04205109950049264,-0.058611658219634696
1054,-0.04997561576694589,0.005801034642481095,0.056083049690908444,-0.0790004013790117
1055,-0.06665874471346493,0.006613867993887705,0.07375018848916783,-0.1051316945602549
1056,-0.08786208690400685,0.007169886344855097,0.09569537930245936,-0.13823051950380566
1057,-0.11451684589360689,0.007245650369789901,0.1226039692550205,-0.17968842077655808
1058,-0.14767769801761682,0.006536636136152752,0.15519099964302605,-0.23106714272867301
1059,-0.18852584446069284,0.004640822620017069,0.19418493906168327,-0.2940986319361272
1060,-0.23836958280847523,0.0010413270855549376,0.24030800077093734,-0.37068089328935816
1061,-0.29864201613706026,-0.004911506994020213,0.294253248536315,-0.4628692555646824
1062,-0.37089555149736936,-0.014018083914730674,0.3566588431397638,-0.5728626904640114
1063,-0.4567928878800189,-0.027247035339570472,0.42807992851196325,-0.7029849362851672
1064,-0.5580942564256334,-0.04575159252180876,0.508958795277503,-0.8556603014529162
1065,-0.6766407523791919,-0.07088419878743399,0.5995940838991434,-1.0333841612972312
1066,-0.8143336881596008,-0.10420869053242193,0.7001098935358836,-1.2386883102926372
1067,-0.9731099983913992,-0.14750937745549816,0.8104257409473867,-1.4741014875038456
1068,-1.1549138386523117,-0.2027963780430814,0.9302283619922259,-1.7421055508097862
1069,-1.3616646372859806,-0.272306614570905,1.0589463632965372,-2.045087930887331
1070,-1.5952219806986543,-0.35849994237609306,1.1957287115395472,-2.385291144058736
1071,-1.85734783348728,-0.46404997939416043,1.339427991863969,-2.7647602790708303
1072,-2.149666711591624,-0.5918293117506948,1.4885892759235788,-3.1852894919478927
1073,-2.4736245352839052,-0.7448888767280012,1.6414453162564326,-3.648368640813495
1074,-2.8304469850501306,-0.9264314623606075,1.7959186307062616,-4.155131265031013
1075,-3.221098263297341,-1.1397794095234461,1.949630863542105,-4.706305156788759
1076,-3.646241224668349,-1.3883367536722797,2.099919614861694,-5.302166785684802
1077,-4.10619987430482,-1.6755461952491706,2.2438627236424926,-5.942500816096554
1078,-4.6009252439603605,-2.004841436035567,2.3783097795542707,-6.626565902207028
1079,-5.129965638439865,-2.379595559382732,2.4999204313965686,-7.353067856560843
1080,-5.692442198321016,-2.8030662614386532,2.6052088624007017,-8.12014116605138
1081,-6.287030649163795,-3.278338854687554,2.690593620665426,-8.92533967647887
1082,-6.911950003295847,-3.8082680611780884,2.7524518320239815,-9.765637086479613
1083,-7.564958849654306,-4.395419688080588,2.7871766872702564,-10.63743768788046
1084,-8.243359712977073,-5.042013330590013,2.7912369897110905,-11.536597567405678
1085,-8.94401178977566,-5.749867275206649,2.7612374753591666,-12.458456249889734
1086,-9.663352179734325,-6.520346779224193,2.6939785786280854,-13.397878521968213
1087,-10.397425532799543,-7.354316879543942,2.5865143119302467,-14.349305934135508
1088,-11.14192182989235,-8.252100835900835,2.436206957804555,-15.30681724458853
1089,-11.892221814629485,-9.213445240811694,2.2407773357615057,-16.26419684673166
1090,-12.643449400334465,-10.237492731949066,1.9983495006629874,-17.21501001951827
1091,-13.390530196373334,-11.322763123431677,1.7074888521298066,-18.15268366133832
1092,-14.12825513546439,-12.467143632270268,1.36723278160629,-19.07059101866512
1093,-14.851348043533482,-13.667888716870054,0.9771131513120191,-19.962138804130696
1094,-15.554535879714503,-14.921629868460235,0.5371700831113726,-20.82085501825047
1095,-16.232620289307082,-16.224395506449653,0.047956730870255745,-21.640475746898904
1096,-16.880549059174395,-17.571640928301218,-0.4894650874480269,-22.415029204106542
1097,-17.493486044544902,-18.958288057286175,-1.0735383165800592,-23.138915327030425
1098,-18.066878148847437,-20.378774521483404,-1.7022328655255436,-23.80697930622024
1099,-18.5965179834962,-21.827111388969797,-2.373076104151329,-24.414577547713375
1100,-19.078600911077075,-23.2969486818683,-3.0831909913813655,-24.957634711285237
1101,-19.5097752811139,-24.781647600499674,-3.8293410040873908,-25.43269064780082
1102,-19.887184799867992,-26.274358213116646,-4.6079808886601334,-25.83693626385148
1103,-20.208502131298303,-27.76810121135441,-5.415312133808365,-26.16823756898332
1104,-20.471953001828552,-29.255852201234994,-6.247341966153518,-26.425147404696027
1105,-20.676330273090898,-30.73062689865095,-7.09994460170337,-26.606904609610474
1106,-20.82099765028374,-32.18556553060019,-7.96892344764005,-26.713420636202617
1107,-20.90588290493989,-33.614014712290135,-8.850072940663512,-26.74525389564765
1108,-20.93146070533596,-35.00960507801173,-9.739238730291516,-26.703572362997395
1109,-20.898725360995677,-36.36632299190514,-10.63237496718603,-26.590105219635063
1110,-20.8091539953216,-37.67857475387127,-11.52559753618231,-26.407084538437864
1111,-20.66466085808193,-38.94124184532334,-12.41523217894837,-26.1571782243966
1112,-20.467543673261314,-40.149725927535144,-13.29785657914992,-25.843415605105605
1113,-20.22042308391924,-41.299982509262804,-14.170335630065141,-25.469107217636964
1114,-19.926176400800298,-42.38854243631124,-15.029849266679157,-25.037760457640506
1115,-19.587866982580742,-43.41252061901153,-15.873912416856713,-24.552992840672275
1116,-19.208670670424453,-44.36961169849219,-16.70038680449153,-24.018444673237475
1117,-18.79180076611989,-45.25807265267177,-17.507484516834797,-23.437692941230736
1118,-18.340433080187807,-46.076692650892404,-18.293763424086514,-22.81416819663814
1119,-17.857632583254546,-46.82475077437582,-19.05811470787787,-22.15107616063066
1120,-17.346283170553058,-47.5019625202184,-19.799742913198294,-21.451325664378373
1121,-16.809021996131804,-48.10841629140909,-20.51813908300685,-20.717464420556567
1122,-16.248179751281913,-48.6445013364804,-21.213047664185186,-19.951623961633917
1123,-15.66572815240529,-49.11082883248485,-21.884427986135368,-19.155474899071432
1124,-15.063235769075959,-49.508147997314424,-22.532411208115747,-18.330193454267235
1125,-14.441833165907525,-49.8372592661853,-23.15725370762975,-17.476439991447403
1126,-13.802188155005021,-50.09892666775849,-23.75928793942521,-16.594350048911004
1127,-13.144491762621028,-50.29379158453989,-24.338871832767406,-15.683538122425265
1128,-12.46845530780676,-50.42229007799811,-24.896337813630954,-14.743114207567714
1129,-11.773318776207837,-50.48457590086261,-25.43194253844756,-13.77171286092017
1130,-11.057870452731594,-50.48045120844633,-25.945818407240644,-12.767534297760092
1131,-10.32047755679077,-50.40930682019395,-26.4379278866403,-11.728396810782417
1132,-9.559127407473836,-50.27007367600463,-26.90802161777584,-10.651799574864285
1133,-8.771478437541704,-50.06118688449985,-27.355601210988308,-9.534994701211263
1134,-7.954920178715381,-49.780563478668086,-27.779887539615725,-8.375067224356847
1135,-7.106641160220464,-49.42559468548326,-28.17979524012865,-7.1690215509609665
1136,-6.223703501670208,-48.99315318807105,-28.553914007424687,-5.913872773184712
1137,-5.3031228434224404,-48.47961552010712,-28.90049714438798,-4.606741154001675
1138,-4.341952145366275,-47.88089939080968,-29.21745768654675,-3.244948028828249
1139,-3.337367800893091,-47.192515403444744,-29.50237227882287,-1.826111338229313
1140,-2.2867564581377784,-46.40963230861105,-29.752492835166642,-0.34823901029508053
1141,-1.1878009163421837,-45.527154633038016,-29.96476586655445,1.190181552077724
1142,-0.0385634716472561,-44.539811251767595,-30.13585922152406,2.790099555728037
1143,1.1624348766487709,-43.44225323207977,-30.262195848973757,4.4518240529269155
1144,2.416140882385519,-42.22915907606801,-30.339994067807424,6.174955783388232
1145,3.7229026008938257,-40.89534532907119,-30.36531371410935,7.958328929808425
1146,5.082411339934736,-39.43588040589909,-30.3341074352954,9.799963925718076
1147,6.4936531818044605,-37.84619941758009,-30.242276313029638,11.697032268988021
1148,7.954871083108856,-36.122217758845885,-30.08572892316378,13.645834095474338
1149,9.463538379652038,-34.2604412403707,-29.860442881877226,15.641789058655858
1150,11.0163443312096,-32.25807061857493,-29.56252788281452,17.67944084634825
1151,12.609192138143385,-30.113098487359327,-29.18828920061357,19.752475448223436
1152,-1.199814517315888e-14,-9.412425668136807e-14,-1.217850278612767e-13,-3.022181427309929e-14
1153,-1.620078500809296e-13,-2.0207159089266225e-12,-2.659498240361446e-12,-5.775006508108853e-13
1154,-1.3599821631677913e-12,-2.4100586614992877e-11,-3.146646485491011e-11,-6.769202563276003e-12
1155,-6.968776861371103e-12,-1.9264028481635892e-10,-2.490945727418016e-10,-5.343374146198337e-11
1156,-2.1576917663683468e-11,-1.1607348597265282e-09,-1.4852700014427488e-09,-3.1885490090742003e-10
1157,-2.295482550323644e-11,-5.638312948747054e-09,-7.135586630531067e-09,-1.53847876015938e-09
1158,1.6176552611699773e-10,-2.3062206402411812e-08,-2.8854415701555563e-08,-6.271557420420882e-09
1159,1.1869990341601396e-09,-8.19017442886227e-08,-1.0128032473991272e-07,-2.2275901845580688e-08
1160,4.752445489390287e-09,-2.5835998770707774e-07,-3.1573842954318144e-07,-7.052849911132157e-08
1161,1.395404002792778e-08,-7.367961315427684e-07,-8.898569871143199e-07,-2.0254161796729942e-07
1162,3.177169694247481e-08,-1.9263423931384793e-06,-2.299415476725428e-06,-5.347875067250389e-07
1163,5.3798606847841266e-08,-4.669850562566175e-06,-5.510211346584197e-06,-1.3123702212366686e-06
1164,4.790267053908986e-08,-1.059498867513655e-05,-1.2360574959511637e-05,-3.019495532357139e-06
1165,-9.096899944297604e-08,-2.2672085918237767e-05,-2.6158288295820138e-05,-6.560497486240962e-06
1166,-6.278883374769264e-07,-4.605786780479064e-05,-5.2567731785866916e-05,-1.354170852229334e-05
1167,-2.1396366022235703e-06,-8.931691134468172e-05,-0.00010087265814926377,-2.6690726382515704e-05
1168,-5.759268039628482e-06,-0.00016612170447854104,-0.00018570569562393767,-5.045502384813303e-05
1169,-1.3546906250333392e-05,-0.00029753585573546147,-0.0003293363268910218,-9.182578996630904e-05
1170,-2.9024238299882087e-05,-0.0005149816974566589,-0.0005646037476132733,-0.00016143487725680654
1171,-5.79128958374836e-05,-0.000863982036512507,-0.0009385690532744361,-0.0002749723391238431
1172,-0.00010911790866791727,-0.0014087453830856622,-0.001516942319396722,-0.00045496893392332576
1173,-0.00019599636831087866,-0.00223763445787274,-0.0023893143368379503,-0.0007329818656738628
1174,-0.0003379480185923404,-0.0034695195996371944,-0.003675190383564734,-0.001152212689894915
1175,-0.0005623583721156726,-0.005260972981088432,-0.005530785150344244,-0.0017705735631804885
1176,-0.000906915887184627,-0.007814208024353822,-0.008156494834606922,-0.0026642017900511874
1177,-0.0014223126321820162,-0.011385613355284112,-0.011804915859950162,-0.003931403019263507
1178,-0.0021753227800278218,-0.0162946747095104,-0.016789231369701865,-0.005696980769646028
1179,-0.0032522354188624686,-0.022933024283915956,-0.023491738574282908,-0.008116884759476924
1180,-0.004762597873000617,-0.03177330803437812,-0.03237224446357487,-0.011383083543962282
1181,-0.006843203513512638,-0.043377520137601246,-0.04397601680232059,-0.015728539229225423
1182,-0.009662234634724131,-0.0584044227659054,-0.05894094429572072,-0.02143213471980374
1183,-0.01342344733038275,-0.07761565057725449,-0.078003536861293,-0.028823378401842816
1184,-0.018370262524228152,-0.10188009453098153,-0.10200338629586321,-0.03828668876984219
1185,-0.024789606592914536,-0.13217616990158537,-0.13188571098794458,-0.05026504367795973
1186,-0.03301532763368616,-0.16959159921822856,-0.16870162672272718,-0.06526276699433986
1187,-0.04343100068749356,-0.21532038227536718,-0.2136058193413811,-0.08384722070877824
1188,-0.056471928412842834,-0.2706566817481603,-0.2678513436178957,-0.10664917406876369
1189,-0.07262614394418182,-0.3369854231617206,-0.33278133514551744,-0.13436163391888384
1190,-0.09243423082032311,-0.415769490333411,-0.4098174966947478,-0.16773694258351343
1191,-0.11648779145728735,-0.508533489756008,-0.5004453053875024,-0.20758198146069456
1192,-0.14542642082248958,-0.616844157085922,-0.6061959797313701,-0.254751359666203
1193,-0.1799330754872492,-0.7422875829291024,-0.7286253433654386,-0.3101385168321735
1194,-0.22072776937619004,-0.8864435401776148,-0.8692898223131237,-0.37466472635840165
1195,-0.26855957511480427,-1.0508572977767472,-1.0297199114323692,-0.44926604848024115
1196,-0.32419696233113415,-1.2370094024923437,-1.2113915402785955,-0.5348783495592608
1197,-0.38841655974957795,-1.4462839975902233,-1.4156958554283265,-0.6324205728423129
1198,-0.4619904843964926,-1.6799363221405994,-1.6439080122971812,-0.7427765141706784
1199,-0.5456724365648669,-1.939060094074272,-1.8971556318068992,-0.8667754212080333
1200,-0.6401828111554048,-2.2245555217679462,-2.176387623536756,-1.0051717941178906
1201,-0.7461931225102499,-2.537098711030009,-2.482344105354694,-1.1586248168068105
1202,-0.8643100790214961,-2.8771132357616254,-2.8155281586001917,-1.3276778886896388
1203,-0.9950596741281408,-3.244744620843177,-3.1761801468848376,-1.5127387556627432
1204,-1.1388716806843258,-3.639838445189584,-3.564255295303169,-1.714060754291362
1205,-1.2960649453060116,-4.061922712319489,-3.979405175774671,-1.9317256843162014
1206,-1.4668338777363006,-4.510195056657907,-4.420963674473985,-2.165628811135095
1207,-1.651236517425354,-4.983515258109269,-4.887937930538306,-2.41546647206284
1208,-1.849184535673853,-5.480403427594227,-5.379004633652954,-2.6807267184947885
1209,-2.0604354974289603,-5.99904410499164,-5.892511954309624,-2.9606833715526144
1210,-2.284587662987118,-6.537296381298602,-6.426487257447376,-3.2543938026351014
1211,-2.5210775575080255,-7.092710022052334,-6.978650621035652,-3.560700674045512
1212,-2.769180476659097,-7.662547432508243,-7.546434049342692,-3.878237790242295
1213,-3.028014031373788,-8.243811170143085,-8.127006139639853,-4.205440119169524
1214,-3.2965447652333384,-8.833276580121542,-8.717301834367726,-4.540557947630927
1215,-3.5735978060264424,-9.427529007683418,-9.314056771588287,-4.881675036969586
1216,-3.8578694402647904,-10.023004931038088,-9.913845637821153,-5.226730547696906
1217,-4.147942427510979,-10.61603626208225,-10.513123831688143,-5.573544406541813
1218,-4.442303802011665,-11.20289698253119,-11.108271666362256,-5.919845699054625
1219,-4.739364844009837,-11.779851221906732,-11.695640275442424,-6.263303587758844
1220,-5.037482843842331,-12.343201842827478,-12.271598341988033,-6.601560182158485
1221,-5.334984230002894,-12.889338579265814,-12.832578745098282,-6.932264724776336
1222,-5.63018858915932,-13.414784775410473,-13.375124213259044,-7.25310840870003
1223,-5.921433072954738,-13.916241796504174,-13.895931088911224,-7.56185910844807
1224,-6.207096664462689,-14.390630227982172,-14.39189034404452,-7.85639528858918
1225,-6.485623767342675,-14.83512704436349,-14.860125041308741,-8.134738354284707
1226,-6.755546583705597,-15.247198013099505,-15.298023507899828,-8.395082725144999
1227,-7.015505762783331,-15.624624698969422,-15.703267578621467,-8.635822948401021
1228,-7.264268831725875,-15.96552554925416,-16.07385536796262,-8.855577218863985
1229,-7.500745961899709,-16.26837066612276,-16.408118146324504,-9.05320674054966
1230,-7.724002678219928,-16.531990007493125,-16.704731019908305,-9.227830446877581
1231,-7.933269184205668,-16.75557489796445,-16.962717244189314,-9.378834691356747
1232,-8.127946050152584,-16.938672874038705,-17.18144613413779,-9.505877626638835
1233,-8.307606094349785,-17.08117602949227,-17.36062466714838,-9.608888104443533
1234,-8.47199237568219,-17.183303164203856,-17.50028300388751,-9.688059049541211
1235,-8.621012308069673,-17.245576169892402,-17.600754275106866,-9.743835384865701
1236,-8.754728000601496,-17.268791206165954,-17.662649096412053,-9.776896708873476
1237,-8.873343019401469,-17.253985327400148,-17.686825375926524,-9.7881350473024
1238,-8.977185855686452,-17.202399312953506,-17.674354070046405,-9.778628116368342
1239,-9.066690466767797,-17.115437528170375,-17.626481618700453,-9.749608640198574
1240,-9.142374330705078,-16.994625700022592,-17.544589852708825,-9.702430359270949
1241,-9.204814519007696,-16.841567528042876,-17.430154211302508,-9.638531446535268
1242,-9.254622343526286,-16.65790106780589,-17.284701137247083,-9.559396111891056
1243,-9.292417172131412,-16.445255820467196,-17.109765530202708,-9.466515222355941
1244,-9.31880003191805,-16.205211438064058,-16.90684913604418,-9.361346793549528
1245,-9.334327627811769,-15.939258911125588,-16.677380731133628,-9.245277217397376
1246,-9.339487398257948,-15.64876504374542,-16.422678926413017,-9.119584080982921
1247,-9.334674208257008,-15.334940943136255,-16.14391836725297,-8.985401402423015
1248,-9.320169243969527,-14.998815157671276,-15.842100041997469,-8.84368806214228
1249,-9.296121623550542,-14.641211991712021,-15.518026335946313,-8.695200143046273
1250,-9.262533177265855,-14.262735409607455,-15.172281379085181,-8.540467812321754
1251,-9.219246778036256,-13.863758817836452,-14.80521713629638,-8.379777282745058
1252,-9.165938523249398,-13.44442088623724,-14.416945579335572,-8.213158284562434
1253,-9.102113981991723,-13.004627439591234,-14.007337162083228,-8.040377362558582
1254,-9.027108630897327,-12.544059322493732,-13.576025696333744,-7.860937189379999
1255,-8.940092508764405,-12.062186016382332,-13.122419596862953,-7.674081958191709
1256,-8.840079027144853,-11.558284670617216,-12.645719334199052,-7.478808788067922
1257,-8.725937783419145,-11.031464102221586,-12.144940804119152,-7.27388494693872
1258,-8.596411136483608,-10.480693223628704,-11.618944197236198,-7.057870572239659
1259,-8.450134225014587,-9.904833276522593,-11.066467832993078,-6.829146451406491
1260,-8.285658036064493,-9.302673184166085,-10.48616631272944,-6.585946315693559
1261,-8.101475068995338,-8.672967285586044,-9.876652248871643,-6.326393003955103
1262,-7.896047087715411,-8.014474683250443,-9.236540744147078,-6.048537770237089
1263,-7.667834413810951,-7.325999421551356,-8.564495728218082,-5.75040194219283
1264,-7.415326185085273,-6.606430716156517,-7.859277211121061,-5.430020088023051
1265,-7.137070988515417,-5.854782473318187,-7.11978848481874,-5.08548381903003
1266,-6.831707273665669,-5.07023137234916,-6.34512229693893,-4.714985343723583
1267,-6.497992961856048,-4.252152832167171,-5.534605034691604,-4.316859898014191
1268,-6.134833687396411,-3.400154242276865,-4.687837991712831,-3.889626204181005
1269,-5.741309139355499,-2.5141049078031794,-3.8047348452427077,-3.4320241583087654
1270,-5.316697014872523,-1.594162235086722,-2.885554544106492,-2.9430490105383726
1271,-4.860494146960415,-0.6407937667183926,-1.9309288974568148,-2.421981383053574
1272,-4.372434429906052,0.3452052394497806,-0.9418842578222472,-1.8684125650451884
1273,-3.852503232393951,1.3626989059490957,0.08014319285197952,-1.2822646293697835
1274,-3.3009480609110584,2.4102026386456887,1.1332989214349338,-0.6638050293669452
1275,-2.7182853122803015,3.485879886409181,2.2153085230910543,-0.0136554532436697
1276,-2.105303032653032,4.587543728112853,3.3234833051460932,0.6672051655676685
1277,-1.4630596791982884,5.712663184718324,4.454732943752635,1.3774434637035124
1278,-0.792878958263291,6.858374088495127,5.605585048840528,2.115380154400656
1279,-0.09634088819580153,8.021494283812405,6.772211344307182,2.879003981352596
1280,2.7557460063171642e-14,-4.233782575716304e-14,1.49955791835121e-14,-8.010375066107652e-15
1281,6.789879249168047e-13,-9.346037631157502e-13,4.273353477861547e-13,-1.4526950127731808e-13
1282,8.176654844683624e-12,-1.1183881661063945e-11,5.2342863058892935e-12,-1.5578942541181316e-12
1283,6.547674381065604e-11,-8.954157779908522e-11,4.246751457937268e-11,-1.1104506771370799e-11
1284,3.9340752175226126e-10,-5.396910296985829e-10,2.5901841755329275e-10,-5.896636329109378e-11
1285,1.8954032122426772e-09,-2.6192467770145846e-09,1.2699042620302134e-09,-2.4972746648480275e-10
1286,7.642055053301237e-09,-1.0692077602447471e-08,5.2236492158251745e-09,-8.833048218221791e-10
1287,2.6572447402689348e-08,-3.7857787197207384e-08,1.8576566474233424e-08,-2.701431413567656e-09
1288,8.150014405875843e-08,-1.1896146003104744e-07,5.840304637382012e-08,-7.349026769370845e-09
1289,2.244209310836608e-07,-3.376886779794848e-07,1.6515831236749368e-07,-1.8225497370185035e-08
1290,5.627938529862397e-07,-8.782288080248325e-07,4.2595729476650967e-07,-4.2109050992320895e-08
1291,1.3005878112168832e-06,-2.1166162920224756e-06,1.0132887688641e-06,-9.23556078602741e-08
1292,2.797213600084729e-06,-4.772023541493002e-06,2.244190831834375e-06,-1.9518176547348883e-07
1293,5.645890956839199e-06,-1.0143503975650362e-05,4.663786993963321e-06,-4.015833928940097e-07
1294,1.0770565577943662e-05,-2.0462375887022986e-05,9.154300325092478e-06,-8.088141854032384e-07
1295,1.953736031318332e-05,-3.939394894931093e-05,1.7065964234721246e-05,-1.5969911432873081e-06
1296,3.387302412056022e-05,-7.272398975181016e-05,3.0359610700842427e-05,-3.0881855265765886e-06
1297,5.637935273519122e-05,-0.00012926464145747113,5.1742407632115664e-05,-5.837129362609901e-06
1298,9.042955085771099e-05,-0.00022201102673556438,8.476878903361768e-05,-1.0764236434669715e-05
1299,0.00014023036479866985,-0.0003695732192442112,0.0001338688559314667,-1.9342851824662438e-05
1300,0.00021083276736792345,-0.0005978986211396574,0.0002042573407729695,-3.385341458525471e-05
1301,0.0003080741057650539,-0.0009422872105173403,0.0003016685808557433,-5.771750810626033e-05
1302,0.0004384358984112663,-0.001449687023537745,0.0004318577498301467,-9.592456795736057e-05
1303,0.0006088037661357388,-0.002181240214625448,0.0005998066463864298,-0.0001555632849397617
1304,0.0008261190983387809,-0.0032150318671375737,0.0008085742466382817,-0.00024646840200556746
1305,0.0010969157195083866,-0.004648975306487016,0.0010577383419029334,-0.0003819915221908559
1306,0.0014267387792765195,-0.006603749981209573,0.0013413849391100262,-0.000579901546946159
1307,0.0018194471511040178,-0.009225692047607646,0.001645616409874894,-0.0008634162865581152
1308,0.0022764046648544927,-0.012689524637052123,0.0019455671116431334,-0.001262361544664636
1309,0.0027955693968049027,-0.01720080535917057,0.002201935738684969,-0.0018144476449195673
1310,0.0033704938405170618,-0.02299796373451713,0.0023570663635373505,-0.0025666461876583876
1311,0.003989251911412306,-0.030353801601104076,0.0023306344005530988,-0.0035766422053661734
1312,0.004633311263816182,-0.03957633548928669,0.0020150189314780188,-0.004914329337103947
1313,0.005276371255695704,-0.05100887159463453,0.001270468214243632,-0.006663308708286183
1314,0.005883188069291398,-0.06502922105982528,-7.98102325501983e-05,-0.008922346401803755
1315,0.006408409011581009,-0.08204798524783816,-0.002254481044998851,-0.01180674017383075
1316,0.006795437969745551,-0.10250586671091078,-0.005518660932238736,-0.015449543698881128
1317,0.006975353580342501,-0.12686999056919412,-0.010188059957051234,-0.020002596246331474
1318,0.00686590117533214,-0.15562925179730544,-0.016632489143159096,-0.02563730724697544
1319,0.006370579299178389,-0.18928873519930925,-0.025278538704259952,-0.03254514852632978
1320,0.005377841787737001,-0.22836328537679546,-0.03661123825058793,-0.04093781181208029
1321,0.003760437195350778,-0.27337033259881754,-0.051174525120646554,-0.05104699518997075
1322,0.001374908783873012,-0.32482210615292106,-0.06957036906364757,-0.0631237892091737
1323,-0.0019387197292225296,-0.3832173886568997,-0.09245643007894981,-0.07743764106662358
1324,-0.006357045146020316,-0.4490329822863431,-0.12054216030505358,-0.09427488351369528
1325,-0.01207314269829814,-0.5227150704412526,-0.15458329934014964,-0.11393682367762417
1326,-0.019296149398687602,-0.604670665715286,-0.1953747541463782,-0.1367373957979391
1327,-0.02825054074780391,-0.6952593369803503,-0.24374189864992818,-0.16300039092358437
1328,-0.03917506973057936,-0.7947854049532845,-0.300530373261014,-0.1930562858947438
1329,-0.052321340058840655,-0.9034907869302484,-0.3665945098052145,-0.22723870341416555
1330,-0.06795199092387604,-1.0215486577838178,-0.4427845517887941,-0.26588054460339267
1331,-0.08633847823629354,-1.149058076306684,-0.5299328824756749,-0.309309844960367
1332,-0.10775844738047172,-1.2860397041951481,-0.628839512795025,-0.35784541381707347
1333,-0.13249270462844828,-1.4324327201634968,-0.7402571163631392,-0.41179232590544823
1334,-0.16082180812686295,-1.5880930047202704,-0.8648759285101678,-0.47143734112366387
1335,-0.19302231428823774,-1.7527926429019958,-1.0033088487049633,-0.5370443347225983
1336,-0.22936273091315504,-1.9262207636005138,-1.156077099758918,-0.6088498246123721
1337,-0.27009924377586497,-2.107985705805271,-1.3235968014295922,-0.6870586850610302
1338,-0.3154712979485616,-2.2976184747641253,-1.5061668096320036,-0.771840136477842
1339,-0.3656971279871364,-2.4945774252667285,-1.7039581549319776,-0.8633240990143233
1340,-0.4209693414483647,-2.6982540853659405,-1.9170053853462232,-0.9615979931843593
1341,-0.4814506673389746,-2.907980012150619,-2.145200079159161,-1.0667040634777691
1342,-0.5472699844048691,-3.1230345518455307,-2.388286744340624,-1.1786372910033995
1343,-0.6185187431798018,-3.3426533596466856,-2.6458612634396252,-1.2973439486745284
1344,-0.6952478901410793,-3.5660375203667085,-2.917371978129725,-1.422720837628204
1345,-0.7774653921315963,-3.7923630992150406,-3.2021234378383068,-1.5546152268889726
1346,-0.8651344446324769,-4.020790942930383,-3.499282764375854,-1.6928255002869947
1347,-0.9581724289495721,-4.250476545094166,-3.8078885117248973,-1.837102495898724
1348,-1.0564506614991511,-4.480579785880852,-4.126861829846391,-1.9871515043563568
1349,-1.1597949538660246,-4.710274355861691,-4.455019676227477,-2.14263487379747
1350,-1.2679869760379758,-4.938756675914813,-4.791089761477972,-2.30317515150661
1351,-1.380766388220529,-5.165254130972402,-5.133726867757586,-2.468358675951562
1352,-1.4978336800206564,-5.389032444440392,-5.481530142794483,-2.6377395184786314
1353,-1.6188536306783192,-5.609402032842853,-5.8330609486790514,-2.8108436619697956
1354,-1.7434592815007008,-5.825723196727325,-6.186860833760309,-2.9871732948624503
1355,-1.8712562927392742,-6.037410024201079,-6.541469197562322,-3.166211093665104
1356,-2.001827542779052,-6.243932907615447,-6.89544023202369,-3.3474243659970493
1357,-2.134737818449491,-6.4448196016749675,-7.247358746684681,-3.530268929653405
1358,-2.26953844203284,-6.639654782222045,-7.595854519751307,-3.7141926114882122
1359,-2.405771683371404,-6.828078098530084,-7.9396148602529975,-3.8986382630335776
1360,-2.5429748143394306,-7.009780747325929,-8.277395117710835,-4.0830462075069445
1361,-2.680683677602668,-7.184500632989749,-8.608026933647544,-4.266856054737175
1362,-2.81843566156234,-7.352016214369009,-8.930424092506897,-4.449507845866971
1363,-2.955771997946932,-7.512139173267224,-9.243585896498468,-4.630442517552919
1364,-3.092239326736888,-7.664706071824146,-9.546598057735514,-4.809101704702925
1365,-3.227390503912747,-7.809569194676065,-9.838631169850476,-4.984926930377519
1366,-3.360784659773197,-7.946586796095487,-10.118936888063258,-5.157358260119917
1367,-3.4919865480955496,-8.075612991556374,-10.386842009465274,-5.325832524477066
1368,-3.6205652579650347,-8.19648754684652,-10.641740702151996,-5.489781236697769
1369,-3.746092389394173,-8.309025825641701,-10.88308518098979,-5.6486283515049145
1370,-3.868139819634479,-8.413009158239594,-11.110375167640214,-5.801788024534998
1371,-3.986277208216412,-8.50817588995916,-11.323146501706573,-5.948662539802442
1372,-4.100069404282774,-8.594213357708377,-11.520959287675883,-6.088640573880562
1373,-4.209073928953004,-8.670751027687862,-11.703385968404175,-6.221095960142398
1374,-4.312838707762522,-8.737355006506563,-11.869999710491346,-6.345387104380874
1375,-4.410900223469299,-8.793524112604882,-12.020363470769597,-6.4608571847204574
1376,-4.50278224787908,-8.838687665360489,-12.154020087404959,-6.566835244526628
1377,-4.587995293323521,-8.87220511620731,-12.270483705098375,-6.662638257869751
1378,-4.666036900802113,-8.893367610185194,-12.369232802925433,-6.747574214084992
1379,-4.7363928535139745,-8.901401528231231,-12.449705046775994,-6.820946232321424
1380,-4.798539372630101,-8.89547402089718,-12.51129413736897,-6.88205768001637
1381,-4.851946317854662,-8.874700503696511,-12.553348770606899,-6.930218232312383
1382,-4.896081379788137,-8.838154043607762,-12.57517377080815,-6.964750773858498
1383,-4.930415215474041,-8.784876526036347,-12.576033400407544,-6.984999011400273
1384,-4.954427443820419,-8.713891452410655,-12.555156793457606,-6.99033563612081
1385,-4.967613384785938,-8.624218181204196,-12.511745406172796,-6.980170849748906
1386,-4.969491396214178,-8.51488739019891,-12.444982327293365,-6.953961048753665
1387,-4.959610635858373,-8.384957505930203,-12.354043245496046,-6.911217447089108
1388,-4.937559054260275,-8.233531818221467,-12.238108831471212,-6.851514410356863
1389,-4.902971407422919,-8.059775974292569,-12.096378259342318,-6.774497273166079
1390,-4.855537067241011,-7.86293552887822,-11.928083566288883,-6.679889416971632
1391,-4.795007402939092,-7.6423532148319895,-11.732504530834408,-6.56749839770994
1392,-4.721202508731011,-7.397485593426543,-11.508983739451237,-6.437220930932047
1393,-4.634017061799751,-7.1279187454444894,-11.25694150801472,-6.289046566513097
1394,-4.533425110517348,-6.833382673455345,-10.975890329231374,-6.123059914890273
1395,-4.4194836153545065,-6.513764102461628,-10.665448529383058,-5.939441321484153
1396,-4.292334593738553,-6.169117390237534,-10.325352837321422,-5.738465924693875
1397,-4.1522057545891435,-5.79967328984643,-9.955469595151461,-5.520501074708078
1398,-3.999409547561321,-5.405845344485455,-9.555804372750849,-5.286002134313263
1399,-3.834340595079462,-4.988233738252683,-9.126509786241757,-5.035506727766
1400,-3.6574715207554895,-4.5476264747658135,-8.66789136264457,-4.769627548377113
1401,-3.469347234299977,-4.084997807705081,-8.180411337977837,-4.489043878408695
1402,-3.2705777790201487,-3.60150390207901,-7.664690322777834,-4.194492014844152
1403,-3.06182989187256,-3.09847576097489,-7.1215068161505135,-3.88675483020146
1404,-2.843817466213517,-2.5774095083478143,-6.551794595819969,-3.5666507275258477
