,TP9,AF7,AF8,TP10
0,-2.4019338463908715e-14,-5.3716216417585675e-14,-2.7414128385066757e-14,-1.559644357104527e-14
1,-4.714389823190819e-13,-1.1663806180325556e-12,-5.612133059330386e-13,-2.9206151502262494e-13
2,-5.389630678625036e-12,-1.3898125461032987e-11,-6.758953146686026e-12,-3.363587370775591e-12
3,-4.142886773933148e-11,-1.1089885925375548e-10,-5.467354685432273e-11,-2.6228517941867653e-11
4,-2.406572465220117e-10,-6.667649387977829e-10,-3.3332485943225345e-10,-1.5524779988208453e-10
5,-1.1308933979914018e-09,-3.230496945158038e-09,-1.6375656584570313e-09,-7.464815348108268e-10
6,-4.49484792668676e-09,-1.317421428385448e-08,-6.770963149504063e-09,-3.047043746494893e-09
7,-1.559269062101652e-08,-4.662853411729199e-08,-2.42955014550664e-08,-1.0886145088755117e-08
8,-4.832022918158341e-08,-1.465420758759566e-07,-7.739928962286042e-08,-3.48025433318685e-08
9,-1.361492113417026e-07,-4.162201553787325e-07,-2.228214145123689e-07,-1.0121498550524992e-07
10,-3.5361362123116425e-07,-1.0834947757878167e-06,-5.87879758343674e-07,-2.7116961996791176e-07
11,-8.557559618187965e-07,-2.614641641742425e-06,-1.4377429691045308e-06,-6.759045523605366e-07
12,-1.9463194852075114e-06,-5.903952058503616e-06,-3.2900939182439326e-06,-1.5799194242609787e-06
13,-4.1894377111476465e-06,-1.2571934936107325e-05,-7.100020307634625e-06,-3.4862391904063597e-06
14,-8.583901632536343e-06,-2.5411742838272747e-05,-1.4543953099080344e-05,-7.3027905080117675e-06
15,-1.6823469261694174e-05,-4.9028760972927574e-05,-2.8437224996752985e-05,-1.459283369353417e-05
16,-3.1670745673579165e-05,-9.072152529521698e-05,-5.33246961271148e-05,-2.793571138555247e-05
17,-5.747546649125346e-05,-0.00016165246683429437,-9.628718512207284e-05,-5.142626783325374e-05
18,-0.00010087008778933533,-0.00027835377213184995,-0.0001680074385256521,-9.134169293571845e-05
19,-0.00017167595703537848,-0.00046460646107441547,-0.0002841374197581752,-0.00015700290824646434
20,-0.00028405161258785507,-0.0007537194164498197,-0.00046700328115423733,-0.0002618537544763978
21,-0.0004579106244245225,-0.001191219641616026,-0.0007476751756504156,-0.00042477513347575655
22,-0.0007206296333857449,-0.0018379458611896562,-0.0011684159944873272,-0.0006716430041624704
23,-0.0011090577683987724,-0.0027735153952720007,-0.001785506395862535,-0.0010371289565547198
24,-0.0016718264674404073,-0.004100109969663233,-0.002672423627409597,-0.0015667303567162391
25,-0.0024719441377803013,-0.005946500920837528,-0.003923329440845148,-0.00231900428586131
26,-0.0035896435095709913,-0.00847220940718755,-0.00565679889584215,-0.003367966330327608
27,-0.005125431591444916,-0.011871674104644134,-0.008019698280693615,-0.004805602414636197
28,-0.007203273595865559,-0.016378278775377616,-0.011191098063117282,-0.006744429993045246
29,-0.009973823939977167,-0.022268076256401575,-0.015386087044658612,-0.009320034644891962
30,-0.013617600390433214,-0.029863034814372726,-0.020859337943015557,-0.01269349997203269
31,-0.018347982572865282,-0.03953362818305979,-0.027908263497083113,-0.01705364305562671
32,-0.02441390432568824,-0.051700592390995656,-0.03687559666282245,-0.022618964823644575
33,-0.032102101554053276,-0.06683568088157266,-0.04815122905240595,-0.02963922459090945
34,-0.04173877400469928,-0.08546126437036297,-0.06217314869854262,-0.03839655072657611
35,-0.05369052125538052,-0.10814864310507186,-0.07942733147858132,-0.04920600476902667
36,-0.06836442054472819,-0.13551496623038514,-0.10044645985987617,-0.06241552417846351
37,-0.0862071270122974,-0.16821868517180177,-0.1258073675790029,-0.07840517907582986
38,-0.10770289539666833,-0.2069535045309413,-0.15612713881446136,-0.09758569050877194
39,-0.1333704459261357,-0.25244083396107997,-0.19205782456360448,-0.12039617174727907
40,-0.16375862546036904,-0.30542078674713347,-0.2342797763502319,-0.1473010695944315
41,-0.19944084709801896,-0.3666418140955041,-0.2834936370033061,-0.1787862994634153
42,-0.24100832644443634,-0.43684910709115754,-0.3404110688990127,-0.21535458576613428
43,-0.2890621693699479,-0.5167719395000454,-0.405744340532192,-0.2575200376857711
44,-0.3442044031398702,-0.6071101627100812,-0.4801949313463865,-0.3058020093291032
45,-0.40702807902348154,-0.7085200978498999,-0.5644413511855417,-0.360718312208691
46,-0.4781066087049913,-0.8216000984176796,-0.6591264033486838,-0.42277786659403654
47,-0.5579825279075942,-0.9468760787286921,-0.7648441478955122,-0.4924728960489561
48,-0.6471559075547553,-1.0847873185088588,-0.8821268435016403,-0.5702707859362419
49,-0.7460726545782511,-1.2356728615853907,-1.011432160843876,-0.6566057412855241
50,-0.8551129603231961,-1.3997588265966692,-1.1531309674186916,-0.7518703916732384
51,-0.9745801637519419,-1.5771469398721674,-1.3074959822979686,-0.8564075002094166
52,-1.104690298852414,-1.767804585198207,-1.4746915893264667,-0.970501940001759
53,-1.2455625905456515,-1.9715566423453594,-1.6547650787128314,-1.0943731042884128
54,-1.3972111509070873,-2.1880793564346397,-1.8476395602499076,-1.22816791559134
55,-1.5595381078560735,-2.4168964440972838,-2.053108757244939,-1.3719545946274396
56,-1.7323283720801697,-2.6573776007444807,-2.270833849675057,-1.5257173413072993
57,-1.915246215545506,-2.9087395270618694,-2.500342489394129,-1.689352068021044
58,-2.107833797412754,-3.170049543139159,-2.741030060878208,-1.8626633096957865
59,-2.3095117316092995,-3.4402318065667705,-2.9921632095927273,-2.045362416014794
60,-2.519581745910005,-3.7180760975340443,-3.2528856082010993,-2.2370671089976444
61,-2.737231436437942,-4.002249080588491,-3.5222258800564705,-2.4373024642244525
62,-2.9615410753066684,-4.291307900353841,-3.799107551133192,-2.645503346795566
63,-3.1914923839121987,-4.583715918175442,-4.0823608569709116,-2.861018304162934
64,-3.4259791412462777,-4.877860349309596,-4.370736191291107,-3.08311488781556
65,-3.663819456492886,-5.17207151677945,-4.662918948415139,-3.3109863450693457
66,-3.903769498884207,-5.464643399222827,-4.957545482930338,-3.5437595915740143
67,-4.1445384459753924,-5.753855116767571,-5.253219887470907,-3.780504345311747
68,-4.384804384649643,-6.037992971972818,-5.548531273100072,-4.0202432745389896
69,-4.623230877663519,-6.315372642917045,-5.842071226588025,-4.261962986030093
70,-4.858483892682002,-6.584361113277371,-6.132451114799157,-4.504625656838515
71,-5.089248780783152,-6.843397920311821,-6.418318908308269,-4.74718109331131
72,-5.314246987547254,-7.091015306474462,-6.698375204103093,-4.988578985945537
73,-5.532252182243223,-7.325856874231885,-6.971388140619094,-5.227781118440545
74,-5.742105499356158,-7.5466943665635515,-7.236206917196443,-5.46377328443289
75,-5.942729601727107,-7.75244222742514,-7.49177365413579,-5.695576666224673
76,-6.1331412957407805,-7.942169636676511,-7.737133358622632,-5.922258436521753
77,-6.312462456003121,-8.115109761904023,-7.971441795612425,-6.142941356830023
78,-6.479929049341708,-8.270666024238572,-8.193971100978573,-6.3568121645890825
79,-6.634898085114962,-8.40841523551523,-8.404113016392058,-6.563128565044279
80,-6.776852359958037,-8.528107528597303,-8.601379670977414,-6.761224672790383
81,-6.905402909332272,-8.629663069919516,-8.785401883089264,-6.9505147812402415
82,-7.02028912458796,-8.713165611711396,-8.955925005745039,-7.130495375225049
83,-7.121376541607317,-8.778853009294265,-9.112802390359072,-7.300745341639873
84,-7.208652354295118,-8.827104894633365,-9.255986594365453,-7.4609243745143194
85,-7.2822187520240815,-8.858427759337632,-9.385518507931817,-7.610769613038198
86,-7.342284223459123,-8.873437756997923,-9.501514622070154,-7.750090592794998
87,-7.389153008933625,-8.872841584761563,-9.604152703883058,-7.8787626306498
88,-7.423212918852623,-8.857415846175675,-9.693656183352886,-7.996718801343781
89,-7.444921765773464,-8.827985330643461,-9.770277589002776,-8.103940697894721
90,-7.454792682412551,-8.785400668615779,-9.834281396084661,-8.200448197562723
91,-7.45337861663728,-8.73051583541779,-9.885926669985093,-8.286288479773866
92,-7.441256307536438,-8.66416598014793,-9.925449898746901,-8.36152456155982
93,-7.419010054087787,-8.587146049366428,-9.953048411605327,-8.426223629491268
94,-7.3872155900063365,-8.500190658502127,-9.968864775014,-8.48044545458971
95,-7.346424375331616,-8.403955637441912,-9.97297254373643,-8.524231178200642
96,-7.297148607466959,-8.29900164121094,-9.965363722318383,-8.55759275225795
97,-7.239847241977015,-8.185780172776989,-9.94593826192275,-8.580503306759784
98,-7.1749132967106695,-8.06462231377106,-9.91449587956111,-8.592888700631008
99,-7.102662691932186,-7.935730401433888,-9.870730441827263,-8.594620489524159
100,-7.023324854271279,-7.799172827662421,-9.814227104132843,-8.585510515658944
101,-6.9370352836122535,-7.654882070074899,-9.744462340134913,-8.565307290842872
102,-6.84383024975522,-7.502655997085424,-9.660806935650237,-8.53369430490909
103,-6.743643750085339,-7.342162420694471,-9.562531958121951,-8.490290348745198
104,-6.636306820916743,-7.172946803679112,-9.448817647992108,-8.434651894846215
105,-6.521549254021983,-6.9944429636606404,-9.318765113568505,-8.366277530005473
106,-6.399003726572929,-6.805986556560999,-9.17141064764445,-8.284614385525957
107,-6.2682123078692165,-6.606831067463412,-9.005742423760347,-8.189066461389183
108,-6.128635260502145,-6.396165988862204,-8.820719274122737,-8.079004693350305
109,-5.97966200778111,-6.1731368254677115,-8.615291201318348,-7.953778567090148
110,-5.820624094201761,-5.936866531642207,-8.388421233478521,-7.812729042448132
111,-5.650809922404491,-5.686477962521368,-8.13910819868202,-7.65520251444493
112,-5.469481009507838,-5.421116903142108,-7.8664099700935575,-7.480565507326028
113,-5.275889469058052,-5.139975231594989,-7.5694667192609435,-7.288219774246536
114,-5.069296393334449,-4.842313772427856,-7.247523711417712,-7.077617459452861
115,-4.848990785595063,-4.527484405240658,-6.899953183484053,-6.848275972759722
116,-4.614308674137208,-4.194951010499732,-6.52627486232223,-6.599792228437179
117,-4.364652030688079,-3.844308859766204,-6.126174707009374,-6.331855912693364
118,-4.099507115261577,-3.475302090284706,-5.699521493568043,-6.044261465778385
119,-3.8184618784976423,-3.0878389435078306,-5.24638090274939,-5.736918495920721
120,-3.5212220705215467,-2.682004492714929,-4.7670268200348955,-5.409860381961941
121,-3.207625731998056,-2.258070635294054,-4.261949610923991,-5.063250868380561
122,-2.87765577741452,-1.8165031791988142,-3.7318611927003356,-4.697388508747945
123,-2.53145042149432,-1.3579659091628837,-3.177696785093336,-4.31270886964034
124,-2.1693112455565173,-0.8833215750128759,-2.6006132854175643,-3.9097844645890847
125,-1.7917087499848088,-0.39362980046486756,-2.001984277690097,-3.489322444700611
126,-1.3992852901085697,0.1098580351643137,-1.3833917486700962,-3.0521601271361094
127,-0.9928553441900412,0.6257068389700864,-0.7466146454911338,-2.5992584929510674
128,-2.286525491122168e-14,-4.434838239071759e-14,-4.9686256073774606e-14,-1.0897424839979035e-15
129,-4.2469584791341593e-13,-9.462849848739184e-13,-1.0623874377647459e-12,5.31330250823254e-14
130,-4.845031928738251e-12,-1.1259799242896406e-11,-1.2568088651281789e-11,7.310199498347313e-13
131,-3.717070263091255e-11,-8.983361297578387e-11,-9.94785665226083e-11,6.307427785527787e-12
132,-2.1581997869791178e-10,-5.402063535430164e-10,-5.934486680200242e-10,3.9356035393756686e-11
133,-1.0153420585790172e-09,-2.618416685187962e-09,-2.8540983946619258e-09,1.905713991231672e-10
134,-4.048156299422933e-09,-1.0684815466286408e-08,-1.1560505772303e-08,7.459682064503621e-10
135,-1.4116950409489796e-08,-3.7847695760372756e-08,-4.067077657012911e-08,2.4200383117318473e-09
136,-4.407007197635771e-08,-1.1905497110977348e-07,-1.2715740708581026e-07,6.584024325038838e-09
137,-1.2532924974532848e-07,-3.3848321016113134e-07,-3.596186995423389e-07,1.4955051353698215e-08
138,-3.290532074639244e-07,-8.820268524250054e-07,-9.329878661312969e-07,2.7311659746659517e-08
139,-8.059014240265501e-07,-2.1306128881784734e-06,-2.2457487684759514e-06,3.4265871861689105e-08
140,-1.8563075861986253e-06,-4.815684463280896e-06,-5.062050119068316e-06,-1.1098315568929686e-10
141,-4.047951927176312e-06,-1.0264074114632409e-05,-1.0767399967392053e-05,-1.7387780270252604e-07
142,-8.40247859119459e-06,-2.0765068380898832e-05,-2.1752549578413754e-05,-7.1242091076297e-07
143,-1.6679044078946325e-05,-4.009713336126719e-05,-4.19649629756932e-05,-2.0781639030500896e-06
144,-3.1787486431136296e-05,-7.425490417642417e-05,-7.76701271844455e-05,-5.143057814939191e-06
145,-5.836814686426883e-05,-0.0001324180663052444,-0.00013846519369457134,-1.1444941514715977e-05
146,-0.00010357797215377544,-0.0002282021864154789,-0.000238584534411797,-2.355074615120213e-05
147,-0.00017812281438344188,-0.00038122701514259685,-0.00039853046099722284,-4.5550122675830746e-05
148,-0.0002975732568125716,-0.0006190300537505426,-0.0006470525648493409,-8.370215907080878e-05
149,-0.0004839954072750579,-0.0009793421785579443,-0.0010234861072594302,-0.00014725529367538558
150,-0.0007679186504674573,-0.0015127279549795628,-0.0015804440665972619,-0.0002494562718802151
151,-0.0011906492559491417,-0.0022855762448226796,-0.0023868394555866656,-0.00040875804258758624
152,-0.0018069221314716123,-0.003383407320923719,-0.0035311951117636495,-0.000650228906549435
153,-0.002687863280922241,-0.004914441668324483,-0.005125178173303232,-0.0010071561265487204
154,-0.003924213343522367,-0.007013353884504455,-0.0073072767360786136,-0.0015228267612936715
155,-0.0056297389214043396,-0.009845113668475042,-0.010246517567967212,-0.002252456938439407
156,-0.007944734509471335,-0.013608795989512099,-0.01414610698778051,-0.0032652285134799086
157,-0.011039495275660356,-0.01854122535812087,-0.019246862776581324,-0.004646379651840442
158,-0.015117621485160252,-0.024920305839553358,-0.025830293894754358,-0.006499284155947755
159,-0.020419000906382993,-0.033067880084685905,-0.03422117739253813,-0.008947444394374787
160,-0.027222307893304338,-0.0433519580571824,-0.04478947874277144,-0.012136315655101662
161,-0.035846858554168456,-0.05618815994486581,-0.05795146335679187,-0.016234876800695016
162,-0.04665367160864369,-0.07204022834749624,-0.07416985366517331,-0.021436864266019238
163,-0.06004560476662823,-0.0914194823561941,-0.09395289813294162,-0.02796159446603248
164,-0.07646646665306431,-0.11488311042371037,-0.11785223600926087,-0.03605431397296532
165,-0.09639904368346619,-0.14303122952004368,-0.1464594642506,-0.045986037332290064
166,-0.12036202841268831,-0.17650267422940136,-0.1804013403042331,-0.0580528585632241
167,-0.14890588866539228,-0.21596952013098292,-0.22033358534912229,-0.07257475315038583
168,-0.1826077726265198,-0.2621303896887806,-0.26693328598256993,-0.0898939210866154
169,-0.2220656010315493,-0.31570263435737267,-0.3208899269536511,-0.11037275621521589
170,-0.2678915503574099,-0.37741353186401105,-0.3828951222044326,-0.13439156030534963
171,-0.32070517702922685,-0.4479906806546061,-0.45363114522747355,-0.1623461493030702
172,-0.3811264687269402,-0.52815181220957,-0.5337583919060241,-0.19464552133160787
173,-0.44976913180822853,-0.6185942742837731,-0.6239019391859105,-0.23170976878890986
174,-0.5272344311337168,-0.719984462184429,-0.724637390986058,-0.2739684182788119
175,-0.6141058884479919,-0.8329474893236262,-0.836476228684418,-0.32185937071790494
176,-0.7109451171444777,-0.9580573912144327,-0.9598509073311058,-0.37582858914723255
177,-0.8182890249965856,-1.095828148071317,-1.0950999603356653,-0.43633064376790753
178,-0.9366485536551832,-1.246705790063788,-1.242453394400822,-0.5038301736394952
179,-1.0665090468528708,-1.411061816525739,-1.4020186722804595,-0.5788042643464298
180,-1.2083322517155926,-1.5891881171413327,-1.5737675926039567,-0.6617456735544789
181,-1.3625598634896023,-1.7812935309938398,-1.757524382469082,-0.753166765171607
182,-1.5296184279651768,-1.9875021205486874,-1.952955318724384,-0.8536039416363277
183,-1.7099253227828826,-2.207853174681737,-2.1595601869949896,-0.9636222967141976
184,-1.9038954535053523,-2.442302890507102,-2.376665873001028,-1.0838201520745794
185,-2.1119482274227,-2.690727620812265,-2.6034223583427702,-1.214833093537661
186,-2.334514311617803,-2.9529285150905786,-2.8388013627245408,-1.3573370904130204
187,-2.5720416452206982,-3.2286373299763085,-3.0815978368219725,-1.5120502663200805
188,-2.825000161552928,-3.5175231415192654,-3.330434465098254,-1.679732894057969
189,-3.093884685579125,-3.8191996589611317,-3.5837692864459814,-1.8611852114302434
190,-3.379215506302165,-4.133232818790873,-3.8399064833543766,-2.0572426995132784
191,-3.68153618194895,-4.459148329628377,-4.097010328369481,-2.268768528862343
192,-4.00140821642455,-4.796438843125091,-4.353122211141962,-2.4966429608560494
193,-4.339402346002049,-5.144570443244028,-4.606180601780797,-2.7417495882361913
194,-4.696086292144529,-5.502988175149974,-4.854043738183581,-3.004958407642467
195,-5.072008965600425,-5.8711203742200295,-5.094514758271248,-3.287105833736145
196,-5.467681243817112,-6.248381603722389,-5.325368934463211,-3.5889718851159604
197,-5.883553583268949,-6.63417406456709,-5.544382609109659,-3.911254892200599
198,-6.319990865324272,-7.027887400072437,-5.749363377660894,-4.2545441921197495
199,-6.777245003648058,-7.428896880678797,-5.93818102261488,-4.619291381127496
200,-7.255425957938567,-7.836560015739792,-6.108798667018624,-5.00578078715168
201,-7.754471898503105,-8.250211699777733,-6.259303592506842,-5.414099900269226
202,-8.274119344819479,-8.669158056915776,-6.3879371542619685,-5.844110554117266
203,-8.813874155553991,-9.092669197823819,-6.493123224306201,-6.295421684101623
204,-9.372984275124988,-9.519971146933168,-6.5734946053467285,-6.767364497044375
205,-9.95041514138344,-9.95023723267771,-6.6279168798827905,-7.258970870684969
206,-10.544828629894527,-10.382579259219959,-6.655509193109494,-7.768955760067136
207,-11.154566353206812,-10.816038793960413,-6.655661512789541,-8.295704321959349
208,-11.777638049909129,-11.249578910863907,-6.628047964030715,-8.837264379524854
209,-12.41171569061853,-11.682076725310859,-6.5726359009771995,-9.391344739716942
210,-13.054133799509962,-12.112317042091863,-6.48969044979173,-9.955319748275748
211,-13.701896344397417,-12.53898741483448,-6.37977433673593,-10.526240325286997
212,-14.35169038994784,-12.960674883301532,-6.243742900154986,-11.100851572017003
213,-14.999906541877653,-13.375864615524584,-6.082734274022465,-11.675616881455245
214,-15.642666039629075,-13.782940635683522,-5.898154821551215,-12.246748325130945
215,-16.275854185771475,-14.180188767200937,-5.6916599883432015,-12.81024293180037
216,-16.89515963685671,-14.565801865008504,-5.465130833799736,-13.361924323876488
217,-17.49611892711416,-14.937887352800619,-5.220646585289557,-13.897489039092688
218,-18.07416545735387,-15.294477021862065,-4.960453640213713,-14.412556741619774
219,-18.624682060550164,-15.63353898935388,-4.6869315150572435,-14.902723422046027
220,-19.143056156159208,-15.952991657408289,-4.402556306349029,-15.363616602147607
221,-19.624736430076908,-16.250719461628847,-4.109862284882596,-15.790951500485837
222,-20.065289928381763,-16.52459015013917,-3.8114022904482585,-16.18058708013111
223,-20.460458431967517,-16.77247329355298,-3.5097076286995468,-16.528580891038434
224,-20.80621298636886,-16.992259693340127,-3.2072481937761954,-16.8312416368402
225,-21.098805496208,-17.181881331989235,-2.906393549245205,-17.085178438407073
226,-21.33481635560767,-17.339331493788194,-2.609375695284026,-17.28734583309911
227,-21.51119717270987,-17.462684680301443,-2.318254231477412,-17.435083637183144
228,-21.625307755492393,-17.550115949709653,-2.0348845919861285,-17.52615090687375
229,-21.674946654194702,-17.59991932373137,-1.7608899832693716,-17.55875335787383
230,-21.658374699233434,-17.610524929181988,-1.4976375944024265,-17.531563740852338
231,-21.574331128580084,-17.580514572392836,-1.2462195770726512,-17.44373481750777
232,-21.422042061066023,-17.50863548256699,-1.0074392076635574,-17.294904735121865
233,-21.20122123774321,-17.39381200342046,-0.781802548909926,-17.085194753169894
234,-20.912063118054505,-17.23515505982016,-0.5695158252372499,-16.815199430040444
235,-20.5552285771034,-17.031969276242613,-0.37048861623554635,-16.48596952778868
236,-20.131823600976144,-16.78375767541958,-0.1843428591993642,-16.098988034871553
237,-19.643371515450806,-16.490223937226993,-0.010427536934646332,-15.656139838013626
238,-19.09177940655405,-16.151272248483373,0.15216118619641136,-15.159675692060594
239,-18.47929949684498,-15.767004822690332,0.3045547261018444,-14.612171238591237
240,-17.808486327133604,-15.33771721378766,0.44808218723884763,-14.016481908302644
241,-17.08215065830708,-14.863891588731386,0.5842363595997347,-13.375694607344887
242,-16.30331105135828,-14.34618815929483,0.7146362296573077,-12.6930771329371
243,-15.47514410549171,-13.785435003270916,0.8409867013072252,-11.972026288342322
244,-14.60093433476644,-13.182616528752776,0.9650362802315146,-11.216015671757354
245,-13.68402464408826,-12.53886085213465,1.088533518265307,-10.428544098582348
246,-12.72776832688252,-11.855426370858035,1.2131830427862331,-9.613085583062102
247,-11.735483451214439,-11.13368781586915,1.3406020096803726,-8.773041755023012
248,-10.710410430470542,-10.375122066552416,1.4722778171415276,-7.911697522224936
249,-9.655673491147562,-9.581294002985226,1.6095279016948754,-7.032180710742993
250,-8.574246656105233,-8.753842657235607,1.7534624077884744,-6.13742632691281
251,-7.46892475917891,-7.894467907665427,1.9049504785403666,-5.230145986853289
252,-6.342299898665877,-7.0049179384030245,2.0645908583171773,-4.312802955512219
253,-5.196743625188855,-6.0869776609114385,2.2326874284201854,-3.3875931285908845
254,-4.034395046029421,-5.142458266505221,2.4092302161033246,-2.456432179590781
255,-2.8571549153724516,-4.173188048365212,2.593882325500099,-1.5209489825986677
256,-4.2057074732549094e-14,-4.461980429591581e-14,-3.8650115990992694e-14,-2.7051477137884254e-14
257,-8.737618812397598e-13,-1.0324955927268866e-12,-8.87420300071102e-13,-5.269585154655786e-13
258,-1.009749114398494e-11,-1.2267460027119615e-11,-9.814612458418012e-12,-6.136502528012689e-12
259,-7.817371721968659e-11,-9.740168700975524e-11,-7.199712074897966e-11,-4.804570796969166e-11
260,-4.56268997114755e-10,-5.826021306353808e-10,-3.9616560799343905e-10,-2.841638603347411e-10
261,-2.1488138373585074e-09,-2.80846613876436e-09,-1.7510607618434121e-09,-1.3584701941044512e-09
262,-8.53589308754838e-09,-1.1397447292495045e-08,-6.501314496346265e-09,-5.4865099444253154e-09
263,-2.95106380823986e-08,-4.015452631888568e-08,-2.09332737469347e-08,-1.9311220407338793e-08
264,-9.088805912671277e-08,-1.2565795014338788e-07,-5.988203878717511e-08,-6.061263206712944e-08
265,-2.538652256222907e-07,-3.555190367388848e-07,-1.5510432871231385e-07,-1.726434259778953e-07
266,-6.521703385685277e-07,-9.222780160959181e-07,-3.693733766600915e-07,-4.5235492739962287e-07
267,-1.5582418396550949e-06,-2.218888430056333e-06,-8.189654671228861e-07,-1.1021303620134456e-06
268,-3.494189097723157e-06,-4.997485081265748e-06,-1.708142395137504e-06,-2.5187628359060634e-06
269,-7.408117293182241e-06,-1.0619216477396274e-05,-3.3804667894319175e-06,-5.438061482270335e-06
270,-1.4941268921656275e-05,-2.1428787382371165e-05,-6.393323579958961e-06,-1.115828704991983e-05
271,-2.881592618893656e-05,-4.129232826240454e-05,-1.1623812362525227e-05,-2.187019710771951e-05
272,-5.337771864580719e-05,-7.634057090791227e-05,-2.0416145331189007e-05,-4.112539050561026e-05
273,-9.532849055475557e-05,-0.00013596038133033023,-3.478276965179758e-05,-7.447745489378463e-05
274,-0.00016468682649281265,-0.0002340759070058747,-5.767361571641273e-05,-0.00013033174071948737
275,-0.00027601237757073126,-0.0003907555264184231,-9.333018959894882e-05,-0.00022103906886446897
276,-0.00044992700118165105,-0.0006341722384220196,-0.00014774372901945248,-0.0003642660576798245
277,-0.0007149602143648366,-0.001002933109864146,-0.0002292393237648927,-0.0005846698193865087
278,-0.001109738400624539,-0.001548778143927763,-0.00034921064323736954,-0.0009158973443961588
279,-0.0016855264840552092,-0.002339630884158694,-0.0005230324345763811,-0.001402919809631845
280,-0.0025091173600110066,-0.003462962882662124,-0.0007711797904516529,-0.0021046992324274044
281,-0.0036660483764661476,-0.005029412683821988,-0.0011205836917015663,-0.0030971694294249764
282,-0.0052641059481847935,-0.007176578225067981,-0.0016062507290972026,-0.004476495455237899
283,-0.007437059561317058,-0.010072880675694049,-0.0022731704008786793,-0.006362556185163447
284,-0.01034854582774337,-0.013921378928776536,-0.003178525304910502,-0.00890257431752716
285,-0.014196002909070362,-0.01896339842880573,-0.004394207534809462,-0.012274797851003837
286,-0.019214536716383606,-0.02548182687690575,-0.006009628704143907,-0.01669211820765438
287,-0.02568058401772732,-0.0338039235656142,-0.00813479176122007,-0.022405493801959
288,-0.033915225109432325,-0.04430348938062825,-0.010903570987652164,-0.029707035072953813
289,-0.044286991031988465,-0.05740225129373775,-0.014477123396372157,-0.038932598671770874
290,-0.05721400820417241,-0.07357032854360974,-0.01904733134790912,-0.05046373525305634
291,-0.07316532728140356,-0.09332566737971854,-0.024840153776812993,-0.06472883751509526
292,-0.09266129313841809,-0.1172323565842715,-0.03211874313054872,-0.08220334286567525
293,-0.11627282887461948,-0.14589776599385787,-0.04118616813492481,-0.10340885819305688
294,-0.14461952802756847,-0.17996848361843312,-0.05238756998902162,-0.12891109229959857
295,-0.17836647487100574,-0.22012506217242173,-0.06611157272493223,-0.15931650405483294
296,-0.21821974174637443,-0.267075621240565,-0.0827907683311771,-0.1952676006204128
297,-0.2649205437888124,-0.32154838525357826,-0.10290110472695603,-0.237436849561512
298,-0.3192380641670528,-0.384283268436373,-0.1269600203453484,-0.28651920068114467
299,-0.38196099614074597,-0.4560226446600762,-0.15552319303015283,-0.3432232474105866
300,-0.4538878810111823,-0.5375014617650077,-0.18917980274035556,-0.4082610929986826
301,-0.5358163526602377,-0.6294368758982055,-0.22854624627201556,-0.48233702301784614
302,-0.6285314291875784,-0.732517591589204,-0.27425828659029833,-0.5661351222771005
303,-0.7327930195791069,-0.8473930978921872,-0.32696166798854304,-0.6603060104433662
304,-0.8493228377971711,-0.9746629904645543,-0.3873012797008624,-0.7654529056979636
305,-0.9787909375962194,-1.114866564648441,-0.4559090033498742,-0.8821172585813744
306,-1.1218020981609875,-1.268472856301546,-0.5333904322516599,-1.0107642276267046
307,-1.2788823027809106,-1.4358712961557647,-0.6203107015852574,-1.1517682931637006
308,-1.4504655596502092,-1.6173631307285463,-0.7171797161361263,-1.3053993244290292
309,-1.63688131488603,-1.8131537490767669,-0.8244371051285022,-1.4718094264186945
310,-1.838342702238441,-2.0233460406329997,-0.9424372701449435,-1.6510208952862675
311,-2.0549358608874395,-2.2479348954411367,-1.0714349211712284,-1.8429156030628169
312,-2.286610531368326,-2.486802944486366,-1.21157151651706,-2.0472261127329285
313,-2.5331721094110438,-2.7397176244166714,-1.3628630338837036,-2.2635287922441227
314,-2.7942752980431154,-3.0063296374895456,-1.5251895011252015,-2.491239150339722
315,-3.0694194499199154,-3.286172863559386,-1.698286704948092,-2.7296095583430335
316,-3.357945635457152,-3.578665765645889,-1.8817404722959372,-2.9777294512347257
317,-3.6590354098917235,-3.88311431315633,-2.0749838805659846,-3.2345280207821396
318,-3.971711187084326,-4.198716426005874,-2.2772976969868766,-3.4987793267256877
319,-4.294838064226076,-4.524567917345023,-2.4878142723828147,-3.769109664163749
320,-4.6271268852675185,-4.85966988100331,-2.7055250187013944,-4.044006942545045
321,-4.967138288083702,-5.202937430969586,-2.929291482989502,-4.3218317609510555
322,-5.3132874571040025,-5.553209653596801,-3.157859894925845,-4.600829812314871
323,-5.663849304072513,-5.909260578685128,-3.3898789148908515,-4.879145221379352
324,-6.016963827275585,-6.269810913739343,-3.6239201512507146,-5.154834420982768
325,-6.370641453831861,-6.633540217773554,-3.8585008565939276,-5.425880199581564
326,-6.72276824780943,-6.9990991190810465,-4.092108060735395,-5.690205608249579
327,-7.0711109643403,-7.365121108298576,-4.323223260371763,-5.945687494246184
328,-7.413322040503924,-7.730233367688187,-4.550346667367035,-6.19016952572674
329,-7.746944730629977,-8.093066034523957,-4.772019925050335,-6.421474682363887
330,-8.069418709346305,-8.452259246164875,-4.9868461395201695,-6.637417302828481
331,-8.378086572394325,-8.80646728241749,-5.193506045575545,-6.83581489485263
332,-8.670201755229268,-9.15435911240522,-5.3907691392104615,-7.014500019173338
333,-8.942938455549198,-9.494614672775276,-5.577498664757882,-7.171332647310434
334,-9.193404182110413,-9.825916254972201,-5.752649447661864,-7.304213457820298
335,-9.418655554055793,-10.146934463590783,-5.915257714391874,-7.411098570620889
336,-9.615717939989402,-10.456308326400702,-6.064422237514577,-7.490016220173954
337,-9.781609453652043,-10.752619289103732,-6.199276382001199,-7.539085833686034
338,-9.913369714626366,-11.034359012276017,-6.318950901633061,-7.556539909989108
339,-10.008093640963008,-11.299891100498652,-6.422527633185031,-7.540748990157683
340,-10.06297037022996,-11.54740712874831,-6.50898455105393,-7.4902498756138245
341,-10.075327211672583,-11.774877581327466,-6.577132965757727,-7.403777088365031
342,-10.042678321491877,-11.979998575185746,-6.625547965863917,-7.280297387445481
343,-9.962777573353629,-12.160135492710904,-6.6524935044127815,-7.119046963253552
344,-9.833674875654232,-12.3122648888472,-6.655843808405652,-6.919570736009078
345,-9.653774974758038,-12.432916253775176,-6.633003034721488,-6.681762995254553
346,-9.421897588254886,-12.51811539602549,-6.580825299798916,-6.405908443396985
347,-9.13733754253394,-12.5633313534285,-6.495537366023952,-6.092722556290922
348,-8.79992345191541,-12.563428833556168,-6.372666368119054,-5.743390055247347
349,-8.410073378231985,-12.512628225536872,-6.206975002076691,-5.3596002036226995
350,-7.96884585460823,-12.404475207166968,-5.992406572960458,-4.943577601628486
351,-7.4779846480941625,-12.231821892738354,-5.722042203810344,-4.498107157750075
352,-6.939955673946889,-11.986821327487139,-5.388072345819549,-4.026551964942544
353,-6.357974559345502,-11.660936935521308,-4.981784502221968,-3.532862903688081
354,-5.736023484419142,-11.244968272906647,-4.493568789735015,-3.0215789296630735
355,-5.078856100720183,-10.72909413152777,-3.9129426191080614,-2.4978171774643143
356,-4.391989537712622,-10.102933689358888,-3.2285953896155495,-1.9672522187503172
357,-3.6816827516403645,-9.3556260173237,-2.4284536721686005,-1.4360840475262053
358,-2.954900742766501,-8.475927841608515,-1.4997669141737007,-0.9109946207131309
359,-2.2192644603218517,-7.452329033549909,-0.4292132489393699,-0.39909305167118675
360,-1.482986522943443,-6.273184867971893,0.7969754540707532,0.09215016928672523
361,-0.7547931988332284,-4.9268636662223635,2.192870592320573,0.5549792776247021
362,-0.04383340686788071,-3.4019080332031644,3.772687583835721,0.9814387432263466
363,0.640424190237688,-1.6872075190967204,5.5506124338801355,1.3634670155822848
364,1.2883046345782558,0.22781980369386365,7.540616495801579,1.6929971066542866
365,1.8900490247147563,2.353039650571464,9.7562620719746,1.9620624120161834
366,2.4359438883376257,4.69741076129597,12.210501706387562,2.1629060049547144
367,2.916455486653784,7.268794278354132,14.915474163405804,2.2880915115557956
368,3.3223667954242946,10.073766591930209,17.882300166034995,2.3306135908860885
369,3.6449147878151837,13.117439016730206,21.120880981879715,2.2840060054310594
370,3.8759255738694094,16.40328763649343,24.639702897961612,2.142445273918277
371,4.0079449326387095,19.932996553708545,28.445650520259,1.9008479512290453
372,4.0343618067578815,23.706317617585057,32.54383167529251,1.5549596767548075
373,3.9495224151656148,27.72094947704128,36.93741648548708,1.1014342706083442
374,3.74883277620081,31.97243852301345,41.62749294438676,0.5379013328488371
375,3.428847617684815,36.45410395246947,46.612941039565214,-0.1369789902311097
376,2.987343879018605,41.15698881255323,51.890327167894824,-0.9234751718861738
377,2.4233772779898577,46.06983847513669,57.45382026720145,-1.820758242815946
378,1.7373207162438535,51.1791075577121,63.2951307573556,-2.826891065856489
379,0.9308836258309169,56.46899585395906,69.40347304910492,-3.938833226566978
380,0.007111707930439748,61.921513374226656,75.76555204636448,-5.152461529070365
381,-1.0296331236082934,67.51657413007368,82.36557374252841,-6.462605798451863
382,-2.1737124144826288,73.23211783509151,89.18527969832995,-7.863099410236453
383,-3.4182699141310957,79.04425824334405,96.20400489200745,-9.346843699230769
384,2.2427321252510136e-15,5.0501043489499735e-14,-2.0178417837219883e-13,3.8373189538037915e-14
385,2.5296481957362994e-15,1.422530176893356e-12,-4.107318104026145e-12,8.082478853669503e-13
386,2.8977117079849976e-15,1.7020660874804014e-11,-4.8370681981553694e-11,9.994747664611695e-12
387,3.207706292338109e-15,1.3480499232093776e-10,-3.8279744079184773e-10,8.283466449263712e-11
388,4.1167173005558946e-15,8.029597988409737e-10,-2.284847877772941e-09,5.161159759945139e-10
389,3.646974417045433e-15,3.849654492986479e-09,-1.1000931156726096e-08,2.584266736357502e-09
390,4.798683663341125e-15,1.5517602848858438e-08,-4.4633121262258535e-08,1.0859203817288585e-08
391,4.477815912615251e-15,5.4225984027823365e-08,-1.573659674083401e-07,3.9483244558422255e-08
392,5.761998508980805e-15,1.6806050453038205e-07,-4.93333816779198e-07,1.2709286969675743e-07
393,5.4498634385010924e-15,4.701583088724874e-07,-1.3996944258465733e-06,3.6869450360564e-07
394,6.545996659422938e-15,1.203949562120116e-06,-3.6448618828107817e-06,9.778158147335358e-07
395,6.1829874073856475e-15,2.8540699395927632e-06,-8.81064460422349e-06,2.3986686823088656e-06
396,9.65410898863746e-14,6.3217855564506544e-06,-1.995486805187597e-05,5.495653981414474e-06
397,2.1356126916338912e-12,1.3184861181628587e-05,-4.267280452359496e-05,1.1855921971280672e-05
398,2.5358705347850204e-11,2.6059734757547267e-05,-8.671943981494349e-05,2.4249293360515063e-05
399,2.0134871371988392e-10,4.907746864467478e-05,-0.0001683875668583911,4.729787327249844e-05
400,1.2036269628369355e-09,8.847327777263574e-05,-0.00031386557651128004,8.841422480527684e-05
401,5.795250863768578e-09,0.00015327191250825027,-0.0005638199195299869,0.00015907099923372932
402,2.3481126009480536e-08,0.0002560277395093804,-0.000979456829123011,0.00027646544802657525
403,8.257742894420245e-08,0.0004135495723750391,-0.001650312692419154,0.00046563838854901755
404,2.5793597806322785e-07,0.0006475073670187424,-0.002703999873875415,0.0007620983036122174
405,7.284728636415778e-07,0.0009847826658956102,-0.004318093304895442,0.001214986986237125
406,1.8867140683904357e-06,0.0014573895589883388,-0.006734282430078137,0.0018908035364579876
407,4.53261184240114e-06,0.0021017607504638445,-0.010274833995260892,0.0028776790084623733
408,1.019531497467718e-05,0.0029571671204612644,-0.015361315607757553,0.004290165376276842
409,2.1638390833988445e-05,0.0040630219810715565,-0.022535420872147063,0.006274470814927207
410,4.361487970362749e-05,0.00545481582188876,-0.0324816179034813,0.00901403991712313
411,8.394704776546342e-05,0.007158436018375633,-0.04605121856230982,0.01273534393803396
412,0.00015501035724196802,0.00918265035516017,-0.06428734087717657,0.0177137141921843
413,0.00027570071967967857,0.011509574091250935,-0.08845011733998069,0.024279023070822976
414,0.0004739575289064096,0.014082997549361294,-0.12004139289599663,0.032820993468173555
415,0.0007899016086150486,0.016794523788105854,-0.16082806435439648,0.04379390015119506
416,0.0012796267882237318,0.019467551838381364,-0.21286314317284855,0.05772041693753043
417,0.0020196565352350194,0.0218392374335059,-0.2785035810307865,0.07519436227682225
418,0.003112043597976168,0.023540666596710454,-0.3604238862630577,0.09688210341432427
419,0.004690052088097515,0.024075583774917957,-0.46162458186609856,0.12352239584251777
420,0.006924319417887664,0.02279812097813061,-0.5854346138639697,0.15592445997554735
421,0.010029351926669143,0.018890073022007597,-0.7355069123204047,0.19496413038462068
422,0.014270165077989535,0.011338351996045137,-0.9158064346629536,0.24157795372392377
423,0.019968839122024726,-0.0010866726699706572,-1.1305901791927007,0.2967551586159227
424,0.02751072642380552,-0.019851187333308547,-1.3843788412747715,0.36152747297001325
425,0.03735001943465522,-0.04667550578017756,-1.681919990224099,0.4369568200062087
426,0.05001437045044021,-0.08354839473639976,-2.0281428650211275,0.5241209820766577
427,0.06610824743322632,-0.13273736340941863,-2.4281051149653137,0.6240973796517789
428,0.08631471543486485,-0.19679416720922407,-2.8869320403026837,0.7379451700491505
429,0.11139535122295877,-0.27855484053962026,-3.4097491109410494,0.866685925181278
430,0.14218802969767003,-0.38113366189985703,-4.001608752046559,1.0112831983907535
431,0.1796023641643981,-0.5079105646868912,-4.667412577423301,1.1726213360001725
432,0.22461263751099916,-0.6625116366765821,-5.4118304193923485,1.3514839282784843
433,0.2782481263361413,-0.8487824973402697,-6.239217642248032,1.5485323259468111
434,0.34158079312924383,-1.0707545016677709,-7.153532330818662,1.7642846710277265
435,0.4157104003566201,-1.3326038884260187,-8.15825401261673,1.9990959037964737
436,0.5017471821214514,-1.6386041659165942,-9.256305598992613,2.2531392099923853
437,0.6007922911460802,-1.993072205216405,-10.44998021624417,2.526389363702208
438,0.7139163183670155,-2.400308685344667,-11.740874541640604,2.8186084011392643
439,0.8421362567190329,-2.8645337024558466,-13.12983016283414,3.1293340289415412
440,0.986391347169803,-3.3898185116625976,-14.616884344257164,3.4578711279495393
441,1.1475183014530723,-3.9800145111793386,-16.201231413834826,3.8032866603768962
442,1.3262264402518085,-4.638680700060524,-17.881195781434638,4.164408225848954
443,1.523073316178008,-5.369010939089554,-19.65421737133695,4.539826441253203
444,1.7384414065386482,-6.173762415948885,-21.516849999669866,4.927901242268225
445,1.9725164607276793,-7.055186757769825,-23.464772959838914,5.326772122561762
446,2.225268070752709,-8.014965244233865,-25.4928158006931,5.734372241882774
447,2.496433001022591,-9.054149551004796,-27.594996000188242,6.148446248672341
448,2.785501765781615,-10.173109395647192,-29.764568958650095,6.566571578556433
449,3.0917088807240476,-11.371488366451592,-31.99408946753803,6.9861829093950165
450,3.4140271410963203,-12.648169089789183,-34.27548355888907,7.4045993786728035
451,3.751166194141347,-14.001248735754537,-36.60012941405258,7.819054102078905
452,4.101575581536343,-15.428025677834178,-38.95894581398327,8.226725475148797
453,4.463452330228858,-16.92499791392507,-41.34248645247655,8.62476969461978
454,4.834753070590291,-18.48787362774582,-43.74103831244904,9.01035390412245
455,5.213210561838566,-20.111594026699343,-46.144722226545966,9.38068935097195
456,5.59635440881901,-21.790368340221672,-48.54359370848747,9.733063937581466
457,5.981535663819838,-23.517720607577758,-50.927742150800704,10.064873562316698
458,6.3659549242081725,-25.286547632078022,-53.28738653686422,10.373651669898257
459,6.746693463076109,-27.089187235898756,-55.612965908384304,10.657096469798958
460,7.120746867226063,-28.917495722024597,-57.89522296046276,10.913095331214956
461,7.485060605786042,-30.762933242899212,-60.12527930139772,11.1397459236104
462,7.836566914255104,-32.61665559436149,-62.29470110866484,11.335373740876896
463,8.17222235322205,-34.46961080300391,-64.39555413094438,11.498545723044924
464,8.489045388453315,-36.312638759216206,-66.42044722296808,11.628079770409975
465,8.784153339316523,-38.13657207007744,-68.36256384952166,11.723050029035889
466,9.05479805518983,-39.932336268231516,-70.21568125133099,11.7827879120155
467,9.298399704049782,-41.69104751620482,-71.97417722319285,11.806878905793697
468,9.512578093182173,-43.404105990507176,-73.63302470837432,11.79515529356756
469,9.69518098818146,-45.063283215419865,-75.18777465829776,11.747685006653874
470,9.844308952236302,-46.66080174067424,-76.63452783868956,11.66475688825071
471,9.958336292108237,-48.189405717329514,-77.9698964790654,11.5468627208356
472,10.035927768978352,-49.642421118231,-79.19095685849521,11.394676427312111
473,10.076050810057454,-51.013804568826615,-80.29519409425787,11.209030905896926
474,10.07798303898588,-52.29817999553605,-81.28044054880056,10.990892998781977
475,10.0413150279399,-53.49086255646607,-82.14480939212432,10.741337124145188
476,9.96594826031815,-54.587869586866084,-82.88662494926814,10.461518119644518
477,9.852088378229382,-55.58591856298246,-83.5043515241176,10.152643852865568
478,9.700233872159323,-56.48241235659141,-83.99652241976302,9.8159481503283
479,9.511160449703947,-57.275412312400576,-84.36167087097468,9.452664581913675
480,9.285901394784531,-57.96359992604446,-84.59826456556752,9.064001612533582
481,9.025724297077264,-58.54622812644712,-84.70464535877393,8.651119598350293
482,8.732104592372139,-59.023063368435515,-84.67897567936178,8.215110061848435
483,8.406696407235499,-59.39431991592904,-84.51919299012252,7.756977629720679
484,8.051301244865284,-59.66058783981957,-84.22297350130742,7.277624961096259
485,7.6678350827444755,-59.82275636558633,-83.78770614713382,6.77784093241846
486,7.258294476122277,-59.881934282289635,-83.21047762670915,6.258292280549886
487,6.824722274150454,-59.83936916613616,-82.48806908617594,5.719518838710795
488,6.369173557527697,-59.696367178285286,-81.61696478335512,5.161932431860509
489,5.893682397821605,-59.454215168616734,-80.59337283459783,4.5858194303094395
490,5.400230019513725,-59.114106756075884,-79.41325790082787,3.991346893836602
491,4.890714916695743,-58.67707396380298,-78.07238543061666,3.3785721744361155
492,4.366925437839085,-58.143925865929816,-76.56637684705359,2.7474557849787824
493,3.8305153049307927,-57.5151955555504,-74.89077484629543,2.0978772844163065
494,3.2829824784519017,-56.79109657320118,-73.04111777277943,1.429653878468064
495,2.7256517182768456,-55.97148974579575,-71.01302185262081,0.7425613887225154
496,2.159661123845412,-55.05586118113306,-68.80226990584406,0.03635720336865757
497,1.5859528662675224,-54.04331194675689,-66.40490502270525,-0.6891952101482423
498,1.0052682518027776,-52.93255973805135,-63.81732758198908,-1.4343006759748227
499,0.41814718186790645,-51.721952612981326,-61.03639391189423,-2.199106027856155
500,-0.17506799923850636,-50.409494643734504,-58.05951484838079,-2.9836736485143986
501,-0.7742243500911523,-48.99288311250626,-54.88475243236285,-3.787955307491007
502,-1.3793460223155214,-47.46955666346464,-51.51091300580002,-4.6117667698851434
503,-1.9906180123526809,-45.836753619043456,-47.9376350167943,-5.454763636508541
504,-2.608366253935586,-44.09157947941472,-44.16546992386991,-6.316418857196203
505,-3.2330343874720464,-42.231082452311476,-40.19595469790658,-7.19600233383228
506,-3.865157594197345,-40.252335709043855,-36.03167455457236,-8.092562998614753
507,-4.505333928820938,-38.152524933990314,-31.676314708113672,-9.004913716797292
508,-5.154193624128481,-35.92903963111377,-27.13470011625947,-9.931619322247192
509,-5.8123668743346935,-33.57956657381277,-22.41282238265103,-10.870988049272343
510,-6.480450630638047,-31.102183734909836,-17.51785319410565,-11.821066575901684
511,-7.158974962120874,-28.49545301256866,-12.45814389124593,-12.779638842734567
512,-4.870751544782359e-14,-1.2946951643607672e-13,-1.4058598775759892e-13,-3.338936907572737e-14
513,-1.0482751230744116e-12,-2.8080947566665797e-12,-3.0116747123658704e-12,-6.758134914014136e-13
514,-1.2073748305024953e-11,-3.329523785222013e-11,-3.58525371690769e-11,-7.690500909595518e-12
515,-9.278975267597516e-11,-2.643857634709208e-10,-2.860377929198176e-10,-5.837544970989518e-11
516,-5.367925803126085e-10,-1.582018200597883e-09,-1.7200184257407526e-09,-3.3379281130575066e-10
517,-2.50163295812721e-09,-7.630079881069393e-09,-8.337597562568487e-09,-1.5393672764552018e-09
518,-9.816666014195317e-09,-3.098416059469864e-08,-3.403138175381653e-08,-5.988864311474029e-09
519,-3.3468696762777405e-08,-1.0924196577230728e-07,-1.2060874658925623e-07,-2.029449857109827e-08
520,-1.014923213985861e-07,-3.421471334548576e-07,-3.7971420238668166e-07,-6.135705433642289e-08
521,-2.787642717315759e-07,-9.689209876776763e-07,-1.0808779998382785e-06,-1.6859606854200235e-07
522,-7.035592673652158e-07,-2.5160000861881957e-06,-2.8211055106623495e-06,-4.272038131206354e-07
523,-1.6506250974174117e-06,-6.059165137446528e-06,-6.82820133644064e-06,-1.0097481034704408e-06
524,-3.6338186208724812e-06,-1.3659897565343999e-05,-1.546967984369221e-05,-2.2466876119529392e-06
525,-7.5647304996708556e-06,-2.9052522266715022e-05,-3.3060321369406325e-05,-4.740150384157883e-06
526,-1.4986848672547235e-05,-5.8674692842009304e-05,-6.708232602749942e-05,-9.539361171016793e-06
527,-2.8407282044543947e-05,-0.00011314718904782189,-0.00012995034475881697,-1.839996197864985e-05
528,-5.174953607960093e-05,-0.00020931787898135942,-0.00024146699056171818,-3.4152650910901175e-05
529,-9.095102401236344e-05,-0.0003729872105696582,-0.00043212033890458086,-6.120855498130409e-05
530,-0.0001547277208405948,-0.0006424271838166688,-0.000747371229443052,-0.00010622910837494701
531,-0.0002555255267745202,-0.0010727913043110287,-0.0012530631118110361,-0.00017898663723647437
532,-0.00041067348774641787,-0.0017414889690929676,-0.0020420595476999064,-0.0002934382521323467
533,-0.0006437480588953392,-0.002754564146339252,-0.0032421738349687978,-0.0004690300815705961
534,-0.000986150133176237,-0.004254075768210714,-0.005025401949649927,-0.0007322414883677001
535,-0.0014788876193034667,-0.006426427249193716,-0.007618405415700559,-0.0011183698541084917
536,-0.0021745459755611535,-0.009511536787282294,-0.011314117021574545,-0.0016735459399721076
537,-0.003139417387878731,-0.01381268085874169,-0.01648426253974161,-0.002456957894167964
538,-0.004455746437266938,-0.019706783165681706,-0.02359250946367046,-0.003543248885695117
539,-0.006224036498653758,-0.02765486303729693,-0.03320787340054101,-0.0050250393910157495
540,-0.008565347274292612,-0.03821230380162439,-0.046017938508168814,-0.007015510729829684
541,-0.0116235004678278,-0.05203855576037674,-0.0628413845798038,-0.009650972031997508
542,-0.015567098451656191,-0.06990585274706418,-0.08463926415064034,-0.013093319024384046
543,-0.02059125072434764,-0.09270649813169479,-0.11252444194319186,-0.017532280541136893
544,-0.026918895811365053,-0.12145826741812316,-0.14776859902817197,-0.02318733821345156
545,-0.034801602725926375,-0.1573074816043633,-0.19180621732954561,-0.030309197112427636
546,-0.04451973672662844,-0.2015293290204849,-0.2462349976003267,-0.03918068090997234
547,-0.05638187929459701,-0.25552505362432876,-0.3128122256498381,-0.05011692505663476
548,-0.07072340229316684,-0.3208156843575805,-0.3934466861405853,-0.06346474614963302
549,-0.08790411131978194,-0.399032052227863,-0.4901858282917068,-0.07960107554411994
550,-0.10830489330726732,-0.49190092784092476,-0.6051980099633075,-0.09893036062994993
551,-0.1323233282891254,-0.6012272102012923,-0.7407497817591112,-0.12188085812456545
552,-0.16036825452160344,-0.7288722052829291,-0.8991783164027488,-0.14889977007114508
553,-0.19285330923836463,-0.876728147245466,-1.0828592358858438,-0.18044720459334673
554,-0.23018950332811586,-1.046689232951949,-1.2941702348619932,-0.21698897919784396
555,-0.2727769260165726,-1.2406195580517732,-1.5354510387000029,-0.25898832359973684
556,-0.3209957137980761,-1.460318456570355,-1.8089603640458276,-0.3068965804638558
557,-0.3751964548386234,-1.7074838518963866,-2.116830664681815,-0.3611430446580954
558,-0.435690234261497,-1.9836743215754797,-2.4610215425125785,-0.4221241229781182
559,-0.5027385555925398,-2.2902706579369903,-2.8432727799085193,-0.4901920350884828
560,-0.5765433977710452,-2.6284377681879643,-3.2650580033296523,-0.5656433108567687
561,-0.6572376842823939,-2.999087798569328,-3.727540017718711,-0.6487073676239465
562,-0.7448764501148435,-3.402845385427779,-4.231528855794923,-0.7395354717299782
563,-0.8394289926299524,-3.8400159302245642,-4.777443565865983,-0.838190400575125
564,-0.9407722836091895,-4.310557764919605,-5.365278716365329,-0.944637123789705
565,-1.048685901561789,-4.814059018934192,-5.994576525702777,-1.0587348142462127
566,-1.1628487160379952,-5.34971991985306,-6.664405433273754,-1.1802304815945466
567,-1.282837519717983,-5.916341158744549,-7.373345813114108,-1.3087544930165003
568,-1.4081277603173938,-6.512318829699152,-8.1194833976941,-1.4438182086011127
569,-1.5380964740664413,-7.135646314783242,-8.90041082821024,-1.5848139130683485
570,-1.672027467135405,-7.783923333502803,-9.713237582460561,-1.7310171727040917
571,-1.809118732530402,-8.45437221397231,-10.554608355461022,-1.881591687731934
572,-1.9484920294296344,-9.143861275554572,-11.420729785275675,-2.0355966475580365
573,-2.0892044915207775,-9.848935044295063,-12.307405231325772,-2.191996531196142
574,-2.23026207252566,-10.56585085764819,-13.210077129176554,-2.349673229663168
575,-2.370634582611062,-11.290621258371099,-14.123876269054838,-2.507440303245506
576,-2.509272020511114,-12.019061433430709,-15.04367717970713,-2.664059126256775
577,-2.6451218644544943,-12.746840826355545,-15.964158649139549,-2.818256617112461
578,-2.7771469516828433,-13.469537944188618,-16.879868283534748,-2.968744203937787
579,-2.9043435524651966,-14.182697295963441,-17.785289899110186,-3.114237636964599
580,-3.025759230733499,-14.88188734063698,-18.674912462266498,-3.25347722982502
581,-3.140510080111921,-15.562758290125641,-19.543299243825576,-3.3852480933362856
582,-3.247796931185683,-16.221098608201487,-20.385155835416217,-3.5083999179824827
583,-3.346920143079541,-16.852889068477126,-21.19539569108832,-3.6218658652200824
584,-3.4372926193113535,-17.454353283810207,-21.96920190485835,-3.7246801428764007
585,-3.518450723789401,-18.022003693828257,-22.7020840137733,-3.815993865903315
586,-3.590062816895204,-18.552682094972145,-23.389928723782965,-3.895088839938435
587,-3.651935182822956,-19.04359391601773,-24.0290435888731,-3.961388950582314
588,-3.704015176568335,-19.492335578540523,-24.61619282849617,-4.014468894858182
589,-3.7463914808762397,-19.896914432924167,-25.148624639869407,-4.05406005161324
590,-3.7792914286502577,-20.255760922651604,-25.624089545479777,-4.080053353110546
591,-3.8030754132618716,-20.56773279889945,-26.040849507354793,-4.092499089063852
592,-3.818228476259025,-20.832111379883152,-26.397677733590672,-4.091603645113166
593,-3.8253492275241374,-21.048590020931016,-26.69384929472544,-4.077723248434824
594,-3.8251363153769686,-21.21725512791002,-26.92912285356536,-4.051354862075796
595,-3.8183727219515293,-21.338560204531323,-27.10371398821439,-4.013124435018053
596,-3.805908211004413,-21.413293569594813,-27.218260751050522,-3.963772775321001
597,-3.7886402998823563,-21.442540510063456,-27.27378225354801,-3.9041393674805227
598,-3.7674941636162727,-21.427640747058728,-27.271631196031564,-3.835144501060592
599,-3.743401906158311,-21.37014218199486,-27.213441371025873,-3.757770114572975
600,-3.717281650999746,-21.271751957246313,-27.101071257572684,-3.6730397855884664
601,-3.6900169103786085,-21.13428590871536,-26.93654489077217,-3.581998314472211
602,-3.662436688795589,-20.959617505841273,-26.721991235166367,-3.4856913545115917
603,-3.635296762622377,-20.749627368036567,-26.459583311991597,-3.3851455354185913
604,-3.6092625534719773,-20.50615441597314,-26.151478328644995,-3.2813495104473493
605,-3.5848939792215884,-20.230949662914593,-25.79976003410003,-3.175236330227638
606,-3.562632623887113,-19.92563357731538,-25.406384476921726,-3.0676675097468054
607,-3.542791516915934,-19.59165785560446,-24.97313027371211,-2.959419109872802
608,-3.5255477550717877,-19.23027233627701,-24.501554406296336,-2.8511701028014054
609,-3.5109381373110002,-18.842497666286803,-23.992954457102694,-2.74349323343478
610,-3.498857916435227,-18.429104201606865,-23.448338065724876,-2.636848527677112
611,-3.4890627025094076,-17.990597489109835,-22.8684002477066,-2.531579535716295
612,-3.481173483774026,-17.527210539946985,-22.25350906167963,-2.4279123352484873
613,-3.4746846627955774,-17.03890296852705,-21.603699946024314,-2.3259572579029197
614,-3.4689749405955315,-16.525366938891814,-20.91867887445005,-2.225713243327965
615,-3.4633208210750412,-15.986039734296627,-20.197834304820546,-2.1270746708373456
616,-3.45691245361395,-15.420122648291077,-19.440257720843313,-2.0298404693139753
617,-3.4488714844022965,-14.826605788306212,-18.64477239559726,-1.9337252631091602
618,-3.4382705477006072,-14.204298287020231,-17.809969842878118,-1.8383722755953478
619,-3.424153997377423,-13.551863333509473,-16.934253270366238,-1.7433676832435625
620,-3.405559457035673,-12.86785736591909,-16.015887210730867,-1.6482560918121039
621,-3.3815397538762375,-12.150772710286144,-15.053052385657198,-1.5525567924703845
622,-3.3511847970266224,-11.399082906106589,-14.043904755659732,-1.4557804493025701
623,-3.3136429651155064,-10.611289927932843,-12.986637627169943,-1.3574458703811487
624,-3.268141580050461,-9.78597249324368,-11.879545628997125,-1.2570965221289527
625,-3.2140060638500962,-8.921834639472022,-10.72108933361227,-1.1543164605669545
626,-3.1506774025177666,-8.017753756783069,-9.509959285134101,-1.0487453727277645
627,-3.077727574743803,-7.072827277321255,-8.245138205393937,-0.9400924463157485
628,-2.9948726429914063,-6.086417245566226,-6.925960181713443,-0.8281488148110467
629,-2.9019832494479165,-5.058192027575885,-5.552165694427241,-0.7127983577654974
630,-2.7990923085080475,-3.98816445873059,-4.123951417724185,-0.5940266711173491
631,-2.6863997399269612,-2.876725779663178,-2.6420138226142624,-0.47192805906131374
632,-2.5642741415215324,-1.7246747679407717,-1.1075857237960838,-0.3467104365046514
633,-2.433251356277284,-0.5332415383381611,0.47753495954232916,-0.21869806866312833
634,-2.2940299449356156,0.6958944432280605,2.110964818265664,-0.08833211127919585
635,-2.1474636306482937,1.9605925083475955,3.789723382486802,0.043831049204372446
636,-1.9945508362145177,3.258245389033105,5.51023064881407,0.17712362177582927
637,-1.8364214859334134,4.585780476892991,7.268313830554097,0.31077233688084427
638,-1.6743212924374984,5.9396678466104635,9.059223297960836,0.44390637524306986
639,-1.5095937933092143,7.3159350547052755,10.877657521542428,0.575567173872019
640,-6.519497008718258e-14,-6.464354668901375e-14,-7.51124473873911e-14,-5.389334556341295e-14
641,-1.4403737486043084e-12,-1.3877278848472449e-12,-1.6219092873847496e-12,-1.1761569917755766e-12
642,-1.6703746389354336e-11,-1.6509153832659184e-11,-1.9471052086941437e-11,-1.3573650686709355e-11
643,-1.2936180935111427e-10,-1.316420035182985e-10,-1.5667197338712534e-10,-1.0456367710667533e-10
644,-7.538987571014851e-10,-7.909640168774822e-10,-9.500853912130921e-10,-6.057210942487806e-10
645,-3.53809385602558e-09,-3.8299190005412425e-09,-4.6434805711614265e-09,-2.823924706593913e-09
646,-1.3973558165029318e-08,-1.5610436697261824e-08,-1.910339983975648e-08,-1.1074683859986756e-08
647,-4.7914053153664054e-08,-5.52287525442972e-08,-6.820851020107445e-08,-3.769932572195021e-08
648,-1.4600168234234062e-07,-1.7352864863590804e-07,-2.162193959039426e-07,-1.1404353133773876e-07
649,-4.025679251819682e-07,-4.928528653720027e-07,-6.192951168482816e-07,-3.1222736792496555e-07
650,-1.018925411953494e-06,-1.283250431455946e-06,-1.6251477889666406e-06,-7.849389212010917e-07
651,-2.3950078664765165e-06,-3.098162941914913e-06,-3.951624164927949e-06,-1.8333818264748471e-06
652,-5.277836405180242e-06,-7.001129577197822e-06,-8.986144455843307e-06,-4.0167718601148155e-06
653,-1.0989946426928657e-05,-1.4924224530435365e-05,-1.925937624619395e-05,-8.320209219534824e-06
654,-2.176524607447495e-05,-3.020799818418653e-05,-3.915694831892712e-05,-1.6401108477588072e-05
655,-4.1223269714887226e-05,-5.838069163085365e-05,-7.594097318483402e-05,-3.093738918898178e-05
656,-7.501488354048396e-05,-0.00010824038856213239,-0.00014115727927448742,-5.6103045037678734e-05
657,-0.0001316726450464024,-0.0001933065007370621,-0.00025250342518814663,-9.819821593337084e-05
658,-0.00022369670904295576,-0.0003337055794424995,-0.00043622600418388247,-0.0001664611478005539
659,-0.0003689020185952026,-0.0005585501202421209,-0.0007301030877694563,-0.0002740880979746623
660,-0.0005920443245586904,-0.000908857277287613,-0.0011870489684478191,-0.00043948403989843874
661,-0.0009267314075525582,-0.0014410370738514723,-0.0018793541113657644,-0.0006877617435670379
662,-0.00141761207425135,-0.002230957025296867,-0.002903544232266575,-0.0010524993737840093
663,-0.002122819661680806,-0.003378562714157251,-0.004385809792245627,-0.0015777571908211414
664,-0.0031166297100230994,-0.005013002778842205,-0.006487922262050353,-0.002320342421349286
665,-0.004492274103957259,-0.007298173317566158,-0.009413517737618091,-0.0033522981970671713
666,-0.006364837351240221,-0.010438562424591123,-0.013414593462949638,-0.004763578072265959
667,-0.008874145756235513,-0.014685242168782513,-0.018798030171726595,-0.006664852568055902
668,-0.012187547933123532,-0.02034182454303911,-0.025931924540543987,-0.0091903790535082
669,-0.01650247609601911,-0.027770171454245613,-0.03525149304918848,-0.012500851711713343
670,-0.022048672377612093,-0.03739562824464287,-0.04726429263824321,-0.01678613503844119
671,-0.029089963383959572,-0.049711536878893674,-0.06255449599002383,-0.022267772988312923
672,-0.03792546941143936,-0.06528277986361947,-0.08178596094282099,-0.029201157208352802
673,-0.04889014216329696,-0.08474810993549428,-0.10570384492084886,-0.03787723242160792
674,-0.06235453618715087,-0.10882103396167418,-0.13513453621461252,-0.048623615519932634
675,-0.07872373429976598,-0.13828904238281184,-0.1709837038233593,-0.06180500780495965
676,-0.09843536561907047,-0.17401100756919574,-0.2142323052761652,-0.07782278750936772
677,-0.12195667610063908,-0.21691261496373185,-0.2659304360103468,-0.09711368253536523
678,-0.1497806352299559,-0.2679797387999783,-0.327188953039026,-0.12014744135541873
679,-0.1824210882074146,-0.3282497281103746,-0.39916885835437027,-0.1474234430459232
680,-0.22040698991822563,-0.3988006269672876,-0.48306848246800704,-0.17946621496846926
681,-0.26427578442412625,-0.48073841346262736,-0.5801085644814328,-0.21681985786311944
682,-0.31456602075829043,-0.5751824027003407,-0.6915153809942708,-0.26004141198002056
683,-0.37180932147337403,-0.6832490178606687,-0.8185021309350574,-0.3096932330371102
684,-0.4365218436813485,-0.8060341880611195,-0.9622488359888958,-0.3663344818165486
685,-0.5091953922943254,-0.944594680320324,-1.123881065637843,-0.430511864655058
686,-0.5902883610505923,-1.0999287137297644,-1.3044478408352438,-0.5027497925879012
687,-0.680216688129746,-1.2729562356063135,-1.5048991098906064,-0.5835401532691274
688,-0.7793450193842982,-1.4644992609832799,-1.7260632231191795,-0.6733319109892759
689,-0.8879782732950212,-1.675262687757373,-1.968624858098118,-0.7725207653281408
690,-1.0063537977159382,-1.9058159999940538,-2.2331038639149114,-0.8814391076307886
691,-1.1346342994885439,-2.156576261510331,-2.519835499655101,-1.0003465162498675
692,-1.2729017143732797,-2.427792781417591,-2.8289525387889154,-1.129421026265123
693,-1.4211521668428453,-2.719533803597297,-3.160369696533322,-1.2687513972796045
694,-1.5792921475093809,-3.0316755340947914,-3.513770811385713,-1.4183305841782443
695,-1.7471360107429172,-3.3638937753086284,-3.8885991748120747,-1.5780505908748654
696,-1.9244048668630656,-3.715658384878954,-4.28405135477911,-1.7476988567357852
697,-2.110726912717943,-4.086230721626369,-4.699074800024872,-1.9269562904421136
698,-2.3056392121636935,-4.47466418203449,-5.132369443597954,-2.1153970276163228
699,-2.5085909046630097,-4.879807869842611,-5.582393447557871,-2.3124899477960885
700,-2.718947786738176,-5.300313379529563,-6.047373147455358,-2.5176019445616387
701,-2.9359981782109537,-5.734644613027546,-6.525317167224575,-2.7300029010999958
702,-3.158959953943312,-6.181090489112512,-7.014034584552149,-2.9488722834654966
703,-3.3869885930466834,-6.637780347785397,-7.511156935891119,-3.173307226400868
704,-3.619186072063605,-7.102701798779707,-8.014163761340848,-3.402331952777399
705,-3.8546104071494356,-7.573720715254013,-8.520411304844961,-3.6349083382703875
706,-4.092285633403554,-8.048603031823783,-9.02716390669005,-3.8699474084094745
707,-4.331211997757915,-8.52503797131259,-9.53162755509166,-4.106321536081241
708,-4.570376135696139,-9.000662297765258,-10.030985003541355,-4.342877094211356
709,-4.808761001929049,-9.473085174984087,-10.5224318121913,-4.578447310867076
710,-5.0453553312512645,-9.939913200523673,-11.003212636317981,-4.811865072423109
711,-5.279162418250019,-10.39877518486372,-11.47065706406646,-5.041975424651641
712,-5.50920802323908,-10.847346254265839,-11.922214300208871,-5.26764753147036
713,-5.734547236418104,-11.28337087324267,-12.355486003210512,-5.487785866346657
714,-5.9542701622176475,-11.704684408006477,-12.768256609725078,-5.701340431621811
715,-6.1675063202364075,-12.109232884879795,-13.158520523460123,-5.907315825767885
716,-6.373427697058822,-12.495090636428662,-13.524505603286295,-6.104779007200905
717,-6.571250423360738,-12.860475571897236,-13.864692457021164,-6.292865635044752
718,-6.760235091773547,-13.203761856220861,-14.17782913047795,-6.470784901395779
719,-6.939685771631056,-13.523489832333459,-14.462940873741505,-6.637822805320551
720,-7.108947815609408,-13.818373073584288,-14.719334765667794,-6.793343855097963
721,-7.267404589094604,-14.087302505835185,-14.946599080772087,-6.936791221126031
722,-7.414473284716573,-14.329347591297907,-15.144597387626922,-7.067685396502389
723,-7.549600010904583,-14.54375461755001,-15.313457472545608,-7.1856214546699135
724,-7.672254363800907,-14.729942184683239,-15.453555284877286,-7.290265022909305
725,-7.781923705924537,-14.887494030540713,-15.565494199131553,-7.381347116212055
726,-7.878107382387953,-15.016149377946615,-15.650079982980541,-7.458657997706248
727,-7.960311106301658,-15.115791028298494,-15.708291947584971,-7.522040249044524
728,-8.028041739562921,-15.186431462550718,-15.74125083622291,-7.571381246866888
729,-8.080802684001506,-15.228197243217597,-15.750184077331717,-7.606605249596691
730,-8.118090081432934,-15.241312039355574,-15.736389087216338,-7.627665302455543
731,-8.139390000174558,-15.226078620330666,-15.701195354273343,-7.634535167776171
732,-8.144176760627815,-15.18286018328151,-15.645926069234635,-7.627201482577868
733,-8.131912524187591,-15.112061393219234,-15.571860083528595,-7.605656336109732
734,-8.102048238500807,-15.014109523249777,-15.480194979649474,-7.569890446851195
735,-8.05402599839886,-14.889436084985665,-15.372012023125423,-7.51988710151081
736,-7.9872828461165355,-14.738459335333541,-15.248243735454347,-7.455616998178048
737,-7.901255997210968,-14.56156803504673,-15.109644781854492,-7.377034112364711
738,-7.795389440576482,-14.359106816379503,-14.956766807851794,-7.284072678761985
739,-7.6691418229241055,-14.131363491719291,-14.789937785899184,-7.176645353796049
740,-7.521995490987379,-13.878558602275874,-14.60924634891179,-7.05464259524185
741,-7.353466529532222,-13.60083746609154,-14.414531493510605,-6.917933266071084
742,-7.1631156010244705,-13.298264938356809,-14.205377933762291,-6.766366441210814
743,-6.9505593645472805,-12.970823045043048,-13.981117278322971,-6.5997743687871555
744,-6.715482228157136,-12.61841159414834,-13.740835092316471,-6.417976512438908
745,-6.4576481710531155,-12.240851808498713,-13.483383792260431,-6.220784578990511
746,-6.17691236026027,-11.83789296128309,-13.207401210152419,-6.008008416627042
747,-5.873232281388733,-11.409221931660591,-12.911334553609997,-5.779462653077702
748,-5.546678104682991,-10.954475534282512,-12.593469384745559,-5.534973931464596
749,-5.197442016135939,-10.473255414900759,-12.251963143082085,-5.274388593576998
750,-4.825846258862076,-9.965145245897098,-11.884882648915841,-4.997580656405187
751,-4.43234965198134,-9.429729902061437,-11.490244944553455,-4.70445992766389
752,-4.01755238257817,-8.8666162497079,-11.066060763072018,-4.39498010945655
753,-3.582198900340358,-8.275455142563441,-10.61037985879878,-4.069146745757687
754,-3.127178783575637,-7.655964186938196,-10.121337391558109,-3.727024878502576
755,-2.6535254886201867,-7.00795081738689,-9.597200528698876,-3.3687462881795893
756,-2.162412941213402,-6.331335213000001,-9.036414415606695,-2.9945162073054825
757,-1.6551499771150155,-5.626172583892902,-8.437646667199203,-2.6046194084481704
758,-1.133172688889975,-4.892674367323931,-7.799829549901087,-2.1994255820461404
759,-0.5980347851177775,-4.131227892777003,-7.1221990556167745,-1.7793939327534343
760,-0.051396115974765934,-3.3424141046161115,-6.404330115800758,-1.345076936090298
761,0.5049904361509291,-2.527022968643583,-5.646167264150319,-0.8971232095598275
762,1.069293461923435,-1.6860662339742107,-4.848050129758981,-0.436279463946585
763,1.6396186521657747,-0.8207872728431846,-4.010733227590289,0.0366084888128554
764,2.2140252443570603,0.0673322230260791,-3.1353996084607267,0.5205956849787777
765,2.790542965066325,0.9765688514460175,-2.2236680347399047,1.0146389203238977
766,3.367189131963784,1.9049575147255249,-1.277593458851383,1.5175986197792675
767,3.941985574689574,2.8502948791626133,-0.29966069733719036,2.0282416539111803
768,-8.614181173266408e-14,-6.689847192935045e-14,-8.211041383559556e-14,-8.10755446195877e-14
769,-1.880669294967943e-12,-1.4632133132816813e-12,-1.79903290512188e-12,-1.7697962469141844e-12
770,-2.192495031505499e-11,-1.7398261432288114e-11,-2.146905006512676e-11,-2.0625440010654696e-11
771,-1.7086255918539878e-10,-1.3855779303699674e-10,-1.7163885922209555e-10,-1.6072142400505163e-10
772,-1.0025224778509792e-09,-8.314434955078367e-10,-1.0344563293124201e-09,-9.43575882749827e-10
773,-4.73886632340855e-09,-4.020884510087808e-09,-5.027289367385126e-09,-4.465991836610882e-09
774,-1.8857920631297272e-08,-1.6368891705343586e-08,-2.0578182119408186e-08,-1.7807434598175436e-08
775,-6.517141982218352e-08,-5.784266478951111e-08,-7.315376989528028e-08,-6.1703791151993e-08
776,-2.001926730403482e-07,-1.8151942749804678e-07,-2.3104783135233684e-07,-1.901501420826747e-07
777,-5.565101091592507e-07,-5.148808897690285e-07,-6.598062353760131e-07,-5.305333288607343e-07
778,-1.4201204326846855e-06,-1.3387009669842937e-06,-1.7274585145870333e-06,-1.3592391388069602e-06
779,-3.3651438833854447e-06,-3.2268665844009603e-06,-4.193184143553521e-06,-3.2343387503026773e-06
780,-7.474738341017244e-06,-7.2786500902338364e-06,-9.52402540840206e-06,-7.214593543358923e-06
781,-1.5684827428771503e-05,-1.5483372026824027e-05,-2.0396662642937625e-05,-1.5202030726794647e-05
782,-3.129475727187866e-05,-3.1265164702807544e-05,-4.145261764224125e-05,-3.0452936391144182e-05
783,-5.969537201656549e-05,-6.0261687041875626e-05,-8.038387346141322e-05,-5.8308367233583906e-05
784,-0.00010936936221500364,-0.0001113941770566138,-0.00014943012148342272,-0.00010719923267820509
785,-0.00019322020210544961,-0.00019828629342915588,-0.00026736720448671214,-0.00018998171024443343
786,-0.00033028373258143205,-0.00034108510698624444,-0.0004620577397057097,-0.0003256554057046377
787,-0.0005478698263132263,-0.0005687289088363399,-0.0007736188277625951,-0.0005415086536923119
788,-0.0008841702415882106,-0.0009216930334189242,-0.0012582382353610656,-0.0008757223943147081
789,-0.001391352751638468,-0.0014552267847819358,-0.001992640151434191,-0.0013804462614259482
790,-0.002139141321497462,-0.002243072255274499,-0.003079165789293782,-0.00212533836266403
791,-0.003218858218012526,-0.0033816301068489763,-0.0046513944341405634,-0.003201534541018174
792,-0.00474787745647225,-0.004994509304433,-0.0068801890430914255,-0.004725984777612399
793,-0.0068744110592324145,-0.007237368639936982,-0.009980009420588857,-0.006846065128138639
794,-0.00978252146677628,-0.010302929109948617,-0.014215297611332297,-0.009744344605219514
795,-0.013697226340350295,-0.014426009316321754,-0.019906706713111563,-0.013643359173089755
796,-0.018889537095850933,-0.019888412518547616,-0.027436917874011826,-0.01881022089083218
797,-0.025681250869713065,-0.027023475132049127,-0.03725577257564253,-0.025560870484902923
798,-0.034449298196779936,-0.0362200735053251,-0.04988443980873151,-0.03426376736672829
799,-0.04562943635794845,-0.04792587966246817,-0.06591834135562262,-0.04534280329246195
800,-0.05971907194752094,-0.06264965805490207,-0.08602857353464491,-0.05927922526109602
801,-0.0772789964543452,-0.08096240464208863,-0.11096159032694874,-0.07661236041947925
802,-0.0989338261851383,-0.10349714693421516,-0.1415369501602684,-0.09793895101397375
803,-0.1253709531938503,-0.1309472487814604,-0.1786429756372648,-0.1239109308887269
804,-0.15733783736103057,-0.1640630961563856,-0.22323023061324332,-0.15523150652675538
805,-0.19563750149783607,-0.20364707909564228,-0.2763027803388657,-0.19264944473579096
806,-0.24112213111708514,-0.2505468291916611,-0.33890726570124674,-0.23695151506960954
807,-0.29468472772015974,-0.30564672014367217,-0.41211988955072104,-0.2889530869143801
808,-0.35724881808923675,-0.36985768928279156,-0.4970314792557154,-0.3494869375455508
809,-0.4297562807517052,-0.4441054889477101,-0.5947308526208003,-0.4193903868111475
810,-0.5131534127402968,-0.5293175263367802,-0.706286771962989,-0.4994909346315615
811,-0.608375422938726,-0.6264084972776806,-0.8327288215780736,-0.590590637226921
812,-0.7163296003757677,-0.7362650616447395,-0.9750275854698909,-0.6934495147341
813,-0.837877464386425,-0.8597298445201733,-1.134074533818383,-0.8087683344241717
814,-0.9738162561719479,-0.9975850764830607,-1.3106620473207988,-0.937171157867971
815,-1.1248601756408132,-1.1505362077209305,-1.5054640177093703,-1.0791880750364204
816,-1.2916218013734686,-1.3191958433461721,-1.7190174602784156,-1.2352385716020144
817,-1.4745941532863922,-1.5040683509518848,-1.9517055604104485,-1.405615986112861
818,-1.6741338656314366,-1.7055354858757654,-2.2037425515334745,-1.5904735101909233
819,-1.8904459314051332,-1.9238433649102278,-2.4751607876570256,-1.7898121669628013
820,-2.123570457672151,-2.159091095614423,-2.765800330848008,-2.003471170632979
821,-2.373371834936091,-2.411221336538989,-3.0753013241047458,-2.2311210240607884
822,-2.6395306733326294,-2.6800130244360565,-3.4030993645535137,-2.472259652498727
823,-2.9215387954832845,-2.9650764590204868,-3.7484240322693405,-2.726211801840869
824,-3.218697502287428,-3.265850885404756,-4.110300667871849,-2.9921318507656576
825,-3.5301192461425517,-3.5816046604225926,-4.487555428891285,-3.269010100295149
826,-3.8547327587606004,-3.911438033229684,-4.878823592147391,-3.555682513972064
827,-4.191291590732078,-4.254288514378518,-5.282561008233507,-3.8508437895876666
828,-4.5383859301564,-4.608938752523367,-5.697058555570129,-4.153063551695499
829,-4.894457480839042,-4.974026785453761,-6.120459386015918,-4.460805365523724
830,-5.25781709946375,-5.348058483596345,-6.550778702104218,-4.772448189825638
831,-5.626664818272798,-5.729421960631013,-6.985925757903618,-5.086309811086974
832,-5.999111817302923,-6.116403688420513,-7.42372773159386,-5.400671736621611
833,-6.373203859908102,-6.507206022825407,-7.861955078536314,-5.7138049715474715
834,-6.746945668498135,-6.899965823707383,-8.298347939512484,-6.023996066341527
835,-7.118325695026613,-7.292773836801663,-8.730643150693036,-6.329572799242432
836,-7.485340733206882,-7.683694497201786,-9.156601380703135,-6.62892885244022
837,-7.846019826705158,-8.070785813744317,-9.574033906837201,-6.920546853522776
838,-8.1984469492334,-8.452119000191866,-9.9808285379771,-7.2030191842513585
839,-8.540781967773457,-8.825797532200966,-10.37497419687966,-7.475066007039577
840,-8.871279448048675,-9.189975327910084,-10.75458368981223,-7.735550024543517
841,-9.188304920495842,-9.542873773795769,-11.117914217336246,-7.983487567965271
842,-9.490348293804098,-9.882797345392834,-11.463385216343315,-8.21805570288506
843,-9.776034179766766,-10.208147603733519,-11.789593169852985,-8.438595145031693
844,-10.04412897572422,-10.517435382148365,-12.095323076848725,-8.644608889376805
845,-10.29354463707045,-10.809291013670661,-12.3795563384945,-8.835756571076933
846,-10.523339159806453,-11.082472486060928,-12.641474888088654,-9.011844692781777
847,-10.7327138794715,-11.335871448865271,-12.880461468483848,-9.172812966381391
848,-10.921007775427045,-11.56851703445614,-13.096096040654109,-9.318717125181287
849,-11.087689045916528,-11.779577492240431,-13.2881483887069,-9.449708661748287
850,-11.232344287267777,-11.968359671738888,-13.456567067912252,-9.566012034473339
851,-11.354665668021582,-12.134306425623592,-13.601464921212452,-9.667899959735617
852,-11.454436533994716,-12.276992037600106,-13.723101464185179,-9.75566746423375
853,-11.531515912066933,-12.396115811766782,-13.821862506688339,-9.829605411771842
854,-11.58582239804174,-12.491493989282215,-13.898237439754746,-9.889974239239594
855,-11.617317917021275,-12.56305018433848,-13.952794667349638,-9.936978636980577
856,-11.625991833652899,-12.610804554122907,-13.986155703304059,-9.970743889113258
857,-11.611845865171563,-12.634861936273014,-13.998968483402104,-9.99129455022019
858,-11.574880213657504,-12.635399201995616,-13.991880460885433,-9.998536077345085
859,-11.515081287020498,-12.612652083336068,-13.965512060510024,-9.992239962223959
860,-11.432411322868564,-12.566901738944344,-13.920431061955224,-9.97203282042774
861,-11.32680016776333,-12.498461324073212,-13.857128468228376,-9.937389794318896
862,-11.198139398617046,-12.407662827520344,-13.775996389239145,-9.887632518390847
863,-11.046278905327286,-12.29484443093086,-13.677308435544395,-9.821931781766336
864,-10.871025986255336,-12.1603386345274,-13.561203073083083,-9.739314906505038
865,-10.6721469427626,-12.004461378232882,-13.427670337307568,-9.638677744979823
866,-10.449371097457895,-11.827502368674391,-13.276542245307967,-9.518801087845683
867,-10.20239710454492,-11.629716801145273,-13.107487178180161,-9.378371168721948
868,-9.930901370852546,-11.411318641724767,-12.92000843388213,-9.21600385500571
869,-9.634548363610905,-11.172475608864191,-12.713447074051949,-9.030272028257446
870,-9.313002546327795,-10.913305966237472,-12.486989107683574,-8.819735584038298
871,-8.9659416574716,-10.63387720982326,-12.239676971229583,-8.582973421290513
872,-8.59307102808185,-10.334206702243891,-11.970425179819609,-8.318616746370552
873,-8.194138623694087,-10.01426427647058,-11.67803993919554,-8.025382987383855
874,-7.768950492698269,-9.673976799227454,-11.361242424174424,-7.702109600951209
875,-7.317386306958636,-9.313234651923542,-11.01869534860506,-7.34778705611088
876,-6.839414690650161,-8.93190005391516,-10.649032375653388,-6.961590298609161
877,-6.335108049205811,-8.52981711964984,-10.250889847697161,-6.542908032933203
878,-5.804656631359268,-8.106823508182785,-9.822940254052494,-6.09136920833606
879,-5.2483815828031375,-7.662763491223694,-9.363926804112964,-5.606866157693199
880,-4.666746779230372,-7.197502234911285,-8.872698435067626,-5.08957391289669
881,-4.060369258724315,-6.71094106166116,-8.34824455874832,-4.539965305925394
882,-3.4300281077769403,-6.203033432475875,-7.7897288425212015,-3.9588215587162288
883,-2.7766716906740165,-5.6738013678298165,-7.196521325183451,-3.3472381651661762
884,-2.101423147445023,-5.123352007371549,-6.5682281907399815,-2.7066259723641415
885,-1.4055841197373582,-4.551893995837922,-5.904718560418809,-2.0387074725602385
886,-0.6906366954640432,-3.959753375215433,-5.20614771560382,-1.3455084193235836
887,0.04175640946203909,-3.3473886616149504,-4.472976230393908,-0.6293449776528717
888,0.7897533917747054,-2.7154047896780624,-3.705984570742818,0.10719329459369617
889,1.5513365673377497,-2.064565617577311,-2.9062828057435777,0.8612642604989985
890,2.3243171777029477,-1.3958047016297066,-2.075315173424318,1.6297973774367582
891,3.1063417286681614,-0.7102340709043993,-1.2148593459963837,2.409520747586294
892,3.8948997969564823,-0.009150758556782504,-0.32702034527789414,3.1969905329593757
893,4.687333250955259,0.705959122521865,0.5857808345764312,3.988622208549132
894,5.480846845575716,1.4334189373091248,1.5208237353711147,4.780723129318275
895,6.27252016803548,2.1713628587844176,2.475109812197802,5.569525903295248
896,-7.120734074414636e-14,-6.596546755630283e-14,-7.318655577629152e-14,-5.553330847201711e-14
897,-1.5568583852308337e-12,-1.4316479320446924e-12,-1.6107026185448916e-12,-1.1965550027171347e-12
898,-1.813557730646946e-11,-1.702840635945864e-11,-1.920662639176001e-11,-1.3885651910514245e-11
899,-1.411478931781338e-10,-1.356806793072441e-10,-1.530102017379849e-10,-1.0769291182474689e-10
900,-8.26598709832287e-10,-8.148610666624017e-10,-9.166255814635709e-10,-6.289252677652127e-10
901,-3.89774182438129e-09,-3.9451497659775185e-09,-4.416757802120034e-09,-2.9596311952373637e-09
902,-1.546601493319926e-08,-1.6083095714282645e-08,-1.7883037110581786e-08,-1.1729709767811552e-08
903,-5.327895913553516e-08,-5.6925646345947356e-08,-6.275101263292697e-08,-4.0396039737445945e-08
904,-1.631163648844035e-07,-1.7896710310919506e-07,-1.9528758153441618e-07,-1.2375366398618728e-07
905,-4.519389042422088e-07,-5.086360543517394e-07,-5.487825135491247e-07,-3.434129386517536e-07
906,-1.149628992973089e-06,-1.3251747085428818e-06,-1.4126114070742103e-06,-8.756825498657321e-07
907,-2.716306590911074e-06,-3.2009534763015566e-06,-3.369823716572032e-06,-2.0756565689858704e-06
908,-6.018130899136801e-06,-7.235369678804222e-06,-7.521979389346631e-06,-4.616470745710703e-06
909,-1.2600785033720694e-05,-1.5423243786349863e-05,-1.583725183538572e-05,-9.708339880789109e-06
910,-2.5095876353765078e-05,-3.1206775709238114e-05,-3.166469450348725e-05,-1.942762543064711e-05
911,-4.780054942386115e-05,-6.026662624926101e-05,-6.0463276519865565e-05,-3.7191216192581114e-05
912,-8.747394729037325e-05,-0.00011161151422308601,-0.00011079801108906121,-6.841528354438166e-05
913,-0.00015439504896377763,-0.0001990259402765527,-0.00019565644071665284,-0.00012139932475167925
914,-0.00026372423104087974,-0.00034293152489897654,-0.00033413625417250825,-0.00020847568716389259
915,-0.00043720519554367465,-0.0005727085026359464,-0.0005535484689294124,-0.00034746093233771616
916,-0.0007052344743765172,-0.0009295099812507752,-0.0008919702657046804,-0.0005634381068458743
917,-0.0011093126739363107,-0.0014695828315591133,-0.0014012673027057822,-0.0008908881505960951
918,-0.001704875385594043,-0.0022680860434801647,-0.002150587440818077,-0.0013761744809046843
919,-0.0025644829544754755,-0.003423370909798762,-0.00323030667187392,-0.0020803676821803045
920,-0.003781327970605393,-0.005061658593663269,-0.004756384154195254,-0.0030823778705510716
921,-0.005472998454025533,-0.007342020813208293,-0.00687505724913837,-0.004482341543314238
922,-0.007785414321939205,-0.010461539970647582,-0.00976778013235202,-0.00640518854780239
923,-0.010896835866356038,-0.014660497528647115,-0.013656281966131856,-0.009004294239539225
924,-0.015021826506396021,-0.02022741520287658,-0.018807594030738513,-0.012465102929430752
925,-0.02041503869699712,-0.027503753871464632,-0.025538871049966768,-0.01700859223535923
926,-0.02737468208640924,-0.036888061084121314,-0.034221811686440284,-0.022894434749613838
927,-0.03624552717824047,-0.048839350542114086,-0.045286468219495446,-0.03042370421342402
928,-0.04742129608598942,-0.06387949652769769,-0.059224226956270457,-0.039940968755620816
929,-0.06134629453180643,-0.08259443335230811,-0.07658973991048362,-0.051835614174208275
930,-0.07851614595321549,-0.1056339645902955,-0.0980015953798879,-0.06654224603839046
931,-0.09947749925270513,-0.1337100090621956,-0.12414153063615761,-0.08454003074013494
932,-0.1248265961216706,-0.16759313990789243,-0.15575201406649034,-0.10635085257550524
933,-0.15520660175502832,-0.20810730912385744,-0.19363205647221926,-0.13253618639765116
934,-0.19130362391284783,-0.2561226919186197,-0.23863115114677624,-0.16369261310265829
935,-0.23384136943710085,-0.3125466322692853,-0.2916412887524845,-0.20044593773492014
936,-0.2835744142304768,-0.37831272206160976,-0.3535870445016424,-0.24344390666963225
937,-0.34128009205607807,-0.4543680999152764,-0.425413790113346,-0.2933475602826702
938,-0.4077490389792378,-0.5416591108236484,-0.5080741397601051,-0.3508212997019809
939,-0.4837744634175017,-0.6411155225251018,-0.6025127960391942,-0.41652178942695356
940,-0.5701402460431143,-0.7536335474187489,-0.7096500172649839,-0.4910858604405097
941,-0.6676080085110666,-0.8800579681311925,-0.8303639795140781,-0.5751176194763868
942,-0.7769033243582308,-1.021163708818664,-0.9654723543665253,-0.6691750078765331
943,-0.8987012785216858,-1.1776372312911354,-1.1157134647566587,-0.7737560865531354
944,-1.0336116127525135,-1.3500581635260043,-1.281727415474178,-0.8892853506008043
945,-1.1821637216896295,-1.5388815867313101,-1.4640376204970742,-1.016100396843916
946,-1.3447917874358744,-1.744421414701153,-1.6630331655334767,-1.154439278977852
947,-1.521820358141927,-1.9668352949778114,-1.8789524501279757,-1.304428887136253
948,-1.7134506874714583,-2.206111444878533,-2.1118685488539386,-1.4660746811475074
949,-1.9197481561606518,-2.462057806776028,-2.3616767150423614,-1.6392520892176903
950,-2.1406310936218795,-2.734293866609538,-2.6280844229413294,-1.8236998564207738
951,-2.375861306279784,-3.022245428364901,-2.9106043051115984,-2.019015590674935
952,-2.6250365998838396,-3.3251425765256624,-3.208550291441275,-2.2246537086743827
953,-2.887585555461084,-3.6420209899432563,-3.5210371949118064,-2.4399259316885207
954,-3.162764783125267,-3.971726696153195,-3.846983918044245,-2.6640044226449775
955,-3.4496588351221917,-4.312924277002578,-4.1851203740926595,-2.895927593074106
956,-3.7471829099548155,-4.6641084567566375,-4.533998130258796,-3.134608543037857
957,-4.054088424118692,-5.023618924808123,-4.892004688625024,-3.378846030928112
958,-4.368971468055117,-5.389658168819867,-5.257381226655931,-3.6273378048927856
959,-4.690284099781769,-5.760312022528449,-5.628243525800203,-3.8786960655210017
960,-5.016348364842048,-6.133572567266452,-6.002605726911653,-4.131464772100994
961,-5.345372866389838,-6.507362969032999,-6.378406467942816,-4.3841384539249315
962,-5.675471646133527,-6.879563784922727,-6.753536885628641,-4.635182145245415
963,-6.004685077272278,-7.248040234926438,-7.12586990144584,-4.883052028871235
964,-6.331002416225633,-7.6106699083118095,-7.493290165403388,-5.126216350064076
965,-6.652385612566237,-7.965370358514701,-7.853724001042301,-5.36317615012506
966,-6.966793937659174,-8.31012603704324,-8.205168682591992,-5.592485368304223
967,-7.2722089634353315,-8.64301402544036,-8.545720381044054,-5.812769871576237
968,-7.566659404570967,-8.962228044802506,-8.873600139808184,-6.022744994223645
969,-7.848245330891929,-9.266100254455187,-9.187177281867802,-6.221231202538819
970,-8.115161262511311,-9.553120394672993,-9.48498970769338,-6.40716754347137
971,-8.365717678151894,-9.821951882098906,-9.76576061487743,-6.579622588628245
972,-8.59836049709946,-10.07144452979628,-10.028411254420277,-6.737802645421863
973,-8.811688136793595,-10.300643635399037,-10.27206943243255,-6.881057073960115
974,-9.004465800411625,-10.508795259063708,-10.496073567177698,-7.008880619941357
975,-9.175636710838216,-10.695347596052445,-10.699972217238134,-7.120912748640575
976,-9.324330077699935,-10.85994843475781,-10.883519104525183,-7.216934041147484
977,-9.449865660911286,-11.00243877764606,-11.046663763248361,-7.296859789291125
978,-9.551754875361803,-11.122842787720607,-11.189538050216647,-7.3607309980181785
979,-9.6296984646587,-11.22135430449832,-11.312438850420698,-7.408703071227673
980,-9.683580854719803,-11.298320249062696,-11.41580740231542,-7.441032517091687
981,-9.71346137788555,-11.354221305609785,-11.500205747350806,-7.458062059728433
982,-9.719562632516494,-11.38965032537102,-11.566290876092486,-7.4602045839815485
983,-9.70225630937302,-11.405288946506872,-11.614787197025498,-7.447926367553061
984,-9.662046872330949,-11.401882959447882,-11.646457992455945,-7.421730068768004
985,-9.599553525430531,-11.380216970479852,-11.662076547797035,-7.382137938159726
986,-9.515490929568944,-11.341088926729798,-11.662397645360395,-7.329675707658477
987,-9.410649149502879,-11.28528506306922,-11.648130101472972,-7.264857582775375
988,-9.285873314960805,-11.213555816134342,-11.619910996724132,-7.188172721725791
989,-9.142043468899072,-11.126593223350824,-11.578282204339347,-7.100073532460673
990,-8.980055052157526,-11.025010286551193,-11.523669762451833,-7.000966056122714
991,-8.800800438356873,-10.909322731768976,-11.456366564164892,-6.891202635957976
992,-8.605151887604109,-10.779933540564816,-11.376518756844664,-6.7710769968669
993,-8.393946234503735,-10.637120565386045,-11.284116151379948,-6.640821785332601
994,-8.167971567354884,-10.481027473625296,-11.17898684568465,-6.500608545114966
995,-7.927956093533969,-10.31165819385442,-11.060796167092048,-6.350550033334647
996,-7.674559323118575,-10.128874964735909,-10.92904993812543,-6.190704716555271
997,-7.408365640830453,-9.93240001384646,-10.78310197202329,-6.021083228988995
998,-7.129880277175989,-9.721820821485629,-10.622165610846361,-5.841656526391115
999,-6.839527634816832,-9.496598854793127,-10.445329032313042,-5.652365430585162
1000,-6.5376518770188365,-9.256081591375631,-10.251573973739756,-5.453131231513987
1001,-6.224519642514418,-8.999517590263796,-10.039797454271062,-5.2438669965420965
1002,-5.900324715961359,-8.726074312390883,-9.808836021190496,-5.024489230426436
1003,-5.5651944557556146,-8.43485834379097,-9.55749200323647,-4.794929533642575
1004,-5.219197761300628,-8.124937633102576,-9.284561223763294,-4.555145921064505
1005,-4.862354349681095,-7.795365321320925,-8.988861609108971,-4.305133486557554
1006,-4.494645106472953,-7.445204716484528,-8.669262122139788,-4.044934130808456
1007,-4.116023276344328,-7.073554949344247,-8.324711456858257,-3.7746451084101817
1008,-3.72642626521488,-6.679576838102295,-7.954265946238092,-3.494426194402281
1009,-3.3257878360362008,-6.26251849091737,-7.557116161044184,-3.204505318601581
1010,-2.9140504937288196,-5.8217401838016025,-7.132611711234108,-2.905182566562772
1011,-2.4911778704922565,-5.356738068410722,-6.680283802580572,-2.596832497303379
1012,-2.0571669396703847,-4.8671662885628715,-6.199865148440086,-2.2799047784803017
1013,-1.6120599037485663,-4.352857115510564,-5.691306889264761,-1.9549231880730338
1014,-1.1559556191044722,-3.8138387493106762,-5.154792229751585,-1.6224830764844977
1015,-0.6890204361395456,-3.250350476246588,-4.590746564750838,-1.2832474231022606
1016,-0.21149834777748225,-2.662854919209006,-3.999843929520049,-0.9379416556725911
1017,0.27627964846199665,-2.0520471682232047,-3.3830096768341957,-0.587347428382208
1018,0.7738870598514112,-1.418860630883164,-2.741419351895047,-0.232295574598231
1019,1.2807943571776954,-0.7644694963010694,-2.076493804729284,0.1263415376320151
1020,1.7963624559948992,-0.09028776034350794,-1.3898906474072075,0.4876580150589019
1021,2.3198372911313787,0.6020351864807846,-0.683492228386359,0.8507225850233591
1022,2.850345554476101,1.3106223548910778,0.040609642989985706,1.2145866597585782
1023,3.386891666607507,2.0333802327288364,0.7801319338047269,1.5782921187729433
1024,-7.55100169462561e-14,-5.3892402250035126e-14,-2.744583243808588e-14,-8.25556185470145e-14
1025,-1.5983790954417027e-12,-1.2498350924407008e-12,-6.878861179962488e-13,-1.7087509128947369e-12
1026,-1.8704829829354353e-11,-1.490994388598447e-11,-8.587622870146497e-12,-1.9666309148657077e-11
1027,-1.4626626769205983e-10,-1.1855561025439347e-10,-7.136950115623498e-11,-1.513716173625557e-10
1028,-8.600927183884669e-10,-7.102287909066723e-10,-4.4585140608353605e-10,-8.771945279100923e-10
1029,-4.068723271989446e-09,-3.428787732339208e-09,-2.2389068947510852e-09,-4.095341140271039e-09
1030,-1.6179569007380607e-08,-1.3934011550809244e-08,-9.438159521922196e-09,-1.609946206715862e-08
1031,-5.579357927605167e-08,-4.914918741301942e-08,-3.443700507980307e-08,-5.4984356367915324e-08
1032,-1.7077633611793657e-07,-1.5394621476480966e-07,-1.1126851802502836e-07,-1.6700243141655387e-07
1033,-4.724519747863644e-07,-4.3580835283282147e-07,-3.240696188839685e-07,-4.5932485327351206e-07
1034,-1.1984887848205196e-06,-1.1307971346680718e-06,-8.629480713801733e-07,-1.1605352711935048e-06
1035,-2.820505914595232e-06,-2.720031146867946e-06,-2.125374285783312e-06,-2.7249206410131885e-06
1036,-6.21718971067002e-06,-6.122504675969259e-06,-4.888204486785432e-06,-6.00198210406162e-06
1037,-1.2938287024098328e-05,-1.299690895292899e-05,-1.0582991894289021e-05,-1.2498158670693392e-05
1038,-2.5588678094840562e-05,-2.6191531749843482e-05,-2.1714718447647155e-05,-2.4763000782704898e-05
1039,-4.8364264910561504e-05,-5.0386620397810126e-05,-4.247072414756404e-05,-4.6936357351849974e-05
1040,-8.777216815145995e-05,-9.29771269763836e-05,-7.957161268734163e-05,-8.549596447631051e-05
1041,-0.0001535663667233531,-0.00016524490034578362,-0.00014341846742505325,-0.00015024561326740262
1042,-0.00025992623873473137,-0.0002838676251274971,-0.0002495900732523794,-0.0002555823653552854
1043,-0.0004268994054979884,-0.0004728067385044365,-0.0004207393600099284,-0.0004220767147167113
1044,-0.000682121890248953,-0.000765607946022482,-0.0006889294692066612,-0.0006783919231062155
1045,-0.0010628180281769845,-0.0012081357682888238,-0.0010984364395176794,-0.0010635578844086105
1046,-0.0016180700225929795,-0.0018617479451340773,-0.001709027561874987,-0.0016296008408887102
1047,-0.002411332813097373,-0.002806896856249706,-0.0025997023903305987,-0.002444513274989836
1048,-0.003523154356990931,-0.0041471238876315455,-0.003872857991218874,-0.0035955287128046237
1049,-0.005054044987314782,-0.006013389503888093,-0.0056588123646411645,-0.005192644615443269
1050,-0.007127422804962943,-0.008568657413441537,-0.008120591397659693,-0.007372313876583413
1051,-0.009892545839499238,-0.012012626509472955,-0.011458856641632794,-0.010301202793710716
1052,-0.013527326839893857,-0.01658648026259758,-0.015916825082887397,-0.014179892003720029
1053,-0.018240913956246798,-0.022577501122875133,-0.021785009240863417,-0.019246378104653565
1054,-0.02427591115802412,-0.030323378587971957,-0.029405587588668673,-0.02577921882128756
1055,-0.03191010680419465,-0.04021602529495259,-0.03917620252151865,-0.03410015473531472
1056,-0.04145757791887639,-0.052704707104164576,-0.051552976871050045,-0.04457603659820708
1057,-0.05326904170799988,-0.0682982917273438,-0.06705254115890381,-0.057619889463154605
1058,-0.06773133462443488,-0.08756642669223393,-0.08625287314479034,-0.07369095327216012
1059,-0.0852659125023773,-0.11113947157824329,-0.10979276923414417,-0.09329355372029259
1060,-0.106326282344201,-0.13970703135885656,-0.13836979402872449,-0.11697467653760527
1061,-0.131394296430393,-0.17401496690064538,-0.17273658926606866,-0.1453201419130399
1062,-0.16097526147899244,-0.2148607945140866,-0.21369546566243977,-0.17894930256620148
1063,-0.19559183837377436,-0.2630874279930148,-0.26209124949014934,-0.21850821773001777
1064,-0.23577673030277488,-0.31957526258427116,-0.3188024085863863,-0.2646612848345868
1065,-0.28206417812316725,-0.38523264923613887,-0.3847305380557836,-0.31808134005525984
1066,-0.33498030113049576,-0.4609848574207209,-0.4607883418134702,-0.3794382677181737
1067,-0.3950323396520902,-0.5477616736879015,-0.5478862994545401,-0.4493861871181187
1068,-0.462696874235255,-0.6464838285461093,-0.6469182557584586,-0.5285493145265292
1069,-0.5384071164753138,-0.7580484838086237,-0.7587462098803186,-0.6175066295050861
1070,-0.622539390828655,-0.8833140437566105,-0.8841846110877385,-0.7167755098060662
1071,-0.7153989570003583,-1.0230845741903576,-1.023984486513155,-0.8267945396654985
1072,-0.8172053598771118,-1.1780941220045058,-1.1788177327454534,-0.9479057430082825
1073,-0.9280775385333985,-1.3489912232728998,-1.3492618959605622,-1.0803365456905085
1074,-1.0480189763153076,-1.5363238694135393,-1.5357857432737927,-1.2241818278347443
1075,-1.1769032279743898,-1.7405251685669287,-1.7387358898508005,-1.3793864858471105
1076,-1.3144602139783865,-1.961899892732427,-1.9583246915705848,-1.5457289802669107
1077,-1.4602637226384205,-2.2006120405825866,-2.1946195425464485,-1.7228063961474573
1078,-1.6137206036069547,-2.456673472007045,-2.4475336330826116,-1.9100215831122198
1079,-1.7740621679741435,-2.729933585408997,-2.716818130888579,-2.106572968898197
1080,-1.9403383277255712,-3.020069916456561,-3.0020556523153923,-2.3114476502510595
1081,-2.111415008870404,-3.3265794431817324,-3.3026547978164835,-2.523418356746583
1082,-2.285975357324904,-3.648770294437058,-3.6178454440030907,-2.741044855853786
1083,-2.4625252247219627,-3.985753485044178,-3.9466744204953494,-2.962680321565542
1084,-2.6394033733791664,-4.336434249639639,-4.2880011592491885,-3.1864831250194197
1085,-2.8147967767538846,-4.699502525249986,-4.6404928917141035,-3.410434424925881
1086,-2.986761315136224,-5.073422145143893,-5.002618987851386,-3.6323618397930364
1087,-3.1532480773951255,-5.456418356315721,-5.372644081592655,-3.849969374483292
1088,-3.3121353793693618,-5.846463360316749,-5.748619708626995,-4.0608736520622895
1089,-3.461266498623035,-6.24125969978302,-6.12837429139599,-4.262646369474199
1090,-3.598493003991096,-6.6382214663356764,-6.509501437934406,-4.452862753345322
1091,-3.7217234267078365,-7.034453483178399,-6.8893466691226966,-4.629155641216781
1092,-3.8289768783028326,-7.426728810121779,-7.2649928449696315,-4.789274655098498
1093,-3.91844106994538,-7.811465121632295,-7.633244715628628,-4.931149770450259
1094,-3.9885340306170516,-8.184700711048393,-7.990613167486945,-5.05295841744752
1095,-4.037968660592247,-8.54207106713351,-8.333299859833351,-5.153195086511075
1096,-4.065819096393035,-8.87878714316929,-8.657183045596172,-5.230742251174198
1097,-4.071587708594981,-9.189616584399879,-8.957805434667103,-5.284941273567908
1098,-4.055271410034433,-9.468869287942509,-9.230364986784023,-5.315661826558298
1099,-4.017425824804858,-9.710388732591815,-9.469709511352193,-5.323368257372726
1100,-3.959225763666742,-9.907550528346261,-9.670335904341767,-5.309181235755853
1101,-3.882520374663141,-10.053269593256129,-9.826394769557123,-5.274932980250315
1102,-3.7898812939070416,-10.14001726696201,-9.931701056628846,-5.223214343382944
1103,-3.68464211505418,-10.15984951692307,-9.979751205822762,-5.157412063728554
1104,-3.5709275303422023,-10.104447187606013,-9.96374712612486,-5.081734562309189
1105,-3.453670573631859,-9.965168989215679,-9.876627154927263,-5.001224773687694
1106,-3.338616517833241,-9.73311762672248,-9.711103962567115,-4.921758658376083
1107,-3.232312145440878,-9.399219139221923,-9.459709180814947,-4.850028241607074
1108,-3.142079320433556,-8.954315162738252,-9.114844358871222,-4.79350826183866
1109,-3.0759720401371853,-8.389267456579736,-8.66883769058584,-4.760405787293824
1110,-3.0427164333006034,-7.69507365562779,-8.11400581856312,-4.759592466166861
1111,-3.05163349103412,-6.862992840727019,-7.442719909449702,-4.800519410764524
1112,-3.112544664834554,-5.884679169205667,-6.647475113613204,-4.893115071853509
1113,-3.235660834106466,-4.7523214897852695,-5.720962473834737,-5.047666830064147
1114,-3.4314555268873113,-3.4587865921282543,-4.656142332385502,-5.274687408750682
1115,-3.7105236635624124,-1.9977635209556432,-3.446318303327986,-5.5847675889274475
1116,-4.083427475226683,-0.36390622605163947,-2.0852109250188042,-5.988417072970655
1117,-4.560531616588336,1.447028271707319,-0.5670301831245054,-6.495895690603608
1118,-5.151829838282809,3.438049038639918,1.1134538077657221,-7.117037459143494
1119,-5.866765895584088,5.610810500237891,2.9608425614773104,-7.861070291183646
1120,-6.714051640489756,7.9655044954647085,4.979043889731463,-8.736434378408115
1121,-7.70148546334816,10.500767595351519,7.1712098296455276,-9.750602462429772
1122,-8.83577441081926,13.213605921061653,9.539678051877267,-10.909905325738906
1123,-10.122363402405963,16.09933939693812,12.085916859537727,-12.219365892579294
1124,-11.565274992853814,19.151567029992126,14.810473792263119,-13.68254531676194
1125,-13.16696307880801,22.36215442805456,17.712927775960527,-15.301404348588395
1126,-14.928183823445885,25.721244364011316,20.791844710706965,-17.07618311539496
1127,-16.847886872478202,29.217290772852433,24.044736369805243,-19.00530222071637
1128,-18.923129660959795,32.83711614114011,27.46802249341452,-21.085287768398732
1129,-21.14901726666171,36.56599182394829,31.05699600033169,-23.310722554502878
1130,-23.518669857998002,40.387740410738424,34.80579130975047,-25.67422524740352
1131,-26.023219319989543,44.28485886665585,38.70735585807154,-28.166458902403573
1132,-28.651836129296633,48.238660806178885,42.75342500966582,-30.776169640049105
1133,-31.39178699906693,52.229435917890754,46.93450068934955,-33.49025576690648
1134,-34.22852323738489,56.23662425747988,51.23983420173609,-36.293867044583116
1135,-37.14579917144883,60.23900286519051,55.657413841410076,-39.170533228767596
1136,-40.125819395784866,64.2148819473494,60.17395803043478,-42.10232041715098
1137,-43.149413019692034,68.14230769204572,64.77491483833029,-45.07001317574099
1138,-46.19623252957499,71.9992686686041,69.44446883684358,-48.05331986982367
1139,-49.2449743584157,75.7639026905561,74.1655563106142,-51.03109812093305
1140,-52.27361777928104,79.41470100317225,78.91988987917405,-53.98159685635814
1141,-55.2596783234358,82.93070668945545,83.68799358077231,-56.88271102379991
1142,-58.18047157614026,86.29170427247071,88.44924942094809,-59.71224472056491
1143,-61.01338293298484,89.47839762607916,93.18195629693578,-62.44817824261651
1144,-63.736138713509256,92.47257348906564,97.86340207305366,-65.06893440086859
1145,-66.32707393204053,95.257248107172,102.46994940416207,-67.55363938560576
1146,-68.76539202150201,97.81679480088127,106.97713568775042,-69.88237348833331
1147,-71.03141189586492,100.13705057044045,111.3597872753378,-72.036407115249
1148,-73.10679792043182,102.20540019931826,115.5921477969163,-73.99841774734558
1149,-74.97476863373818,104.01083669808206,119.64802015526881,-75.7526838161603
1150,-76.62028042599636,105.54399733679274,123.5009214378875,-77.28525186642182
1151,-78.03018282022032,106.79717493898393,127.12424968100747,-78.58407386015794
1152,5.865336603743979e-14,-1.4392165798585306e-13,-2.4316718954576513e-13,6.508999691941348e-14
1153,1.24469822439254e-12,-3.0069983028505293e-12,-5.175781610821432e-12,1.4062148229180444e-12
1154,1.5360915633779663e-11,-3.58127922234399e-11,-6.162473263781034e-11,1.7322272134709844e-11
1155,1.2723132079033103e-10,-2.8628113649460396e-10,-4.920917883255391e-10,1.4294987817832934e-10
1156,7.941023381180876e-10,-1.725060038914522e-09,-2.9628338328495517e-09,8.879857444696758e-10
1157,3.991572684596945e-09,-8.379514986674147e-09,-1.4385526290420225e-08,4.439129774784741e-09
1158,1.6869540615875324e-08,-3.4273293478573995e-08,-5.8834120407349395e-08,1.8649969355325863e-08
1159,6.178844478046499e-08,-1.217137859972335e-07,-2.0899548569538172e-07,6.788838453334277e-08
1160,2.0060974988141985e-07,-3.839625218142628e-07,-6.597048053931388e-07,2.190399173072752e-07
1161,5.875306554201702e-07,-1.0951427759883955e-06,-1.883248939752521e-06,6.375505632446373e-07
1162,1.5739803192591164e-06,-2.864013503929839e-06,-4.9302121546897504e-06,1.69773947577324e-06
1163,3.901136596083818e-06,-6.945990203595004e-06,-1.1970612657099668e-05,4.183671442046567e-06
1164,9.029971563480451e-06,-1.5768964817586998e-05,-2.7206673192641568e-05,9.631114308728417e-06
1165,1.967433502157539e-05,-3.377189223060049e-05,-5.832827356039352e-05,2.087646957120913e-05
1166,4.0617883301569516e-05,-6.86790131859664e-05,-0.00011872134752083187,4.289354308441113e-05
1167,7.990873965306743e-05,-0.00013335475054467594,-0.00023067385810079415,8.401176079107301e-05
1168,0.0001505345668606349,-0.0002484022412333324,-0.0004298488475750093,0.00015761791954635606
1169,0.00027268328798048523,-0.0004456795745262483,-0.0007713049098246537,0.00028444586525246807
1170,0.0004766894043843365,-0.0007729096644723129,-0.0013373373727207957,0.0004955529888359998
1171,0.0008067516608356349,-0.001299550196441988,-0.002247385575493575,0.0008360679949736906
1172,0.001325484247635831,-0.002124067680629818,-0.0036702011720616133,0.0013697704981375136
1173,0.002119331021223404,-0.003382723433337032,-0.00583839905769819,0.0021845297666198402
1174,0.0033048312332977256,-0.0052599292266142855,-0.009065417413217246,0.0033985881833823715
1175,0.005035677480063873,-0.0080001672387088,-0.013764799036222441,0.005167626211882995
1176,0.0075104540692039895,-0.011921394545676879,-0.020471576495995663,0.007692491936848845
1177,0.01098088924586832,-0.017429769292197934,-0.02986540385021311,0.011227422166342961
1178,0.01576040050591636,-0.025035447130842527,-0.04279493384252012,0.01608852652540593
1179,0.02223266147387555,-0.035369106307483,-0.060302798493135176,0.02266225398528747
1180,0.0308598744209556,-0.04919877201351152,-0.08365041994098821,0.03141351586861451
1181,0.04219039711510235,-0.06744642958550615,-0.11434176432856329,0.04289310334466906
1182,0.05686534860430613,-0.09120384602617704,-0.1541450609785895,0.05774401318577567
1183,0.07562380746702628,-0.12174696411825256,-0.2051114478035107,0.07670628498343246
1184,0.0993062191458168,-0.16054819663947634,-0.26958947644809284,0.10061995743742874
1185,0.1288556467455313,-0.20928593277907598,-0.35023442047810716,0.13042577146824627
1186,0.1653165321191352,-0.2698505769655302,-0.45001137903602745,0.16716328391978055
1187,0.2098306806671644,-0.3443464732530595,-0.5721912574286603,0.21196610707192046
1188,0.2636302430292726,-0.4350891265930218,-0.7203388343071213,0.26605405500165924
1189,0.32802753824390035,-0.5445972152287007,-0.8982922902110084,0.3307220563201387
1190,0.4044016440344091,-0.6755789946699192,-1.11013377059009,0.40732578169212574
1191,0.4941817682868648,-0.8309128208946536,-1.3601507828917825,0.4972640310278604
1192,0.5988275088334153,-1.0136216653993508,-1.6527884755427997,0.6019580261378034
1193,0.7198062034309196,-1.2268416535112563,-1.9925931092488058,0.7228278565016725
1194,0.8585676653051958,-1.4737848253582475,-2.3841472998535065,0.8612664250690153
1195,1.0165166888392523,-1.7576964909246058,-2.8319978785359274,1.0186113342136847
1196,1.1949837921304725,-2.081807721231893,-3.34057747085468,1.196115235899103
1197,1.3951947357312875,-2.449283681269589,-3.9141211328210668,1.3949152419410893
1198,1.6182394177640143,-2.863168661344569,-4.556579592053843,1.6160020475923635
1199,1.8650407929665096,-3.3263287968177004,-5.2715308180790235,1.860189462627817
1200,2.136324495652614,-3.8413935770720196,-6.062091781764969,2.12808506732281
1201,2.432589863011341,-4.4106973290553695,-6.9308323545002075,2.4200627153716257
1202,2.7540830549497883,-5.036221915779101,-7.879693338974675,2.7362375915905575
1203,3.100772949506933,-5.719541913622612,-8.909910612625042,3.0764444993703535
1204,3.472330458796223,-6.461773523087927,-10.02194730079178,3.4402200019081732
1205,3.8681118599214273,-7.263528425669238,-11.215435779890432,3.826788973306747
1206,4.287146669185153,-8.124873725612174,-12.489131143574584,4.23505603213009
1207,4.728130507382886,-9.045299011301474,-13.840877550745375,4.663602232782738
1208,5.189423310608801,-10.023691439418076,-15.267588618641689,5.110687281312639
1209,5.669053136688935,-11.058319589159021,-16.76524273376459,5.574257424439718
1210,6.164725704318956,-12.14682665764694,-18.32889383575956,6.051959036616168
1211,6.673839682731756,-13.28623337560883,-19.952697893065878,6.541157802845567
1212,7.193507626995641,-14.472950819285167,-21.6299549430178,7.038963268119311
1213,7.720582330717768,-15.702803085377376,-23.353166222125758,7.542258400988434
1214,8.251688246898969,-16.97105958576168,-25.114105573316557,8.047733702166347
1215,8.783257511824242,-18.272476512721784,-26.90390399447431,8.551925282095334
1216,9.311569998987371,-19.601346828413725,-28.713145894689255,9.051256236740109
1217,9.832796732856407,-20.951557948704554,-30.5319753584553,9.542080570763915
1218,10.343045908352059,-22.316656125586157,-32.350210489995554,10.020728853566135
1219,10.838410693546578,-23.689916387791744,-34.157463725139095,10.483554747851029
1220,11.315017942257855,-25.064416779290905,-35.94326586067566,10.926981523461542
1221,11.769076911434276,-26.43311554271644,-37.69719146352896,11.3475476617436
1222,12.196927066522276,-27.788929831568048,-39.408983285800545,11.741950667908206
1223,12.595084066866328,-29.124814502635797,-41.06867332696084,12.107088240550807
1224,12.960283052548865,-30.433839539136816,-42.666698250356085,12.440095998108674
1225,13.289518403333147,-31.709264685427666,-44.19400697597515,12.738381030650496
1226,13.580079208408034,-32.944609934933666,-45.64215843243306,12.999650630687832
1227,13.829579770851518,-34.133720602464656,-47.00340765489664,13.221935656976823
1228,14.035984571099819,-35.27082582801478,-48.270778657881785,13.403608098427167
1229,14.197627226829086,-36.35058949852451,-49.438122787321866,13.543392528718792
1230,14.313223109840102,-37.36815273348445,-50.5001615590406,13.640371273138
1231,14.381875410907275,-38.31916725589765,-51.45251331405447,13.693983244308665
1232,14.403074578146073,-39.19981915798485,-52.291703357734974,13.704016539590638
1233,14.37669119028272,-40.00684276701,-53.01515759223829,13.670595026597843
1234,14.302962460325372,-40.73752451661795,-53.62117999214134,13.594159271279722
1235,14.18247269466829,-41.38969692908203,-54.108914604388985,13.475442282219095
1236,14.01612815486727,-41.96172300995328,-54.47829306819649,13.3154406524129
1237,13.805126881654843,-42.45247154502692,-54.729968941615056,13.115381773354747
1238,13.550924140885828,-42.86128396672265,-54.86524038279739,12.87668787365545
1239,13.255194236943685,-43.18793361954718,-54.88596296013857,12.600937694057492
1240,12.919789508921703,-43.43257839915862,-54.794454551940184,12.28982665131119
1241,12.546697377204316,-43.59570786390215,-54.59339443968926,11.945126364277462
1242,12.137996341918582,-43.678086019146484,-54.28571879728098,11.568644416648864
1243,11.695811849557902,-43.68069105141134,-53.874514830537656,11.162185212236919
1244,11.222272939799575,-43.60465333977307,-53.36291582727014,10.727512741785024
1245,10.719470561466016,-43.451193095582624,-52.753999338925105,10.266316026132564
1246,10.189418405441808,-43.22155897795052,-52.05069063239582,9.780177931088504
1247,9.634017044265455,-42.91696900215612,-51.25567342735436,9.27054796671985
1248,9.05502209451379,-42.53855500210154,-50.371309773593836,8.73871959028696
1249,8.454017030716525,-42.08731182765779,-49.39957072800194,8.185812430238908
1250,7.832391180326672,-41.564052355216035,-48.3419792661197,7.612759740995648
1251,7.191323320369738,-40.969369267338365,-47.199566613505745,7.020301287130198
1252,6.531771180114236,-40.30360441781262,-45.97284291253223,6.4089817433859215
1253,5.854467032896446,-39.56682644462304,-44.661782856367736,5.7791545859645295
1254,5.159919436596844,-38.75881712852491,-43.265826629504765,5.1309913427569915
1255,4.448421058673374,-37.8790668223849,-41.78389619893941,4.464495967481037
1256,3.7200624004675995,-36.926779099635496,-40.21442670737101,3.779524006593589
1257,2.974751118926719,-35.900884592540486,-38.555412434474334,3.0758061396757514
1258,2.2122365339698646,-34.80006381586923,-36.804466518856074,2.3529755948369897
1259,1.432138808325992,-33.622778602264304,-34.95889337581533,1.6105988714565829
1260,0.6339821954437164,-32.36731161506231,-33.01577250827545,0.8482091440240412
1261,-0.18276832850121852,-31.03181325527828,-30.97205219384873,0.06534167358639908
1262,-1.0186677990806394,-29.614355144221868,-28.82465134337501,-0.7384294820933462
1263,-1.8742501676254906,-28.112989243720055,-26.57056766868131,-1.563454191649086
1264,-2.7499862151844887,-26.525811573731964,-24.206990172674285,-2.4099691488825625
1265,-3.6462413382911634,-24.8510294034389,-21.731413885692437,-3.278061687067593
1266,-4.563234073384494,-23.087030727512044,-19.14175472017606,-4.167635233147049
1267,-5.500996214937056,-21.232454794731744,-16.43646230227503,-5.078377097736125
1268,-6.459335353775095,-19.28626243172584,-13.614628664272724,-6.009729255743025
1269,-7.437800617122176,-17.24780490035689,-10.676090745053894,-6.960862719205184
1270,-8.435652331427907,-15.116890043078287,-7.6215247458593645,-7.9306560394979195
1271,-9.45183625440474,-12.893844506075267,-4.452530523070675,-8.917678401641268
1272,-10.484962935645655,-10.579570884689154,-1.171704365910583,-9.920177690550712
1273,-11.53329266777485,-8.175598708738578,2.217301298694885,-10.93607381950438
1274,-12.594726384500346,-5.6841282758727,5.709732513187729,-11.962957516702703
1275,-13.666802750469454,-3.108066447683796,9.299703708819472,-12.998094668478965
1276,-14.746701572744836,-0.45105364431595196,12.980183683783984,-14.03843621933434
1277,-15.831253547221177,2.282518593218497,16.742998121431548,-15.080633531271472
1278,-16.916956237500646,5.087499960059112,20.57884885883485,-16.121059009520938
1279,-17.999996070685256,7.957983999254277,24.477349843249964,-17.155831710245206
1280,-1.732433592910551e-14,-8.675057371305453e-14,-8.632530806561016e-14,-8.43565207348353e-15
1281,-3.715138299999434e-13,-1.8754665071005195e-12,-1.8360064882805265e-12,-1.6435787773256238e-13
1282,-4.156700168007937e-12,-2.2146616933069845e-11,-2.1923174000628655e-11,-1.6452688763625398e-12
1283,-3.0897686074135985e-11,-1.7513483957422279e-10,-1.7549814782876012e-10,-1.0643074155544904e-11
1284,-1.7205198735623842e-10,-1.0436381097611991e-09,-1.0589233935680133e-09,-4.9325129107916644e-11
1285,-7.68802791457892e-10,-5.013073213934953e-09,-5.150540647904574e-09,-1.712450679108702e-10
1286,-2.8850678744643207e-09,-2.0277599346186352e-08,-2.1094101552015067e-08,-4.428497179901222e-10
1287,-9.398133947573914e-09,-7.122958684366209e-08,-7.500805954616137e-08,-7.575906865123434e-10
1288,-2.7262082417383197e-08,-2.2232592660951575e-07,-2.369185972021083e-07,-1.804664068295724e-10
1289,-7.187538008727235e-08,-6.276203773391817e-07,-6.765265401050717e-07,4.683420710666231e-09
1290,-1.7510664040517808e-07,-1.6251103480943184e-06,-1.7710664131448175e-06,2.293465516987631e-08
1291,-3.995144039334539e-07,-3.903753802228773e-06,-4.2989558377098065e-06,7.479144728241553e-08
1292,-8.626862216715176e-07,-8.781046454148368e-06,-9.765844885129243e-06,1.9930306003113698e-07
1293,-1.7773263004781908e-06,-1.8639684614634723e-05,-2.0923766807783715e-05,4.637495181710121e-07
1294,-3.514477379063744e-06,-3.758208604463153e-05,-4.255825186769676e-05,9.731521681897178e-07
1295,-6.698683648106232e-06,-7.237022799882208e-05,-8.263112087030105e-05,1.8773634170384515e-06
1296,-1.2344565239756995e-05,-0.00013372413982067752,-0.00015387664792075378,3.372484358078934e-06
1297,-2.2043819657826223e-05,-0.00023805425403770151,-0.0002759541776936274,5.693061888081868e-06
1298,-3.8209862762877525e-05,-0.00040969963454567384,-0.0004782594144934255,9.091735632515369e-06
1299,-6.438412469607193e-05,-0.0006837350919438099,-0.000803487968955457,1.3803708807799108e-05
1300,-0.00010560358893584584,-0.0011093949460691257,-0.001312027228154855,1.9994441716001746e-05
1301,-0.00016882388089599842,-0.0017541397019094876,-0.002087225623026004,2.7690040360796666e-05
1302,-0.000263386616071642,-0.0027083646115639575,-0.003241551979285645,3.669062585422515e-05
1303,-0.000401514425569882,-0.004090716890706254,-0.004923612662719779,4.6467259260291133e-05
1304,-0.0005988126910980291,-0.006053952532133718,-0.007325942223267179,5.604260488931054e-05
1305,-0.000874754050814296,-0.008791225821756617,-0.010693426467203736,6.385441346794287e-05
1306,-0.0012531205457072027,-0.012542666638375008,-0.015332158193251616,6.759918390252507e-05
1307,-0.0017623790463995976,-0.01760206432882633,-0.021618468471450297,6.405121095940306e-05
1308,-0.0024359683135991403,-0.024323444295266186,-0.03000782375345702,4.884991963507102e-05
1309,-0.0033124804867695795,-0.0331272961829814,-0.04104323463541164,1.624623668644062e-05
1310,-0.004435725594527574,-0.04450619226880594,-0.05536278879576648,-4.12029559223055e-05
1311,-0.005854674370808271,-0.05902952258810237,-0.07370590103213936,-0.00013300428646241335
1312,-0.007623281734211589,-0.0773470704367912,-0.0969178692937364,-0.0002711735290620654
1313,-0.009800200227619075,-0.10019115871766668,-0.12595233826636248,-0.0004707690338976101
1314,-0.012448399027854986,-0.12837711437154975,-0.1618713017455397,-0.0007505230076509094
1315,-0.015634709390756736,-0.16280182468558285,-0.20584232127322757,-0.0011335781294918457
1316,-0.019429321267475708,-0.20444019510941616,-0.25913270010700634,-0.001648333362938173
1317,-0.0239052581049531,-0.2543393625386674,-0.3231004266381144,-0.0023293981046841146
1318,-0.029137857432149195,-0.31361056978102836,-0.3991817873921214,-0.0032186479758710743
1319,-0.03520428374159605,-0.3834186648043866,-0.48887564380970727,-0.004366368629364203
1320,-0.042183097516922015,-0.46496925087492574,-0.5937244659326472,-0.00583246602923201
1321,-0.05015390025658077,-0.5594935791542656,-0.7152923166439914,-0.0076877130113601234
1322,-0.059197070320998454,-0.6682313419437924,-0.8551400790231027,-0.010014992979555085
1323,-0.06939359874889324,-0.7924115906772279,-1.014798313626954,-0.01291049289752871
1324,-0.08082502820461519,-0.9332320660892128,-1.1957382192746793,-0.016484789968449855
1325,-0.09357349225313827,-1.0918372868842905,-1.3993412476387894,-0.020863770257584856
1326,-0.10772184650110199,-1.2692957959285758,-1.6268679863781035,-0.026189313704025434
1327,-0.12335387805099823,-1.466577007825593,-1.8794269757528046,-0.0326196790947969
1328,-0.1405545754085222,-1.68452813719253,-2.157944158047715,-0.04032952508537778
1329,-0.15941043761146723,-1.9238517116689529,-2.4631336764597407,-0.049509509463900134
1330,-0.18000979899241462,-2.185084186530478,-2.7954707395190925,-0.060365418544487764
1331,-0.2024431446756585,-2.468576177887944,-3.1551672481608724,-0.07311679158557928
1332,-0.22680339164263807,-2.77447481830656,-3.542150845234753,-0.08799502101987597
1333,-0.25318611095703514,-3.102708712138172,-3.956047991996223,-0.1052409274490869
1334,-0.28168966846240595,-3.4529759281837586,-4.39617160390126,-0.12510182805641734
1335,-0.3124152638530574,-3.8247354151568405,-4.861513690240453,-0.14782813748206053
1336,-0.34546685134664223,-4.2172021618467275,-5.350743340668808,-0.1736695604071164
1337,-0.3809509291147662,-4.6293463502724865,-5.8622102888147465,-0.20287095421530954
1338,-0.41897618899952704,-5.059896668154213,-6.39395416157233,-0.23566795728911924
1339,-0.4596530226737169,-5.507347858624969,-6.94371939541231,-0.27228249293036116
1340,-0.5030928850770183,-5.969972492359183,-7.508975671363796,-0.3129182698407909
1341,-0.5494075204624544,-6.445836852418204,-8.08694359165434,-0.35775640696371774
1342,-0.5987080605187578,-6.932820727393619,-8.67462519682979,-0.4069513128669227
1343,-0.651104007617488,-7.428640816160236,-9.26883880588256,-0.4606269475306677
1344,-0.7067021190952794,-7.930877360000446,-9.86625755663503,-0.5188735873644904
1345,-0.765605210452581,-8.437003537226026,-10.463450932129389,-0.5817452026607567
1346,-0.8279108962957217,-8.944417083793262,-11.056928483401142,-0.6492575408351049
1347,-0.8937102877067519,-9.450473542720326,-11.643184901611605,-0.7213869892303142
1348,-0.9630866635218944,-9.952520497110571,-12.21874555444706,-0.7980702686678346
1349,-1.0361141308383859,-10.447932107741154,-12.780211583840902,-0.8792049841400834
1350,-1.1128562871155296,-10.934143257657526,-13.324303664867282,-0.9646510329352881
1351,-1.1933648927107332,-11.408682603819399,-13.84790354907954,-1.0542328439894932
1352,-1.277678558874269,-11.869203849964167,-14.348092559196338,-1.1477423962689615
1353,-1.3658214524383256,-12.313514585444514,-14.822186265015931,-1.2449429393498976
1354,-1.4578020150093518,-12.739602081367275,-15.267764651451829,-1.345573316848725
1355,-1.5536116917272602,-13.14565549697148,-15.682697186820226,-1.4493527736481402
1356,-1.65322366288997,-13.5300840244588,-16.06516231065301,-1.5559861115837217
1357,-1.7565915712305347,-13.891530587640254,-16.413660982567176,-1.6651690459785964
1358,-1.8636482385991415,-14.228880806632183,-16.727024063916534,-1.776593607646893
1359,-1.9743043683678432,-14.541267044960884,-17.004413438664464,-1.8899534321100215
1360,-2.0884472340245184,-14.828067464146303,-17.24531691564887,-2.0049487799752237
1361,-2.20593935998258,-15.088900121339526,-17.44953708775286,-2.121291139689805
1362,-2.3266172072996576,-15.323612255079821,-17.61717445125344,-2.238707275973921
1363,-2.4502898843646865,-15.532265009985977,-17.748605207898407,-2.356942603724979
1364,-2.5767379101961554,-15.71511395063446,-17.84445428048757,-2.4757637874780922
1365,-2.705712065268658,-15.872585805665796,-17.905564167696394,-2.5949604898492056
1366,-2.836932371234632,-16.005251963257695,-17.9329603437404,-2.7143462179228295
1367,-2.9700872460979513,-16.11379930680994,-17.927813971807915,-2.8337582433616695
1368,-3.1048328850187925,-16.19899903368717,-17.891402745978656,-2.9530565991806235
1369,-3.240792918810064,-16.26167413924757,-17.82507070402365,-3.072122182715794
1370,-3.3775584022487237,-16.302666272639954,-17.730187862907105,-3.1908540194324764
1371,-3.5146881825616663,-16.322802679863976,-17.60811052027086,-3.3091657650429296
1372,-3.6517096948974466,-16.322863943612802,-17.460143039372987,-3.4269815432932016
1373,-3.788120226346854,-16.303553209049543,-17.287501892949013,-3.5442312332894303
1374,-3.92338868323408,-16.265467550806264,-17.09128268469505,-3.660845333142975
1375,-4.056957888069538,-16.2090720902867,-16.872430797284093,-3.77674953597788
1376,-4.188247422823395,-16.134677415141894,-16.631716235043843,-3.891859160062182
1377,-4.316657024139522,-16.042420786037997,-16.369713139870868,-4.006073577210717
1378,-4.441570523902489,-15.932251541073306,-16.08678436294784,-4.119270782959291
1379,-4.5623603154206185,-15.803921026964648,-15.783071374644818,-4.231302248665223
1380,-4.678392311723005,-15.656977299925979,-15.458489692730083,-4.341988189967755
1381,-4.789031348510006,-15.490764749469083,-15.1127299065326,-4.451113378216155
1382,-4.893646970634362,-15.3044287065925,-14.745264273515334,-4.558423611760727
1383,-4.991619528128711,-15.096925005366332,-14.355358766065875,-4.663622952567381
1384,-5.082346496200076,-14.867034375125597,-13.942090351212645,-4.76637182056031
1385,-5.165248923656667,-14.613381450689245,-13.504369195373018,-4.866286023446125
1386,-5.23977790619069,-14.334458101566527,-13.040965401105458,-4.96293678349102
1387,-5.305420975008746,-14.028650699332568,-12.55053980420178,-5.0558518047654895
1388,-5.361708287624679,-13.694270866594124,-12.031678288381515,-5.144517404745553
1389,-5.408218506311347,-13.32958918255447,-11.48292901234815,-5.228381712967096
1390,-5.444584250783163,-12.932871260428845,-10.902841890939493,-5.306858916885808
1391,-5.470497015100792,-12.502415562100971,-10.290009629319744,-5.379334511537782
1392,-5.485711444426064,-12.036592276591595,-9.643109577269598,-5.445171485498461
1393,-5.490048874938857,-11.533882562126378,-8.96094565020031,-5.503717351607413
1394,-5.483400049781641,-10.99291743763464,-8.242489555060539,-5.554311907681332
1395,-5.465726935158537,-10.41251560891635,-7.486920563272514,-5.596295590762229
1396,-5.437063573544487,-9.791719527714402,-6.693663089589172,-5.6290182691496655
1397,-5.39751592524712,-9.129829008421067,-5.862421365523211,-5.651848300341864
1398,-5.347260665223376,-8.426431766697302,-4.993210538769469,-5.664181670806089
1399,-5.286542918999395,-7.681430296129217,-4.086383585559743,-5.665451025853109
1400,-5.21567293964782,-6.8950645621269855,-3.1426534905708676,-5.6551343952675674
1401,-5.135021746842288,-6.067930065250567,-2.163110227927382,-5.632763422989578
1402,-5.045015768762412,-5.2009909074410094,-1.1492321657340154,-5.597930917065744
1403,-4.946130547735367,-4.295587582459127,-0.10289161386272273,-5.550297549090211
1404,-4.838883590597457,-3.353439304255005,0.9736456614456976,-5.489597550047047
1405,-4.723826464420037,-2.3766407820202393,2.077727024313049,-5.415643271290306
