,TP9,AF7,AF8,TP10
0,-11.129056402450425,-15.240562083824003,-14.158106343258282,-9.279884994082046
1,-11.538985358632441,-15.798513090490998,-14.600399639575176,-9.556026536886035
2,-11.990751397385697,-16.390309401546105,-15.06906529547931,-9.79587627136569
3,-12.445441559462743,-16.98484187569588,-15.530066072602107,-9.981304519800581
4,-12.860808514113192,-17.54374866585963,-15.948180335381993,-10.108554708421586
5,-13.255746369277864,-18.03340207428269,-16.310339198367135,-10.239337518728776
6,-13.653962836895566,-18.4385352629721,-16.61672829495627,-10.426950365438902
7,-14.052788129847578,-18.77422281680303,-16.862206689176837,-10.589023866364291
8,-14.434846429785523,-19.070863559282927,-17.04922771199996,-10.638661716101044
9,-14.730776693031078,-19.368167206081772,-17.201040084236293,-10.642638568124726
10,-14.89083987430124,-19.692423278587853,-17.33498894282968,-10.682860196473616
11,-14.999616087243295,-20.015940380402736,-17.47515445990408,-10.733997382476582
12,-15.158605773584213,-20.305070494370863,-17.62185642965152,-10.755833371433484
13,-15.35649426432346,-20.573765420862838,-17.753878755809517,-10.728102408797062
14,-15.554646821589843,-20.846870547440684,-17.872497783123332,-10.645969984033217
15,-15.748204771243191,-21.14370246088022,-18.007309375581467,-10.59038637203397
16,-15.929675229362134,-21.466628978263845,-18.155403928164354,-10.631753623055735
17,-16.100646359642607,-21.766155204531984,-18.273052851814086,-10.678930434513731
18,-16.264800986379363,-21.98739049934847,-18.348214208029777,-10.627299222615278
19,-16.370410838403853,-22.118643669002516,-18.395246277719178,-10.514171318563788
20,-16.382662225095032,-22.1783721221502,-18.441953964834173,-10.408412811885816
21,-16.393881911643494,-22.21752233092221,-18.49690098517662,-10.339702345816175
22,-16.49988649310422,-22.28979478401857,-18.561849680493406,-10.328345174935432
23,-16.662275823525572,-22.4085384698397,-18.640501041362985,-10.353684219316102
24,-16.817716121489624,-22.560072851642357,-18.729227597532137,-10.390305055551636
25,-16.966847280189672,-22.716131937633683,-18.81460188968102,-10.490031568745048
26,-17.119790938772013,-22.84402041337038,-18.880517718475414,-10.701817668348244
27,-17.289189615143023,-22.924184766342968,-18.911916920129446,-10.98124873913205
28,-17.484279396588086,-22.955249264324042,-18.8983817787772,-11.263264150817488
29,-17.65592483845652,-22.957712605686684,-18.839099120764544,-11.52074581979987
30,-17.75573033877962,-22.958117049511912,-18.74036171395444,-11.738083837312308
31,-17.824964107023003,-22.972286150324777,-18.610387940793323,-11.904548192043482
32,-17.90876974929887,-23.001605354662345,-18.458870021022864,-12.022686938241073
33,-17.97176108555469,-23.02539439694198,-18.298230196751305,-12.102036085781444
34,-17.966641251698732,-23.017106225507852,-18.134605862115283,-12.143915416772034
35,-17.871034188920685,-22.96344631609848,-17.960448333415563,-12.142725824181365
36,-17.68422125460463,-22.86321271087286,-17.763683544119946,-12.078718412336483
37,-17.46825894860492,-22.72899784330063,-17.530776819424805,-11.888041375832097
38,-17.291478924107487,-22.57772064016546,-17.257776245457983,-11.533033375192902
39,-17.13535253187416,-22.418109408859536,-16.96683332425094,-11.078000631691317
40,-16.96781476027382,-22.247453857292005,-16.679912097724316,-10.61779904647893
41,-16.825853894706086,-22.0502706791707,-16.423474208970948,-10.237579074986222
42,-16.739571375517386,-21.806250716043913,-16.18929455027573,-9.97892677478251
43,-16.683212378163866,-21.489667006035784,-15.953615361802683,-9.752129564960253
44,-16.61287696157246,-21.08937817684665,-15.68551182393373,-9.444442834837414
45,-16.452418918758106,-20.64451006177588,-15.374266364486665,-9.063759050871171
46,-16.147654027998332,-20.195653445360968,-15.019026501265424,-8.646757278714265
47,-15.779733757183042,-19.729662491200973,-14.61752297420378,-8.183048347232763
48,-15.441116950764417,-19.220925385383175,-14.171388707861327,-7.663590237763912
49,-15.072909923828242,-18.654873800140827,-13.686983395269406,-7.07868545180391
50,-14.6054274004802,-18.030321501482835,-13.17019096991544,-6.428769929782085
51,-14.084562855341227,-17.39070580365092,-12.62359213815282,-5.781492235301889
52,-13.571173807391508,-16.777239394539027,-12.050350108598924,-5.203669049855048
53,-13.107165919154376,-16.170133146910494,-11.453935996753135,-4.663389231138331
54,-12.703925437556023,-15.528662684800628,-10.83929858652926,-4.1140656009648335
55,-12.24478328553522,-14.816930844313992,-10.222314282721255,-3.5896151753893664
56,-11.616004652682932,-14.01177826503633,-9.605526136830322,-3.1220831462730767
57,-10.906194711479719,-13.13662352431063,-8.985137900455697,-2.673437031291722
58,-10.231458144229569,-12.227718272980377,-8.332035586500853,-2.200323186604235
59,-9.53706841604724,-11.283849356191437,-7.618813626295799,-1.6803013412305556
60,-8.769281228108914,-10.335756526627936,-6.889276153746825,-1.1513194589871636
61,-8.075578701439907,-9.484132406880287,-6.24166555961357,-0.7095962243941193
62,-7.593572535772825,-8.76916129770816,-5.729612485070778,-0.4609048032673889
63,-7.321135699392914,-8.138600128149983,-5.316945077263537,-0.29263411389898
64,-7.188937645971566,-7.5231343773743635,-4.948896338271418,-0.05965560263590462
65,-7.086750267956667,-6.912795513702451,-4.617215804142466,0.17100649130636775
66,-6.925877602449239,-6.354610132937319,-4.32548990438151,0.29332232308814177
67,-6.776794634544929,-5.910150703074248,-4.0892127270175385,0.3135418358698889
68,-6.713401828441326,-5.584235841926374,-3.916768735445267,0.13719200006424542
69,-6.680755077970642,-5.260073770147798,-3.756065142184949,-0.07164124984139185
70,-6.571522881928739,-4.88399668271507,-3.601946762286154,-0.27002955922831284
71,-6.417091093170764,-4.477570572477494,-3.4881542025887033,-0.47352365873895513
72,-6.279994619703696,-4.089754666217985,-3.4244268675473832,-0.7069754119673786
73,-6.154866614210299,-3.7342966672896507,-3.382419864438726,-0.9172364655718549
74,-6.019610860731092,-3.419128509744768,-3.319941062640349,-1.0487570943286488
75,-5.8364130400744205,-3.176230195765276,-3.229096292655447,-1.135575416156447
76,-5.570116106333739,-3.0199942099364345,-3.1201346510968295,-1.2291643867129038
77,-5.267072811196545,-2.910907380294851,-3.0032865868991934,-1.3462785685267022
78,-4.9901437523621714,-2.7909959534122155,-2.9046766515795626,-1.485013618695873
79,-4.713354552488207,-2.6090094124229397,-2.841915988318049,-1.5779258969529006
80,-4.396380202457606,-2.3336384213828625,-2.838321628141141,-1.5637213959289389
81,-4.059111908163937,-1.9893872631037584,-2.8927713874488834,-1.5367172840488301
82,-3.7338331455945606,-1.6259570718512786,-2.9581739193728573,-1.613530524139662
83,-3.460460388021486,-1.2646119003974454,-2.982117247929411,-1.757858199230095
84,-3.2633585124712874,-0.9182884014199602,-2.9189189671768827,-1.8872344188901413
85,-3.057552088659854,-0.6151905211677429,-2.768449327614055,-1.9574160352299501
86,-2.7475011147238,-0.37465813946654625,-2.5603773355679227,-1.9415689612345335
87,-2.392559922309065,-0.18870017122816282,-2.3373013144473203,-1.8776073519329997
88,-2.0808466156243237,-0.0382596885629056,-2.1386186869490094,-1.820912310408852
89,-1.7831769078811788,0.09251823112176018,-1.964051124882045,-1.7357607096190044
90,-1.4460815163929372,0.22113841007067142,-1.802882728255664,-1.5694568587337738
91,-1.0352571052450552,0.36566187585907794,-1.645416627901979,-1.346334845892488
92,-0.5381182882848494,0.5416965959463765,-1.5060538845370304,-1.1119485552025614
93,-0.06773711936218828,0.766661375307313,-1.3881824028371912,-0.890126230990136
94,0.2553365623602221,1.048908398422935,-1.2937196131510842,-0.7019289292147586
95,0.5305415611625374,1.3769947654888044,-1.2002922830867118,-0.5574780884766164
96,0.8944879818576285,1.7270062414553342,-1.0828159353220816,-0.4539094504055822
97,1.2735602112374935,2.061302306890525,-0.9569118152068393,-0.40404823015560165
98,1.5564159982233408,2.3469725347158854,-0.8363299706545406,-0.41097825941974
99,1.7548415648026559,2.5918060368241878,-0.7279474345392907,-0.41438948057506564
100,1.9119574016963685,2.8167804800998835,-0.6092767564660418,-0.35415139794990685
101,2.086214831726477,3.0114133004524413,-0.45252262750683186,-0.254930262193348
102,2.3280521542661923,3.1618574929070737,-0.2621837710099044,-0.16805818427682342
103,2.557090607049605,3.284147607366153,-0.07210676315247373,-0.11317588764801387
104,2.6699918262597717,3.3947785950466116,0.09662094073156717,-0.09848260829127325
105,2.7266505205486724,3.4892119338314505,0.23514589205416003,-0.11401661571035873
106,2.8178068734323487,3.5562424071112444,0.34610766898710965,-0.13994486388853508
107,2.9039567920257765,3.5719110478820584,0.4244827786534269,-0.19216336047265306
108,2.9243590301228504,3.521673225185765,0.46685804717934676,-0.28966047740245804
109,2.887249262850116,3.4484341907430096,0.47813302377773126,-0.3896048782579671
110,2.816668100089221,3.4046104661251553,0.4667240089425313,-0.4475323265615412
111,2.743808823984001,3.3916534273670944,0.44377647798919384,-0.5005310332420504
112,2.699957199187188,3.3886557628569816,0.42044867574009587,-0.5965418298671465
113,2.6615018842878326,3.3668540429986153,0.40213877784436036,-0.7209163682026752
114,2.5933362792782026,3.299558882523465,0.38833550264788236,-0.8392428707933683
115,2.5251140044985534,3.204065686970691,0.378813216358912,-0.91261155017523
116,2.49645533888407,3.1123358082338273,0.37119611048091816,-0.910928830339808
117,2.494251163943844,3.0158832864589344,0.3452566786100261,-0.8743774413195159
118,2.4949949156217968,2.9034270769431405,0.28996774058857894,-0.8579752516362831
119,2.4915629026285253,2.8038055983385846,0.2469485946332918,-0.8347495538156242
120,2.4835927578442543,2.7508708265471586,0.26634426311062537,-0.7645325110578153
121,2.4992400549874456,2.7564304002944393,0.3547574808463347,-0.6722941020973103
122,2.567418028020107,2.8160415172183866,0.49569391909047555,-0.5945934838120204
123,2.655716959207079,2.9057242763739444,0.6606309915237608,-0.554689642514277
124,2.7219072177769967,2.98882297930892,0.8143071407178095,-0.5638202499176578
125,2.7828758463576997,3.027300235590725,0.9393987893808603,-0.5633614662012586
126,2.863858372392134,2.9968458690404174,1.0303394850671976,-0.49336298686771507
127,2.9656784327808796,2.9027009714453875,1.0753060804100207,-0.43148790174080387
128,-10.140480782214226,-15.238511351224528,-15.029271827813211,-13.415889624085786
129,-10.219183738310347,-15.457226496310245,-15.347637645747737,-13.709353183641243
130,-10.436273035938973,-15.738891787382407,-15.665195450818826,-14.036029406949217
131,-10.69829497259009,-16.09202396588466,-15.968192844774052,-14.343387086861208
132,-10.883062664231977,-16.493019812534886,-16.237519962546706,-14.587148393262545
133,-10.986882910523864,-16.93120263859983,-16.469990806454486,-14.80102236976768
134,-11.040713074441683,-17.384353478229183,-16.670152017941756,-15.03510375742535
135,-11.090604681701619,-17.786655192135342,-16.850158002513485,-15.24480656334774
136,-11.182126016506418,-18.08954801535111,-17.026137895322925,-15.389852678444157
137,-11.255207775406697,-18.32502926923288,-17.207433140413197,-15.549946823257049
138,-11.253223826837461,-18.545153015746035,-17.397931382619618,-15.80241323495283
139,-11.299217141930772,-18.770099951177777,-17.601123906875017,-16.117787531280232
140,-11.512196770419418,-19.007393083052722,-17.814340989294273,-16.436022156432244
141,-11.810016605121255,-19.242101976268422,-18.021600623876814,-16.698012944589923
142,-12.079977614475002,-19.455944159340607,-18.207679043618036,-16.86088587749628
143,-12.30488177071269,-19.679136293941426,-18.374702002535674,-16.966826224183762
144,-12.504143470997043,-19.94023007602988,-18.53208955361004,-17.074144390135373
145,-12.749144124350748,-20.200697937454667,-18.68170171082395,-17.15517617179724
146,-13.108812023835315,-20.415755353696,-18.82925103807332,-17.17358327414592
147,-13.541277139821064,-20.59005488063409,-19.000044388540747,-17.15923302925133
148,-13.97054104091037,-20.738067374712003,-19.211701838344524,-17.147136547932018
149,-14.370109571341457,-20.866377481159304,-19.44825958808007,-17.14324054288325
150,-14.727375772901247,-20.978723801225463,-19.684881087784863,-17.147247943105107
151,-15.030257745579451,-21.050010670424232,-19.8994356008976,-17.138494010894874
152,-15.280772829773444,-21.058919832033773,-20.081598111015516,-17.102992187291516
153,-15.487110397994808,-21.046877496745694,-20.26453255161336,-17.094794537170934
154,-15.650511602567512,-21.056829076031047,-20.481982770849775,-17.16592141987339
155,-15.76944030782908,-21.06207718897947,-20.7059501164593,-17.2774899235589
156,-15.828971761576623,-21.02848695520521,-20.89663585656546,-17.374369305202144
157,-15.768813205355414,-20.963048844613482,-21.057629246059985,-17.45426995819485
158,-15.545706427944989,-20.88253065208448,-21.1918271045794,-17.517253018344654
159,-15.208195442722545,-20.814859598020696,-21.27185844009109,-17.55017126890377
160,-14.82464656242304,-20.777066363223078,-21.27153347698224,-17.5333176266422
161,-14.43263612054512,-20.72166847360277,-21.168345743631544,-17.398836153989166
162,-14.045315060345557,-20.59681127167433,-20.96258355657417,-17.1017849155122
163,-13.601805399569455,-20.416160400009897,-20.7229220485088,-16.723815466609242
164,-13.050084559489854,-20.210835034687424,-20.521245389623083,-16.367468109160836
165,-12.483458047496446,-19.9972545062329,-20.357697468035777,-16.050920340602705
166,-12.010258881150914,-19.78315756483041,-20.204611335166224,-15.765449737933327
167,-11.607788879828455,-19.54830115233053,-20.038054817612135,-15.493840578277887
168,-11.22809430261972,-19.26644790905111,-19.834547316243622,-15.215326491386346
169,-10.878221509124844,-18.938221076948302,-19.590903189323637,-14.968982223392272
170,-10.565958913082223,-18.571251600234675,-19.314949413603244,-14.788916466505261
171,-10.292841720204514,-18.174793094019467,-19.00416136443207,-14.59521114096794
172,-10.055475280565904,-17.75092058278522,-18.656692061407263,-14.308030972750005
173,-9.802704939200016,-17.26165443291016,-18.28035688341998,-13.975342033966117
174,-9.487104460350551,-16.677824238738374,-17.883103747886928,-13.661339390458517
175,-9.147968767050342,-16.036103557252172,-17.468603444288455,-13.357103151797407
176,-8.833050849531181,-15.393500030419068,-17.039991581398514,-13.037520693977214
177,-8.504622065749517,-14.790902127106941,-16.59875324719641,-12.665972565352874
178,-8.12413298269443,-14.248341655165124,-16.14832388371823,-12.21645217461672
179,-7.725855221401902,-13.752825210830025,-15.698719189927882,-11.751937217283388
180,-7.350204798606538,-13.263067405301548,-15.257295225449022,-11.338334631986426
181,-7.020192903608874,-12.708060691506649,-14.828314183493424,-10.927657075165946
182,-6.73738629545834,-12.033967510929445,-14.403537399087867,-10.45877699326963
183,-6.412409542305372,-11.263992632101441,-13.937780093906696,-9.948424157204208
184,-5.967856643495996,-10.44787625779835,-13.38964729710689,-9.427771373448467
185,-5.499402899518121,-9.613080343282935,-12.7734812177062,-8.920551844037051
186,-5.113095856057963,-8.77403812923316,-12.117143422698474,-8.43711111980392
187,-4.748784735683317,-7.918770135894174,-11.421936919501677,-7.918978329656841
188,-4.303672537567392,-7.063661225867491,-10.724371598065023,-7.341694910508836
189,-3.822525087762975,-6.2905279983094085,-10.085334591021898,-6.776339904487957
190,-3.349887155693883,-5.684204302583378,-9.571923524633723,-6.316644347840288
191,-2.94737412697559,-5.193588149941276,-9.164945322188705,-5.871004368302529
192,-2.657324004456264,-4.715216811503334,-8.801346180620088,-5.321538042949471
193,-2.4039110391537477,-4.19978603958394,-8.443415851224772,-4.722338011631557
194,-2.0991189095219664,-3.631273784954871,-8.070601148046315,-4.159328465795473
195,-1.7849539007207176,-3.027520880266467,-7.674606754848698,-3.630602232331765
196,-1.604272273093159,-2.447406006908056,-7.2123090553275455,-3.1481662839180338
197,-1.4647945214818798,-1.9109231964245448,-6.773213432165979,-2.663761127065449
198,-1.3437921791935405,-1.4358160115577638,-6.383317418919492,-2.158531060956078
199,-1.2466684068041234,-1.0113209777231074,-6.042449590336821,-1.6907292808731442
200,-1.1817004569570082,-0.6114687510381795,-5.735070974354298,-1.3264421692647246
201,-1.1589919992511213,-0.21674303516717058,-5.428735086023021,-1.0317539613604578
202,-1.1835662543566752,0.18375970566307875,-5.09565812860874,-0.7476318479152078
203,-1.219791666848803,0.5852504524503791,-4.7649346558974575,-0.4757742727676989
204,-1.2283291961299951,0.9754467532932618,-4.47483294542671,-0.22902476980772152
205,-1.2264903141999655,1.3424620347059568,-4.198660438939936,-0.005567523629720098
206,-1.243523465513491,1.6780929260223916,-3.8976059992195733,0.1974358998540808
207,-1.2691324607602577,2.0062696512822877,-3.576538174690919,0.417146433162908
208,-1.2828622813299073,2.345636593586518,-3.2541865501684546,0.6874744198845104
209,-1.2681357219296587,2.6343648928232386,-2.9497611304736684,0.9477143696675994
210,-1.2081515669232639,2.8080270096348303,-2.6816205664251114,1.1316753496458625
211,-1.1199826923109915,2.8989873322308677,-2.4456475583258457,1.2955898216303818
212,-1.024567236259918,2.97334204832522,-2.226399427765364,1.5183009946903698
213,-0.8592533469260202,3.0785082913230113,-2.0188416157083355,1.8031776861092512
214,-0.570402235013336,3.245549777797685,-1.8190730977567706,2.1218377586127883
215,-0.2632522174444012,3.4586691045447626,-1.617319545533092,2.4108891988523578
216,-0.060779246980467085,3.6774034179660138,-1.4056238947792485,2.6059690403057543
217,0.05822208197169417,3.881757195962977,-1.178694876861323,2.744483530034372
218,0.16363046129146414,4.062728851561942,-0.936436048823907,2.89207094882822
219,0.32405532609182336,4.218151515320084,-0.6918346526303091,3.013841728293851
220,0.5878083472960769,4.354828639554597,-0.4614360629939831,3.0694860066422116
221,0.8683517948896271,4.473549102242617,-0.2512602767428171,3.129019202512442
222,1.0512479702074782,4.574573733962731,-0.061185057916865467,3.2749174351360373
223,1.1853641403013189,4.677101880081565,0.1079091371697748,3.516364849709594
224,1.354888937093131,4.798664119765932,0.26061943953723843,3.8310724335819852
225,1.5239202788307513,4.917962835816191,0.41338900017613167,4.166520515922563
226,1.6372783421291977,5.0097471073758815,0.5824223456883479,4.466110120933694
227,1.6982925258385542,5.099398943408348,0.7736187069639959,4.75140599935939
228,1.7219217002328446,5.2166015818850076,0.9830727516022308,5.062653022186849
229,1.7349102786084198,5.338132896548236,1.1920007193797786,5.362246356055557
230,1.768408743948657,5.430658753243521,1.3788528769128447,5.60535220470869
231,1.7931709765172106,5.487764263866958,1.5393931362257383,5.805299483161848
232,1.7760361376842764,5.515124183974745,1.6781602102723958,5.992500046310822
233,1.7913751339375972,5.535618628717493,1.7987772382787541,6.215923332858089
234,1.9155035931735773,5.57672649752514,1.9087935371380704,6.509486814577889
235,2.0912703135450683,5.631907358469545,2.014711239679194,6.7986298586446905
236,2.2304603509961085,5.683953901141444,2.1252193600102243,6.9898919336714735
237,2.299808828130629,5.751693694182136,2.267217388984184,7.1076504341637
238,2.2985741214336177,5.850178175904853,2.4620379521371802,7.211095459045007
239,2.2967442274105014,5.937372848322281,2.694167354698778,7.297707268698608
240,2.374721893839563,5.969408414123366,2.9340751158087484,7.3587755551856695
241,2.495302787645891,5.947180232842125,3.157309263573385,7.421138458458648
242,2.5859667183216977,5.89399797426216,3.3478152838861455,7.5014955858178185
243,2.6535947900128125,5.87461897066021,3.5168970132624877,7.588611188698263
244,2.715325485204061,5.937521778150581,3.6843483361914133,7.65839027395094
245,2.7440202903756585,6.002891542114841,3.8472212849294696,7.645764354604057
246,2.7149842399584516,5.962678444213114,3.99471401984236,7.5055272854051776
247,2.6025212970631775,5.804848232128377,4.117748475436864,7.324981572290698
248,2.401671135733461,5.564506720587544,4.210051430356378,7.216665645064566
249,2.2208073273655677,5.298873972109251,4.285827082587511,7.18467146806885
250,2.16597353688058,5.075305747457004,4.361026672586701,7.188688608563698
251,2.1599056737936393,4.91446201890299,4.422304167598638,7.179661824996649
252,2.0792850195037866,4.804665326464135,4.4481664207558635,7.108687836561486
253,1.908263042918094,4.745242822035315,4.430933903333525,7.003547248865278
254,1.6669888441513436,4.721996236524286,4.37042875936462,6.915201455960186
255,1.3965092451848988,4.670169254048442,4.275170067770106,6.800510268971864
256,-11.634381015739438,-16.52117665616056,-17.224040806635816,-12.215316496320343
257,-12.044704087509247,-16.980851322619895,-17.82563786972354,-12.767654686407251
258,-12.572957998453013,-17.418390031889064,-18.43291980777938,-13.396754149442266
259,-13.139673788353859,-17.818919966427686,-19.00294620520219,-14.011910784681527
260,-13.633398724996905,-18.164379673071082,-19.49600108642295,-14.509701669546551
261,-14.047285573161865,-18.474676609411986,-19.91505649553491,-14.888442371973266
262,-14.399622497822062,-18.77376033555478,-20.282431100976034,-15.180783507846579
263,-14.727646853872217,-19.062742568045085,-20.62107334091617,-15.391571799557758
264,-15.065592021464374,-19.33714687795837,-20.948807195604783,-15.529673770960043
265,-15.34231271284858,-19.587312497512436,-21.25875265287193,-15.60533993154534
266,-15.48687794807316,-19.80706338795493,-21.532497389340122,-15.62670001023047
267,-15.58677148249416,-20.019975216668588,-21.764293678617705,-15.631601188133459
268,-15.739473307013984,-20.251937987215886,-21.951991161018718,-15.652782231693019
269,-15.892651292742656,-20.49050552652589,-22.0808681812228,-15.652164465182889
270,-15.981532892649275,-20.718069619631855,-22.14884588233977,-15.596033495981827
271,-16.032187137323152,-20.95186480292088,-22.196330485211114,-15.553079031960339
272,-16.08658350696105,-21.204473690351918,-22.262499855395216,-15.593393157380765
273,-16.197066265256698,-21.445571601666785,-22.347865022632817,-15.687886646857145
274,-16.393326280217448,-21.640714053902432,-22.43478728298518,-15.787219563560972
275,-16.577943606417193,-21.781858545134295,-22.48546762889762,-15.871869719320019
276,-16.650933835501533,-21.87065913787498,-22.473337162874824,-15.933777991586643
277,-16.670905341254432,-21.91624211480032,-22.438876536369182,-16.006726364289356
278,-16.726555551631748,-21.93072652889231,-22.434943164207308,-16.12851974031386
279,-16.82338062486399,-21.909400787546254,-22.466338017992932,-16.251277742785202
280,-16.949670749377095,-21.849393160390736,-22.520735678108323,-16.33030559350643
281,-17.088107774875752,-21.773328161301745,-22.58544732165724,-16.447545014843502
282,-17.220303640008442,-21.707094201539608,-22.644804028429377,-16.680671206940907
283,-17.391462253774648,-21.66583909315006,-22.695482964007525,-16.97190347656568
284,-17.64244497033283,-21.656274690102347,-22.74306451071038,-17.240820435633783
285,-17.902669257089883,-21.660599128845405,-22.786136273774616,-17.454046958627046
286,-18.095741192434954,-21.66024042723472,-22.82506514759259,-17.60281311190825
287,-18.25402767557991,-21.67915533605712,-22.883997602585527,-17.757514174740237
288,-18.422210621278527,-21.737502451608552,-22.976502667611967,-17.98149050320027
289,-18.587638268494757,-21.798184882676452,-23.054713517176857,-18.172053757855068
290,-18.726211186290154,-21.81302050757725,-23.071684626204945,-18.218981821888413
291,-18.790276838247387,-21.764310314458935,-23.051279584236752,-18.18992249431759
292,-18.748341094000928,-21.644725624245922,-23.030317799644212,-18.17632364459995
293,-18.68769453174135,-21.447035825345253,-23.012949202674708,-18.170729425736646
294,-18.693156568461323,-21.178781564414066,-22.99130758161316,-18.144243460624015
295,-18.69130421865959,-20.861289032654774,-22.939235935754752,-18.053297776007355
296,-18.586180697918675,-20.518928587868764,-22.8274285982504,-17.86448281392006
297,-18.380998546756032,-20.18807898266442,-22.664480372024165,-17.648958443029166
298,-18.101016790367172,-19.883282691347773,-22.46217767353394,-17.47950097467134
299,-17.773741799723286,-19.54795955417921,-22.190698263970706,-17.29712520830527
300,-17.420111873040845,-19.118501406829985,-21.82128980348002,-17.019936020346165
301,-16.97710890971353,-18.58587728452628,-21.362492187018503,-16.636729736612953
302,-16.385661124513877,-17.96874539299677,-20.83681645900669,-16.15878253988871
303,-15.723757942554714,-17.312276581500416,-20.26970140020279,-15.612122159682599
304,-15.083603255384162,-16.65831050581637,-19.68714094511869,-15.032573976421466
305,-14.441238913730329,-15.985589059413046,-19.101919814465855,-14.421520689602717
306,-13.758582009511349,-15.256728037183935,-18.516553480250966,-13.775741740019065
307,-13.054158916117204,-14.47513738382473,-17.932327504982652,-13.136150353016983
308,-12.35306233831704,-13.651761751941574,-17.345004905201087,-12.537713051751377
309,-11.695247926534693,-12.782905016806916,-16.740389422154102,-11.96132330396233
310,-11.104923919897217,-11.869259361154073,-16.106591451427175,-11.37640562825125
311,-10.50030935411163,-10.917214015411089,-15.44388829500728,-10.767687247334269
312,-9.801644964400655,-9.93526634486743,-14.757149700604755,-10.12803375015679
313,-9.07366150024391,-8.94629217211472,-14.054334302924884,-9.479968489877352
314,-8.39947860972618,-7.967434002747313,-13.337855165657784,-8.847999191729013
315,-7.762988372675853,-6.976816087822211,-12.5879139370355,-8.197591910918906
316,-7.129790288614224,-5.993103945903672,-11.842420806285803,-7.535884716160436
317,-6.548300105684389,-5.093540026947953,-11.167251450675687,-6.986370643699124
318,-6.061660485092801,-4.37532345516652,-10.653212790117625,-6.675629945819345
319,-5.739731134017126,-3.8182238348690762,-10.26239479001626,-6.534272720826012
320,-5.617853990163525,-3.355760906592658,-9.90487747017723,-6.427990665838651
321,-5.581865876267369,-2.9827283480288767,-9.55368376887829,-6.304138730840531
322,-5.498103053355741,-2.6678000737518137,-9.201058871267694,-6.142701579951939
323,-5.3870621573299236,-2.414164654144566,-8.834533387326523,-5.959381050395764
324,-5.132028326193413,-2.0892259968868316,-8.32389578227829,-5.664191103540436
325,-4.887554378761524,-1.7406327932221153,-7.798892134532432,-5.314362051716881
326,-4.60913025042029,-1.3641331888138326,-7.247982890030565,-4.834705790332229
327,-4.2908539224358915,-0.9775613954918856,-6.6983723006067315,-4.319822279448145
328,-3.9355996741627344,-0.6053712211035082,-6.182271458147599,-3.8905800606239422
329,-3.566951661499751,-0.25537698765136363,-5.694469720339543,-3.506543662933181
330,-3.209731139190391,0.0752676808212525,-5.22167150345492,-3.089495542241094
331,-2.823157640067257,0.3936283792030496,-4.7722167058960245,-2.6394535049850676
332,-2.3623346361601034,0.7155415773087791,-4.354457734952673,-2.1737757438195215
333,-1.8752669140992058,1.05770968302969,-3.967026986362613,-1.716965537661446
334,-1.4284685390415066,1.4364621596393634,-3.6014082754210777,-1.2981175998662329
335,-1.0219314534095763,1.8877089917104972,-3.225099611582809,-0.8841985907396896
336,-0.6396009971573183,2.4309647822962224,-2.8067776525508057,-0.4339105214049743
337,-0.2760534523448801,3.007893598247705,-2.3601872500773884,-0.007159769709206312
338,0.07630759021160477,3.5433989748765162,-1.912067401195433,0.32889127706034627
339,0.38137336553242124,4.024942359878737,-1.463514083596241,0.6278517939587069
340,0.6114797903747489,4.461084463277334,-1.0102069881813895,0.9610753485844982
341,0.8752141023327971,4.8484760032509,-0.5510514048771156,1.3184612490832268
342,1.2833657278841792,5.184567467593724,-0.08866026226449375,1.6640451333219153
343,1.7523614153043663,5.451192956514094,0.3507656764399145,1.941205746560226
344,2.154046597517376,5.6316825146801035,0.7376591726383228,2.106033900413047
345,2.4765873016035194,5.751637123328981,1.0741933604077634,2.2344455219167516
346,2.7406232243359607,5.8467604949380085,1.3718942252744981,2.42123528916562
347,2.977154588798586,5.924585219602382,1.6260771104246698,2.633143976116272
348,3.2132335111201664,5.9824191965902385,1.8318965719088647,2.802110132896913
349,3.3571176418780526,6.014002462304901,1.9905528613847017,2.8999260305992953
350,3.312640830077852,6.012732470336495,2.108376878446474,2.923152886164159
351,3.172011094870124,5.99453796114418,2.210718982808475,2.945152056341531
352,3.0703731728844246,5.979044385634868,2.322591168968686,3.047901235184162
353,3.018500271273902,5.95649342892579,2.4380825256545995,3.189707147248027
354,2.987716570423909,5.9109000790097,2.5399096626307327,3.290076332974634
355,2.961971545753236,5.845649303176725,2.6211002042516447,3.339985540170976
356,2.9192003245517566,5.767161344382866,2.678484826720488,3.346820243249968
357,2.8653765173429457,5.679844002079147,2.7143379061986965,3.2904634243881987
358,2.8219038222028283,5.586673996236227,2.736817820357925,3.1650184314863536
359,2.7759447276346814,5.46634492002287,2.7476356054981563,2.9955494339867177
360,2.7140396148900754,5.302490079151914,2.7494224585059057,2.8171414347487524
361,2.6709537082309343,5.138060382249256,2.766321820825853,2.6812956292848305
362,2.677371802873762,5.022959056520073,2.818709783066313,2.624822205663493
363,2.716200396255719,4.950384668403055,2.8858414386608113,2.6063280954683408
364,2.74974892858379,4.891952017687213,2.939314814127459,2.565633657612597
365,2.704790927484078,4.821956690362968,2.9803995245518697,2.5083089048320435
366,2.529155439540105,4.720483282892464,3.022412948151109,2.460263323211572
367,2.3162443318365105,4.600564126388396,3.0823475527958784,2.42429722592957
368,2.188661185834176,4.4921513911620705,3.1758842945077808,2.4042234898692625
369,2.1247335687951194,4.406005075520455,3.2978546713653563,2.4011802225989243
370,2.0654445041670964,4.347402884525279,3.4317762203816926,2.412580051054075
371,2.0293992901943305,4.340295974949747,3.5696080327579467,2.4748282253708487
372,2.039306306600442,4.396646725776444,3.7057465995164005,2.614720217527557
373,2.0923391566971263,4.478422028353377,3.824632754824198,2.7506802765686222
374,2.1785467437815904,4.537475856780049,3.920494820792779,2.7993574875219545
375,2.2246721185738947,4.557725979606113,4.022191292604425,2.812366151044382
376,2.169112044444025,4.539058892369904,4.163151392242858,2.8801135453952122
377,2.120801617892544,4.495916138074508,4.353390808601338,3.05470309841322
378,2.2082681281522953,4.445886542322527,4.583147630372385,3.3518873955194657
379,2.3689058321985272,4.372519197447847,4.811848318312539,3.692039295731814
380,2.492971568436445,4.25318257269738,4.995147675759623,3.9668445104560823
381,2.565166601580789,4.102991678659765,5.127781695184267,4.160115531712421
382,2.595572495853843,3.9445204174699726,5.225316565393284,4.291401101042823
383,2.6173298561350262,3.77958691058657,5.307306871883897,4.354555718359601
384,-2.6925247240663697,-86.83599615506625,-23.69891704450671,-5.41817975804424
385,-2.9088979011470575,-88.28429846111908,-25.995685991335193,-5.804008120608334
386,-3.2571369427375574,-88.86044752284359,-28.310893475005578,-6.3288641693511885
387,-3.679666974688657,-88.59582620819266,-30.741978511923868,-6.927152462155233
388,-4.111230448599944,-87.51820724090166,-33.33496059224793,-7.560285367975854
389,-4.529347335631447,-85.6564382133563,-36.023699778362534,-8.233307874822918
390,-4.996452418347238,-83.03865790611601,-38.702112328836805,-8.947280675638707
391,-5.570690749216171,-79.68787300323211,-41.278968370967135,-9.647184136464498
392,-6.218676825064234,-75.62157043580635,-43.70236562082657,-10.255277855328037
393,-6.882073969067486,-70.85398710162232,-45.9392390870536,-10.7609662198116
394,-7.4826763736335815,-65.39638026086276,-47.937630970124815,-11.22655718527923
395,-8.014476263155158,-59.258309407567424,-49.60831560059553,-11.688800214343456
396,-8.47666768690294,-52.47777932414278,-50.85671506067383,-12.12247933104015
397,-8.854916461397107,-45.04876521519492,-51.60407721294488,-12.441223156459237
398,-9.105310685322129,-37.04800878906781,-51.752814722364846,-12.576157181481534
399,-9.214537851953596,-28.594690269937978,-51.22360496128795,-12.539979329651485
400,-9.213294254069933,-19.786982820302047,-49.96686459273166,-12.415518286188084
401,-9.142764687048041,-10.59001208534389,-47.99661500410886,-12.251416283538092
402,-8.983258612701764,-0.9091709017958509,-45.35864115878956,-12.009540566150461
403,-8.688507716490406,9.332001582413445,-42.0879071010311,-11.62412600604536
404,-8.214744466262026,20.21632052718655,-38.23773303143196,-11.09805282502233
405,-7.61735373271325,31.8382072582313,-33.86089687946517,-10.49619880871424
406,-6.953940077264462,44.268065653019335,-29.040319688349804,-9.831071844721547
407,-6.2555277523789075,57.533266279189974,-23.851809088496527,-9.027789682923226
408,-5.4985794526585545,71.63386438615335,-18.348904362307678,-8.036405203469615
409,-4.646526232262681,86.5452709098515,-12.532547093260709,-6.9318567301405745
410,-3.719655603921012,102.23145129550136,-6.3807982427958745,-5.852392075318678
411,-2.7943866892551883,118.61120270794919,0.13469153503480175,-4.872493824561032
412,-1.931299788147243,135.59303092356998,7.005341719743054,-3.960490778933101
413,-1.1134354711347736,153.0353138676584,14.125524572889306,-3.042960567904028
414,-0.26341793352918286,170.71806018968945,21.351691095513917,-2.1080285172778335
415,0.6491291143200048,188.41491023217853,28.542812610489225,-1.168002079346779
416,1.587874747467659,206.01524777879746,35.59168294213296,-0.2548159798157751
417,2.51483536356381,223.49981764149513,42.418042925528916,0.6719393300919849
418,3.4470172769350245,240.8130181562786,48.96906945470746,1.6507363890590723
419,4.436621299250604,257.87606226880087,55.25504816918603,2.629294152863646
420,5.388843476338552,274.56259676788426,61.314286964063776,3.5586335134500615
421,6.067383191744514,290.69681106157395,67.11930504285951,4.400631465261307
422,6.379767343556081,306.12205130909115,72.58792000831107,5.181627905420159
423,6.422217186206608,320.7158156711933,77.66951297230351,5.919648281835264
424,6.331331781778393,334.4593064130186,82.35878120935631,6.629141693343018
425,6.199058601548036,347.30808343957057,86.69218467013005,7.261220186966092
426,6.081071732064023,359.2562704518591,90.71921805594513,7.765056980986549
427,6.003522795688866,370.379459214668,94.49392749505024,8.16659019020567
428,5.959320260695099,380.72971910597363,98.0144724595969,8.51308159274848
429,5.9338171037529195,390.3122671853372,101.2389932358036,8.8295267028617
430,5.924982003019162,399.06185172450375,104.12917200221723,9.132279858616462
431,5.935405998271526,406.9152682727742,106.65506358139133,9.41203016101764
432,5.993864516596623,413.86909015175684,108.79618359099265,9.645364290935042
433,6.220371097152068,419.90031529500556,110.52657615142381,9.84614484658562
434,6.6826970171529805,424.99020758363685,111.82959818819262,10.017943613740494
435,7.307729410463211,429.0820118752139,112.70422983305633,10.071556049150837
436,7.938713990372606,432.12038685965706,113.15997605213344,9.948974385746974
437,8.457391970936527,434.10707518442786,113.2268457779176,9.684734006240081
438,8.870100705064964,435.066441801419,112.93296911778542,9.383788567526599
439,9.2279717442818,435.01492019356914,112.26361876872406,9.11342015257181
440,9.601232482318006,433.9908638939982,111.20853778214813,8.871307443970846
441,9.938092649010299,431.98356531298845,109.81995093616294,8.636383773398014
442,10.18637412546534,429.0273210985859,108.1620976205687,8.386686460491028
443,10.319798598338664,425.21122965237504,106.26446133304782,8.142561493700782
444,10.39262860891899,420.53253172721685,104.10185226891696,7.9238738809736615
445,10.495485622321542,414.9255016917552,101.60323213178214,7.65846955416938
446,10.599235218754854,408.294352629112,98.75806547877622,7.227471547562934
447,10.625531124005779,400.6937083580391,95.6408750957685,6.647768444310085
448,10.487903513129353,392.1887724191324,92.36407781047431,6.065691397614827
449,10.282748179821512,382.8280934324157,89.00503178984445,5.554592254802975
450,10.114219495706797,372.6237156461307,85.575005042593,5.011594241380068
451,9.947568854944594,361.5658647186114,82.03683885748877,4.285819392592324
452,9.215154863848273,343.03589538732126,77.37189862762874,3.1995964258208325
453,8.425406970612325,324.4996442865754,72.7274650825292,2.1657473737389576
454,7.6539818331406355,306.0069557093814,68.12208579960935,1.2337684931718087
455,6.974857484652522,287.54043807841623,63.53556153762906,0.35082912207596517
456,6.334360243017185,269.06370906947734,58.945863827721325,-0.5670568134296776
457,5.566528655442295,250.57298814490264,54.32758908625403,-1.5508385176540258
458,4.612628993680041,232.07072828558242,49.688069521205314,-2.5743378956270515
459,3.5766708873825688,213.56009851245614,45.04977756245671,-3.608309594816729
460,2.596233232531182,195.04391583348695,40.43470010673621,-4.655919290143954
461,1.6830121938149927,176.49656645204325,35.80808895178099,-5.744154763106379
462,0.7432642818768389,157.89399544670684,31.127140127792938,-6.863624547161429
463,-0.280064806447389,139.25794317831014,26.376213153403828,-7.958923905510456
464,-1.3637265436140085,120.6271152863744,21.569970165873862,-9.025795138191748
465,-2.4711044366040835,102.02532736731276,16.72422465287219,-10.1253284832656
466,-3.611743605261622,83.46293916554457,11.844564425145453,-11.333019272941481
467,-4.814858708790905,64.94074319016772,6.939217964180122,-12.636476273652539
468,-6.098330556817301,46.418090802572266,2.04025596357769,-14.005884093514737
469,-7.397096835476538,27.86850947776462,-2.830140794744755,-15.363516475550732
470,-8.614798080528827,9.227080346029624,-7.6552123364466285,-16.688045754420273
471,-9.754562331026257,-9.563447258316385,-12.4440603248591,-18.00943917050088
472,-10.927139020807811,-28.46951016789177,-17.212826112744104,-19.345978365898088
473,-12.152586817939307,-47.36694000924138,-21.967674399012484,-20.598910119150105
474,-13.307810377603342,-66.15842138186117,-26.699934407026632,-21.63976262745756
475,-14.302914873228197,-84.83882690548326,-31.403414627544123,-22.478442426953073
476,-15.151063263901888,-103.52367032948914,-36.07890579000654,-23.255197104536432
477,-15.90598670490183,-122.40469067973233,-40.736089112890156,-24.067076501716606
478,-16.61511776272418,-141.53551510560104,-45.44119603086394,-24.90399957376666
479,-17.299971030798268,-160.79387710192185,-50.311813065994784,-25.706626318601224
480,-17.853314910666104,-180.13318293128455,-55.267490817859155,-26.370250736070364
481,-18.0461891285221,-199.65574125561977,-59.997910024174836,-26.780042375066547
482,-17.74949818358866,-219.34873132158125,-64.34828379979555,-26.858786551629972
483,-16.911556223806258,-239.0161185980918,-68.41719228148132,-26.464998550441695
484,-15.480474938552483,-258.53999639938894,-72.34304283956178,-25.415905377668324
485,-13.717676219817921,-277.87431769106644,-76.28742687383958,-23.94521959223739
486,-12.280062567395953,-297.018481560129,-80.48537328624379,-22.768761164413885
487,-11.660657742553019,-315.9913591129117,-85.09159632919648,-22.393674054656245
488,-11.80224322361976,-334.7957078951993,-89.97846319605242,-22.698838384799167
489,-12.264633903121304,-353.36811483083744,-94.82276342792025,-23.16550160953839
490,-12.542843527772106,-371.692187575134,-99.42221180671636,-23.352541172831266
491,-12.54577691830041,-389.5445159161718,-103.86324996580635,-23.28883739822891
492,-12.579391085964515,-406.3139298358114,-108.4013270226647,-23.37275928456915
493,-12.782126950565234,-421.41328969671486,-113.19007529301221,-23.699788862323604
494,-12.963228329374822,-434.15097601438464,-118.14007975327287,-23.898770590079565
495,-13.204665599426232,-443.7930122323767,-122.98131342479424,-23.977150724226078
496,-14.009341019394274,-450.3765677746008,-127.48321875095003,-24.530069211162605
497,-15.541835476820536,-454.6310993055467,-131.616380586086,-25.828494568988674
498,-17.322249093766953,-457.3347210781018,-135.43865546235193,-27.41964205624211
499,-18.7637711236707,-459.01153306460554,-138.9852432755089,-28.659057459970317
500,-19.674445369613498,-459.9304123397748,-142.2430870941978,-29.34776622032655
501,-20.223905185326636,-460.1579529023544,-145.1569986191303,-29.74155697582763
502,-20.649820744316497,-459.6706241178063,-147.61191058082002,-30.09086314661242
503,-21.071373513988622,-458.4128801861116,-149.47032502962531,-30.43545209090616
504,-21.504713042130334,-456.34734344214246,-150.72879741461483,-30.696000332722818
505,-21.850182733511218,-453.4441537308638,-151.49156349128722,-30.775108616336233
506,-22.03222758056277,-449.69406278312863,-151.74799241539887,-30.650999583041898
507,-22.087840715828218,-445.09602305266975,-151.34910421586537,-30.36580862371669
508,-22.070637694120865,-439.6524901523211,-150.1811110641655,-29.941766967815635
509,-21.998139795968857,-433.36490511493054,-148.23906295966844,-29.35907803368827
510,-21.79912596307425,-426.2354076193747,-145.567667000419,-28.60024901839434
511,-21.395509554431733,-418.27172221322786,-142.2096036761746,-27.707285406209323
512,-14.757802804223088,-137.58323909374016,-40.36622140369953,-18.13495257709846
513,-15.236426256868945,-139.99271648322633,-41.12379183716843,-18.560531060412018
514,-15.831957911270582,-142.16815176722758,-41.89264640118165,-19.079230413898866
515,-16.494651577477335,-144.06021663960175,-42.63361041932729,-19.61356811493918
516,-17.15758981462795,-145.6335613431354,-43.31578691198044,-20.081316751713473
517,-17.815560777372248,-146.9077588735203,-43.92096909320685,-20.501692315460456
518,-18.47401758879041,-147.93890381807682,-44.44874908286356,-20.912820926774025
519,-19.147985734557935,-148.74691374753857,-44.9200850653965,-21.293861106025247
520,-19.838188843715287,-149.29777388820494,-45.35949313034182,-21.621600279937596
521,-20.44882870050133,-149.56117833309682,-45.77491222215957,-21.890256466567745
522,-20.891417659117177,-149.53762429171533,-46.163295840313715,-22.104904909480148
523,-21.220017764416433,-149.24218552826613,-46.50671082032892,-22.321501860753685
524,-21.515431044853713,-148.69633023542656,-46.79474141939495,-22.58717151578804
525,-21.782761955607107,-147.926526793118,-47.03761492395315,-22.844057877939555
526,-22.009834420545516,-146.95553952706382,-47.26557934784076,-23.0217185066262
527,-22.172608830472804,-145.80123906871503,-47.48328426379105,-23.14437872659697
528,-22.25291523608164,-144.47089779343386,-47.68268938302844,-23.247376453329984
529,-22.316510906001287,-142.9541911147598,-47.841105673187215,-23.30744232729775
530,-22.427586377298148,-141.22917573674786,-47.933833240423134,-23.3003459191872
531,-22.528677169990267,-139.28749859081296,-47.925441473492135,-23.22212206049719
532,-22.54878781999239,-137.14402381045292,-47.809501643228586,-23.081523342926825
533,-22.50859726753832,-134.82211666387545,-47.612651177489866,-22.93638787972684
534,-22.44294673115311,-132.32466558586398,-47.35885490699818,-22.8386835554262
535,-22.362524580471913,-129.63200976288297,-47.06100254099135,-22.740650016879144
536,-22.270802806175674,-126.72925064383318,-46.720193720061644,-22.586090340648727
537,-22.118280875502055,-123.62947012331561,-46.32973767384634,-22.419460175048357
538,-21.86557119065288,-120.36815216608862,-45.8758321776609,-22.290228471923292
539,-21.609891906158936,-116.98727886243553,-45.344991118738214,-22.17419344711391
540,-21.446307939976464,-113.49720674630416,-44.72382615752116,-22.032680030401334
541,-21.29085582328212,-109.87679019489403,-44.01220401732925,-21.82893052288675
542,-21.0470137735447,-106.10224059193949,-43.211304799657896,-21.54407877938771
543,-20.760858902657642,-102.17766995209038,-42.338558710830426,-21.235139727259913
544,-20.50205706927683,-98.127153263656,-41.42615099950106,-20.96741377531684
545,-20.308090417079235,-93.95808425582422,-40.49104671710865,-20.727388965739298
546,-20.190135262779453,-89.65524651517204,-39.52700251823978,-20.4772929084718
547,-20.05251161329346,-85.20983855759489,-38.521815075089634,-20.203879149152993
548,-19.797916285631988,-80.64947856571072,-37.458737205738586,-19.892039555104002
549,-19.50332560051981,-76.02461227057819,-36.32979158340572,-19.520190354369664
550,-19.262411854571074,-71.35700374292172,-35.13793496375296,-19.080890965005842
551,-19.00293814912225,-66.62841731741554,-33.897923214816885,-18.571668705901157
552,-18.64416961609446,-61.79520083793844,-32.62598077160239,-18.009173736894038
553,-18.225602663294058,-56.803230729203975,-31.33146562732784,-17.47375690678091
554,-17.805662623587445,-51.61515461172692,-30.010674408424205,-17.028706215656676
555,-17.42269426598913,-46.20878883068974,-28.636196478173513,-16.621122724845364
556,-17.090800159066102,-40.58888362226357,-27.181566435929867,-16.170487383697072
557,-16.734756655528237,-34.78141828132409,-25.623538962028007,-15.646839060745519
558,-16.269989823238387,-28.82238748887027,-23.968577898288753,-15.040992139268335
559,-15.71140813003442,-22.738047340014983,-22.23441819400659,-14.377931074061825
560,-15.101325470056635,-16.531276576978115,-20.444148120610254,-13.690689527644937
561,-14.453807554750366,-10.170700002842981,-18.59518713971899,-12.941523017313969
562,-13.77869373602892,-3.618684136194255,-16.688825296296834,-12.095610258907005
563,-13.056231373137491,3.1178061739838254,-14.737551155123207,-11.22578859760366
564,-12.267163828163767,9.987703566897778,-12.768676085850641,-10.401136893382962
565,-11.474844936440983,16.946701548789587,-10.78572034721081,-9.58036781516075
566,-10.731299335337459,23.98666081674322,-8.763052023055502,-8.6982993819511
567,-9.955628999864391,31.123112533556252,-6.67710241869846,-7.712633643277643
568,-9.056621628625713,38.37210271983259,-4.504560185141903,-6.602665632268319
569,-8.04654593824555,45.738501415206116,-2.2358912129172133,-5.431365558777244
570,-6.967958127237191,53.22851965760678,0.12240826111269035,-4.269615627378315
571,-5.862920613211201,60.85426471662998,2.545979482129007,-3.0585892425510903
572,-4.789523984062356,68.16992017688426,4.892403699783356,-1.834793660488991
573,-3.8060302271100923,74.21596914398201,6.902203082263278,-0.8058021596951731
574,-2.954535058426143,78.58246002295148,8.462235062559971,-0.20272854238268062
575,-2.3504728042307295,81.66006449772946,9.65709564761823,0.10614184689723283
576,-2.044083093244238,84.00654565438897,10.62115508813703,0.37375995957454505
577,-1.8004807275188481,86.0281108591048,11.4808279914599,0.6970030613472222
578,-1.3703021155911805,87.90870411446194,12.336179392511916,1.1029552406330245
579,-0.8172540231134513,89.6596210311398,13.21817246560193,1.5751069302599148
580,-0.3739103223272072,91.71283301004782,14.250301050952013,1.9372823019772494
581,-0.007812431134318204,93.5087269689906,15.207513294708303,2.2670838661198283
582,0.2586103448522912,95.03414790028519,16.03867753751197,2.5473734132160795
583,0.4584368355502262,96.33583169608276,16.73368484614873,2.746748644919321
584,0.6535765848038065,97.49953632386348,17.32460570391463,2.855668989029168
585,0.8078240628496554,98.56433610198116,17.84707169894644,2.9327117998435095
586,0.8761955119683719,99.53007238939259,18.33853362549914,3.0456831657831143
587,0.9710699959228362,100.39599730442532,18.83224966861447,3.2159905579736896
588,1.2096098503194561,101.12717957982925,19.34504759150759,3.4377520402047166
589,1.5113247422798142,101.65913235985991,19.863095765308394,3.650581729446642
590,1.7608834191969989,101.97681275204397,20.360749417756455,3.8000483677665766
591,1.9774325281436547,102.13081178822533,20.840131701829666,3.977310666685181
592,2.2168675740034556,102.15428798144163,21.295856987223065,4.2875859383348836
593,2.528917441200483,102.03332563211184,21.70633603286393,4.6659915764598034
594,2.9507627145035036,101.74774785234928,22.031568442427822,5.004237141609934
595,3.4083213583048604,101.30663628587749,22.265811197209516,5.26152800264779
596,3.8068537594566267,100.7376449345528,22.44816408276016,5.43233302072299
597,4.200493659930978,100.04461813344123,22.600108101059938,5.586664446836987
598,4.66798811798596,99.21280412039935,22.706754118170274,5.810955198124233
599,5.160742006763086,98.24700618081181,22.75709521625912,6.069315826925717
600,5.605756116874219,97.17260985719982,22.765847927901007,6.291022542948338
601,5.980710267256317,96.01557541355871,22.756323124734212,6.499281425082313
602,6.283889033823295,94.7904622176297,22.724373790907652,6.7237907613344134
603,6.568599577005347,93.47950371250171,22.648319500224392,6.920974865843019
604,6.895527314772595,92.03225041901044,22.507953208446065,7.041210542785188
605,7.211657702693745,90.40103035654437,22.313017270530853,7.052267328143396
606,7.444779505865016,88.59588532652894,22.097349080874785,6.950908096937709
607,7.645161940213514,86.684827827779,21.90212206039145,6.841098064274704
608,7.874693419089614,84.71337321133437,21.736719195204522,6.837865677630569
609,8.10328722650254,82.67458112343868,21.589403946774834,6.901760425198666
610,8.272128252730901,80.56468040330715,21.435175770008424,6.950853386132748
611,8.294841856704464,78.42165460507182,21.280804277100163,7.0102910027574765
612,8.110705863277804,76.28180477726211,21.132643290053867,7.114956429214203
613,7.8267809409636895,74.13012208758673,20.98535194678079,7.222487037294553
614,7.588534494738196,71.91986060661256,20.816089250300305,7.284653536328369
615,7.383767140615774,69.61393498138503,20.616497574669413,7.274761105429731
616,7.15833020389416,67.22164052126934,20.407186922154878,7.187484464038954
617,6.934102600111771,64.79157152607218,20.200588135643113,7.103953912090649
618,6.73835390131579,62.342611119682594,20.001277131020675,7.109574137401416
619,6.586317562186078,59.84786974639116,19.788528880220976,7.141747506117495
620,6.484204532861915,57.2969897869189,19.532024951366793,7.108277322685452
621,6.362268550283342,54.76386888720725,19.234088765891794,7.04358690132386
622,6.148110363523092,52.40180453861238,18.933300834309097,7.006095985271904
623,5.900967883232931,50.323019093138655,18.653341842111278,6.990779637891064
624,5.703875718276701,48.51288431764853,18.37974885505112,6.973330989168152
625,5.525220618112144,46.8814351817439,18.077109286403385,6.906215799599154
626,5.306346314509866,45.3396620903024,17.706838039092244,6.741059837694765
627,5.03807465413269,43.829246244808864,17.260311103621277,6.500944441834233
628,4.723129472757513,42.34132950869048,16.75949043558841,6.232961502367406
629,4.379292553835876,40.90747529894976,16.23513245017041,5.932596466008942
630,4.034864395263053,39.547094087315074,15.701874213245103,5.5936189263350915
631,3.6743478043340123,38.25811437875936,15.156233302680278,5.2519976566056235
632,3.283247015151643,37.045728560614,14.610602006359416,4.950213306129786
633,2.936551378966023,35.917211360219156,14.101661286161903,4.734106845982341
634,2.713716036316349,34.853711541058274,13.637913768569483,4.629472513317066
635,2.5843595166432793,33.804482043356664,13.187590883943264,4.572607952126733
636,2.492459501477434,32.72488444435295,12.721729401223216,4.482360915534657
637,2.4383485897854635,31.622651389222955,12.21992797551691,4.373616610010137
638,2.4334909223855172,30.547229019435953,11.677750285922604,4.2847617934558615
639,2.5011804253791303,29.517569219571087,11.113542800955516,4.196724004104863
640,-12.080901372217674,-25.88488842100033,-17.084594158448468,-12.155060624217352
641,-12.410184981149426,-26.46365511194125,-17.4751024581656,-12.563511332593501
642,-12.659206182999185,-27.07071154212992,-17.824433334326468,-12.956629350265192
643,-12.855839338547337,-27.631642766385315,-18.115690432561575,-13.268853507675416
644,-13.001870620861036,-28.11650782620655,-18.358424792575445,-13.451066481854188
645,-13.11474198726978,-28.550010493108122,-18.586271420398045,-13.563790883234129
646,-13.251190343083689,-28.97779099710642,-18.811819209934722,-13.687272314447208
647,-13.433899918127436,-29.404215599337732,-19.03207137078716,-13.835595587928768
648,-13.66745497844391,-29.815166895416468,-19.240338396352985,-14.003869135327673
649,-13.898392393852571,-30.191438726623996,-19.459975436078654,-14.18636140694815
650,-14.068329120255472,-30.507011665297203,-19.71375406414859,-14.374463214502757
651,-14.185592235366801,-30.73569104510447,-19.99618054485967,-14.587872859472034
652,-14.276744693802573,-30.868816105104504,-20.289150604147153,-14.847398429879643
653,-14.352537878266077,-30.931827183645083,-20.567366564012282,-15.130662148379903
654,-14.416349066255286,-30.963603103883596,-20.8068096279074,-15.406469911761022
655,-14.437615785804946,-30.998504611167707,-21.00335466026166,-15.676011812857935
656,-14.395631207965897,-31.063354334231132,-21.1648792558203,-15.940151932365834
657,-14.345149348007208,-31.155974164539003,-21.29669771021902,-16.166598245462488
658,-14.361205218674224,-31.267656092149746,-21.40791246825611,-16.33642865026107
659,-14.480218813285795,-31.430210584756317,-21.521923896068316,-16.471268191870934
660,-14.721082864593795,-31.6608777931165,-21.654340570733062,-16.61107795657623
661,-15.10258343130532,-31.900286370507864,-21.786644094128867,-16.833874182621745
662,-15.613194460429037,-32.0751676681462,-21.895758733557773,-17.187432095455176
663,-16.18532781947101,-32.15116486985393,-21.983334255097795,-17.57717489822873
664,-16.743922706535287,-32.120096204275804,-22.058953924844996,-17.892751733923546
665,-17.254132780444575,-32.000031072239736,-22.131349134032195,-18.14838417229843
666,-17.70230728947536,-31.830172357702835,-22.20660221902434,-18.395326052696852
667,-18.08412981196785,-31.659184633619788,-22.28121045869031,-18.66162916810798
668,-18.407054403208207,-31.520316793905263,-22.347025984637934,-18.97108496374881
669,-18.673616042771293,-31.400901667199395,-22.38453412515754,-19.316406910866657
670,-18.883404543876026,-31.265519810721642,-22.383373128445662,-19.67170713123588
671,-19.053887329544153,-31.093758981016673,-22.38743333147836,-20.041371381454905
672,-19.172336354173673,-30.86628941796347,-22.425392653886774,-20.42150244175166
673,-19.234450808101602,-30.53949493512416,-22.476746308269277,-20.744619297138843
674,-19.192880467219286,-30.10665496980746,-22.48161422462016,-20.95371212921799
675,-18.976839551452073,-29.596079978250742,-22.412342535160274,-21.074064739421193
676,-18.6259453405082,-29.096108648472722,-22.28875233463656,-21.15422886708785
677,-18.25038677046727,-28.63461225777075,-22.133365685011555,-21.2294445348341
678,-17.962122806685795,-28.213642742978898,-21.947294924981758,-21.319707061624573
679,-17.73792396269162,-27.79718786358985,-21.731402350061973,-21.38967988681975
680,-17.50794570865646,-27.33401945261946,-21.47450740221688,-21.39489146018047
681,-17.23086509111729,-26.805509947796235,-21.1747299850096,-21.359272872965573
682,-16.886185077450076,-26.195253779710484,-20.826496886415875,-21.311380282545006
683,-16.509845274813014,-25.519692792508906,-20.399487758078077,-21.216392739896115
684,-16.15441796258657,-24.770919196017164,-19.868762251279794,-21.03595747914838
685,-15.824670924525217,-23.90751915435371,-19.242408967648572,-20.767912087678553
686,-15.5038769687881,-22.94130227791153,-18.542526822407584,-20.423458791872587
687,-15.171200327927492,-21.915721946546466,-17.798239579770435,-20.038343792977777
688,-14.802629114658352,-20.875199909833995,-17.034616725925364,-19.6470329848841
689,-14.389813153089843,-19.79275439935739,-16.243189213113002,-19.21591142623979
690,-13.93505692205014,-18.62761090893614,-15.415554324582043,-18.711112299198618
691,-13.435675679827826,-17.384867314777782,-14.551628489951417,-18.197949423533345
692,-12.89089360663695,-16.08039206061085,-13.670810031295638,-17.735996377509423
693,-12.314076896981833,-14.721531364554279,-12.775266507593571,-17.275561575303325
694,-11.696276526311166,-13.317625447463119,-11.839951269908168,-16.751095617423733
695,-11.041160678767625,-11.871137594444564,-10.85194719102713,-16.13029451624655
696,-10.313661739276059,-10.382082691673503,-9.805332758214238,-15.414417841888598
697,-9.440715917285218,-8.864247246924103,-8.728349751491395,-14.709300154483326
698,-8.420573835410124,-7.329709897485278,-7.650385439349995,-14.117131304647886
699,-7.333740550924986,-5.768974912256287,-6.586882894304307,-13.570377045488545
700,-6.233672628783401,-4.255064465635655,-5.583139592779522,-12.980558230420296
701,-5.186666353678025,-2.9734063613644675,-4.74841713576932,-12.46969566883566
702,-4.246308855106652,-2.0087565227825674,-4.141599081183277,-12.147109811912797
703,-3.5601021192892426,-1.2767585775612602,-3.7106245500953405,-11.976800155054953
704,-3.1720292392050684,-0.7100166137358829,-3.3643666089450117,-11.859563289021022
705,-2.8654216138284614,-0.26224207533768107,-3.0237268033403835,-11.65573584072842
706,-2.3750246128458787,0.06444350153131842,-2.657804459629763,-11.264424563547044
707,-1.6683248465214096,0.3017148243343164,-2.2694234694795545,-10.790772570898994
708,-1.0154037746446922,0.8174566262175098,-1.7815581870608015,-10.153758454039751
709,-0.47982422130745855,1.3860642435878328,-1.2983956173234439,-9.594306070508154
710,0.004185940661921874,2.037889312857788,-0.8381996627381919,-9.045182084171204
711,0.5432642727118915,2.750227701082638,-0.3928399553111504,-8.492042235657802
712,1.1622404469409304,3.4763872777597475,0.05434997405846334,-7.925898143036956
713,1.8366402974604523,4.181800716077406,0.50301031002737,-7.326748265182818
714,2.4977610526905276,4.844898941329998,0.9467366246906117,-6.692110340955008
715,3.1405992299483514,5.468199208837684,1.3787622233351444,-6.032883523984362
716,3.7825506384520726,6.069889013487588,1.793509391341968,-5.369054128598398
717,4.417451294455472,6.662041201256016,2.195411984545578,-4.752651664574152
718,5.040301698934664,7.248876297326913,2.5944208580023207,-4.223978128967524
719,5.646936237963209,7.832015866186434,3.0016613268180885,-3.7372378067521566
720,6.229637079263908,8.401584898216072,3.4235264743192664,-3.2261468574319228
721,6.806152758584362,8.916970348654276,3.8503999666814406,-2.6912363642444372
722,7.389112400384498,9.344942876498056,4.270574417840984,-2.1534731987229905
723,7.921687751300695,9.708197136877091,4.65594190141342,-1.6148998177682865
724,8.361239201065064,10.050093464225068,5.000652802014269,-1.0813542464213273
725,8.704239800409745,10.408516323356862,5.296496249627306,-0.5533159472047153
726,9.011576226242257,10.80347771380724,5.542216516776909,-0.03358978910789401
727,9.360154568252263,11.192289520899273,5.728720754573158,0.42544188668500976
728,9.759457000642085,11.514998943448735,5.853818167461024,0.7751837167060687
729,10.172329860344393,11.771090327030597,5.9528834881113495,1.060260536037774
730,10.529784707390643,11.978716534584438,6.063907043848834,1.3410497258863319
731,10.82492397255373,12.128316337685993,6.183009493809445,1.6007239137387792
732,11.051704723207777,12.211657662538872,6.290009152859834,1.802453501686145
733,11.190348209720806,12.236204443190266,6.371294327864243,1.9231845902299827
734,11.199987553297944,12.213523096797756,6.418262205527185,1.9513060615432771
735,11.08482429949611,12.163648157734336,6.435473264136867,1.9422279313372681
736,10.923567481940596,12.104302543174011,6.439558516086244,1.9594484415598705
737,10.801351086670483,12.032329485532058,6.453299319101356,1.948520096980702
738,10.719125177282091,11.938050945655714,6.494562629284449,1.8417750942209667
739,10.600318588962535,11.809513569731687,6.56487404305725,1.70792688663564
740,10.421168960764966,11.642953281491646,6.651028748053652,1.6342446542687306
741,10.228655515092699,11.485714641119113,6.722369350658003,1.6121775709237975
742,10.079513728456169,11.372767217346622,6.749435328997166,1.6052319876394585
743,9.95591787261215,11.2981082059774,6.732177086382243,1.5578737531656988
744,9.799397212087325,11.209034282237514,6.685643611168864,1.4330512035024
745,9.593046724315352,11.091678235461428,6.62480386836853,1.3382744580954127
746,9.404406544874762,10.993814471289502,6.5644356690722505,1.4030420293322263
747,9.319241073614418,10.94070028113627,6.507145306269665,1.5897853479710777
748,9.328162104337622,10.899924321957226,6.452560509411761,1.8148438765088692
749,9.332788469773948,10.860376126049681,6.414594376268228,2.071315638739174
750,9.272981523510527,10.807601974827314,6.40856695363612,2.368160389028383
751,9.219558332423594,10.765964752517576,6.443903491436528,2.7257483755433944
752,9.251811247976493,10.766741744728234,6.519854423301509,3.159098258957494
753,9.372324434039148,10.790418863111887,6.607458877686515,3.596563008967004
754,9.490050254812028,10.799300481010874,6.672685957820705,3.9515145346416154
755,9.540326742281149,10.775946482077217,6.711826229662721,4.227838320378626
756,9.55667048338428,10.709531317670125,6.728182755215975,4.463087965624759
757,9.584490593934756,10.584519966318577,6.736604684640252,4.674838077489556
758,9.678438275568974,10.41192151534981,6.737041798522397,4.880306678710429
759,9.78462954243346,10.195530328504542,6.718960654203419,5.088220691791971
760,9.8277998643748,9.970123263702705,6.678484297384114,5.291959518494822
761,9.769832454220625,9.794408735629624,6.615711730346865,5.49643943767292
762,9.630603317320507,9.668247743009083,6.516427327021596,5.696049961148815
763,9.4283809672859,9.521225138958041,6.357845843753433,5.819220055583504
764,9.157117248728012,9.318672617326522,6.142507337037779,5.800354822874781
765,8.82744986528748,9.079703024905147,5.900218482942125,5.683104659105966
766,8.495217181009252,8.850004549148506,5.643468723162545,5.541682514990366
767,8.189080867246394,8.6383526352082,5.370030956978547,5.391894699188624
768,-13.321258602162949,-14.380513505225874,-14.623905190470664,-13.016416374896254
769,-13.737926546834995,-14.629193737693953,-14.904805514719648,-13.001124068499916
770,-14.278967287423237,-14.996676026204016,-15.13957932580698,-13.066191353461582
771,-14.898695588471819,-15.400084037270272,-15.31737156267563,-13.17081235480808
772,-15.524187455855527,-15.751620162796153,-15.441823001296521,-13.2488455988983
773,-16.123002723722415,-16.04246461730777,-15.554609534052556,-13.355402717803544
774,-16.675222609247115,-16.348124642539993,-15.702624501050515,-13.548215142334392
775,-17.17166347708361,-16.710621146673965,-15.910959916857154,-13.805705647697014
776,-17.61773040234252,-17.092153511345813,-16.185554686540108,-14.094880589834228
777,-18.01358218053795,-17.430615853115505,-16.505822918508553,-14.382161963920698
778,-18.359155473968045,-17.723780302879955,-16.839291643668425,-14.64715320095759
779,-18.668639830248818,-18.02916824983057,-17.166892582180672,-14.957096031473935
780,-18.944725182386886,-18.377417234691045,-17.47615315401617,-15.375895615171618
781,-19.163183148597827,-18.761690167057736,-17.753140334163756,-15.826852962009495
782,-19.294187737193628,-19.15092893696394,-17.993616368384597,-16.22138608303847
783,-19.286090651249264,-19.512497596687783,-18.205900325138135,-16.598452136274013
784,-19.118256770700537,-19.831736650829,-18.403487412802306,-17.0089248810064
785,-18.911541084031544,-20.11555721649377,-18.60840359237073,-17.432929559404375
786,-18.782698315188338,-20.39780172045828,-18.83264202338272,-17.83374028032879
787,-18.65606483067125,-20.690065664834428,-19.050545443530858,-18.15353028679807
788,-18.43212322716464,-20.96942693599789,-19.231062529314016,-18.35080968108712
789,-18.142337733085544,-21.21445051210615,-19.371412578638097,-18.48789449972334
790,-17.845323379311264,-21.44187286658272,-19.481544732084032,-18.642465300042375
791,-17.593333517305258,-21.697035204242475,-19.575808017963112,-18.800951352827553
792,-17.4163000030799,-21.985628588564246,-19.669707790928747,-18.929451689921994
793,-17.225837702247137,-22.274569914173043,-19.768918456404315,-19.02563201540747
794,-16.924488315969583,-22.514477489636455,-19.867967962017023,-19.087942062868184
795,-16.559046974385012,-22.687445411284926,-19.95105598587396,-19.125702439174184
796,-16.202468133523585,-22.791341454710004,-19.998021031680658,-19.145126307014614
797,-15.842601529566226,-22.830045157560686,-19.992075772318696,-19.097047893604127
798,-15.45750468242882,-22.816336025322002,-19.923170805097588,-18.938877661836877
799,-15.047666281730187,-22.76595755783873,-19.791383137972424,-18.718264439192282
800,-14.61567640991174,-22.690978296104397,-19.60370399977527,-18.493653728831944
801,-14.198527269214313,-22.59382858597591,-19.373145145478407,-18.25729250557499
802,-13.826418612282499,-22.47360394830981,-19.11435276406757,-17.991175931563756
803,-13.439272408473222,-22.335281820530703,-18.826691933547153,-17.690954614106616
804,-12.978668193069257,-22.183522416628247,-18.521142594874142,-17.360942602404286
805,-12.495852363386758,-22.018340094942538,-18.21488875990118,-17.056774172053935
806,-12.054444701274852,-21.839615509464455,-17.941711189159705,-16.82240350832482
807,-11.656069026264708,-21.644435689623894,-17.70148205206287,-16.59261561008605
808,-11.280187852907694,-21.433270841977706,-17.451377587932992,-16.289705448203854
809,-10.867440403141702,-21.221852608564692,-17.155262678699398,-15.923967731600758
810,-10.368976580967031,-21.020431691883253,-16.81330758615136,-15.528708878541739
811,-9.860504094150482,-20.82003497332374,-16.42054008166296,-15.122203163083256
812,-9.425469212094104,-20.594013382696634,-15.987278303412578,-14.722772801244231
813,-9.001480189138784,-20.311340220892806,-15.516424913584594,-14.320780591994648
814,-8.521564955921203,-19.944571730509143,-15.01484655742381,-13.904824281846697
815,-8.037541483285867,-19.504911724033807,-14.530252764894414,-13.52530614328785
816,-7.627637695262304,-19.047544828952404,-14.089021225279211,-13.225720787494607
817,-7.361167935190666,-18.62002197967038,-13.66581748671023,-12.953975365750297
818,-7.273761863474695,-18.20762242553508,-13.201291065081966,-12.649369306880345
819,-7.288700392589391,-17.749411071931704,-12.672430107307587,-12.329867358208588
820,-7.297002418053005,-17.232097880299094,-12.105401015274065,-12.025804581880612
821,-7.258864465204804,-16.70397231841769,-11.52812464144904,-11.734554117611797
822,-7.1621025370564215,-16.17522649349053,-10.944350538261862,-11.449182156717153
823,-6.9947842080668785,-15.598801525352002,-10.341361228954165,-11.14920724430692
824,-6.7606311724897905,-14.978863846616317,-9.72959364866069,-10.815953636323062
825,-6.471384417439344,-14.3876158256008,-9.14744413180285,-10.489015701912626
826,-6.131935302887153,-13.849023759045775,-8.587854666679007,-10.19793268322969
827,-5.7374485845298615,-13.31671256927759,-8.005482518079688,-9.86796887365462
828,-5.266843506712242,-12.762775403306234,-7.371482353351386,-9.424584650380547
829,-4.725122367373261,-12.202024594590792,-6.743211279788716,-8.955594715620176
830,-4.117617739491418,-11.677710131334358,-6.198950115498239,-8.556979027464724
831,-3.524724330494042,-11.181547529686236,-5.750854116951769,-8.223282288222256
832,-3.0170535519097283,-10.691012998692882,-5.374951109323616,-7.912178449256052
833,-2.5226058718450797,-10.16888934469906,-5.03776559119993,-7.5980037533638125
834,-1.952198381347974,-9.58741630695611,-4.703870002344843,-7.263027595207222
835,-1.3423806840189598,-8.977210969403023,-4.365527791832138,-6.9382269280913125
836,-0.7648711735745736,-8.359812645380408,-3.9207916538726235,-6.62230227068451
837,-0.22072920399540033,-7.759390002946681,-3.491097518546739,-6.289678529985395
838,0.2863569599297223,-7.169378569759005,-3.0772636860620657,-5.867367782377209
839,0.7790898209817902,-6.592509009575833,-2.6820279529985758,-5.3800455969011995
840,1.2808822603725718,-6.038116662124212,-2.306486922667374,-4.884579696922999
841,1.7390057673230117,-5.537832227086025,-1.9531670724205727,-4.43509077928614
842,2.0973167622605735,-5.120259228735328,-1.6250353686107974,-4.068561564227777
843,2.407172097680255,-4.765795391648098,-1.32172233625605,-3.721499430548532
844,2.737102241124153,-4.448350323913183,-1.0432245610201671,-3.314628052402058
845,3.0788662869808836,-4.149825761283766,-0.7925468731303611,-2.9028113938425
846,3.3993716877329625,-3.8802938112930216,-0.5746477642642789,-2.572576647946463
847,3.6492924779034586,-3.6542750642042847,-0.39878905289308403,-2.31254578331288
848,3.7886745629855816,-3.471884488098254,-0.27186133901759896,-2.094833568071756
849,3.886774030086181,-3.3365009139527606,-0.1883068583027874,-1.9407122539717618
850,4.026902888174609,-3.264422242677297,-0.13709969317564724,-1.8688298516867072
851,4.149169365230038,-3.2415121385180403,-0.10810444330427188,-1.8919512249669357
852,4.16871934584738,-3.21589423966283,-0.09248860814206751,-2.0055685218982693
853,4.10490300132314,-3.15581253201114,-0.08931836709064853,-2.1048816193022426
854,4.007152135330144,-3.0701358427309824,-0.0980409000132354,-2.085530428059939
855,3.927273293833244,-2.971249403428219,-0.10587191246696348,-2.024539693141599
856,3.906335655407378,-2.894812680189429,-0.09753448062852235,-2.0311699319729413
857,3.882786195072608,-2.8747591507937313,-0.06381374183176797,-2.046079517486412
858,3.7757698897751975,-2.9376964636897354,-0.002661499119356439,-1.9796272215840323
859,3.6436661682718783,-3.0550747957042077,0.07553049732316831,-1.8408221326324765
860,3.568463623178648,-3.1457622571327697,0.15553486236761593,-1.6644617306569542
861,3.494964091363923,-3.1558014318154632,0.22304774963479584,-1.4994805457376028
862,3.3561202849038856,-3.0806568108742822,0.26959643025815805,-1.3892621510592138
863,3.2017082682210813,-2.928402745582514,0.3124720916400096,-1.2757499731161117
864,3.1013745817340066,-2.7018027292725546,0.3615221377571875,-1.0827879566485863
865,3.090341836827372,-2.4237796955785647,0.42074970158004255,-0.8515756557172773
866,3.175554863476185,-2.1408366908933405,0.4646216808009409,-0.6505636905373224
867,3.260928335844936,-1.8786672073713557,0.49018819581571005,-0.47589208601642474
868,3.24259489728538,-1.6260856817744613,0.533616837670186,-0.30617867051691555
869,3.188608786652716,-1.3818797270235414,0.6185417043017676,-0.1364482535375913
870,3.20456553068664,-1.1371401909625742,0.7329160974885796,0.04200006633675274
871,3.2590034270722374,-0.8797969786206127,0.8711430460318461,0.2331326894928648
872,3.289541679686003,-0.6044497239302055,1.0182688072192867,0.4336598121626761
873,3.289650841783116,-0.3152057660938277,1.1687887579264045,0.6562660031067102
874,3.2629900833493677,-0.022498089476880805,1.3218413494122494,0.9064225140848026
875,3.230295980085363,0.25719279718546467,1.4639523364161586,1.1376039087401684
876,3.2163921294658,0.510352326624021,1.5845076987702678,1.3039292345748912
877,3.1842938014494755,0.7397508048188148,1.6928438123934753,1.4223638475858285
878,3.0879934989300692,0.955716691902905,1.8029121100357073,1.5334958622810833
879,2.961604737095398,1.1675370483874816,1.9263137563431794,1.6805978848354048
880,2.851751034205868,1.3842322550546744,2.066359610465322,1.8950704446506357
881,2.73472062007254,1.5968696516517833,2.195621509112753,2.1334416624745094
882,2.5749429089539007,1.7968559274444451,2.284304087610166,2.337087101616203
883,2.378830800859534,2.0016128139096905,2.342006214323251,2.539391555629886
884,2.1617386187222833,2.219750638180358,2.3922159080779895,2.781705629688592
885,1.937751872512725,2.3988772870288266,2.448419371827151,3.0241635194968524
886,1.7243696945510887,2.439990226427087,2.515988884341826,3.203907147394061
887,1.5088257020821725,2.3256156459727775,2.5802387270805873,3.24613712888054
888,1.284609655265537,2.160337410111174,2.615166278162515,3.1022302587284085
889,1.128896121286121,2.0598791670836016,2.607485388116003,2.8680641216229548
890,1.1219156068085407,2.0611921661655366,2.54956478487253,2.669771558961855
891,1.2398569652915068,2.095110669456496,2.4228795750225283,2.4746283936802858
892,1.4232133800147124,2.0739460046412135,2.2221529317943847,2.2160629272942707
893,1.6449016949128459,1.980640166578904,1.983365762075214,1.947842449992124
894,1.886198775081616,1.887595682301476,1.7549868515262341,1.7361293029016975
895,2.1366132669867515,1.8437319541943102,1.5701422960825706,1.571724164742971
896,-10.897191986307172,-13.375444202030426,-14.251136836902566,-11.206208174676776
897,-11.235038085954256,-13.687637574315984,-14.738160988764115,-11.609693121337418
898,-11.592329492567265,-13.994803504879862,-15.248896679713294,-12.073839443110057
899,-12.016393139362277,-14.300279148815521,-15.785158232342251,-12.541119272845522
900,-12.5363678583039,-14.605887070029706,-16.33846401597658,-12.957814716648745
901,-13.107888030194019,-14.935935734558251,-16.89727420009548,-13.373960376464543
902,-13.664635059143617,-15.30177453939999,-17.446698063508123,-13.848772219972115
903,-14.183982804585181,-15.670332240303598,-17.97739451787903,-14.37761665970048
904,-14.65940102012364,-15.998847334147582,-18.485564346938325,-14.926977548617119
905,-15.085160931385628,-16.256571339303868,-18.973196032342234,-15.419081339765652
906,-15.464899917869305,-16.429630631685047,-19.4418719261439,-15.784686586677873
907,-15.800130101745392,-16.54815647306749,-19.883902763097055,-16.06489538693965
908,-16.09170008826417,-16.650698171287203,-20.290799052453934,-16.32033183058398
909,-16.34956153102222,-16.727931816742544,-20.65780206078315,-16.524074234363358
910,-16.576263145414096,-16.76659006527022,-20.987063224218563,-16.639812718845583
911,-16.756320107346497,-16.79583291969542,-21.298927379923562,-16.67795068322493
912,-16.863218481068166,-16.84584449612894,-21.613118892838244,-16.661203788348505
913,-16.8567492955991,-16.92125899025509,-21.924423984582237,-16.623557553246357
914,-16.709072859783827,-17.01515056048891,-22.2195718031653,-16.597481989619073
915,-16.435867412740496,-17.101923291126337,-22.4919915981711,-16.578721752371425
916,-16.07635524697774,-17.15514745476779,-22.734496108934312,-16.547553286305735
917,-15.672860406547793,-17.186258054118355,-22.94392229354394,-16.501179538205122
918,-15.263156718352237,-17.210506087366163,-23.117365131381995,-16.436190798190278
919,-14.875386675890834,-17.203677349527975,-23.23612403419627,-16.326841466667105
920,-14.517121836612151,-17.14440441976929,-23.292382560357062,-16.16268143601397
921,-14.15019021002139,-17.045904561449493,-23.31889418736155,-15.980459683592088
922,-13.74282452659492,-16.934965815070765,-23.36473615867645,-15.826160053024134
923,-13.336983322527953,-16.852684829562513,-23.469404321027625,-15.740946325748375
924,-12.98582307177675,-16.829594664030303,-23.663196424900757,-15.740467861537327
925,-12.701656338976939,-16.841832465995708,-23.97275566940693,-15.755605115561343
926,-12.477261841884186,-16.849889260292834,-24.394095677163026,-15.717595283294266
927,-12.267916284271772,-16.843454015924387,-24.860266453994612,-15.668957877571733
928,-12.03477678088674,-16.819846123266927,-25.292886668717177,-15.672977093175517
929,-11.829430643194927,-16.77478426969077,-25.65796279769659,-15.733511670866273
930,-11.709685513352674,-16.712992869960523,-25.943593099781108,-15.833282089491997
931,-11.639116218101222,-16.630703918870847,-26.14086826020424,-15.936041093602395
932,-11.563696301047832,-16.53276750501911,-26.253276226584383,-15.998757781078
933,-11.474685116680773,-16.481651823894012,-26.296578750871443,-16.02131752915448
934,-11.367247646101484,-16.520710464726793,-26.275594190857596,-16.014034798979353
935,-11.237741754632191,-16.580248105120813,-26.175108646337772,-15.940323919879534
936,-11.085374449172715,-16.572267797933677,-25.966744188601297,-15.774988458341426
937,-10.859364166913178,-16.47403397057214,-25.59267018110899,-15.57371214755654
938,-10.52991020894786,-16.295994436569156,-25.02089941625671,-15.395027314975948
939,-10.209009139039654,-16.083272680889547,-24.321677807747587,-15.225589370909562
940,-10.004265426596563,-15.889133734407888,-23.58816028497462,-15.039233599104504
941,-9.85193994393309,-15.716726467670208,-22.85415364692509,-14.824735724790873
942,-9.654830504583204,-15.54711464181632,-22.125293281574443,-14.579362001546254
943,-9.396037633579976,-15.376902392479218,-21.395734314299055,-14.35911931765112
944,-9.079897882023412,-15.19378290676561,-20.642383072824195,-14.200298630911742
945,-8.734708614179956,-14.961866271509438,-19.831326416034443,-13.995403804024718
946,-8.394017102951086,-14.649418006928741,-18.943000175977694,-13.629100785735439
947,-8.007205020730805,-14.242775029849055,-17.999564015424575,-13.11673356412022
948,-7.524334241003504,-13.745446740315309,-17.033579799265386,-12.516175630896136
949,-7.034218958125654,-13.18946785611625,-16.05602267507228,-11.882146418367642
950,-6.6179880542951315,-12.609218805381857,-15.06764988669688,-11.262074630460534
951,-6.183863157141509,-12.006322235170066,-14.056040689594791,-10.629850158621938
952,-5.625880900312844,-11.37017124035923,-13.008215959756614,-9.94525956040799
953,-4.954237143389956,-10.699178671473502,-11.941409680503629,-9.255684405898865
954,-4.214083614195776,-9.993512861661827,-10.874884465529028,-8.60836162722368
955,-3.474460118124919,-9.249131817076345,-9.794681688557683,-7.958903599892359
956,-2.778157705365942,-8.497493780350505,-8.723702163311094,-7.264453840989037
957,-2.1109617133587535,-7.8282387528683,-7.721709371210228,-6.584067732468505
958,-1.4309425851965156,-7.3306602183402285,-6.860531162054753,-5.983976594891106
959,-0.8295473651468923,-6.995626930812092,-6.126266328637626,-5.522172298298026
960,-0.4017397924109703,-6.7659495700617445,-5.458628093823178,-5.217465882313509
961,-0.11234139582667074,-6.5933505442787865,-4.794792533190832,-4.9478621025550655
962,0.10799064196376529,-6.440289336212803,-4.089915815069883,-4.592029957778483
963,0.28429397455197775,-6.304784089299959,-3.366536802887284,-4.246660282527598
964,0.3447476584552161,-6.391811457276775,-2.655085000354926,-4.0858622511416325
965,0.33841903693955805,-6.473187058516549,-1.9916581918445697,-4.013456254105568
966,0.2311796602373088,-6.52686893830849,-1.3755353726846302,-3.935107417657702
967,0.060238680359413314,-6.550888338876449,-0.8075403712563468,-3.8300196794059578
968,-0.11325505275294803,-6.555457922126283,-0.2848682178639474,-3.6988127794272314
969,-0.28754989904696326,-6.563768497645012,0.18839496489263177,-3.5616964779270472
970,-0.47395428815146334,-6.599736562565411,0.6056987017697165,-3.451053372144418
971,-0.6494027455355312,-6.664176593496632,0.9663294620537989,-3.3474683113111303
972,-0.795950589017213,-6.744497063305298,1.2781469090765678,-3.220611003294746
973,-0.9061008086834619,-6.836389995292762,1.5630648726005634,-3.107184263971405
974,-0.9865787338912405,-6.932623643910584,1.8484623806700475,-3.0454562896813484
975,-1.1235802871930352,-6.997846601590151,2.1606875346862164,-2.993548871579776
976,-1.3900760759219783,-7.005500255596466,2.516527154214384,-2.892010149441868
977,-1.6800517854288866,-6.992129605586993,2.9021646617743335,-2.7267746260450223
978,-1.8520204565424676,-7.004419709962612,3.295612589983051,-2.495252533365729
979,-1.92287918325467,-7.039560353875596,3.7040030567490017,-2.194573472042409
980,-1.9493709361300964,-7.073474639941914,4.1376883908332935,-1.8306355740018765
981,-1.9183511065375374,-7.071288855369242,4.583973235480576,-1.3824394553440649
982,-1.8153904073450975,-7.001943432038942,5.0232860911003705,-0.8435372690044022
983,-1.6252126491991112,-6.88278045688351,5.430221786791854,-0.31219418824886197
984,-1.3459302725321542,-6.747720457701117,5.787515240199505,0.10868215991741423
985,-1.1001976954799,-6.601725116627197,6.118688656007236,0.44044012638124275
986,-1.007671695209833,-6.441420314493735,6.45978955343162,0.7476719211706052
987,-0.9638523332697696,-6.259466981679414,6.821296329765564,1.0717755128829356
988,-0.8219273105857289,-6.049903774020952,7.2024449002133375,1.4371183949970936
989,-0.6267229237221988,-5.848604764477776,7.597482501592896,1.8026263742449207
990,-0.4691951431163731,-5.692169132071746,7.994880529000824,2.107217886136806
991,-0.357879544430351,-5.54007117420249,8.395601109663893,2.3661726756579444
992,-0.2885860034882446,-5.341173955147069,8.798302328675689,2.6118699533108622
993,-0.24528066443284374,-5.125379075439111,9.170231576599399,2.820983413757512
994,-0.2091156103962559,-4.9374456391866195,9.475510431440478,2.962451353833472
995,-0.24358720685402546,-4.768880870954863,9.708714042690188,3.0290714781630252
996,-0.41444505913791496,-4.601322421095989,9.877765693896245,3.023022606675357
997,-0.6569434569882261,-4.4251950408815155,9.991593840995117,2.9712779980232855
998,-0.8759058852438599,-4.237228894464617,10.063615287122623,2.908732408821433
999,-1.065682211864645,-4.077661543568501,10.098767604454858,2.822754868453133
1000,-1.2438778049261774,-3.9859810839751573,10.100205067557303,2.698307314614673
1001,-1.3990993722443816,-3.924561808151675,10.097308479061828,2.6009624864041965
1002,-1.527860483171845,-3.8379856243253947,10.11320322707442,2.595402188735084
1003,-1.6360274342384142,-3.717308624864297,10.114177299378941,2.6413086816130544
1004,-1.7357653280653333,-3.5751702328299237,10.057467473448003,2.6718038722574846
1005,-1.879754139044302,-3.4441937857827725,9.943728375482337,2.6647070550811796
1006,-2.11320646189108,-3.3607707388389865,9.790878429185849,2.617283635719343
1007,-2.396979972328468,-3.316893336802186,9.627660448580045,2.562288449188018
1008,-2.669382299672915,-3.2857866182981237,9.478987186693164,2.538145662040387
1009,-2.9136108486993058,-3.2667393994169918,9.316315691645574,2.5082979725474623
1010,-3.130758073148136,-3.2584350816499645,9.10169178666518,2.421706399597297
1011,-3.3449684853265857,-3.229778829525076,8.854661764270572,2.302980568927905
1012,-3.582715708497635,-3.152676362309518,8.609131360592162,2.1927048686934985
1013,-3.797359556691393,-3.028900693195544,8.37629131700904,2.086868546719429
1014,-3.9361958506548573,-2.87542479947908,8.156484955863492,1.9760344620256094
1015,-4.049772059117925,-2.7215717790548783,7.9241135008089785,1.8627551679283725
1016,-4.201730203388635,-2.5944581702994185,7.6514574624839895,1.7522513823202914
1017,-4.372995916844654,-2.4866292897286453,7.35790621557125,1.6809014523603951
1018,-4.5145119536732725,-2.3747282298070145,7.077127384156707,1.6819998533719267
1019,-4.569138595747753,-2.254100666558705,6.8171107570094645,1.7063712670542819
1020,-4.490428628537766,-2.121021184969529,6.575541545750575,1.6997032917319814
1021,-4.305287057192159,-1.9468218357378624,6.3458677290859375,1.7110613526787022
1022,-4.070728733032181,-1.7123018341942373,6.116340586342621,1.8081024781941317
1023,-3.8070658162162436,-1.4438843660949896,5.878941345879204,2.0000983868490803
1024,-10.636443086278792,-13.331286510113625,-15.004287740899338,-10.907864030015498
1025,-10.840869358260784,-13.768395317588304,-15.526383437018168,-11.1369311944761
1026,-11.075067594167864,-14.120082155902,-16.04372819782595,-11.3956131137209
1027,-11.387823255245952,-14.398953533488134,-16.548158938974193,-11.650655460189233
1028,-11.797116022318889,-14.635270507277488,-17.03445240437304,-11.86342899824256
1029,-12.193772014203615,-14.854603428213919,-17.495169084694837,-12.03240094647505
1030,-12.46863306489441,-15.07646014812884,-17.92531702424133,-12.168825276636975
1031,-12.706505593552405,-15.31822783138543,-18.327011789567756,-12.29322005012789
1032,-13.012627864782873,-15.584291761714129,-18.70172453537664,-12.425789426580273
1033,-13.324352369343579,-15.848048069586639,-19.042133866085177,-12.548894035062503
1034,-13.562167699159927,-16.081882288708435,-19.34108855489535,-12.643462214290416
1035,-13.741181794402474,-16.30346917816226,-19.601581142027865,-12.74869819085857
1036,-13.896144954669523,-16.532848556747975,-19.834044408015625,-12.902387694701147
1037,-14.07114959735876,-16.735693627838003,-20.04683283802855,-13.07056582561431
1038,-14.30508983933711,-16.880918538914543,-20.256584183407412,-13.216114698849452
1039,-14.555056786396861,-16.997997878380993,-20.507302757460625,-13.356726040529233
1040,-14.769821061618595,-17.124540006301242,-20.83055838319305,-13.517465200225873
1041,-15.002696914184659,-17.27024089789766,-21.206115571050255,-13.722332430029358
1042,-15.305426967583792,-17.43338015231321,-21.591818456189,-13.976158570719843
1043,-15.6214279795529,-17.591328286169617,-21.941577428370337,-14.193431287553311
1044,-15.882178542635716,-17.725430326853306,-22.222254227545303,-14.298106173016134
1045,-16.067154457117702,-17.864580656740948,-22.447532266802128,-14.358028282467895
1046,-16.185071533672325,-18.04770448573296,-22.651098629599137,-14.463901867431847
1047,-16.307442971018205,-18.28561691321401,-22.852430656438763,-14.618488346946522
1048,-16.50552283774197,-18.5757876028965,-23.067525952022866,-14.800745907663105
1049,-16.747772443798226,-18.90422922608129,-23.305770700123087,-14.975414965769286
1050,-16.978379268567345,-19.24796113846211,-23.56788989864288,-15.113720981155122
1051,-17.199544251260274,-19.593904313226595,-23.86923196678244,-15.280009513603924
1052,-17.418981669268316,-19.930371432054386,-24.209076571906994,-15.538264456467706
1053,-17.62905672927429,-20.22526270757774,-24.519191719814703,-15.81698951752449
1054,-17.820297265903896,-20.453813483199212,-24.730934735030512,-16.029656843193223
1055,-17.948429398198044,-20.63749867003951,-24.853508415153776,-16.199736363575088
1056,-17.97942869364357,-20.7982738661199,-24.914618099106093,-16.36102900739004
1057,-17.978754428827465,-20.909639214807658,-24.90733224997855,-16.48988648444409
1058,-18.010994235566766,-20.94134942344689,-24.826343107741913,-16.555679632473954
1059,-18.012342188347745,-20.887933670185724,-24.67913700443836,-16.5153673294808
1060,-17.910464304835127,-20.760805218955017,-24.479297901326863,-16.34335779223889
1061,-17.7354631050198,-20.607410972213362,-24.266688600719306,-16.12163791680828
1062,-17.535787806552655,-20.46947789858303,-24.075348365453273,-15.936284890061856
1063,-17.342577306919566,-20.32519033610581,-23.885163516440002,-15.72810866013464
1064,-17.168471697393727,-20.132261167125908,-23.665190729881076,-15.430282280350115
1065,-16.940514011967206,-19.865547616020052,-23.41732268553478,-15.112286046142069
1066,-16.586991124483845,-19.51218395059805,-23.148007447614244,-14.851854804022366
1067,-16.176003101551164,-19.085267966671324,-22.857719523078323,-14.648418297876672
1068,-15.79038617283958,-18.610801194758434,-22.541960134299128,-14.467523230101461
1069,-15.388325899606455,-18.102639265843305,-22.16983192681989,-14.223344664257121
1070,-14.917552319661821,-17.5710390990281,-21.71499065566804,-13.838881290775486
1071,-14.402544978057392,-17.027222462973153,-21.199090259079085,-13.354649303021272
1072,-13.880197771336473,-16.48048869079365,-20.6570769419617,-12.846042939432628
1073,-13.389803940320606,-15.94562074958571,-20.101416116645947,-12.328512920569706
1074,-12.959524511952708,-15.435326160764447,-19.540847141576716,-11.814512681677343
1075,-12.531065112633666,-14.941573692143908,-18.992089131517176,-11.342172550136462
1076,-12.048286481099952,-14.453644152297251,-18.46425747714114,-10.945409816833026
1077,-11.5929466707437,-13.99086978058417,-17.95136644075673,-10.666835192449138
1078,-11.253484847732121,-13.56485004283081,-17.442400798501644,-10.526664468876305
1079,-10.981335539869841,-13.129532343870412,-16.925537359388514,-10.456699963842269
1080,-10.711465212828935,-12.638353010127478,-16.39058601041688,-10.377973052014855
1081,-10.454102415577834,-12.10427297117833,-15.838457130820697,-10.29986680167962
1082,-10.23417060970496,-11.556044463660585,-15.269522950040113,-10.243105163054537
1083,-10.08668062635131,-10.999327248207424,-14.66837821637932,-10.16921208070368
1084,-10.030850342659487,-10.479723907329412,-14.069874330813095,-10.059269746984317
1085,-10.02240347279197,-10.045079565915621,-13.51005646817724,-9.946549403403255
1086,-9.999534499453524,-9.748919300031009,-13.05196163111935,-9.874130247330848
1087,-10.01928008590384,-9.57002156783965,-12.692246415068723,-9.88921918089063
1088,-10.129156582584404,-9.442751974937215,-12.384161565520316,-9.992476936997083
1089,-10.211529652604641,-9.292571493068628,-12.08109148304193,-10.033728869368028
1090,-10.146494288606775,-9.067712977215216,-11.74548913641976,-9.880017878324146
1091,-9.94984702830801,-8.767185617613608,-11.361408297246642,-9.637813679954021
1092,-9.37781601877027,-8.417504119348166,-10.643950139355804,-9.226497928470327
1093,-8.832349441016515,-8.065830966192884,-9.923152722234633,-8.870381914033324
1094,-8.387031328791384,-7.755984422018319,-9.217640472617818,-8.50541509312738
1095,-7.99223287502536,-7.4927079252239075,-8.536533051122701,-8.113526222618315
1096,-7.570464305472947,-7.257700983217889,-7.880299479957721,-7.688860351198097
1097,-7.153999398285831,-7.016310109048153,-7.245439545879257,-7.257598858089293
1098,-6.792554799360542,-6.732609053981946,-6.622296591309467,-6.853365192659092
1099,-6.4593656163909925,-6.389225963565037,-5.985685236225159,-6.4201358733221685
1100,-6.11806144965768,-5.994638499246995,-5.3166492931852805,-5.900244925830795
1101,-5.754892429233006,-5.611321150756374,-4.638735536149896,-5.382820080944539
1102,-5.367013383778076,-5.3021498246569925,-3.98702141601312,-4.975000237484415
1103,-5.011873137907571,-5.042166396470739,-3.3625240308118256,-4.6447414462645416
1104,-4.744616589765789,-4.778604939727095,-2.760384189533248,-4.32248078282785
1105,-4.4845443543310095,-4.505237627045422,-2.1993978274148014,-3.9884137923739984
1106,-4.1352255988407,-4.22787094337083,-1.6968557582134163,-3.6368518524814135
1107,-3.753705822545514,-3.947573116985258,-1.257462532741192,-3.2887026566535034
1108,-3.4310131353358724,-3.6697647990651165,-0.874428274714421,-2.979287526821349
1109,-3.1713010042006116,-3.3842421749668516,-0.5070874793623249,-2.6911764693681612
1110,-2.954568843631481,-3.080980721958252,-0.11464556864416461,-2.40065498900019
1111,-2.7566293729393156,-2.788011463530004,0.2844970440466789,-2.168692247224404
1112,-2.551478953581632,-2.538130587087453,0.655768648775594,-2.0560427761397757
1113,-2.369966181153168,-2.323448337362842,1.0053566185734764,-2.0085500509538594
1114,-2.2553006766758226,-2.127598852752866,1.3470286174495292,-1.9538958203875103
1115,-2.1798197144539477,-1.9553622011547054,1.6740622619448473,-1.8977847776362948
1116,-2.1053253612258405,-1.8149383042981884,1.9780280001201727,-1.8705922444176166
1117,-2.0519980874684216,-1.7199794576546585,2.2532211949774,-1.919426191841153
1118,-2.0504373858008225,-1.6755414235317554,2.496041327333631,-2.076308067318736
1119,-2.1121401883455535,-1.64018231953173,2.718940333621553,-2.25729313347915
1120,-2.2354760880061413,-1.5668360532238688,2.9385325191583287,-2.3563304783033465
1121,-2.37416190420999,-1.4510389659272154,3.150975963526352,-2.386812294035538
1122,-2.47264749412366,-1.3089844797810202,3.3518787242482846,-2.3973215007963815
1123,-2.547334112186781,-1.1783049787503508,3.559851006034929,-2.3928295051801425
1124,-2.624062597594449,-1.0903216197029595,3.794335110175143,-2.371643805881578
1125,-2.6423651561700567,-1.0007669055415145,4.066817551570357,-2.3075347355007887
1126,-2.540156284549556,-0.850985776535518,4.373531275669326,-2.1732401905844627
1127,-2.3388315782784894,-0.6579201532035497,4.661550677456763,-2.0378479781728864
1128,-2.087992204917783,-0.4609280659201937,4.878121584506374,-1.9705827448547117
1129,-1.8519391047430183,-0.269472314125243,5.041518747971495,-1.8841507987153996
1130,-1.678557735932149,-0.08688570258055539,5.195989777481513,-1.668469464893714
1131,-1.4940816534395545,0.08437247814927715,5.372519877428573,-1.341905813059306
1132,-1.207503299289601,0.24893347075682118,5.587835160982947,-0.9645615000903331
1133,-0.8783736437124712,0.4075003010753924,5.81121633381899,-0.5955455654557468
1134,-0.6000486347531409,0.55669999056039,5.9979920546097265,-0.28315374343526
1135,-0.3738868277376554,0.7038154297841074,6.151378535720464,0.03077653163570382
1136,-0.17588766990301713,0.8512652418032489,6.289732271809111,0.42119449770680706
1137,0.023978353478035286,0.9625034498603084,6.412569165217196,0.8168352297038513
1138,0.25403003948706054,1.0078556879170477,6.516250179228764,1.1186503335791325
1139,0.4594795782288048,1.0233926486876057,6.5929840520408245,1.3424490963899909
1140,0.573051095155649,1.0664612313739918,6.635812005949528,1.5340300752195437
1141,0.6549785716590555,1.1767554142187706,6.656859762216571,1.7049187171420672
1142,0.782093089879221,1.3711364716410421,6.675611349421313,1.8647026710187358
1143,0.892310917850061,1.617650716478086,6.705290276947434,2.0118799959706335
1144,0.910136418309424,1.8595653113413286,6.752926406309031,2.1382940536497217
1145,0.8740360648415288,2.054164431456819,6.8131275784477685,2.270078897857646
1146,0.8498055305035342,2.175708893954626,6.873641609532839,2.4325164095600487
1147,0.89535154146577,2.2255618145425924,6.927550431356851,2.595773365353248
1148,1.0444123451466727,2.225521609735101,6.9698440161703985,2.7187106704930466
1149,1.1970343802979908,2.196857501936514,6.9922371968296675,2.793600041837883
1150,1.2351092408045845,2.1583710155162406,6.987762766017504,2.8258387155615003
1151,1.2316166709210954,2.129939995025898,6.956166638517271,2.8323813443783874
1152,-11.419523006273746,-15.518234234346721,-14.015578595543435,-12.634717861881251
1153,-11.726628246315894,-15.840658748690409,-14.433644971958387,-13.017810264523964
1154,-12.061214042359818,-16.194319560339174,-14.830554555906694,-13.426212874002083
1155,-12.46819645581603,-16.586781521615283,-15.191236923116504,-13.82886447471693
1156,-12.972022132323703,-17.01751103977938,-15.515186301176035,-14.190587113174276
1157,-13.490991329374262,-17.48582498685495,-15.841286591852905,-14.526705287408129
1158,-13.938843432008929,-17.98210678003151,-16.207771959393188,-14.866798880899326
1159,-14.354354036563551,-18.49912642928563,-16.61186878851779,-15.260236631713335
1160,-14.805141131357939,-19.022959610862287,-17.03414400288783,-15.742047886117689
1161,-15.301209142919717,-19.5003662104802,-17.453443978780644,-16.251951552445043
1162,-15.839683016403482,-19.89359457584267,-17.851716118007634,-16.719838465304118
1163,-16.41811572875795,-20.248275384677783,-18.232014806921036,-17.18145291848446
1164,-17.01572419763004,-20.623667578862605,-18.606488434680752,-17.67825808187508
1165,-17.61111845721456,-21.02979172135075,-18.980475565898857,-18.163716388467414
1166,-18.176919043234573,-21.45070095571145,-19.355427043667074,-18.581998962215117
1167,-18.64072536436746,-21.847907776521744,-19.723310344861304,-18.905910980655296
1168,-18.953480505748054,-22.176706615568744,-20.07172057145837,-19.13067720634306
1169,-19.183168836722828,-22.415624205707726,-20.404233177140064,-19.32400624215585
1170,-19.411541620186085,-22.567872314437313,-20.720969565178432,-19.555780498780926
1171,-19.630684738060225,-22.666784569844086,-20.984256105248033,-19.773381936636923
1172,-19.809888156868936,-22.753786335068977,-21.16394155079977,-19.914155885656918
1173,-19.920026004104518,-22.84716148149007,-21.288989320043846,-20.04753226693854
1174,-19.942786755313126,-22.95344861633395,-21.39728990953646,-20.237736196620624
1175,-19.947619021742202,-23.073876297442535,-21.494694668596004,-20.4211591743974
1176,-19.996877623412658,-23.205471573947637,-21.572272207373395,-20.513593304277695
1177,-20.003282347915526,-23.354524539453838,-21.60224292955143,-20.463181401306606
1178,-19.871156161860934,-23.519908751820534,-21.557334303328915,-20.253951994622287
1179,-19.634948852555592,-23.678416391872226,-21.449355051345492,-19.976436075276908
1180,-19.36255194206658,-23.795527929675817,-21.302287373993856,-19.729818508500955
1181,-19.10779345329873,-23.82316352946793,-21.120374694004568,-19.482852737869997
1182,-18.908110919833682,-23.729636559013713,-20.908018624250648,-19.175331031525495
1183,-18.715490758164307,-23.53853402797819,-20.681411691464376,-18.811261520048255
1184,-18.469075198280038,-23.296707883105334,-20.456565436480922,-18.40941366088552
1185,-18.216091147614343,-23.04496664306382,-20.24773676766692,-17.994611292128006
1186,-18.01069473776804,-22.81591181135446,-20.064503192718778,-17.598322286619297
1187,-17.801434430121017,-22.61257130236167,-19.90014781500959,-17.215397450882936
1188,-17.531293250224024,-22.422894113581098,-19.742454794826454,-16.83601545685621
1189,-17.21726392931229,-22.25796206595673,-19.594772479127244,-16.51189417256509
1190,-16.88702380015982,-22.116308909567753,-19.456778449028423,-16.280292764840215
1191,-16.56097391264596,-21.93926858561947,-19.29733058961815,-16.068904102900976
1192,-16.248913459900553,-21.668820003403592,-19.089634453856597,-15.79911368820145
1193,-15.887965438910356,-21.302991532550575,-18.847813844091775,-15.485716823784735
1194,-15.428106555149212,-20.86663377188599,-18.597304226480325,-15.16701946385161
1195,-14.960249979411099,-20.38942727504134,-18.34901429407079,-14.864372644337381
1196,-14.586289827031795,-19.91480864465285,-18.109392039452462,-14.590085160041001
1197,-14.288606794961641,-19.49001164080057,-17.88316944236869,-14.314305603799768
1198,-14.016598053065387,-19.15058122486511,-17.665237665271,-13.999021904059457
1199,-13.73330904467907,-18.927395916297613,-17.439937544289094,-13.661298628663424
1200,-13.411435687163932,-18.814276138784738,-17.18813635642611,-13.323069459443895
1201,-13.080009369717736,-18.724404515745476,-16.888823660525706,-12.955014916312722
1202,-12.779088999127337,-18.556356419919155,-16.527947085249618,-12.528556674164161
1203,-12.48766243141538,-18.26299725469891,-16.113326968827437,-12.05350531840191
1204,-12.17264900384724,-17.835410991078827,-15.656680298901891,-11.550658621436964
1205,-11.832302591267043,-17.291766766376686,-15.153133135330378,-11.0485993901588
1206,-11.467402502665358,-16.68053290797243,-14.595347204994573,-10.566680667408427
1207,-11.0771116229591,-16.06714629045639,-13.97965435969668,-10.074244662558113
1208,-10.660207056460287,-15.499999431969334,-13.307798646116938,-9.529840090863804
1209,-10.181829850610464,-15.001861029722512,-12.601985582798791,-8.936253612323405
1210,-9.612007604924093,-14.550346604196909,-11.882847729684936,-8.301593100884114
1211,-9.00597216584613,-14.02605963534256,-11.138171206003639,-7.600145480507048
1212,-8.41573764713918,-13.350141181948619,-10.375365914220936,-6.804437632326933
1213,-7.740579420248655,-12.589738475422442,-9.631912428101327,-5.980327085911746
1214,-6.893947364616941,-11.866806619299393,-8.955120916029871,-5.186784458596836
1215,-5.9908914675616085,-11.232817262885249,-8.337179968182598,-4.512866569631781
1216,-5.179276520311357,-10.677276944092629,-7.744545875637657,-4.0024153886751375
1217,-4.459836777562204,-10.171109664573757,-7.145132253182906,-3.4968363314799107
1218,-3.791139864290974,-9.664039390742367,-6.519640833212564,-2.835733696137601
1219,-3.1537599675103163,-9.149407315019705,-5.89354564907824,-2.1179002683686083
1220,-2.611416926063884,-8.762156096882915,-5.368362646009313,-1.700483134187004
1221,-2.1794087696564035,-8.400909396161714,-4.875289606667252,-1.3532056421021696
1222,-1.9436587043694118,-7.972497261399953,-4.404603287588457,-1.0402431029278403
1223,-1.7964519443285565,-7.456162338135432,-3.966237500462556,-0.7725052855313121
1224,-1.5864581281444627,-6.87487459496076,-3.5711022390914744,-0.562238010414579
1225,-1.3324860258994877,-6.2886334726832755,-3.224641904310973,-0.4268535123579666
1226,-1.096436883491908,-5.763556136704049,-2.9261291133977454,-0.3722300337288821
1227,-0.8631238893379695,-5.30185962686596,-2.649391449824582,-0.31587482905679093
1228,-0.614517197163646,-4.87833311983615,-2.3688218697100036,-0.172970716220282
1229,-0.3393426358451458,-4.484784496181691,-2.101619165557072,0.010848519092806357
1230,-0.03775216316011398,-4.1204706568582035,-1.876286853284422,0.1552630645329802
1231,0.19290233211969124,-3.812693922080367,-1.698504842483155,0.2500021960963335
1232,0.25711100708702017,-3.590761475940287,-1.5636272644238243,0.3071651890054345
1233,0.22771486116081138,-3.423098210233215,-1.455043643312232,0.34809369023674563
1234,0.21986917437319525,-3.2627998344840883,-1.3529862106704196,0.3989454462766491
1235,0.23699952520858297,-3.117342906673877,-1.260295647513781,0.4373253724055116
1236,0.25647301753946233,-2.999890173552752,-1.1834763771825219,0.4318034681462082
1237,0.28716543966014507,-2.8742003423899822,-1.1121423608242769,0.412427800535544
1238,0.3385968576274429,-2.70221046461858,-1.0271615570478008,0.4192458648636881
1239,0.4508086292550107,-2.481139955776751,-0.8947396342564392,0.44833868910157076
1240,0.6576084622942545,-2.225736064309426,-0.6871073320399024,0.4871711377799834
1241,0.8924359944810707,-1.9723153824087907,-0.42085876094927677,0.5198597994211942
1242,1.0700374287362098,-1.7566671416953314,-0.13132066106960522,0.536014289308737
1243,1.2067840077170051,-1.5678106178256694,0.16476953290576984,0.6023377288688017
1244,1.3425764490446277,-1.3755788961660775,0.4556927389246516,0.7799692298239984
1245,1.4526834286740558,-1.1723321811888878,0.7184876078934723,0.9655564574146983
1246,1.5099331434486805,-0.9564887804228408,0.9418665611556634,1.03773573468709
1247,1.5297032800732735,-0.7116341684693134,1.1494436426543801,1.055976065036559
1248,1.5394128831263012,-0.43138207875577184,1.3732365938457365,1.1209423148466304
1249,1.576300825755878,-0.1529246837545171,1.6269422782527725,1.2389117164596837
1250,1.6728176488079778,0.08303770303715698,1.9113431989937513,1.38644572786902
1251,1.8127375318324688,0.2867859647755272,2.211752043595255,1.5188186499288714
1252,1.963858185634429,0.48152824684832257,2.5051872308204075,1.5869456808431197
1253,2.1263972824186066,0.6621905294776927,2.780335888746692,1.6204385321066306
1254,2.3013903882676185,0.8198981743261216,3.030240825331216,1.6693860285333626
1255,2.4769066340368857,0.9494495288255959,3.2411249243173006,1.7093756522226347
1256,2.631823788458328,1.0515345389985467,3.4031213353500465,1.6995915809610023
1257,2.6902260834478593,1.160713718103693,3.51587637124265,1.6452100043947415
1258,2.590271641543759,1.3118853418924752,3.5871843158242402,1.558127224398981
1259,2.4159467407890673,1.4907779892705695,3.6377460298858693,1.4294517184112308
1260,2.280415683005868,1.6685957760058805,3.6899428153260407,1.2564701237910312
1261,2.1608436192584812,1.8260740987303157,3.750061781197474,1.0482171705930639
1262,2.006284878058227,1.956351901414073,3.8137888358794916,0.8213689618180751
1263,1.8459724328171017,2.1044551511977767,3.878360611191818,0.630059819621135
1264,1.717133322104694,2.315781940078011,3.9349335489041164,0.5182867034319781
1265,1.6445313177476806,2.548262948317311,3.9559185022140975,0.4290676089391621
1266,1.6343234891273573,2.7361045238814428,3.919317088875722,0.2888963827744122
1267,1.588973309825849,2.86204896968833,3.8359122011880853,0.12218180779834353
1268,1.4056242336418316,2.9274291269280215,3.7320579053809615,-0.0226144751153895
1269,1.1530734001335237,2.946123176893493,3.636543257634413,-0.1380869498561264
1270,0.9367532515590392,2.9389924067857867,3.571432154282777,-0.23090251894415012
1271,0.7199232717546706,2.894634965550657,3.5304371230168523,-0.33794830627688627
1272,0.4437561644791228,2.7975234844859864,3.4913027385239688,-0.49926069646010485
1273,0.1328068653497925,2.6745960526642167,3.440111766291267,-0.6811746173829051
1274,-0.17073868561137923,2.563298289233126,3.366696577015499,-0.8362312681652178
1275,-0.4130787535875454,2.477676937584851,3.2529537216542472,-0.9918334680189953
1276,-0.5540365000999808,2.424910742316372,3.0937636700107083,-1.1849193803654479
1277,-0.6631701109139994,2.4126382314582324,2.926374762995498,-1.4037799645106097
1278,-0.8281393234507453,2.439425220983238,2.7939922575039815,-1.6188333909502308
1279,-1.015811691295665,2.505491860029881,2.702366506482685,-1.773818072800309
1280,-15.782930723848725,-15.572221632398021,-16.76883058780692,-15.016720999313074
1281,-16.028365280928085,-16.087996400638623,-17.147399136895093,-15.297603193878246
1282,-16.1389315737766,-16.632183759459053,-17.536094730639846,-15.574071916087465
1283,-16.177517174109973,-17.189668684794444,-17.93406628728024,-15.8218089870175
1284,-16.211262937370066,-17.72308465990432,-18.30548554236123,-16.003939084343774
1285,-16.187160823403502,-18.21415362019101,-18.623855657673364,-16.11130831504628
1286,-16.047934368094605,-18.647450150123714,-18.893946141363358,-16.149480954009544
1287,-15.85942117307309,-19.021741624213032,-19.126196999174073,-16.177184022745145
1288,-15.704780399954561,-19.3443076339555,-19.339176544074544,-16.24433819177493
1289,-15.616922595008944,-19.60291907066028,-19.529366873904802,-16.268202642335144
1290,-15.602102173064758,-19.795005200023617,-19.693593630041466,-16.19065286413865
1291,-15.599039485346543,-19.960561763685156,-19.836148939937605,-16.0547481744741
1292,-15.54411924855386,-20.14609628034207,-19.97445245065825,-15.980073653124098
1293,-15.497641343605231,-20.377119571945997,-20.12298854172314,-16.02643841106775
1294,-15.52819082474601,-20.65888972327613,-20.278627340476465,-16.152120273642755
1295,-15.569249310472342,-20.96919758991431,-20.43447694428979,-16.276244610053453
1296,-15.549017940025818,-21.272373073094702,-20.580178898207585,-16.38728684387947
1297,-15.500486250966823,-21.53143939464194,-20.715564215151723,-16.51645508122085
1298,-15.47379527827485,-21.725350615053774,-20.843802114437786,-16.71040648616537
1299,-15.510445485841672,-21.879486806873924,-20.964332433645914,-16.92037902702431
1300,-15.628424555370994,-22.026498507044337,-21.07468426556675,-17.084235927311216
1301,-15.724947013786567,-22.161085318077422,-21.170115862459458,-17.212770259947117
1302,-15.70299473754099,-22.2684807155442,-21.246637283419606,-17.330030721638227
1303,-15.663317297088732,-22.336048829651933,-21.302452853808152,-17.440078148911148
1304,-15.723517831914087,-22.36212838758505,-21.34347427637216,-17.5469741737121
1305,-15.824443545249151,-22.38999975108138,-21.390137790589986,-17.63368848082687
1306,-15.883060781931434,-22.464452808483767,-21.465323875237527,-17.689844559844893
1307,-15.900493724670538,-22.57347103640281,-21.570722491107492,-17.774076148323374
1308,-15.90035467491468,-22.68616361654452,-21.6999120054284,-17.93799610423669
1309,-15.934239244649431,-22.792839927059735,-21.83159691173014,-18.138028594047125
1310,-16.04780033923534,-22.877998951187465,-21.929075501448132,-18.30839521955091
1311,-16.2007855713917,-22.900108623347712,-21.962950901989576,-18.420170108302536
1312,-16.32822155132535,-22.82429728939267,-21.928534149746515,-18.457041636347476
1313,-16.41083192001536,-22.651387515954998,-21.837372945490856,-18.42539456194326
1314,-16.443272722708457,-22.398715101654332,-21.696551719186065,-18.339326943862556
1315,-16.41437277398608,-22.076542894630922,-21.504194315375713,-18.166874564447156
1316,-16.323896932865697,-21.70734403930042,-21.272584934943392,-17.88017061637764
1317,-16.186949442960874,-21.344523846616852,-21.029735255158563,-17.531668330013193
1318,-16.006877426656747,-21.03339463586077,-20.785442724079335,-17.158683015437333
1319,-15.766063211639885,-20.781630130696577,-20.529384420869754,-16.76896526879886
1320,-15.43347119006591,-20.568621141488755,-20.242801299722753,-16.316731025202735
1321,-14.938462373703787,-20.341270559336856,-19.921273939425383,-15.760478562592699
1322,-14.244759434381221,-20.043762665552585,-19.559882149901288,-15.126958381504215
1323,-13.450979290676866,-19.663350901086464,-19.157820539784943,-14.490164169639732
1324,-12.675878365370556,-19.208044927020197,-18.705078909168172,-13.866675527513424
1325,-11.959838128064924,-18.67880847183853,-18.197601889340177,-13.227935615834696
1326,-11.293889766389317,-18.09036450133495,-17.635648611158132,-12.537261037549017
1327,-10.587413884437812,-17.47527262533378,-17.040726199096486,-11.852853838292425
1328,-9.75503930191506,-16.867675640004855,-16.428773251545646,-11.239050698409033
1329,-8.866810682577537,-16.311544239833946,-15.81105400597059,-10.678892234987403
1330,-8.02665682352912,-15.818527288858553,-15.186991321550607,-10.1374640653499
1331,-7.227999664852818,-15.31985235874866,-14.552048220918993,-9.583671996385643
1332,-6.450445301679724,-14.728298737140312,-13.94491582392655,-8.999763158827545
1333,-5.7355287719463,-13.97026872655468,-13.442506987232306,-8.454476100922086
1334,-5.10936899560375,-13.018962114035652,-13.057422701049465,-7.99648715863461
1335,-4.56202447036267,-11.981881327988718,-12.728936747852906,-7.591250449417638
1336,-4.069786549013227,-10.967788930605172,-12.389235703273432,-7.156185854115033
1337,-3.531034411775467,-9.931582976141026,-11.99595645654467,-6.6835797593378015
1338,-2.896571771482227,-8.785069707635449,-11.525345123051757,-6.268719658203423
1339,-2.359338806422864,-7.475141027721159,-10.973332466088904,-6.002056383678571
1340,-2.1677663184861307,-6.0606677012406545,-10.3751714235093,-5.945064138355783
1341,-2.3543827170834577,-4.718481393666159,-9.825600457638707,-6.189622662954793
1342,-2.822276063614589,-3.7008667341020223,-9.410142733010563,-6.768468145752307
1343,-3.3927942537414815,-3.1926643498899754,-9.123309497204216,-7.484787436024668
1344,-3.794211499402533,-3.2470838020078245,-8.867027320764455,-7.952708664253781
1345,-3.904284085793287,-3.691908385737008,-8.498915938916896,-7.900139260750026
1346,-3.855084168717452,-4.286977838739213,-7.988516990652615,-7.411434467450136
1347,-3.827210560683344,-4.936507054739309,-7.4257097065170505,-6.862091245580573
1348,-3.1162896207008863,-4.973331470560752,-6.776647660238596,-6.04467425338554
1349,-2.3713901175444816,-5.053255834447331,-6.099820384846745,-5.240802236475995
1350,-1.6579785202234656,-5.161646110040954,-5.391177338434056,-4.396712777950141
1351,-0.9544579187853921,-5.2784981097139285,-4.6664445758517115,-3.471249223388458
1352,-0.2217606069694169,-5.379643874428673,-3.944414624437815,-2.5136089085136692
1353,0.512252891862417,-5.4675783821526736,-3.249847179934555,-1.569129577115913
1354,1.213620825224178,-5.551600264580711,-2.589884554933934,-0.685487306011773
1355,1.8831060528694357,-5.605699906028192,-1.951074946380594,0.16964543141465283
1356,2.532688848725126,-5.604190430318565,-1.3238330086738441,1.0482771696059345
1357,3.201585701477309,-5.559840884349903,-0.7073309806410718,1.9282985791591982
1358,3.9273104983324965,-5.497596630738376,-0.10490509482503987,2.76935120579904
1359,4.662746633987777,-5.445971814885382,0.4896478326097928,3.550996191438847
1360,5.349588811226018,-5.42514046417071,1.082760184785888,4.2668662290826065
1361,6.044371575797801,-5.403732633187145,1.6753932165071705,4.979964888270489
1362,6.812380487449618,-5.346440438751888,2.2637972618384734,5.75817271814551
1363,7.598150591908057,-5.281315078087116,2.8338976919455,6.535215075659653
1364,8.322875347432554,-5.255601550453953,3.3706058068079043,7.250218870135911
1365,8.957581804258904,-5.30393592998809,3.8720810740278506,7.905259484032639
1366,9.502812997668203,-5.438951599915434,4.343043520194162,8.582503086853125
1367,10.034784953575617,-5.610000110782854,4.788317212598439,9.330006138010601
1368,10.63445516947797,-5.74712836593602,5.212775145324111,10.091731157494772
1369,11.2458865817274,-5.827398710974825,5.616027402587852,10.757657972182223
1370,11.780978299980838,-5.858048918734179,5.994397873740478,11.302934505748993
1371,12.246670335094706,-5.860479506899005,6.348537090875603,11.752680224641832
1372,12.676456465922927,-5.87099805314865,6.6779547383637325,12.168409620008003
1373,13.107354910655422,-5.933898131724668,6.9731026479481795,12.522919167303272
1374,13.56641954127288,-6.0764525307054065,7.225845689237504,12.774995468572639
1375,13.972202023727863,-6.277673475580378,7.438595398366864,12.976929069782027
1376,14.233089199191399,-6.495361590338602,7.621904678416535,13.170674244373922
1377,14.424540011844895,-6.704398863600858,7.794185611158771,13.407370615610075
1378,14.65289296936746,-6.889176841847038,7.97282401880239,13.664589669664663
1379,14.880288365611282,-7.036469048614715,8.167043593014442,13.862028357297833
1380,15.040401699641878,-7.147434614924281,8.368863457575298,13.994615987385977
1381,15.143820466735772,-7.2452844201748245,8.55687100649969,14.099364258020593
1382,15.214636211951886,-7.357187219484466,8.69747039839816,14.22740593038248
1383,15.275109394294022,-7.495674546067543,8.775765596945563,14.309581833118358
1384,15.349854679822503,-7.661571300726429,8.807340247121061,14.26394100182336
1385,15.399423137645039,-7.844079544584523,8.808981094648969,14.140938866344182
1386,15.385330341135015,-8.027193621040817,8.80324454111988,14.027348997364683
1387,15.41184255447677,-8.201365466608049,8.798273014378823,13.963092024423227
1388,15.589123225465602,-8.362113642997922,8.797802675075506,13.970535374432956
1389,15.838367313947618,-8.51441100609295,8.825446310212335,14.029454652753577
1390,16.041515740345588,-8.66544852647889,8.900054443566615,14.107152476805517
1391,16.2001800899924,-8.795707300832126,9.024674894907804,14.251441960224613
1392,16.350720518792187,-8.88458991181725,9.182476777355067,14.517927055359754
1393,16.53119686818824,-8.969871286523626,9.355476390022531,14.855111921650737
1394,16.777366715894566,-9.087255969156242,9.529955631624732,15.208470453377302
1395,17.032793445779795,-9.175567343511574,9.710657310315009,15.533308145294745
1396,17.226737117364628,-9.164621352185076,9.906994053134992,15.846787094136461
1397,17.42412182332243,-9.07565209366237,10.112399028202324,16.158446726441213
1398,17.70428514099642,-8.959701666165872,10.292225459417052,16.414080890620326
1399,18.01393116413755,-8.86126610551465,10.406833243863497,16.600875327397528
1400,18.266757312514283,-8.809772718320557,10.454816524387185,16.711208441742308
1401,18.415078135807235,-8.762274618066238,10.474607716648723,16.780299853790698
1402,18.432536601694483,-8.657143417879382,10.508298628795227,16.848557841857303
1403,18.36693999782884,-8.502126815590215,10.559571971752453,16.891703935804987
1404,18.280358171209546,-8.331150356131387,10.594349699835911,16.867587457139365
1405,18.115525188979056,-8.163598672681285,10.582628042925801,16.75732781562172
1406,17.800982457692495,-8.01903786048051,10.523489268888495,16.55562722942314
1407,17.387949068217054,-7.904651490632763,10.422535067577877,16.31503247805963
1408,3.6455127977330757,361.26647374616533,44.6735215073909,0.3317711383965516
1409,4.244978085335398,367.65789074363073,44.91467885947149,0.4916496684159554
1410,4.778797124402398,373.0607533194075,44.97418353914877,0.5615423134047448
1411,5.18312133851409,377.5233068143268,44.854103445283975,0.518195742955321
1412,5.428625759844515,381.05639859370996,44.55654320466245,0.4189788049716833
1413,5.595010907129553,383.6270742527742,44.09328887616484,0.32620939614282995
1414,5.760903337760299,385.18636896382145,43.480604745688616,0.20546765128190636
1415,5.888724167840679,385.6947006507193,42.72392525770992,0.013270836696462729
1416,5.922333314977497,385.14047100134593,41.83820840091312,-0.29403878645177645
1417,5.844736062116431,383.5280556912011,40.84083505118005,-0.6639901424535273
1418,5.666626676819241,380.8830888251568,39.76517367557049,-1.018330502945711
1419,5.502162063047311,377.27151187093835,38.63704264764462,-1.340210211622484
1420,5.445957379761477,372.7787726627249,37.451209766949475,-1.6297557708329458
1421,5.364997368816667,367.47814769674784,36.20324668294197,-1.873653628576748
1422,5.109286723697695,361.4231739859058,34.88000297888758,-2.0778771788055095
1423,4.75568995314034,354.6141453471923,33.46888741758012,-2.2686768015405554
1424,4.413588958510718,346.98443847894765,31.962310381235188,-2.4837986044167306
1425,4.067877420134759,338.47731465128993,30.35470935811575,-2.7966869970544557
1426,3.684522547372635,329.11698069734587,28.64794396995453,-3.258456589773395
1427,3.232817731446242,319.01118221563064,26.861204127935757,-3.811895014626694
1428,2.6965405722318323,308.32038392441444,25.011421715200342,-4.379790849804551
1429,2.162233530063151,297.18131143088925,23.092173045093713,-4.964193861832867
1430,1.7186598427026878,285.62075059251043,21.088363692203117,-5.579838852392124
1431,1.3228440501665197,273.56423292240703,18.988491261328534,-6.206187890417705
1432,0.9015414675873188,260.9305572116235,16.78605957743677,-6.818456649488913
1433,0.44026479737854274,247.69984688161122,14.48366004783409,-7.386970810885951
1434,-0.060846205288552224,233.88080962535116,12.094140105307014,-7.885229486535342
1435,-0.5946952304194251,219.45471986496736,9.642645360572851,-8.323389206625412
1436,-1.142790867441749,204.42197454890763,7.151108258622555,-8.720796666499263
1437,-1.7040103939453728,188.8245987643102,4.622192112486367,-9.063761831139002
1438,-2.2793628556764887,172.73087310616887,2.0492405628225123,-9.346246590289605
1439,-2.8392838352676693,156.2349453813826,-0.5797540520432787,-9.608278036610425
1440,-3.3612207469692486,139.43429619252683,-3.2704690193621433,-9.895227501199681
1441,-3.8736076468870304,122.40215419203119,-6.001694164732567,-10.23806871846396
1442,-4.409991165844579,105.1816759652588,-8.745460952703139,-10.650565000047385
1443,-4.967916246132909,87.76789789936025,-11.488883128774994,-11.085917840305077
1444,-5.538198415616991,70.13271508686664,-14.226262034900254,-11.497487164777212
1445,-6.111380552588876,52.24827095777943,-16.959137813402823,-11.945789903742297
1446,-6.685937378331785,34.07947842377614,-19.69149139463623,-12.464221755984722
1447,-7.310127952635456,15.591982135639979,-22.41447345271129,-13.047251077718876
1448,-8.026047098803028,-3.2103456580680247,-25.118080402082185,-13.599298830367546
1449,-8.7882061669934,-22.280328166012055,-27.807822647182995,-14.058196172020056
1450,-9.541274997012438,-41.58909740558934,-30.484211513657502,-14.470297215596926
1451,-10.297487340501744,-61.1436901844973,-33.15344987424948,-14.870202673275955
1452,-11.078388352926739,-80.91758660060951,-35.80423480714341,-15.294072502899839
1453,-11.891214914982408,-100.8434940075342,-38.41317050269401,-15.676976088846233
1454,-12.730383374154275,-120.87612979711041,-40.976144554160136,-15.944496214448275
1455,-13.5191435214146,-141.04759848421003,-43.51128204798903,-16.142980288111385
1456,-14.189309688243751,-161.44472236417866,-46.01958434737995,-16.335954022273377
1457,-14.825233039152113,-182.09870111738084,-48.478257430990006,-16.51672465793301
1458,-15.51299715192749,-202.95425139308657,-50.881635768217755,-16.668476901735854
1459,-16.152360215202346,-223.9284054448083,-53.23553821905814,-16.767001357469027
1460,-16.63853995126266,-244.9357645871388,-55.55412545769486,-16.80790403613488
1461,-17.02312153606836,-265.91037506694676,-57.84502545638349,-16.891408252751337
1462,-17.392364414927005,-286.8267386516239,-60.116473812212206,-17.113050279398337
1463,-17.824792997896484,-307.6737868448192,-62.38282793740954,-17.431540539544272
1464,-18.366500741195576,-328.43344638818274,-64.6553429401495,-17.763673026172167
1465,-18.902251793394374,-349.0870448627469,-66.93623906438052,-18.061078504268956
1466,-19.307912389190072,-369.6181436791068,-69.21976933459682,-18.28573373005881
1467,-19.68098314443184,-389.9915679411612,-71.4926286303289,-18.428544242903538
1468,-20.137953759052024,-409.8893116773086,-73.76085331229358,-18.4976460013158
1469,-20.730158610727777,-428.7360715197519,-76.05346943353557,-18.592359988548544
1470,-21.62848341509576,-446.3162228752388,-78.37560583918717,-18.962873259218274
1471,-22.95244869851058,-462.9114878176644,-80.70867826325791,-19.788480789401437
1472,-24.447253963094397,-478.955712544868,-83.03291504662792,-20.874195448372387
1473,-25.673314362008604,-494.83261232302016,-85.32687444365523,-21.79089871761213
1474,-26.28002986045559,-510.7884943070318,-87.56334279531798,-22.159945893441336
1475,-26.289526925279,-526.4622065211423,-89.70585335159288,-22.07673791900538
1476,-26.127637441698088,-540.2212084841558,-91.39002463918348,-21.825340399814763
1477,-26.00145795259012,-551.3876854222339,-92.9054008718207,-21.906264006450808
1478,-26.026268596015715,-559.9721028092958,-94.24278699044488,-22.381305433585233
1479,-26.193670677941096,-566.3852156785136,-95.44026576127995,-23.112800716419304
