timestamps,TP9,AF7,AF8,TP10,Right AUX
1728615295.561,-24.902,-20.996,-22.949,-28.320,0.000
1728615295.565,-7.812,-30.762,-30.273,-53.223,0.000
1728615295.569,-30.273,-43.945,-36.621,-48.340,0.000
1728615295.573,-62.988,-48.340,-37.109,-18.555,0.000
1728615295.576,-33.203,-41.992,-30.273,5.371,0.000
1728615295.580,-25.879,-41.504,-25.879,-28.320,0.000
1728615295.584,-10.254,-48.340,-29.785,-59.082,0.000
1728615295.588,-27.344,-58.594,-34.180,-55.176,0.000
1728615295.592,-69.336,-51.758,-35.156,-42.480,0.000
1728615295.596,-52.246,-49.805,-35.156,-24.902,0.000
1728615295.600,-37.598,-60.547,-38.574,-40.039,0.000
1728615295.604,-29.785,-55.664,-40.527,-62.012,0.000
1728615295.604,-29.785,-55.664,-40.527,-62.012,0.000
1728615295.607,-48.340,-52.734,-36.133,-68.848,0.000
1728615295.611,-75.195,-56.152,-38.574,-54.199,0.000
1728615295.615,-46.875,-51.758,-44.434,-24.902,0.000
1728615295.619,-36.621,-56.152,-43.457,-35.645,0.000
1728615295.623,-30.762,-62.012,-41.016,-58.105,0.000
1728615295.627,-29.297,-59.082,-41.504,-68.359,0.000
1728615295.631,-64.941,-57.617,-43.945,-51.270,0.000
1728615295.635,-48.340,-49.316,-43.457,-8.789,0.000
1728615295.639,-29.785,-48.340,-42.969,-29.785,0.000
1728615295.643,-28.320,-60.547,-44.922,-79.102,0.000
1728615295.647,-33.203,-56.152,-36.621,-73.242,0.000
1728615295.650,-59.570,-45.410,-33.203,-39.551,0.000
1728615295.654,-43.457,-46.875,-37.598,-6.836,0.000
1728615295.658,-35.645,-54.688,-41.992,-15.137,0.000
1728615295.662,-35.645,-49.805,-40.527,-48.340,0.000
1728615295.666,-15.137,-33.691,-33.691,-49.316,0.000
1728615295.670,-37.598,-27.832,-39.062,-38.086,0.000
1728615295.674,-37.598,-40.039,-44.434,-7.812,0.000
1728615295.678,-32.715,-50.293,-40.527,-5.371,0.000
1728615295.681,-32.227,-48.340,-35.645,-47.852,0.000
1728615295.685,-3.418,-42.969,-34.668,-55.176,0.000
1728615295.689,-37.598,-36.621,-33.203,-42.480,0.000
1728615295.693,-50.781,-29.297,-28.320,-6.836,0.000
1728615295.697,-25.879,-28.809,-26.367,6.836,0.000
1728615295.701,-19.531,-23.438,-28.320,-33.691,0.000
1728615295.705,1.953,-16.113,-21.484,-49.316,0.000
1728615295.709,-26.855,-17.090,-18.555,-38.574,0.000
1728615295.712,-25.879,-18.066,-22.461,-8.301,0.000
1728615295.716,5.371,-28.809,-21.973,7.812,0.000
1728615295.720,-14.648,-34.180,-21.973,-21.484,0.000
1728615295.724,-11.719,-34.180,-26.855,-51.758,0.000
1728615295.728,-34.180,-27.832,-30.762,-51.270,0.000
1728615295.732,-50.781,-27.344,-32.227,-15.137,0.000
1728615295.736,-18.066,-41.016,-35.645,2.441,0.000
1728615295.740,-23.438,-39.551,-42.969,-37.598,0.000
1728615295.744,-23.438,-31.250,-42.480,-68.848,0.000
1728615295.748,-38.574,-40.527,-32.715,-64.453,0.000
1728615295.752,-54.688,-54.199,-29.785,-36.133,0.000
1728615295.756,-20.508,-46.387,-31.738,-8.301,0.000
1728615295.759,-27.344,-33.203,-30.273,-34.668,0.000
1728615295.763,-23.438,-33.203,-31.250,-59.570,0.000
1728615295.767,-26.855,-33.691,-28.809,-57.129,0.000
1728615295.771,-58.105,-37.109,-25.879,-44.434,0.000
1728615295.775,-37.109,-49.805,-32.715,-14.160,0.000
1728615295.779,-32.715,-60.059,-38.086,-31.738,0.000
1728615295.783,-30.273,-54.688,-35.156,-71.289,0.000
1728615295.787,-32.715,-49.316,-35.156,-73.242,0.000
1728615295.791,-70.801,-54.688,-37.109,-57.617,0.000
1728615295.795,-56.641,-58.594,-34.668,-30.273,0.000
1728615295.799,-43.457,-52.734,-38.086,-33.203,0.000
1728615295.803,-35.645,-40.527,-41.504,-66.895,0.000
1728615295.806,-18.555,-32.715,-39.551,-71.777,0.000
1728615295.810,-50.293,-30.762,-35.645,-48.828,0.000
1728615295.814,-56.152,-32.715,-44.922,-15.625,0.000
1728615295.818,-50.781,-33.203,-47.363,-20.020,0.000
1728615295.822,-52.734,-36.621,-43.457,-58.594,0.000
1728615295.826,-37.598,-38.086,-46.387,-63.965,0.000
1728615295.830,-57.129,-38.574,-37.109,-42.480,0.000
1728615295.834,-45.410,-34.668,-35.156,-4.395,0.000
1728615295.838,-28.809,-30.273,-41.992,-0.488,0.000
1728615295.842,-35.156,-33.691,-41.992,-43.457,0.000
1728615295.846,-20.996,-33.203,-42.480,-51.758,0.000
1728615295.850,-48.340,-26.855,-42.480,-38.086,0.000
1728615295.854,-35.645,-26.855,-40.039,-12.207,0.000
1728615295.858,-12.695,-28.809,-40.527,-5.371,0.000
1728615295.862,-29.297,-27.344,-43.945,-37.598,0.000
1728615295.866,-14.648,-26.855,-36.621,-43.457,0.000
1728615295.870,-39.551,-29.785,-31.250,-38.574,0.000
1728615295.873,-51.758,-35.156,-33.691,-15.137,0.000
1728615295.877,-29.297,-28.809,-35.156,-7.324,0.000
1728615295.881,-35.156,-24.902,-32.715,-47.363,0.000
1728615295.885,-20.508,-26.855,-30.273,-66.895,0.000
1728615295.889,-50.781,-26.855,-32.227,-66.406,0.000
1728615295.893,-68.359,-27.832,-26.367,-33.691,0.000
1728615295.897,-29.297,-31.250,-25.391,0.488,0.000
1728615295.901,-38.086,-36.621,-28.809,-32.227,0.000
1728615295.905,-34.668,-37.598,-27.832,-62.012,0.000
1728615295.909,-41.992,-36.621,-28.809,-61.523,0.000
1728615295.912,-68.359,-42.969,-41.504,-35.156,0.000
1728615295.916,-44.434,-46.875,-41.504,-3.418,0.000
1728615295.920,-34.180,-46.875,-32.227,-32.227,0.000
1728615295.924,-21.484,-44.922,-30.762,-67.871,0.000
1728615295.928,-32.227,-37.598,-25.391,-60.547,0.000
1728615295.932,-72.266,-43.457,-24.902,-32.227,0.000
1728615295.936,-44.434,-46.387,-26.855,-12.207,0.000
1728615295.940,-40.039,-41.016,-33.203,-32.227,0.000
1728615295.944,-33.691,-44.434,-37.598,-46.387,0.000
1728615295.947,-21.973,-49.805,-33.691,-45.410,0.000
1728615295.951,-53.223,-45.898,-32.227,-38.086,0.000
1728615295.955,-41.016,-41.016,-32.715,-8.301,0.000
1728615295.959,-29.297,-32.715,-32.715,-24.902,0.000
1728615295.963,-15.137,-20.996,-31.250,-54.688,0.000
1728615295.967,-11.719,-27.344,-34.180,-58.594,0.000
1728615295.971,-52.246,-36.621,-37.598,-45.410,0.000
1728615295.975,-40.527,-37.598,-34.668,-4.395,0.000
1728615295.979,-23.438,-40.527,-35.156,-16.602,0.000
1728615295.982,-25.391,-33.691,-42.480,-48.828,0.000
1728615295.986,-18.066,-29.785,-36.621,-38.086,0.000
1728615295.990,-51.270,-41.504,-30.762,-29.785,0.000
1728615295.994,-41.992,-32.227,-34.180,-7.812,0.000
1728615295.998,-9.766,-26.367,-36.621,-9.766,0.000
1728615296.002,2.441,-34.668,-40.527,-42.480,0.000
1728615296.006,4.883,-29.297,-38.086,-44.922,0.000
1728615296.010,-39.062,-32.715,-34.668,-33.691,0.000
1728615296.014,-41.992,-28.320,-37.109,-10.254,0.000
1728615296.018,-21.484,-23.926,-41.992,-4.883,0.000
1728615296.022,-21.484,-40.039,-41.992,-34.180,0.000
1728615296.025,-6.836,-42.480,-30.762,-35.156,0.000
1728615296.029,-38.574,-33.203,-28.809,-33.691,0.000
1728615296.033,-44.922,-32.715,-32.715,-15.625,0.000
1728615296.037,-13.184,-25.391,-23.926,9.277,0.000
1728615296.041,-30.273,-33.203,-21.484,-32.227,0.000
1728615296.045,-26.367,-47.363,-27.344,-54.199,0.000
1728615296.049,-52.246,-47.852,-31.738,-40.039,0.000
1728615296.053,-76.660,-41.504,-32.715,-22.949,0.000
1728615296.056,-44.922,-44.434,-24.902,-16.602,0.000
1728615296.060,-47.852,-54.199,-26.855,-53.711,0.000
1728615296.064,-31.738,-59.082,-32.227,-61.523,0.000
1728615296.068,-40.527,-53.711,-24.414,-54.688,0.000
1728615296.072,-67.871,-49.805,-23.926,-34.180,0.000
1728615296.076,-50.781,-62.988,-25.879,-4.395,0.000
1728615296.080,-54.199,-57.129,-33.691,-38.086,0.000
1728615296.084,-35.156,-46.875,-39.551,-60.547,0.000
1728615296.088,-45.898,-54.688,-35.645,-52.734,0.000
1728615296.092,-68.848,-53.711,-34.180,-25.879,0.000
1728615296.096,-33.203,-55.176,-32.227,-2.930,0.000
1728615296.100,-32.715,-56.641,-28.809,-32.227,0.000
1728615296.104,-35.156,-53.711,-32.227,-55.176,0.000
1728615296.107,-43.945,-50.293,-35.156,-55.664,0.000
1728615296.111,-78.125,-50.781,-36.133,-39.551,0.000
1728615296.115,-40.527,-42.480,-37.109,-5.859,0.000
1728615296.119,-25.879,-30.273,-34.668,-20.996,0.000
1728615296.123,-26.855,-39.551,-35.645,-51.270,0.000
1728615296.127,-22.949,-42.480,-36.621,-46.387,0.000
1728615296.131,-53.223,-39.551,-33.691,-32.715,0.000
1728615296.135,-35.645,-35.645,-32.227,-4.883,0.000
1728615296.139,-28.809,-32.715,-34.180,0.977,0.000
1728615296.143,-21.484,-29.297,-40.039,-28.809,0.000
1728615296.147,-12.695,-20.996,-39.551,-41.016,0.000
1728615296.151,-45.410,-24.902,-39.062,-32.227,0.000
1728615296.154,-34.668,-27.832,-47.363,-3.906,0.000
1728615296.158,-27.344,-33.691,-49.805,-13.184,0.000
1728615296.162,-17.578,-31.250,-42.969,-50.781,0.000
1728615296.166,-1.953,-32.715,-36.133,-49.316,0.000
1728615296.170,-46.387,-42.480,-34.668,-40.039,0.000
1728615296.174,-52.734,-42.480,-39.551,-10.742,0.000
1728615296.178,-34.668,-44.434,-40.527,-7.812,0.000
1728615296.182,-19.531,-37.109,-34.180,-36.133,0.000
1728615296.186,-1.953,-22.949,-24.414,-35.156,0.000
1728615296.190,-47.363,-27.832,-28.809,-34.668,0.000
1728615296.194,-53.223,-33.203,-32.715,-3.418,0.000
1728615296.197,-40.039,-46.387,-34.180,6.836,0.000
1728615296.201,-52.246,-59.570,-45.410,-54.688,0.000
1728615296.205,-21.484,-54.688,-48.828,-82.031,0.000
1728615296.209,-41.016,-45.410,-40.039,-68.359,0.000
1728615296.213,-47.363,-47.852,-34.668,-32.715,0.000
1728615296.217,-17.578,-49.316,-34.180,-19.531,0.000
1728615296.221,-27.832,-43.945,-32.227,-54.688,0.000
1728615296.225,-23.926,-49.805,-33.691,-75.195,0.000
1728615296.229,-45.898,-67.871,-33.691,-72.754,0.000
1728615296.233,-59.082,-63.965,-25.391,-34.180,0.000
1728615296.237,-38.086,-57.617,-23.926,-3.906,0.000
1728615296.240,-41.016,-46.875,-24.902,-42.480,0.000
1728615296.244,-21.484,-39.551,-28.809,-81.055,0.000
1728615296.248,-48.340,-45.898,-36.133,-71.777,0.000
1728615296.252,-84.961,-43.945,-30.762,-35.156,0.000
1728615296.256,-54.199,-50.293,-34.668,-11.230,0.000
1728615296.260,-52.246,-51.270,-42.480,-38.086,0.000
1728615296.264,-37.598,-48.340,-42.969,-78.613,0.000
1728615296.268,-38.086,-47.363,-48.340,-68.848,0.000
1728615296.272,-61.523,-38.574,-46.875,-27.832,0.000
1728615296.276,-34.668,-35.645,-44.434,0.977,0.000
1728615296.279,-28.809,-34.668,-42.969,-21.484,0.000
1728615296.283,-5.859,-22.461,-40.039,-40.039,0.000
1728615296.287,-10.254,-22.461,-41.016,-38.086,0.000
1728615296.291,-58.594,-28.320,-40.527,-28.320,0.000
1728615296.295,-39.062,-28.809,-36.133,3.418,0.000
1728615296.299,-25.879,-29.297,-32.715,-1.465,0.000
1728615296.303,-20.508,-31.738,-35.156,-34.180,0.000
1728615296.307,-14.648,-39.551,-39.551,-53.223,0.000
1728615296.311,-38.086,-33.691,-40.039,-49.805,0.000
1728615296.314,-31.738,-21.484,-35.645,-15.137,0.000
1728615296.318,-40.039,-23.438,-36.621,-18.066,0.000
1728615296.322,-37.109,-26.855,-37.109,-57.617,0.000
1728615296.326,-17.090,-28.809,-28.320,-58.105,0.000
1728615296.330,-52.246,-33.203,-27.344,-41.504,0.000
1728615296.334,-56.641,-34.668,-33.203,-14.648,0.000
1728615296.338,-27.832,-41.016,-33.691,-17.090,0.000
1728615296.342,-15.625,-34.668,-28.320,-38.574,0.000
1728615296.346,5.859,-33.691,-34.668,-41.504,0.000
1728615296.350,-32.715,-38.574,-35.645,-43.457,0.000
1728615296.354,-49.805,-29.297,-30.273,-11.719,0.000
1728615296.357,-38.086,-33.691,-41.016,-13.672,0.000
1728615296.361,-47.363,-43.945,-39.062,-61.523,0.000
1728615296.365,-28.320,-39.062,-29.297,-69.336,0.000
1728615296.369,-55.176,-31.250,-30.273,-60.547,0.000
1728615296.373,-60.059,-31.738,-30.273,-22.949,0.000
1728615296.377,-25.391,-36.621,-28.809,-4.883,0.000
1728615296.381,-25.391,-38.574,-28.320,-35.645,0.000
1728615296.385,-21.973,-27.832,-30.762,-47.852,0.000
1728615296.389,-57.617,-16.602,-31.738,-52.246,0.000
1728615296.392,-61.035,-31.250,-34.668,-32.227,0.000
1728615296.396,-25.879,-45.410,-36.621,-11.719,0.000
1728615296.400,-27.344,-47.852,-35.156,-42.969,0.000
1728615296.404,-4.395,-41.504,-35.156,-63.965,0.000
1728615296.408,-24.902,-35.156,-31.738,-57.129,0.000
1728615296.412,-59.082,-35.645,-36.133,-27.832,0.000
1728615296.416,-34.180,-31.250,-48.828,-4.883,0.000
1728615296.420,-33.691,-32.715,-47.363,-31.250,0.000
1728615296.423,-15.137,-31.250,-47.852,-50.781,0.000
1728615296.427,-19.043,-32.715,-46.387,-50.293,0.000
1728615296.431,-39.551,-37.109,-47.363,-24.414,0.000
1728615296.435,-18.555,-32.227,-52.734,13.672,0.000
1728615296.439,-23.438,-40.527,-51.270,-16.602,0.000
1728615296.443,-4.395,-42.480,-48.828,-46.387,0.000
1728615296.447,-14.648,-35.156,-39.062,-53.223,0.000
1728615296.451,0.000,-40.039,-32.715,-35.156,0.000
1728615296.454,0.000,-40.039,-36.621,7.812,0.000
1728615296.458,0.000,-43.457,-40.527,-15.625,0.000
1728615296.462,0.000,-51.758,-37.109,-60.059,0.000
1728615296.466,0.000,-49.316,-33.691,-61.523,0.000
1728615296.470,0.000,-51.270,-33.203,-33.203,0.000
1728615296.474,0.000,-52.246,-37.109,3.906,0.000
1728615296.478,0.000,-45.410,-37.109,-11.230,0.000
1728615296.482,0.000,-41.992,-25.391,-46.875,0.000
1728615296.486,0.000,-43.457,-25.391,-43.945,0.000
1728615296.490,0.000,-49.805,-30.762,-19.531,0.000
1728615296.493,0.000,-53.223,-27.344,-4.395,0.000
1728615296.498,-39.551,-63.477,-30.762,-16.113,0.000
1728615296.501,-38.574,-64.941,-33.203,-46.875,0.000
1728615296.505,-31.738,-55.176,-34.180,-59.082,0.000
1728615296.509,-63.965,-48.828,-32.715,-43.945,0.000
1728615296.513,-49.316,-39.062,-29.297,-11.230,0.000
1728615296.517,-40.039,-43.457,-32.715,-12.207,0.000
1728615296.521,-55.664,-53.711,-38.086,-53.223,0.000
1728615296.525,-27.832,-52.246,-33.691,-69.824,0.000
1728615296.529,-48.828,-46.875,-29.297,-57.129,0.000
1728615296.533,-69.336,-38.574,-32.227,-32.715,0.000
1728615296.537,-52.734,-34.180,-30.273,-17.578,0.000
1728615296.541,-41.504,-37.109,-35.156,-50.781,0.000
1728615296.545,0.000,-40.527,-36.621,-65.430,0.000
1728615296.548,0.000,-38.574,-34.180,-44.922,0.000
1728615296.552,0.000,-33.203,-38.086,-20.020,0.000
1728615296.556,0.000,-42.480,-51.270,-18.066,0.000
1728615296.560,0.000,-50.293,-61.523,-53.223,0.000
1728615296.564,0.000,-47.363,-59.082,-64.941,0.000
1728615296.568,0.000,-39.551,-50.293,-55.664,0.000
1728615296.572,0.000,-26.367,-39.551,-27.832,0.000
1728615296.576,0.000,-25.391,-31.738,6.836,0.000
1728615296.580,0.000,-29.785,-30.762,-24.414,0.000
1728615296.584,0.000,-35.156,-40.039,-61.523,0.000
1728615296.587,0.000,-28.320,-48.828,-62.500,0.000
1728615296.590,-9.277,-24.414,-46.387,-37.109,0.000
1728615296.594,-31.250,-28.809,-43.945,-5.371,0.000
1728615296.598,-52.734,-17.578,-44.922,-38.086,0.000
1728615296.602,-40.527,-17.578,-38.086,-73.242,0.000
1728615296.606,-47.363,-30.273,-31.738,-63.477,0.000
1728615296.610,-14.160,-44.434,-34.180,-30.273,0.000
1728615296.613,-20.996,-45.410,-34.180,-8.301,0.000
1728615296.617,-48.828,-42.969,-38.086,-46.875,0.000
1728615296.621,-18.555,-51.270,-40.039,-71.777,0.000
1728615296.625,-29.297,-36.621,-36.621,-61.523,0.000
1728615296.629,-24.902,-28.809,-31.738,-45.410,0.000
1728615296.633,-20.020,-40.039,-27.832,-9.766,0.000
1728615296.635,-49.805,-35.645,-28.320,-22.949,0.000
1728615296.639,-26.367,-33.203,-27.832,-63.477,0.000
1728615296.643,-19.043,-44.434,-20.020,-64.941,0.000
1728615296.647,-13.184,-48.828,-20.508,-41.504,0.000
1728615296.651,-33.203,-46.387,-24.902,3.906,0.000
1728615296.655,-58.594,-45.410,-24.414,1.465,0.000
1728615296.659,-34.668,-33.203,-29.785,-51.758,0.000
1728615296.663,-42.969,-33.691,-30.273,-64.453,0.000
1728615296.667,-39.062,-30.762,-22.949,-40.527,0.000
1728615296.671,-35.645,-25.879,-26.855,-12.207,0.000
1728615296.675,-63.477,-53.711,-33.203,-12.695,0.000
1728615296.678,-44.922,-55.176,-33.203,-45.410,0.000
1728615296.682,-22.949,-43.457,-41.016,-60.547,0.000
1728615296.686,-60.547,-45.410,-48.828,-53.223,0.000
1728615296.690,-60.547,-38.086,-43.945,-22.461,0.000
1728615296.694,-32.715,-34.668,-44.434,-12.695,0.000
1728615296.698,-34.180,-29.297,-53.711,-45.410,0.000
1728615296.702,-11.230,-22.949,-48.828,-55.176,0.000
1728615296.706,-35.156,-38.574,-46.875,-54.199,0.000
1728615296.710,-51.270,-37.598,-47.852,-18.555,0.000
1728615296.714,-30.762,-23.926,-44.434,-8.789,0.000
1728615296.717,-37.598,-32.715,-48.828,-54.688,0.000
1728615296.721,-20.508,-37.109,-50.293,-65.918,0.000
1728615296.725,-38.574,-40.527,-52.734,-51.270,0.000
1728615296.729,-61.035,-41.504,-50.781,-20.508,0.000
1728615296.733,-45.410,-42.480,-49.805,-19.531,0.000
1728615296.737,-44.434,-42.969,-57.129,-51.270,0.000
1728615296.741,-24.414,-35.645,-57.129,-59.082,0.000
1728615296.745,-34.668,-20.020,-49.316,-62.012,0.000
1728615296.749,-60.059,-26.855,-44.922,-32.715,0.000
1728615296.753,-49.805,-45.410,-44.922,13.672,0.000
1728615296.756,-46.387,-39.551,-51.758,-31.738,0.000
1728615296.760,-20.508,-38.086,-42.969,-70.801,0.000
1728615296.764,-27.832,-51.758,-35.156,-61.523,0.000
1728615296.768,-59.082,-51.758,-32.715,-32.227,0.000
1728615296.772,-41.504,-49.805,-31.738,-2.441,0.000
1728615296.776,-37.109,-54.688,-32.715,-21.484,0.000
1728615296.780,-17.578,-41.992,-24.902,-41.504,0.000
1728615296.784,-23.438,-40.039,-30.762,-55.664,0.000
1728615296.788,-72.266,-46.875,-37.109,-47.852,0.000
1728615296.791,-56.152,-47.852,-36.621,-13.672,0.000
1728615296.795,-41.992,-54.199,-44.922,-31.738,0.000
1728615296.799,-27.344,-51.270,-39.551,-52.734,0.000
1728615296.803,-33.203,-37.109,-34.668,-48.340,0.000
1728615296.807,-69.824,-35.156,-34.180,-39.062,0.000
1728615296.811,-51.758,-48.340,-28.320,-7.324,0.000
1728615296.815,-35.156,-44.434,-24.414,-5.859,0.000
1728615296.819,-29.785,-45.410,-26.367,-53.711,0.000
1728615296.823,-25.879,-57.129,-28.809,-74.707,0.000
1728615296.827,-52.246,-48.340,-29.297,-49.316,0.000
1728615296.831,-46.387,-44.922,-34.180,-18.066,0.000
1728615296.835,-29.297,-45.898,-37.109,-17.578,0.000
1728615296.839,-10.742,-41.504,-38.086,-49.316,0.000
1728615296.843,2.441,-35.645,-40.039,-55.176,0.000
1728615296.846,-42.969,-36.621,-44.434,-42.480,0.000
1728615296.850,-42.480,-34.180,-48.828,-14.648,0.000
1728615296.854,-20.508,-34.180,-46.387,-4.395,0.000
1728615296.858,-19.043,-35.645,-36.621,-32.227,0.000
1728615296.862,-9.277,-33.691,-40.039,-42.480,0.000
1728615296.866,-48.828,-35.156,-43.457,-50.781,0.000
1728615296.871,-53.711,-31.250,-40.039,-30.273,0.000
1728615296.875,-23.438,-35.156,-41.016,-23.438,0.000
1728615296.878,-26.855,-41.504,-39.062,-51.758,0.000
1728615296.882,-17.090,-36.621,-41.504,-57.617,0.000
1728615296.886,-52.246,-44.434,-46.875,-52.246,0.000
1728615296.890,-62.500,-43.945,-40.527,-17.578,0.000
1728615296.894,-24.902,-33.203,-39.062,1.953,0.000
1728615296.898,-20.996,-31.738,-40.039,-26.367,0.000
1728615296.902,-2.441,-29.785,-30.762,-37.598,0.000
1728615296.906,-24.414,-36.621,-33.691,-41.504,0.000
1728615296.910,-44.434,-45.410,-35.645,-22.949,0.000
1728615296.914,-21.973,-45.898,-33.691,-2.930,0.000
1728615296.918,-30.762,-45.898,-30.273,-37.598,0.000
1728615296.922,-20.996,-45.898,-29.785,-57.617,0.000
1728615296.925,-34.180,-39.062,-32.715,-45.898,0.000
1728615296.929,-59.570,-38.086,-31.738,-19.531,0.000
1728615296.933,-32.227,-46.875,-32.715,3.418,0.000
1728615296.937,-29.297,-46.387,-24.414,-18.555,0.000
1728615296.941,-8.789,-32.715,-21.973,-37.109,0.000
1728615296.945,-19.043,-38.574,-29.297,-44.922,0.000
1728615296.949,-67.383,-46.387,-28.320,-34.668,0.000
1728615296.953,-45.898,-39.062,-25.879,-2.930,0.000
1728615296.957,-37.109,-33.203,-24.902,-20.020,0.000
1728615296.961,-30.762,-27.344,-24.902,-61.523,0.000
1728615296.965,-31.250,-31.250,-29.297,-61.035,0.000
1728615296.969,-65.918,-33.691,-36.621,-41.504,0.000
1728615296.972,-45.898,-33.691,-36.133,-14.648,0.000
1728615296.976,-29.297,-28.320,-34.180,-26.855,0.000
1728615296.980,-20.020,-21.484,-36.621,-58.105,0.000
1728615296.984,-19.043,-31.738,-48.828,-66.895,0.000
1728615296.988,-50.781,-35.645,-49.805,-55.176,0.000
1728615296.992,-42.969,-33.203,-48.340,-29.785,0.000
1728615296.996,-43.945,-44.434,-58.105,-31.738,0.000
1728615297.000,-35.645,-46.387,-51.758,-63.477,0.000
1728615297.004,-12.207,-35.156,-43.457,-71.777,0.000
1728615297.008,-50.781,-35.645,-44.922,-55.176,0.000
1728615297.011,-59.570,-28.809,-49.805,-17.090,0.000
1728615297.015,-58.105,-24.414,-56.152,-17.578,0.000
1728615297.019,-61.523,-31.250,-58.105,-59.082,0.000
1728615297.023,-45.410,-35.156,-45.410,-68.359,0.000
1728615297.027,-68.359,-46.387,-38.086,-60.059,0.000
1728615297.031,-59.082,-54.688,-41.992,-26.367,0.000
1728615297.035,-42.480,-47.852,-33.691,-20.996,0.000
1728615297.039,-43.457,-40.527,-28.809,-47.852,0.000
1728615297.043,-33.203,-45.410,-41.016,-63.477,0.000
1728615297.047,-61.523,-47.852,-36.621,-55.176,0.000
1728615297.051,-66.406,-37.109,-24.902,-13.184,0.000
1728615297.054,-54.688,-29.785,-34.180,-6.348,0.000
1728615297.058,-52.734,-41.016,-38.086,-32.715,0.000
1728615297.062,-31.250,-50.293,-33.203,-42.480,0.000
1728615297.066,-50.781,-44.922,-31.250,-46.387,0.000
1728615297.070,-58.594,-36.621,-30.273,-18.066,0.000
1728615297.074,-21.973,-33.691,-31.738,2.441,0.000
1728615297.078,-25.391,-45.898,-26.855,-30.762,0.000
1728615297.082,-6.836,-54.688,-20.508,-43.945,0.000
1728615297.086,-20.020,-48.828,-24.902,-34.668,0.000
1728615297.090,-53.223,-47.852,-34.180,-17.578,0.000
1728615297.093,-27.832,-47.852,-42.969,0.488,0.000
1728615297.097,-19.043,-42.480,-43.457,-25.879,0.000
1728615297.101,-7.324,-43.457,-34.180,-51.270,0.000
1728615297.105,-24.902,-37.598,-32.715,-47.852,0.000
1728615297.109,-53.711,-25.391,-32.227,-20.508,0.000
1728615297.113,-29.297,-30.762,-36.133,0.000,0.000
1728615297.117,-27.344,-37.109,-33.691,-29.785,0.000
1728615297.121,-19.043,-27.832,-35.156,-54.688,0.000
1728615297.125,-36.621,-36.133,-45.898,-64.453,0.000
1728615297.129,-77.148,-43.457,-43.457,-55.176,0.000
1728615297.132,-44.922,-38.086,-33.203,-10.254,0.000
1728615297.136,-41.504,-46.387,-39.062,-16.602,0.000
1728615297.140,-40.527,-50.781,-50.293,-63.477,0.000
1728615297.144,-34.668,-39.551,-44.434,-70.312,0.000
1728615297.148,-77.148,-34.668,-47.363,-53.223,0.000
1728615297.152,-67.871,-36.621,-58.105,-33.203,0.000
1728615297.156,-43.457,-39.062,-55.176,-38.574,0.000
1728615297.160,-33.203,-40.527,-49.316,-63.965,0.000
1728615297.164,-26.367,-39.062,-52.734,-72.754,0.000
1728615297.167,-64.453,-44.434,-49.805,-53.223,0.000
1728615297.171,-58.594,-52.246,-50.293,-20.020,0.000
1728615297.175,-41.504,-66.406,-53.711,-21.484,0.000
1728615297.179,-45.898,-66.406,-46.387,-44.434,0.000
1728615297.183,-29.785,-54.199,-41.016,-59.082,0.000
1728615297.187,-58.105,-55.176,-45.410,-59.570,0.000
1728615297.191,-61.523,-53.223,-41.016,-18.066,0.000
1728615297.195,-36.133,-55.664,-34.180,-9.766,0.000
1728615297.198,-29.297,-57.129,-31.250,-51.758,0.000
1728615297.202,-21.484,-46.875,-29.785,-65.918,0.000
1728615297.206,-47.852,-54.688,-31.738,-51.758,0.000
1728615297.210,-47.363,-66.895,-26.367,-21.484,0.000
1728615297.214,-32.715,-62.012,-23.926,-13.672,0.000
1728615297.218,-41.504,-57.617,-24.414,-45.410,0.000
1728615297.222,-14.160,-47.852,-19.043,-49.316,0.000
1728615297.226,-31.250,-39.551,-19.043,-46.387,0.000
1728615297.230,-35.645,-36.621,-17.578,-6.348,0.000
1728615297.234,-15.625,-41.992,-20.020,20.508,0.000
1728615297.237,-34.668,-43.945,-23.438,-28.809,0.000
1728615297.241,-10.254,-38.086,-17.090,-45.898,0.000
1728615297.246,-22.949,-38.086,-23.926,-41.992,0.000
1728615297.249,-56.152,-40.527,-28.809,-20.508,0.000
1728615297.253,-34.180,-41.992,-26.855,5.859,0.000
1728615297.257,-25.391,-35.645,-30.273,-27.832,0.000
1728615297.261,-5.859,-26.855,-34.668,-49.316,0.000
1728615297.265,-34.668,-34.668,-39.062,-44.922,0.000
1728615297.269,-69.336,-38.574,-43.457,-43.457,0.000
1728615297.273,-42.480,-41.016,-44.434,-25.391,0.000
1728615297.277,-32.715,-45.898,-45.898,-28.320,0.000
1728615297.281,-19.531,-39.551,-42.480,-47.363,0.000
1728615297.285,-32.227,-35.645,-43.457,-63.965,0.000
1728615297.288,-56.152,-41.992,-50.293,-43.945,0.000
1728615297.293,-38.086,-52.734,-47.363,-1.465,0.000
1728615297.296,-32.715,-43.945,-43.945,-29.785,0.000
1728615297.300,-20.996,-38.574,-45.898,-72.754,0.000
1728615297.304,-32.227,-41.504,-44.922,-78.613,0.000
1728615297.308,-71.289,-39.551,-41.992,-66.406,0.000
1728615297.312,-53.711,-39.062,-41.992,-29.785,0.000
1728615297.316,-37.109,-38.574,-46.387,-30.762,0.000
1728615297.320,-35.645,-45.898,-52.734,-65.918,0.000
1728615297.324,-27.832,-51.758,-48.340,-70.312,0.000
1728615297.328,-54.199,-50.781,-40.039,-48.828,0.000
1728615297.332,-54.199,-53.711,-39.551,-15.625,0.000
1728615297.336,-43.945,-53.711,-36.621,-18.066,0.000
1728615297.339,-29.297,-44.434,-29.785,-51.758,0.000
1728615297.343,-4.883,-37.598,-27.832,-54.688,0.000
1728615297.347,-44.922,-37.598,-30.273,-40.527,0.000
1728615297.351,-60.059,-33.203,-28.809,-10.742,0.000
1728615297.355,-40.527,-33.691,-24.414,-1.953,0.000
1728615297.359,-39.062,-41.016,-25.879,-33.691,0.000
1728615297.363,-24.902,-37.598,-29.785,-53.711,0.000
1728615297.367,-60.059,-30.762,-35.645,-53.223,0.000
1728615297.371,-62.012,-13.184,-34.668,-21.973,0.000
1728615297.375,-37.109,-25.879,-23.438,0.488,0.000
1728615297.379,-28.809,-56.641,-20.020,-14.648,0.000
1728615297.382,-8.789,-31.738,-18.555,-29.297,0.000
1728615297.386,-49.316,-7.324,-28.320,-43.945,0.000
1728615297.390,-70.801,-17.578,-47.363,-34.668,0.000
1728615297.394,-30.762,-11.230,-34.668,-1.465,0.000
1728615297.398,-58.594,46.387,-39.551,-50.293,0.000
1728615297.402,-65.430,34.668,-52.734,-89.844,0.000
1728615297.406,-33.691,-65.430,-21.973,-41.016,0.000
1728615297.410,-37.109,-92.773,-5.371,9.766,0.000
1728615297.414,-36.621,-47.363,-15.625,18.555,0.000
1728615297.418,-54.688,-2.930,-37.109,-35.645,0.000
1728615297.422,-20.020,-46.875,-36.133,-58.105,0.000
1728615297.425,-1.465,-118.652,-12.695,-39.062,0.000
1728615297.429,-61.035,-3.906,-28.320,-38.086,0.000
1728615297.433,-69.824,-14.160,-53.711,-24.414,0.000
1728615297.437,-45.898,-94.238,-52.246,-41.992,0.000
1728615297.441,-35.645,-36.621,-52.246,-80.566,0.000
1728615297.445,-73.242,26.367,-72.266,-95.703,0.000
1728615297.449,-80.078,-108.887,-57.617,-38.574,0.000
1728615297.453,-14.648,-182.129,-26.367,12.207,0.000
1728615297.457,-19.043,-64.941,-40.527,-29.297,0.000
1728615297.461,-10.254,-79.102,-47.363,-44.922,0.000
1728615297.464,-45.410,-0.488,-51.758,-68.359,0.000
1728615297.468,-120.117,132.324,-70.312,-98.633,0.000
1728615297.472,-74.707,88.379,-68.848,-49.805,0.000
1728615297.476,-19.531,-1.465,-40.039,-9.277,0.000
1728615297.480,-11.230,51.270,-37.598,-42.969,0.000
1728615297.484,-28.809,63.965,-58.105,-69.336,0.000
1728615297.488,-89.355,57.617,-70.801,-58.105,0.000
1728615297.492,-68.359,-10.742,-64.453,-9.277,0.000
1728615297.496,-48.340,-203.125,-61.523,-16.602,0.000
1728615297.500,-63.965,-249.023,-65.918,-80.078,0.000
1728615297.503,-64.453,-218.262,-75.195,-96.680,0.000
1728615297.507,-83.008,-194.336,-80.566,-69.824,0.000
1728615297.511,-40.527,-245.117,-55.176,-15.137,0.000
1728615297.515,-21.973,-293.945,-45.898,-2.930,0.000
1728615297.519,-34.668,-258.301,-53.223,-41.016,0.000
1728615297.523,-6.348,-232.422,-44.434,-45.410,0.000
1728615297.527,-55.176,-146.973,-48.340,-43.457,0.000
1728615297.531,-66.895,-74.707,-54.688,-13.184,0.000
1728615297.535,-26.367,-115.234,-41.504,12.695,0.000
1728615297.538,-20.996,-117.188,-34.180,-20.020,0.000
1728615297.542,-5.859,-79.590,-40.039,-43.945,0.000
1728615297.546,-33.203,-109.375,-42.480,-41.016,0.000
1728615297.550,-44.434,-151.367,-39.062,-14.648,0.000
1728615297.554,-32.227,-158.691,-40.039,2.441,0.000
1728615297.558,-39.062,-164.551,-51.758,-33.203,0.000
1728615297.562,-16.113,-187.988,-47.363,-60.059,0.000
1728615297.566,-29.297,-194.824,-37.109,-46.875,0.000
1728615297.570,-42.480,-194.824,-37.109,-6.836,0.000
1728615297.574,0.000,-228.027,-40.039,2.441,0.000
1728615297.578,0.000,-191.406,-38.086,-41.504,0.000
1728615297.582,0.000,-104.980,-33.691,-57.129,0.000
1728615297.586,0.000,-83.008,-33.203,-50.781,0.000
1728615297.590,0.000,-64.941,-35.156,-26.855,0.000
1728615297.593,0.000,-43.457,-38.086,2.441,0.000
1728615297.597,0.000,-57.617,-44.922,-23.438,0.000
1728615297.601,0.000,-62.988,-43.457,-58.594,0.000
1728615297.605,0.000,-41.016,-41.992,-60.547,0.000
1728615297.609,0.000,-63.965,-42.480,-32.715,0.000
1728615297.613,0.000,-144.531,-41.504,-7.324,0.000
1728615297.617,0.000,-190.430,-48.340,-30.762,0.000
1728615297.621,-38.086,-175.293,-48.340,-59.570,0.000
1728615297.625,-15.137,-131.348,-41.504,-52.734,0.000
1728615297.629,-47.363,-86.914,-41.504,-29.297,0.000
1728615297.633,-40.527,-28.320,-43.457,-9.766,0.000
1728615297.637,-33.203,46.875,-43.457,-25.879,0.000
1728615297.641,-31.250,81.543,-43.945,-62.012,0.000
1728615297.644,-25.879,110.352,-39.551,-68.848,0.000
1728615297.648,-58.594,143.555,-32.715,-45.410,0.000
1728615297.652,-48.340,145.508,-34.180,-6.836,0.000
1728615297.656,-37.109,160.645,-34.668,-7.812,0.000
1728615297.660,-20.508,197.266,-29.785,-49.316,0.000
1728615297.664,-2.930,228.027,-34.180,-61.523,0.000
1728615297.668,0.000,264.160,-36.133,-47.852,0.000
1728615297.672,0.000,294.434,-32.227,0.977,0.000
1728615297.676,0.000,292.480,-27.832,-0.977,0.000
1728615297.680,0.000,297.852,-26.855,-48.340,0.000
1728615297.684,0.000,321.289,-21.973,-50.293,0.000
1728615297.688,0.000,329.590,-20.020,-41.992,0.000
1728615297.691,0.000,333.008,-30.762,-13.672,0.000
1728615297.695,0.000,351.074,-28.809,1.465,0.000
1728615297.699,0.000,361.328,-20.508,-21.973,0.000
1728615297.703,0.000,370.605,-32.227,-43.945,0.000
1728615297.707,0.000,384.277,-41.992,-55.176,0.000
1728615297.711,0.000,376.465,-40.527,-28.809,0.000
1728615297.714,-50.781,373.535,-39.551,-13.672,0.000
1728615297.717,-50.781,383.789,-35.156,-46.387,0.000
1728615297.721,-33.203,390.625,-28.320,-55.176,0.000
1728615297.725,-33.691,384.277,-26.855,-53.223,0.000
1728615297.729,-14.648,373.047,-29.785,-26.855,0.000
1728615297.733,-41.992,376.465,-32.227,-0.488,0.000
1728615297.737,-50.293,377.441,-26.367,-29.297,0.000
1728615297.741,-23.438,368.652,-23.438,-50.293,0.000
1728615297.745,-14.648,362.305,-32.715,-44.434,0.000
1728615297.749,-22.949,357.422,-38.574,-23.926,0.000
1728615297.753,-57.617,354.492,-42.969,-19.043,0.000
1728615297.757,-53.223,335.449,-44.922,-52.246,0.000
1728615297.759,-34.668,336.914,-45.898,-75.684,0.000
1728615297.763,-35.156,404.785,-49.805,-74.707,0.000
1728615297.767,-10.254,435.059,-53.711,-49.805,0.000
1728615297.771,-38.574,412.109,-47.852,-25.879,0.000
1728615297.775,-52.246,382.324,-40.039,-46.387,0.000
1728615297.779,-20.020,351.074,-40.039,-67.871,0.000
1728615297.783,-25.391,334.961,-33.203,-66.406,0.000
1728615297.786,-16.113,313.965,-33.203,-27.344,0.000
1728615297.790,-38.574,291.016,-37.109,0.488,0.000
1728615297.794,-60.547,272.461,-35.156,-21.973,0.000
1728615297.798,-33.203,249.512,-39.062,-52.734,0.000
1728615297.802,-26.855,224.609,-33.691,-57.617,0.000
1728615297.806,-55.176,211.914,-27.832,-44.922,0.000
1728615297.810,-40.527,214.844,-23.926,-5.371,0.000
1728615297.814,-20.020,204.590,-20.508,-3.906,0.000
1728615297.818,0.488,187.500,-10.742,-41.016,0.000
1728615297.822,-4.883,172.852,-12.695,-43.457,0.000
1728615297.826,-48.340,158.691,-21.973,-25.879,0.000
1728615297.829,-35.156,145.508,-20.020,6.836,0.000
1728615297.833,-27.344,140.625,-21.973,6.836,0.000
1728615297.837,-27.832,145.996,-23.438,-32.227,0.000
1728615297.841,-14.160,139.160,-20.996,-44.922,0.000
1728615297.845,-48.340,131.836,-24.414,-35.645,0.000
1728615297.849,-53.223,121.582,-25.879,0.000,0.000
1728615297.853,-30.273,111.816,-26.855,0.488,0.000
1728615297.857,-32.715,95.703,-32.227,-46.387,0.000
1728615297.861,-22.949,79.590,-30.762,-55.664,0.000
1728615297.865,-58.594,68.848,-31.250,-51.270,0.000
1728615297.868,-75.195,55.176,-33.203,-30.762,0.000
1728615297.872,-47.852,46.875,-24.414,-15.625,0.000
1728615297.876,-43.945,40.527,-20.996,-43.457,0.000
1728615297.880,-27.344,37.598,-25.879,-46.387,0.000
1728615297.884,-57.129,31.250,-33.691,-43.457,0.000
1728615297.888,-70.801,12.695,-41.504,-30.762,0.000
1728615297.892,-46.875,16.602,-42.480,-18.555,0.000
1728615297.896,-57.129,31.738,-43.457,-59.082,0.000
1728615297.900,-39.551,19.043,-42.480,-78.125,0.000
1728615297.904,-53.711,3.418,-47.852,-74.219,0.000
1728615297.908,-69.824,1.465,-48.340,-56.152,0.000
1728615297.912,-41.992,-4.395,-42.969,-25.391,0.000
1728615297.916,-36.621,-8.301,-39.551,-37.109,0.000
1728615297.920,-17.090,-9.766,-37.598,-56.152,0.000
1728615297.924,-29.297,-29.297,-41.992,-57.129,0.000
1728615297.928,-65.430,-35.156,-47.363,-30.273,0.000
1728615297.931,-46.387,-24.414,-54.199,-2.441,0.000
1728615297.935,-39.551,-15.625,-50.293,-25.879,0.000
1728615297.939,-29.297,-16.113,-41.016,-54.199,0.000
1728615297.943,-39.062,-23.926,-38.574,-53.711,0.000
1728615297.947,-57.617,-20.020,-37.598,-25.391,0.000
1728615297.951,-24.902,-20.508,-32.227,5.371,0.000
1728615297.955,-23.926,-20.996,-24.414,-17.090,0.000
1728615297.959,-25.879,-19.043,-23.438,-51.270,0.000
1728615297.963,-24.414,-20.020,-26.367,-45.410,0.000
1728615297.966,-49.805,-16.602,-31.738,-18.555,0.000
1728615297.970,-28.320,-3.906,-29.297,18.066,0.000
1728615297.974,-15.625,4.395,-23.926,0.488,0.000
1728615297.978,-12.695,1.465,-28.320,-44.434,0.000
1728615297.982,-12.695,-10.254,-35.645,-48.828,0.000
1728615297.986,-48.828,-6.348,-36.621,-32.715,0.000
1728615297.990,-41.504,0.000,-30.273,-2.441,0.000
1728615297.994,-25.879,-9.766,-32.715,-13.184,0.000
1728615297.998,-15.625,-4.883,-31.250,-40.039,0.000
1728615298.002,0.000,6.836,-27.344,-40.527,0.000
1728615298.006,-38.574,5.371,-30.762,-34.180,0.000
1728615298.010,-45.898,-2.441,-29.297,-5.859,0.000
1728615298.014,-35.156,-10.254,-37.598,-11.230,0.000
1728615298.018,-32.227,-6.348,-39.062,-48.828,0.000
1728615298.021,-19.531,1.465,-35.156,-57.617,0.000
1728615298.025,-58.105,-4.395,-40.039,-43.945,0.000
1728615298.029,-59.082,-8.789,-40.039,-10.742,0.000
1728615298.033,-38.574,-21.484,-40.039,-23.438,0.000
1728615298.037,-38.086,-29.785,-38.086,-62.012,0.000
1728615298.041,-17.090,-27.344,-31.250,-57.617,0.000
1728615298.045,-41.016,-31.250,-31.250,-55.664,0.000
1728615298.049,-58.594,-39.062,-35.156,-20.020,0.000
1728615298.053,-50.293,-39.551,-42.969,-6.348,0.000
1728615298.057,-49.805,-33.203,-46.387,-59.082,0.000
1728615298.061,-25.879,-24.414,-39.062,-71.777,0.000
1728615298.065,-47.363,-24.902,-32.227,-60.059,0.000
1728615298.069,-56.641,-23.438,-35.156,-28.320,0.000
1728615298.072,-38.574,-26.367,-43.945,-3.418,0.000
1728615298.076,-58.105,-30.762,-45.898,-37.598,0.000
1728615298.080,-33.691,-20.020,-44.922,-66.406,0.000
1728615298.084,-38.574,-24.414,-38.574,-52.734,0.000
1728615298.089,-61.035,-33.203,-28.320,-24.902,0.000
1728615298.093,-32.715,-36.133,-30.762,-7.812,0.000
1728615298.097,-36.133,-43.945,-37.598,-37.598,0.000
1728615298.100,-23.438,-40.039,-31.738,-59.082,0.000
1728615298.104,-20.996,-34.668,-25.391,-48.828,0.000
1728615298.108,-48.340,-26.367,-15.625,-20.020,0.000
1728615298.112,-29.297,-22.461,-13.672,1.953,0.000
1728615298.116,-30.273,-34.180,-35.156,-34.668,0.000
1728615298.120,-25.391,-36.621,-45.410,-65.430,0.000
1728615298.124,-28.809,-32.715,-41.504,-58.594,0.000
1728615298.128,-54.688,-35.156,-28.320,-33.203,0.000
1728615298.132,-27.832,-29.785,-20.020,-3.418,0.000
1728615298.136,-22.949,-29.297,-21.484,-20.996,0.000
1728615298.140,-21.973,-33.203,-24.414,-53.711,0.000
1728615298.144,-19.043,-40.527,-24.902,-45.898,0.000
1728615298.147,-51.270,-40.527,-31.250,-37.598,0.000
1728615298.151,-36.133,-31.738,-34.180,-14.648,0.000
1728615298.155,-29.785,-39.062,-32.227,-23.438,0.000
1728615298.159,-35.645,-54.199,-34.180,-62.500,0.000
1728615298.163,-24.902,-62.500,-40.039,-68.359,0.000
1728615298.167,-54.199,-57.129,-42.480,-53.223,0.000
1728615298.171,-46.387,-46.387,-32.227,-18.555,0.000
1728615298.175,-28.320,-44.434,-22.461,-16.602,0.000
1728615298.179,-18.555,-51.270,-26.855,-51.270,0.000
1728615298.183,-24.902,-53.711,-34.668,-67.383,0.000
1728615298.186,-69.824,-52.734,-38.574,-62.012,0.000
1728615298.190,-48.340,-56.641,-34.180,-21.973,0.000
1728615298.194,-26.855,-54.688,-32.715,-17.578,0.000
1728615298.198,-37.598,-45.410,-40.527,-55.664,0.000
1728615298.202,-25.391,-47.363,-40.527,-65.918,0.000
1728615298.206,-47.363,-47.852,-37.598,-56.641,0.000
1728615298.210,-44.434,-51.270,-34.668,-18.066,0.000
1728615298.214,-34.668,-60.547,-37.598,-17.578,0.000
1728615298.218,-42.480,-55.176,-39.062,-47.852,0.000
1728615298.222,-17.578,-47.852,-34.668,-57.617,0.000
1728615298.226,-48.340,-56.641,-34.668,-58.594,0.000
1728615298.229,-59.082,-56.152,-28.320,-19.043,0.000
1728615298.233,-20.020,-41.016,-24.414,4.883,0.000
1728615298.237,-17.090,-36.133,-26.855,-21.484,0.000
1728615298.241,-17.090,-44.922,-24.902,-53.711,0.000
1728615298.245,-37.109,-51.758,-26.855,-61.035,0.000
1728615298.249,-51.758,-54.199,-27.832,-29.785,0.000
1728615298.253,-41.992,-65.430,-31.250,-12.207,0.000
1728615298.257,-48.340,-65.918,-33.203,-45.898,0.000
1728615298.261,-33.203,-57.129,-31.738,-67.383,0.000
1728615298.264,-30.273,-51.758,-27.832,-51.758,0.000
1728615298.268,-45.898,-51.758,-24.414,-22.949,0.000
1728615298.272,-24.902,-51.270,-21.484,3.418,0.000
1728615298.276,-36.621,-58.105,-28.320,-22.461,0.000
1728615298.280,-29.785,-75.195,-38.574,-51.270,0.000
1728615298.284,-20.508,-80.078,-32.227,-49.316,0.000
1728615298.288,-48.828,-66.895,-29.297,-34.668,0.000
1728615298.292,-40.527,-59.082,-33.691,-13.184,0.000
1728615298.296,-38.574,-63.965,-34.668,-28.320,0.000
1728615298.300,-26.367,-60.547,-30.762,-55.176,0.000
1728615298.303,-25.879,-59.082,-39.062,-58.594,0.000
1728615298.307,-59.570,-65.430,-41.504,-47.852,0.000
1728615298.311,-40.039,-57.129,-35.156,-16.602,0.000
1728615298.315,-27.832,-50.781,-37.598,-21.484,0.000
1728615298.319,-26.855,-49.805,-39.062,-55.664,0.000
1728615298.323,0.000,-48.828,-43.945,-59.570,0.000
1728615298.327,0.000,-62.012,-47.852,-39.551,0.000
1728615298.331,0.000,-65.918,-45.410,-7.812,0.000
1728615298.334,0.000,-67.871,-46.875,-18.555,0.000
1728615298.338,0.000,-71.289,-41.016,-48.828,0.000
1728615298.342,0.000,-69.824,-40.039,-58.105,0.000
1728615298.346,0.000,-65.918,-43.457,-67.383,0.000
1728615298.350,0.000,-51.758,-40.527,-31.250,0.000
1728615298.354,0.000,-51.758,-36.621,-2.441,0.000
1728615298.358,0.000,-60.547,-31.738,-38.574,0.000
1728615298.362,0.000,-58.594,-28.809,-64.941,0.000
1728615298.366,0.000,-64.941,-29.297,-60.547,0.000
1728615298.370,-65.918,-72.754,-35.156,-22.949,0.000
1728615298.374,-45.410,-70.801,-42.969,-14.160,0.000
1728615298.378,-48.828,-66.406,-43.457,-53.223,0.000
1728615298.382,-33.203,-70.312,-39.062,-65.918,0.000
1728615298.386,-48.828,-71.777,-38.086,-51.270,0.000
1728615298.389,-50.781,-59.082,-38.086,-23.926,0.000
1728615298.393,-29.785,-51.270,-36.133,-17.578,0.000
1728615298.397,-28.320,-58.105,-33.691,-53.711,0.000
1728615298.401,-10.254,-50.781,-29.297,-63.965,0.000
1728615298.405,-33.203,-43.457,-27.344,-40.527,0.000
1728615298.409,-53.711,-51.270,-28.809,-10.742,0.000
1728615298.413,-27.344,-48.828,-31.738,0.000,0.000
1728615298.417,-8.789,-46.875,-32.227,-19.531,0.000
1728615298.421,6.348,-45.898,-27.832,-33.691,0.000
1728615298.425,-27.344,-36.621,-24.414,-32.227,0.000
1728615298.429,-56.152,-34.668,-22.461,-16.113,0.000
1728615298.433,-24.414,-37.598,-25.391,4.395,0.000
1728615298.437,-21.484,-35.645,-22.949,-21.973,0.000
1728615298.440,-1.953,-30.273,-20.996,-56.152,0.000
1728615298.444,-17.090,-37.598,-36.621,-61.523,0.000
1728615298.448,-63.965,-58.105,-50.293,-38.574,0.000
1728615298.452,-44.922,-59.570,-41.504,-7.324,0.000
1728615298.456,-51.758,-56.152,-35.156,-42.480,0.000
1728615298.460,-41.016,-48.340,-35.645,-82.520,0.000
1728615298.464,-29.785,-32.227,-32.227,-75.195,0.000
1728615298.468,-63.965,-34.668,-31.250,-49.805,0.000
1728615298.472,-44.922,-38.086,-33.691,-7.324,0.000
1728615298.476,-32.715,-32.227,-36.621,-20.508,0.000
1728615298.480,-29.785,-39.062,-36.133,-62.988,0.000
1728615298.484,-30.762,-47.852,-32.227,-60.547,0.000
1728615298.487,-53.223,-39.062,-23.926,-34.668,0.000
1728615298.491,-33.691,-46.387,-31.250,-4.395,0.000
1728615298.495,-32.227,-53.223,-46.875,-19.531,0.000
1728615298.499,-38.574,-43.945,-45.898,-56.152,0.000
1728615298.503,-25.879,-40.039,-36.133,-60.059,0.000
1728615298.507,-48.828,-43.457,-35.156,-44.922,0.000
1728615298.511,-39.551,-42.969,-36.621,-11.230,0.000
1728615298.515,-21.484,-39.551,-36.621,-9.766,0.000
1728615298.519,-21.973,-50.293,-35.645,-53.711,0.000
1728615298.523,-6.836,-49.316,-37.598,-56.152,0.000
1728615298.527,-33.691,-28.809,-43.945,-39.062,0.000
1728615298.530,-45.898,-26.855,-44.434,-19.043,0.000
1728615298.534,-24.414,-31.738,-40.527,-9.277,0.000
1728615298.538,-20.508,-34.668,-41.016,-47.363,0.000
1728615298.542,-17.578,-48.828,-38.086,-72.266,0.000
1728615298.546,-49.316,-51.270,-36.621,-53.711,0.000
1728615298.550,-51.270,-48.340,-34.668,-12.207,0.000
1728615298.554,-16.113,-52.246,-29.297,-7.324,0.000
1728615298.558,-21.973,-53.711,-35.156,-50.293,0.000
1728615298.562,-20.020,-44.922,-39.062,-63.477,0.000
1728615298.566,-38.574,-40.527,-38.086,-50.293,0.000
1728615298.570,-41.992,-27.344,-32.715,-13.672,0.000
1728615298.573,-11.719,-26.367,-26.367,0.977,0.000
1728615298.577,-17.578,-56.152,-32.227,-35.156,0.000
1728615298.581,-10.254,-61.035,-36.133,-57.617,0.000
1728615298.585,-30.273,-46.387,-29.297,-55.176,0.000
1728615298.589,-58.594,-39.062,-24.414,-29.785,0.000
1728615298.593,-30.762,-41.992,-26.855,-15.137,0.000
1728615298.597,-30.762,-50.781,-29.297,-46.875,0.000
1728615298.601,-21.484,-42.480,-26.367,-59.570,0.000
1728615298.605,-31.738,-38.574,-23.926,-59.570,0.000
1728615298.608,-70.312,-48.828,-28.320,-32.715,0.000
1728615298.612,-47.363,-43.945,-27.344,9.766,0.000
1728615298.616,-42.969,-52.734,-29.785,-17.090,0.000
1728615298.620,-42.969,-62.500,-32.715,-56.641,0.000
1728615298.624,-48.340,-56.152,-35.156,-57.617,0.000
1728615298.628,-79.590,-57.129,-40.039,-43.457,0.000
1728615298.632,-61.035,-55.176,-42.480,-21.484,0.000
1728615298.636,-51.758,-44.922,-46.875,-42.480,0.000
1728615298.640,-32.227,-42.480,-41.016,-68.848,0.000
1728615298.644,-30.762,-43.945,-29.785,-63.477,0.000
1728615298.648,-69.824,-46.387,-31.738,-48.340,0.000
1728615298.651,-62.988,-50.293,-40.039,-21.484,0.000
1728615298.655,-53.223,-55.664,-40.039,-28.320,0.000
1728615298.659,-28.809,-53.223,-41.504,-62.012,0.000
1728615298.663,-21.973,-58.105,-44.922,-59.082,0.000
1728615298.667,-69.824,-64.941,-43.945,-36.621,0.000
1728615298.671,-65.918,-50.781,-46.875,-5.859,0.000
1728615298.675,-43.945,-53.223,-45.898,-8.789,0.000
1728615298.679,-33.691,-60.547,-39.551,-43.945,0.000
1728615298.683,-20.020,-45.898,-38.086,-52.246,0.000
1728615298.686,-47.852,-41.016,-37.109,-38.574,0.000
1728615298.690,-36.621,-43.945,-29.785,1.953,0.000
1728615298.694,-18.066,-43.457,-31.250,6.836,0.000
1728615298.698,-14.648,-43.457,-36.133,-37.109,0.000
1728615298.702,14.648,-49.316,-32.715,-47.852,0.000
1728615298.706,-17.578,-41.992,-29.785,-32.715,0.000
1728615298.710,-34.668,-31.738,-35.645,-0.977,0.000
1728615298.714,-8.301,-40.039,-38.086,11.719,0.000
1728615298.718,-7.812,-38.086,-31.250,-20.996,0.000
1728615298.721,4.883,-29.785,-27.832,-41.016,0.000
1728615298.725,-22.949,-26.855,-24.902,-32.715,0.000
1728615298.729,-44.922,-26.367,-27.344,-3.418,0.000
1728615298.733,-30.762,-41.992,-31.738,15.625,0.000
1728615298.737,-29.785,-41.992,-26.855,-10.742,0.000
1728615298.741,0.977,-34.668,-25.879,-40.527,0.000
1728615298.745,-26.367,-50.293,-30.273,-52.734,0.000
1728615298.749,-58.594,-48.828,-28.320,-21.973,0.000
1728615298.753,-35.645,-44.434,-26.855,7.812,0.000
1728615298.757,-39.062,-41.992,-30.762,-31.250,0.000
1728615298.761,-21.484,-37.598,-33.203,-58.594,0.000
1728615298.765,-44.434,-37.109,-34.668,-47.363,0.000
1728615298.769,-74.219,-37.598,-36.621,-32.227,0.000
1728615298.772,-39.062,-42.969,-36.621,-23.926,0.000
1728615298.776,-41.992,-40.527,-35.156,-46.875,0.000
1728615298.780,-37.109,-48.340,-35.156,-65.918,0.000
1728615298.784,-37.109,-45.410,-31.250,-65.430,0.000
1728615298.788,-58.594,-31.738,-32.715,-48.340,0.000
1728615298.792,-46.387,-35.645,-42.969,-22.949,0.000
1728615298.796,-52.734,-43.945,-44.434,-42.969,0.000
1728615298.800,-40.527,-43.457,-44.922,-72.754,0.000
1728615298.804,-29.785,-48.828,-49.316,-70.801,0.000
1728615298.808,-56.152,-52.734,-40.039,-40.527,0.000
1728615298.812,-46.875,-45.410,-35.645,-16.602,0.000
1728615298.816,-36.133,-49.316,-37.598,-29.297,0.000
1728615298.820,-24.902,-53.223,-32.715,-53.223,0.000
1728615298.823,-19.043,-53.711,-32.715,-54.688,0.000
1728615298.827,-62.500,-45.898,-33.203,-43.945,0.000
1728615298.831,-55.664,-36.621,-33.691,-18.555,0.000
1728615298.835,-31.250,-49.316,-37.109,-14.160,0.000
1728615298.839,0.000,-62.012,-41.992,-49.805,0.000
1728615298.843,0.000,-44.434,-41.016,-54.199,0.000
1728615298.847,0.000,-27.344,-35.156,-38.574,0.000
1728615298.851,0.000,-35.645,-31.250,-12.695,0.000
1728615298.855,0.000,-38.086,-22.949,-3.418,0.000
1728615298.859,0.000,-48.828,-25.879,-43.945,0.000
1728615298.863,0.000,-50.781,-26.855,-52.246,0.000
1728615298.867,0.000,-43.457,-23.926,-30.762,0.000
1728615298.870,0.000,-29.785,-20.508,2.930,0.000
1728615298.874,0.000,-22.949,-13.672,9.277,0.000
1728615298.878,0.000,-39.062,-18.555,-31.250,0.000
1728615298.882,0.000,-42.969,-31.250,-50.293,0.000
1728615298.886,-35.645,-35.156,-27.344,-47.363,0.000
1728615298.890,-49.805,-29.785,-16.113,-14.648,0.000
1728615298.894,-19.531,-32.715,-22.461,-2.930,0.000
1728615298.898,-16.602,-38.574,-29.297,-39.551,0.000
1728615298.902,-5.859,-33.691,-30.762,-59.570,0.000
1728615298.906,-43.457,-35.156,-31.738,-59.082,0.000
1728615298.910,-54.199,-47.363,-29.785,-25.391,0.000
1728615298.913,-17.090,-62.988,-29.785,3.906,0.000
1728615298.917,-23.926,-50.781,-28.320,-26.855,0.000
1728615298.921,-12.695,-28.320,-31.250,-49.805,0.000
1728615298.925,-34.180,-45.898,-45.410,-51.758,0.000
1728615298.929,-70.801,-53.223,-45.410,-34.668,0.000
1728615298.933,-41.992,-45.410,-39.551,-11.230,0.000
1728615298.937,-41.016,-46.875,-42.480,-43.457,0.000
1728615298.941,-34.180,-47.852,-43.457,-67.871,0.000
1728615298.945,-43.945,-51.270,-38.086,-64.453,0.000
1728615298.949,-65.918,-56.152,-36.133,-42.969,0.000
1728615298.952,-44.434,-51.758,-38.574,-15.625,0.000
1728615298.956,-41.992,-50.293,-42.969,-37.598,0.000
1728615298.960,-33.203,-61.523,-48.340,-69.336,0.000
1728615298.964,-38.086,-58.594,-48.340,-76.660,0.000
1728615298.968,-67.871,-49.805,-47.363,-49.316,0.000
1728615298.972,-48.828,-46.387,-47.852,-5.859,0.000
1728615298.976,-41.016,-46.875,-47.363,-22.949,0.000
1728615298.980,-39.551,-48.340,-37.109,-60.059,0.000
1728615298.984,-21.484,-54.688,-36.133,-63.477,0.000
1728615298.988,-45.410,-57.129,-42.480,-49.805,0.000
1728615298.991,-33.691,-41.504,-38.086,-9.766,0.000
1728615298.995,-14.160,-41.992,-36.621,-10.254,0.000
1728615298.999,-24.414,-60.059,-44.434,-46.875,0.000
1728615299.003,-25.391,-58.105,-44.922,-57.617,0.000
1728615299.007,-53.223,-40.527,-36.133,-45.898,0.000
1728615299.011,-46.875,-33.203,-36.621,-7.812,0.000
1728615299.015,-36.621,-52.734,-35.156,2.930,0.000
1728615299.019,-36.133,-55.176,-29.785,-27.344,0.000
1728615299.023,-22.949,-41.504,-39.551,-47.363,0.000
1728615299.026,-56.641,-43.457,-36.133,-41.016,0.000
1728615299.030,-48.828,-52.246,-26.855,-10.742,0.000
1728615299.034,-24.902,-59.570,-30.273,-14.648,0.000
1728615299.038,-30.762,-55.176,-27.344,-45.410,0.000
1728615299.042,-20.508,-47.852,-27.344,-44.922,0.000
1728615299.046,-49.316,-48.828,-28.809,-45.410,0.000
1728615299.050,-59.570,-45.410,-25.879,-16.602,0.000
1728615299.054,-23.438,-36.133,-28.320,10.742,0.000
1728615299.058,-24.902,-43.457,-31.738,-25.879,0.000
1728615299.062,-18.555,-41.016,-25.391,-55.176,0.000
1728615299.066,-42.480,-33.691,-22.461,-59.570,0.000
1728615299.069,-65.430,-40.039,-28.320,-34.668,0.000
1728615299.073,-43.945,-41.992,-28.809,-16.602,0.000
1728615299.077,-44.922,-51.758,-34.668,-56.641,0.000
1728615299.081,-29.297,-53.711,-42.480,-79.102,0.000
1728615299.085,-35.156,-36.133,-42.480,-63.965,0.000
1728615299.089,-61.035,-21.973,-38.574,-37.109,0.000
1728615299.093,-41.992,-5.371,-33.691,-16.113,0.000
1728615299.097,-36.133,4.883,-34.180,-39.551,0.000
1728615299.101,-29.297,12.695,-36.133,-62.988,0.000
1728615299.104,-38.574,21.973,-35.645,-62.500,0.000
1728615299.108,-61.035,26.367,-31.738,-32.227,0.000
1728615299.112,-34.180,33.203,-29.785,3.418,0.000
1728615299.116,-33.691,21.973,-34.668,-25.879,0.000
1728615299.120,-31.738,8.789,-38.574,-63.477,0.000
1728615299.124,-31.250,8.789,-36.133,-62.012,0.000
1728615299.128,-55.176,-3.418,-31.738,-40.039,0.000
1728615299.132,-37.598,-5.371,-30.762,-12.695,0.000
1728615299.136,-32.227,-9.766,-38.086,-33.691,0.000
1728615299.140,-29.785,-23.438,-41.016,-64.941,0.000
1728615299.144,-28.809,-21.973,-34.668,-61.035,0.000
1728615299.148,-53.711,-17.090,-29.785,-37.109,0.000
1728615299.152,-31.738,-13.184,-29.297,-0.488,0.000
1728615299.155,-18.066,-20.020,-22.949,-11.719,0.000
1728615299.159,-2.441,-21.484,-16.113,-36.133,0.000
1728615299.163,0.977,-18.066,-24.414,-44.922,0.000
1728615299.167,-54.688,-16.602,-30.273,-44.922,0.000
1728615299.171,-37.598,-20.508,-30.273,-13.184,0.000
1728615299.175,-26.855,-34.180,-35.156,-18.066,0.000
1728615299.179,-28.809,-35.156,-30.273,-48.340,0.000
1728615299.183,-7.812,-37.109,-26.855,-53.223,0.000
1728615299.187,-51.270,-40.039,-27.832,-35.156,0.000
1728615299.191,-39.551,-35.156,-27.832,-7.812,0.000
1728615299.195,-6.348,-31.738,-26.367,-19.043,0.000
1728615299.199,-20.508,-26.855,-24.902,-53.223,0.000
1728615299.203,-10.742,-30.273,-29.297,-61.035,0.000
1728615299.206,-52.734,-41.504,-38.086,-43.457,0.000
1728615299.210,-67.383,-42.480,-37.109,-12.695,0.000
1728615299.214,-37.109,-49.316,-30.273,-1.465,0.000
1728615299.218,-30.762,-51.270,-37.598,-44.922,0.000
1728615299.222,-16.602,-50.781,-37.598,-63.965,0.000
1728615299.226,-39.551,-51.270,-30.273,-53.711,0.000
1728615299.230,-58.105,-49.316,-31.738,-28.320,0.000
1728615299.234,-43.945,-47.363,-38.574,-2.441,0.000
1728615299.238,-43.945,-39.551,-41.016,-33.691,0.000
1728615299.242,-27.832,-48.340,-36.621,-57.129,0.000
1728615299.246,-46.387,-61.523,-35.156,-44.434,0.000
1728615299.249,-62.500,-41.992,-35.156,-19.531,0.000
1728615299.253,-32.227,-38.574,-36.133,-2.441,0.000
1728615299.257,-24.414,-58.594,-32.715,-33.203,0.000
1728615299.261,-12.207,-67.383,-29.297,-57.617,0.000
1728615299.265,-39.551,-67.383,-39.551,-69.336,0.000
1728615299.269,-63.965,-56.641,-42.480,-33.691,0.000
1728615299.273,-29.785,-39.062,-34.180,15.137,0.000
1728615299.277,-22.949,-48.340,-36.621,-20.996,0.000
1728615299.281,-8.301,-58.594,-36.133,-55.176,0.000
1728615299.285,-11.230,-48.340,-20.996,-41.016,0.000
1728615299.289,-44.922,-48.828,-17.090,-18.555,0.000
1728615299.293,-27.832,-51.758,-31.250,4.883,0.000
1728615299.296,-24.414,-49.316,-37.598,-18.555,0.000
1728615299.300,-8.789,-54.199,-30.273,-50.293,0.000
1728615299.304,0.000,-47.852,-26.367,-48.828,0.000
1728615299.308,-42.480,-38.574,-33.691,-22.949,0.000
1728615299.312,-27.832,-49.316,-30.273,19.531,0.000
1728615299.316,-10.254,-56.641,-31.738,-3.418,0.000
1728615299.320,-13.184,-48.828,-36.133,-57.129,0.000
1728615299.324,-19.531,-48.340,-31.738,-59.082,0.000
1728615299.328,-61.035,-39.062,-28.320,-33.203,0.000
1728615299.332,-50.293,-35.156,-24.902,-7.812,0.000
1728615299.335,-41.016,-46.875,-25.879,-15.137,0.000
1728615299.339,-45.410,-41.016,-33.203,-47.363,0.000
1728615299.343,-34.180,-42.969,-34.668,-56.641,0.000
1728615299.347,-62.012,-54.688,-24.902,-40.039,0.000
1728615299.351,-42.969,-49.316,-18.066,-1.953,0.000
1728615299.355,-41.992,-48.340,-23.926,-9.766,0.000
1728615299.359,-53.711,-55.664,-30.762,-58.105,0.000
1728615299.363,-27.344,-51.758,-28.320,-60.059,0.000
1728615299.367,-60.547,-49.316,-32.227,-41.504,0.000
1728615299.371,-60.059,-49.316,-37.598,-13.184,0.000
1728615299.374,-38.574,-57.617,-38.574,-17.578,0.000
1728615299.378,-40.039,-74.707,-39.062,-52.246,0.000
1728615299.382,-26.855,-65.918,-40.039,-70.801,0.000
1728615299.386,-42.969,-49.805,-36.621,-69.824,0.000
1728615299.390,-37.598,-49.316,-32.715,-35.156,0.000
1728615299.394,-29.785,-58.594,-35.156,-17.090,0.000
1728615299.398,-46.875,-62.988,-44.434,-55.176,0.000
1728615299.402,-28.809,-60.059,-48.828,-77.148,0.000
1728615299.406,-50.293,-54.688,-45.898,-71.289,0.000
1728615299.409,-65.918,-50.781,-35.156,-39.551,0.000
1728615299.413,-36.133,-63.965,-29.785,-16.602,0.000
1728615299.417,-54.199,-61.523,-36.621,-35.645,0.000
1728615299.421,-33.691,-57.617,-33.203,-44.434,0.000
1728615299.425,-31.738,-65.918,-36.621,-54.199,0.000
1728615299.429,-56.152,-56.152,-34.180,-38.086,0.000
1728615299.433,-29.297,-43.457,-26.367,-4.395,0.000
1728615299.437,-29.785,-36.133,-29.785,-26.855,0.000
1728615299.441,-21.973,-36.621,-26.367,-46.875,0.000
1728615299.445,-41.016,-46.387,-29.297,-52.734,0.000
1728615299.448,-72.266,-53.223,-30.273,-43.945,0.000
1728615299.452,-50.293,-52.246,-25.391,-17.090,0.000
1728615299.456,-45.410,-54.199,-20.508,-22.949,0.000
1728615299.460,-29.297,-64.453,-20.508,-47.363,0.000
1728615299.464,-22.461,-60.059,-22.949,-53.223,0.000
1728615299.468,-52.734,-49.316,-20.996,-38.086,0.000
1728615299.472,-37.109,-38.574,-20.996,2.441,0.000
1728615299.476,-31.738,-34.668,-22.949,-13.184,0.000
1728615299.480,-33.691,-44.922,-29.297,-64.941,0.000
1728615299.483,-31.250,-49.805,-33.203,-64.941,0.000
1728615299.487,-58.594,-47.363,-27.832,-41.016,0.000
1728615299.491,-57.129,-39.062,-24.414,-6.348,0.000
1728615299.495,-44.922,-45.410,-17.090,-16.113,0.000
1728615299.499,-15.137,-51.270,-11.719,-59.570,0.000
1728615299.503,-15.137,-48.340,-17.090,-49.316,0.000
1728615299.507,-63.965,-39.551,-15.137,-29.785,0.000
1728615299.511,-51.270,-36.621,-13.184,0.977,0.000
1728615299.515,-40.527,-47.852,-18.066,-8.301,0.000
1728615299.519,-41.016,-52.734,-16.602,-47.363,0.000
1728615299.523,-20.020,-62.988,-21.484,-54.688,0.000
1728615299.527,-59.570,-70.801,-37.109,-59.570,0.000
1728615299.531,-67.383,-65.918,-40.039,-19.043,0.000
1728615299.534,-49.316,-69.336,-33.691,-11.230,0.000
1728615299.538,-43.945,-67.383,-30.762,-54.199,0.000
1728615299.543,-30.762,-67.383,-25.391,-71.777,0.000
1728615299.546,-76.660,-76.172,-29.297,-57.617,0.000
1728615299.550,-82.031,-73.730,-36.621,-21.973,0.000
1728615299.554,-37.109,-60.059,-37.598,-8.301,0.000
1728615299.558,-34.668,-69.824,-36.621,-47.852,0.000
1728615299.562,-8.301,-83.008,-23.926,-58.105,0.000
1728615299.566,-34.180,-66.406,-14.648,-34.180,0.000
1728615299.570,-63.965,-46.875,-29.297,-20.020,0.000
1728615299.574,-37.109,-43.945,-36.133,6.348,0.000
1728615299.578,-33.691,-48.340,-31.250,-15.625,0.000
1728615299.582,-20.020,-50.293,-33.203,-61.523,0.000
1728615299.585,-34.180,-54.199,-35.156,-66.895,0.000
1728615299.589,-55.176,-61.035,-35.156,-34.180,0.000
1728615299.593,-26.855,-69.824,-28.320,-1.465,0.000
1728615299.597,-17.090,-63.965,-17.090,-13.672,0.000
1728615299.601,-16.602,-54.688,-23.926,-37.598,0.000
1728615299.605,-23.926,-60.059,-31.738,-41.016,0.000
1728615299.609,-38.574,-59.570,-26.367,-15.625,0.000
1728615299.613,-19.531,-53.711,-23.438,13.672,0.000
1728615299.617,-18.066,-54.688,-30.273,-8.301,0.000
1728615299.621,-10.254,-60.547,-35.645,-44.922,0.000
1728615299.625,-7.324,-57.129,-31.250,-50.293,0.000
1728615299.629,-41.504,-56.152,-24.902,-25.879,0.000
1728615299.632,-34.180,-59.082,-30.762,-12.207,0.000
1728615299.636,-30.273,-61.035,-42.969,-40.527,0.000
1728615299.640,-21.973,-63.965,-33.203,-61.035,0.000
1728615299.644,-20.020,-61.523,-24.414,-55.664,0.000
1728615299.648,-54.199,-61.523,-24.902,-34.180,0.000
1728615299.652,-41.016,-56.641,-24.414,0.488,0.000
1728615299.656,-28.320,-54.199,-28.320,-7.324,0.000
1728615299.660,-19.043,-49.316,-28.809,-38.574,0.000
1728615299.664,-7.324,-54.199,-31.738,-48.828,0.000
1728615299.668,-37.598,-65.430,-34.180,-43.945,0.000
1728615299.672,-36.621,-72.266,-30.273,-10.742,0.000
1728615299.675,-20.020,-67.383,-28.320,-5.371,0.000
1728615299.679,-13.184,-54.199,-25.879,-49.805,0.000
1728615299.683,-18.066,-63.965,-26.855,-70.801,0.000
1728615299.687,-51.758,-68.848,-35.645,-46.875,0.000
1728615299.691,-48.340,-61.035,-36.133,-16.113,0.000
1728615299.695,-33.203,-64.941,-34.668,-28.320,0.000
1728615299.699,-30.762,-60.059,-34.180,-51.758,0.000
1728615299.703,-8.789,-56.152,-31.250,-45.898,0.000
1728615299.707,-34.668,-62.500,-34.180,-31.738,0.000
1728615299.711,-57.129,-67.871,-37.598,-12.207,0.000
1728615299.715,-45.898,-66.406,-37.598,-12.207,0.000
1728615299.718,-43.457,-64.453,-31.738,-44.922,0.000
1728615299.722,-22.461,-64.941,-30.273,-59.082,0.000
1728615299.726,-45.410,-58.105,-33.203,-55.176,0.000
1728615299.730,-57.129,-50.293,-33.691,-22.949,0.000
1728615299.734,-16.113,-55.176,-33.203,9.766,0.000
1728615299.738,-11.230,-56.152,-32.715,-14.648,0.000
1728615299.742,-2.930,-55.176,-32.227,-34.180,0.000
1728615299.746,-20.508,-72.754,-32.227,-36.133,0.000
1728615299.750,-45.410,-75.684,-36.621,-12.695,0.000
1728615299.753,-12.207,-64.453,-31.250,13.184,0.000
1728615299.757,-12.695,-65.430,-25.391,-21.484,0.000
1728615299.761,-13.184,-61.035,-32.715,-54.688,0.000
1728615299.765,-23.438,-65.430,-38.086,-40.039,0.000
1728615299.769,-52.246,-69.336,-36.621,-8.301,0.000
1728615299.773,-31.250,-61.035,-35.645,11.719,0.000
1728615299.777,-20.020,-64.941,-35.156,-19.531,0.000
1728615299.781,-17.090,-72.266,-30.273,-45.410,0.000
1728615299.785,-37.598,-62.500,-24.902,-38.086,0.000
1728615299.789,-76.172,-58.105,-24.902,-27.832,0.000
1728615299.792,-55.664,-59.570,-29.297,-3.418,0.000
1728615299.796,-40.039,-56.641,-31.250,-7.812,0.000
1728615299.800,-41.016,-65.918,-29.785,-37.109,0.000
1728615299.804,-58.105,-74.707,-33.691,-44.922,0.000
1728615299.808,-82.520,-66.895,-35.645,-33.691,0.000
1728615299.812,-43.457,-70.312,-28.809,0.000,0.000
1728615299.816,-39.062,-78.125,-21.484,-4.883,0.000
1728615299.820,-47.363,-70.312,-26.367,-41.992,0.000
1728615299.823,0.000,-58.594,-30.762,-51.270,0.000
1728615299.827,0.000,-60.547,-32.715,-35.156,0.000
1728615299.831,0.000,-71.289,-36.133,-15.625,0.000
1728615299.835,0.000,-63.965,-34.180,-23.438,0.000
1728615299.839,0.000,-58.105,-30.273,-52.734,0.000
1728615299.843,0.000,-65.918,-31.250,-50.781,0.000
1728615299.847,0.000,-68.848,-27.344,-35.645,0.000
1728615299.851,0.000,-77.148,-25.879,-12.695,0.000
1728615299.855,0.000,-77.637,-31.250,-13.672,0.000
1728615299.859,0.000,-58.594,-29.297,-45.898,0.000
1728615299.862,0.000,-42.480,-21.484,-48.828,0.000
1728615299.866,0.000,-49.316,-19.531,-48.340,0.000
1728615299.871,-51.270,-48.340,-20.020,-20.996,0.000
1728615299.874,-35.156,-48.340,-22.461,-10.254,0.000
1728615299.878,-31.250,-58.594,-23.926,-40.527,0.000
1728615299.882,-4.883,-53.711,-29.785,-49.805,0.000
1728615299.886,-33.203,-56.152,-40.039,-49.805,0.000
1728615299.890,-55.176,-58.594,-37.109,-23.438,0.000
1728615299.894,-29.785,-49.805,-30.273,-1.465,0.000
1728615299.898,-22.461,-50.781,-29.297,-33.203,0.000
1728615299.902,-7.324,-51.758,-25.879,-48.828,0.000
1728615299.906,-28.320,-51.758,-25.879,-36.133,0.000
1728615299.910,-47.363,-48.828,-35.156,-11.719,0.000
1728615299.914,-25.391,-52.734,-36.621,16.602,0.000
1728615299.918,-14.160,-57.129,-27.832,-7.812,0.000
1728615299.922,16.602,-40.039,-25.879,-40.527,0.000
1728615299.925,-11.230,-41.016,-28.809,-50.781,0.000
1728615299.929,-57.617,-61.523,-32.227,-36.621,0.000
1728615299.933,-29.785,-60.059,-29.785,-2.930,0.000
1728615299.937,-33.203,-58.105,-32.715,-27.344,0.000
1728615299.941,-14.648,-59.570,-32.715,-55.664,0.000
1728615299.945,-9.766,-57.129,-24.902,-57.129,0.000
1728615299.949,-50.293,-66.406,-24.902,-23.926,0.000
1728615299.953,-34.668,-72.266,-25.879,10.742,0.000
1728615299.957,-23.438,-53.711,-23.438,-18.555,0.000
1728615299.961,-28.809,-46.875,-32.227,-58.594,0.000
1728615299.965,-43.457,-62.988,-37.109,-62.012,0.000
1728615299.968,-68.848,-68.359,-31.738,-45.898,0.000
1728615299.972,-46.875,-62.012,-26.367,-18.555,0.000
1728615299.976,-26.855,-58.105,-28.320,-27.344,0.000
1728615299.980,-22.949,-64.941,-33.691,-62.988,0.000
1728615299.984,-26.367,-63.965,-40.527,-77.148,0.000
1728615299.988,-53.223,-45.410,-37.109,-56.641,0.000
1728615299.992,-41.504,-53.223,-30.762,-25.391,0.000
1728615299.996,-35.645,-57.129,-36.133,-35.645,0.000
1728615300.000,-26.855,-46.875,-41.992,-63.477,0.000
1728615300.004,-30.762,-52.734,-43.945,-70.312,0.000
1728615300.008,-69.336,-58.594,-47.363,-62.012,0.000
1728615300.011,-42.480,-50.781,-46.387,-34.668,0.000
1728615300.015,-25.879,-41.992,-41.016,-28.320,0.000
1728615300.019,-33.203,-40.527,-41.504,-62.012,0.000
1728615300.023,-8.301,-41.992,-41.992,-67.383,0.000
1728615300.027,-45.898,-51.270,-43.945,-60.059,0.000
1728615300.031,-55.664,-52.246,-40.039,-31.738,0.000
1728615300.035,-21.484,-45.898,-35.156,-14.160,0.000
1728615300.039,-19.531,-49.805,-33.691,-50.293,0.000
1728615300.043,-2.930,-47.852,-36.621,-53.223,0.000
1728615300.047,-26.367,-33.203,-34.668,-37.109,0.000
1728615300.051,-30.762,-30.273,-25.391,-8.301,0.000
1728615300.054,-8.789,-30.762,-21.973,15.137,0.000
1728615300.058,-12.207,-26.367,-25.391,-16.113,0.000
1728615300.062,-1.465,-28.320,-25.391,-43.945,0.000
1728615300.066,-31.250,-30.273,-22.949,-42.969,0.000
1728615300.070,-49.805,-37.109,-26.367,-15.137,0.000
1728615300.074,-32.715,-36.133,-24.902,12.695,0.000
1728615300.078,-31.250,-43.457,-22.461,-13.184,0.000
1728615300.082,0.488,-43.457,-24.414,-39.551,0.000
1728615300.086,-20.508,-38.086,-27.832,-34.180,0.000
1728615300.090,-62.988,-39.062,-28.809,-11.719,0.000
1728615300.093,-34.180,-33.691,-29.785,5.859,0.000
1728615300.097,-29.785,-30.273,-29.297,-36.621,0.000
1728615300.101,-24.414,-41.504,-33.691,-68.848,0.000
1728615300.105,0.000,-55.664,-37.109,-65.430,0.000
1728615300.109,0.000,-62.988,-40.039,-60.547,0.000
1728615300.113,0.000,-61.523,-37.109,-25.391,0.000
1728615300.117,0.000,-52.246,-32.715,-37.109,0.000
1728615300.121,0.000,-57.617,-32.227,-65.918,0.000
1728615300.125,0.000,-65.430,-30.273,-59.570,0.000
1728615300.129,0.000,-55.664,-26.367,-29.785,0.000
1728615300.132,0.000,-38.574,-22.461,-4.883,0.000
1728615300.136,0.000,-52.734,-29.297,-33.691,0.000
1728615300.140,0.000,-77.637,-28.320,-61.035,0.000
1728615300.144,0.000,-71.777,-23.926,-65.918,0.000
1728615300.148,0.000,-54.199,-23.926,-54.199,0.000
1728615300.152,-49.805,-50.293,-22.949,-24.414,0.000
1728615300.156,-32.715,-61.523,-29.785,-22.949,0.000
1728615300.160,-41.504,-64.941,-37.109,-50.293,0.000
1728615300.164,-31.250,-57.129,-36.621,-55.176,0.000
1728615300.167,-59.570,-45.898,-31.250,-41.504,0.000
1728615300.171,-46.387,-41.992,-30.762,-10.254,0.000
1728615300.175,-29.785,-46.387,-35.645,-14.160,0.000
1728615300.179,-20.508,-45.410,-33.691,-52.734,0.000
1728615300.183,-1.953,-41.992,-27.832,-47.363,0.000
1728615300.187,-36.621,-35.645,-32.227,-23.438,0.000
1728615300.191,-36.133,-20.996,-41.504,3.906,0.000
1728615300.195,-10.742,-15.625,-39.551,-3.418,0.000
1728615300.198,0.000,-31.250,-30.762,-48.828,0.000
1728615300.202,0.000,-26.855,-24.414,-53.223,0.000
1728615300.206,0.000,-17.090,-22.949,-38.574,0.000
1728615300.210,0.000,-29.785,-28.809,-18.066,0.000
1728615300.214,0.000,-27.832,-30.762,2.441,0.000
1728615300.218,0.000,-28.320,-38.574,-26.367,0.000
1728615300.222,0.000,-28.320,-41.016,-53.711,0.000
1728615300.226,0.000,-28.809,-34.668,-56.152,0.000
1728615300.230,0.000,-41.016,-39.551,-30.273,0.000
1728615300.234,0.000,-42.969,-44.922,-15.137,0.000
1728615300.238,0.000,-35.156,-35.645,-34.180,0.000
1728615300.241,0.000,-36.621,-22.949,-43.945,0.000
1728615300.246,-33.203,-43.457,-18.555,-36.133,0.000
1728615300.249,-43.457,-46.875,-15.625,-12.695,0.000
1728615300.253,-18.555,-47.363,-20.020,2.930,0.000
1728615300.257,-33.203,-48.828,-25.879,-23.926,0.000
1728615300.261,-35.156,-61.035,-34.668,-52.246,0.000
1728615300.265,-45.898,-57.129,-39.062,-53.711,0.000
1728615300.269,-64.941,-51.270,-29.297,-31.250,0.000
1728615300.273,-46.875,-50.781,-29.297,-10.254,0.000
1728615300.277,-44.922,-47.852,-35.156,-30.762,0.000
1728615300.281,-31.250,-52.246,-35.156,-58.105,0.000
1728615300.285,-44.922,-58.594,-36.621,-67.383,0.000
1728615300.289,-80.566,-57.129,-33.691,-45.898,0.000
1728615300.293,-56.152,-61.523,-31.738,-17.090,0.000
1728615300.297,-50.293,-67.383,-34.668,-36.133,0.000
1728615300.300,-49.316,-62.012,-40.527,-68.848,0.000
1728615300.304,-36.621,-57.617,-41.992,-64.453,0.000
1728615300.308,-62.012,-41.016,-39.062,-25.391,0.000
1728615300.312,-47.852,-37.109,-37.109,5.371,0.000
1728615300.316,-30.762,-44.434,-34.668,-20.508,0.000
1728615300.320,-28.320,-47.363,-40.527,-62.500,0.000
1728615300.324,-27.344,-51.758,-44.434,-68.848,0.000
1728615300.328,-61.523,-44.922,-41.504,-53.223,0.000
1728615300.332,-60.059,-38.574,-39.551,-16.113,0.000
1728615300.336,-42.480,-32.227,-42.480,-16.113,0.000
1728615300.340,-21.484,-19.531,-40.527,-54.688,0.000
1728615300.344,-5.371,-20.508,-35.645,-69.336,0.000
1728615300.347,-47.363,-22.461,-39.551,-68.359,0.000
1728615300.351,-43.457,-23.926,-43.457,-30.273,0.000
1728615300.355,-37.109,-39.551,-42.969,-16.602,0.000
1728615300.359,-39.062,-43.457,-40.527,-54.688,0.000
1728615300.363,-8.789,-39.551,-39.062,-65.918,0.000
1728615300.367,-47.363,-36.133,-36.621,-58.105,0.000
1728615300.371,-58.105,-28.809,-32.227,-23.438,0.000
1728615300.375,-30.273,-35.156,-37.598,-14.648,0.000
1728615300.379,-20.508,-44.434,-39.551,-57.617,0.000
1728615300.383,-10.254,-39.062,-39.551,-64.453,0.000
1728615300.387,-40.039,-27.832,-40.039,-56.641,0.000
1728615300.390,-46.387,-31.738,-31.738,-30.273,0.000
1728615300.394,-14.648,-42.969,-33.203,-8.789,0.000
1728615300.398,-21.973,-41.992,-30.273,-39.062,0.000
1728615300.402,-25.391,-32.715,-26.855,-63.477,0.000
1728615300.406,-44.922,-29.297,-32.227,-54.199,0.000
1728615300.410,-62.988,-42.969,-25.391,-23.926,0.000
1728615300.414,-30.762,-54.688,-20.508,-7.812,0.000
1728615300.418,-39.551,-53.223,-25.391,-36.133,0.000
1728615300.422,-32.227,-54.688,-34.668,-60.059,0.000
1728615300.426,-37.109,-47.363,-37.109,-55.176,0.000
1728615300.429,-67.871,-34.180,-33.691,-30.762,0.000
1728615300.433,-51.758,-32.227,-33.203,-9.766,0.000
1728615300.437,-49.316,-41.016,-34.180,-23.926,0.000
1728615300.441,-32.715,-46.387,-31.738,-48.828,0.000
1728615300.445,-39.062,-48.828,-29.297,-58.105,0.000
1728615300.449,-66.895,-47.363,-32.227,-40.039,0.000
1728615300.453,-38.086,-42.480,-35.156,-11.719,0.000
1728615300.457,-27.344,-40.039,-38.574,-27.832,0.000
1728615300.461,-20.508,-38.574,-39.062,-53.223,0.000
1728615300.465,-18.066,-29.785,-40.527,-59.082,0.000
1728615300.468,-47.852,-27.832,-42.480,-51.270,0.000
1728615300.472,-40.039,-40.039,-41.016,-15.137,0.000
1728615300.476,-30.273,-41.992,-40.527,-18.555,0.000
1728615300.480,-22.461,-41.992,-35.645,-45.410,0.000
1728615300.484,-7.812,-45.410,-35.156,-47.363,0.000
1728615300.488,-31.738,-37.598,-44.922,-27.832,0.000
1728615300.492,-26.367,-24.902,-40.527,14.648,0.000
1728615300.496,-16.602,-20.996,-24.414,4.883,0.000
1728615300.500,-15.625,-24.902,-31.250,-37.109,0.000
1728615300.504,-8.789,-28.809,-39.062,-50.781,0.000
1728615300.507,-46.387,-33.203,-34.180,-42.969,0.000
1728615300.511,-45.410,-30.762,-35.645,-7.324,0.000
1728615300.515,-25.391,-34.668,-38.086,-5.371,0.000
1728615300.519,-20.020,-44.434,-38.574,-43.945,0.000
1728615300.523,-8.789,-44.434,-41.016,-53.223,0.000
1728615300.527,-40.527,-41.016,-41.992,-40.039,0.000
1728615300.531,-45.410,-28.809,-32.227,-9.766,0.000
1728615300.535,-34.668,-26.855,-24.414,-3.418,0.000
1728615300.539,-39.551,-32.227,-34.668,-38.574,0.000
1728615300.542,-18.066,-32.715,-41.504,-68.848,0.000
1728615300.546,-41.016,-36.621,-39.062,-56.152,0.000
1728615300.550,-46.875,-29.297,-28.809,-15.137,0.000
1728615300.554,-24.414,-30.273,-27.832,-9.277,0.000
1728615300.558,-35.156,-39.062,-29.785,-35.645,0.000
1728615300.562,-12.695,-40.527,-29.785,-44.922,0.000
1728615300.566,-34.668,-37.598,-33.691,-43.457,0.000
1728615300.570,-64.453,-35.156,-34.180,-35.156,0.000
1728615300.573,0.000,-48.340,-40.039,-27.344,0.000
1728615300.577,0.000,-49.805,-41.992,-55.176,0.000
1728615300.581,0.000,-42.480,-39.062,-68.848,0.000
1728615300.585,0.000,-40.527,-38.574,-62.012,0.000
1728615300.589,0.000,-49.805,-35.156,-43.457,0.000
1728615300.593,0.000,-58.594,-35.645,-14.648,0.000
1728615300.597,0.000,-53.711,-37.109,-38.086,0.000
1728615300.601,0.000,-40.527,-31.250,-63.965,0.000
1728615300.605,0.000,-37.109,-34.180,-65.918,0.000
1728615300.609,0.000,-41.992,-39.062,-42.480,0.000
1728615300.613,0.000,-38.086,-32.715,-10.254,0.000
1728615300.616,0.000,-34.180,-31.250,-36.133,0.000
1728615300.616,0.000,-34.180,-31.250,-36.133,0.000
1728615300.621,-27.832,-41.992,-33.691,-51.758,0.000
1728615300.624,-19.043,-51.758,-37.109,-45.410,0.000
1728615300.628,-60.547,-43.945,-40.039,-35.645,0.000
1728615300.632,-27.832,-28.320,-38.574,2.441,0.000
1728615300.636,-15.625,-31.738,-39.062,-8.301,0.000
1728615300.640,-27.832,-36.621,-34.668,-49.805,0.000
1728615300.644,-18.066,-31.250,-32.715,-56.152,0.000
1728615300.648,-49.316,-28.320,-32.715,-36.621,0.000
1728615300.652,-41.992,-30.762,-28.320,1.465,0.000
1728615300.656,-38.086,-36.621,-34.668,-11.230,0.000
1728615300.660,-38.086,-42.480,-43.945,-56.641,0.000
1728615300.664,-15.137,-35.645,-39.551,-56.641,0.000
1728615300.668,0.000,-23.926,-24.902,-35.645,0.000
1728615300.672,0.000,-30.762,-23.438,-7.812,0.000
1728615300.675,0.000,-38.574,-32.715,-8.301,0.000
1728615300.679,0.000,-22.949,-31.250,-39.062,0.000
1728615300.683,0.000,-14.648,-25.879,-41.016,0.000
1728615300.687,0.000,-37.109,-30.762,-38.574,0.000
1728615300.691,0.000,-37.109,-35.645,-25.391,0.000
1728615300.695,0.000,-24.902,-33.203,-5.859,0.000
1728615300.699,0.000,-32.715,-34.668,-31.250,0.000
1728615300.703,0.000,-19.531,-22.461,-43.945,0.000
1728615300.707,0.000,-16.113,-17.090,-30.273,0.000
1728615300.711,0.000,-25.879,-31.738,-12.207,0.000
1728615300.713,-40.039,-20.508,-38.086,-13.184,0.000
1728615300.717,-25.391,-32.227,-31.738,-41.504,0.000
1728615300.721,-13.672,-41.992,-32.715,-53.223,0.000
1728615300.725,-27.832,-39.062,-34.180,-58.105,0.000
1728615300.729,-7.812,-41.504,-35.156,-32.227,0.000
1728615300.733,-44.922,-34.180,-32.227,4.883,0.000
1728615300.737,-50.781,-25.879,-32.227,-22.461,0.000
1728615300.740,-27.832,-22.461,-38.086,-50.293,0.000
1728615300.744,-36.621,-24.902,-34.668,-44.922,0.000
1728615300.748,-15.137,-30.273,-32.227,-25.879,0.000
1728615300.752,-41.992,-30.762,-41.016,-16.602,0.000
1728615300.756,-55.664,-34.668,-40.039,-41.504,0.000
1728615300.760,-16.113,-44.922,-40.527,-67.871,0.000
1728615300.764,-36.621,-43.457,-44.434,-70.312,0.000
1728615300.768,-62.988,-32.227,-39.551,-43.945,0.000
1728615300.772,-29.297,-30.762,-37.598,-12.207,0.000
1728615300.776,-23.438,-34.668,-35.156,-30.273,0.000
1728615300.780,-19.043,-33.203,-32.715,-49.805,0.000
1728615300.783,-16.113,-22.949,-34.668,-41.016,0.000
1728615300.787,-50.293,-23.926,-31.250,-25.879,0.000
1728615300.791,-37.598,-28.809,-26.367,-3.906,0.000
1728615300.795,-28.809,-21.484,-23.926,-35.645,0.000
1728615300.799,-20.508,-16.602,-24.414,-65.430,0.000
1728615300.803,-11.719,-23.438,-26.367,-50.293,0.000
1728615300.807,-53.223,-33.203,-27.344,-39.062,0.000
1728615300.811,-39.062,-30.273,-34.668,-4.883,0.000
1728615300.815,-22.461,-29.785,-39.551,-10.742,0.000
1728615300.819,-26.367,-29.297,-33.691,-44.434,0.000
1728615300.823,-15.137,-26.367,-25.879,-49.316,0.000
1728615300.826,-54.688,-34.180,-27.832,-34.180,0.000
1728615300.830,-52.734,-33.691,-35.645,-2.441,0.000
1728615300.834,-32.715,-35.645,-31.250,-7.324,0.000
1728615300.838,-42.969,-47.363,-28.320,-49.316,0.000
1728615300.842,-35.645,-43.457,-35.645,-64.453,0.000
1728615300.846,-62.012,-36.621,-35.645,-58.594,0.000
1728615300.850,-62.500,-38.086,-34.180,-18.555,0.000
1728615300.854,-41.504,-37.598,-29.785,0.977,0.000
1728615300.858,-39.551,-43.945,-27.832,-36.133,0.000
1728615300.862,-25.391,-45.898,-32.715,-51.270,0.000
1728615300.866,-53.711,-36.621,-30.762,-56.152,0.000
1728615300.869,-64.941,-39.062,-28.809,-25.879,0.000
1728615300.873,-38.574,-52.734,-37.109,-8.301,0.000
1728615300.877,-30.762,-54.688,-38.574,-47.852,0.000
1728615300.881,-27.344,-43.457,-36.621,-66.895,0.000
1728615300.885,-51.270,-31.738,-38.574,-55.664,0.000
1728615300.889,-65.430,-34.668,-41.504,-18.066,0.000
1728615300.893,-46.875,-33.691,-41.992,6.836,0.000
1728615300.897,-44.434,-35.156,-41.504,-28.809,0.000
1728615300.901,-24.902,-37.109,-44.434,-57.617,0.000
1728615300.904,-32.715,-37.109,-41.504,-49.805,0.000
1728615300.908,-60.059,-32.715,-32.227,-16.113,0.000
1728615300.912,-38.086,-32.715,-25.879,4.883,0.000
1728615300.916,-42.480,-37.598,-36.621,-25.391,0.000
1728615300.920,-23.926,-39.551,-44.434,-47.363,0.000
1728615300.924,-21.484,-34.668,-37.109,-43.945,0.000
1728615300.928,-62.988,-30.273,-36.621,-25.391,0.000
1728615300.932,-49.805,-40.527,-47.363,-2.441,0.000
1728615300.936,-30.762,-32.715,-50.293,-16.602,0.000
1728615300.940,-12.207,-18.066,-41.016,-36.133,0.000
1728615300.944,-25.391,-19.531,-33.203,-32.227,0.000
1728615300.947,-58.594,-21.973,-33.691,-29.297,0.000
1728615300.951,-46.387,-28.320,-35.156,-12.207,0.000
1728615300.955,-41.992,-33.691,-33.691,-19.531,0.000
1728615300.959,-28.320,-32.227,-33.691,-52.734,0.000
1728615300.963,-20.508,-32.227,-30.762,-74.219,0.000
1728615300.967,-44.922,-39.551,-31.738,-50.293,0.000
1728615300.971,-39.062,-39.062,-42.969,-9.766,0.000
1728615300.975,-40.039,-34.180,-42.969,-30.762,0.000
1728615300.978,-33.203,-41.992,-32.227,-67.871,0.000
1728615300.982,-21.484,-41.992,-34.180,-69.336,0.000
1728615300.986,-70.312,-34.180,-34.668,-58.105,0.000
1728615300.990,-76.172,-40.527,-33.691,-28.809,0.000
1728615300.994,-42.969,-46.875,-31.738,-22.461,0.000
1728615300.998,-41.992,-42.480,-26.367,-61.523,0.000
1728615301.002,-32.227,-39.551,-34.180,-72.754,0.000
1728615301.006,-59.082,-33.203,-39.551,-55.664,0.000
1728615301.010,-54.199,-33.203,-27.344,-23.438,0.000
1728615301.014,-28.809,-43.945,-25.391,-25.391,0.000
1728615301.018,-32.715,-44.434,-35.645,-63.965,0.000
1728615301.022,-24.414,-42.480,-39.551,-65.918,0.000
1728615301.026,-51.758,-43.457,-39.062,-57.617,0.000
1728615301.030,-62.500,-39.551,-36.133,-25.391,0.000
1728615301.033,-40.039,-31.738,-36.621,-8.789,0.000
1728615301.037,-31.250,-35.156,-45.898,-44.434,0.000
1728615301.041,-15.137,-30.762,-41.992,-63.477,0.000
1728615301.045,-50.293,-35.645,-41.016,-63.965,0.000
1728615301.049,-72.266,-44.434,-46.387,-42.969,0.000
1728615301.053,-44.434,-37.109,-43.945,-13.672,0.000
1728615301.057,-32.715,-36.621,-39.551,-40.039,0.000
1728615301.061,-5.859,-33.203,-32.715,-63.965,0.000
1728615301.065,-24.902,-26.367,-30.762,-51.758,0.000
1728615301.069,-54.199,-20.020,-30.762,-22.461,0.000
1728615301.073,-19.043,-19.531,-27.344,13.672,0.000
1728615301.077,-19.043,-26.367,-32.715,-24.414,0.000
1728615301.081,-18.066,-31.250,-36.621,-62.988,0.000
1728615301.084,-29.297,-28.809,-32.715,-55.664,0.000
1728615301.088,-59.570,-10.742,-29.297,-26.367,0.000
1728615301.092,-32.715,-4.395,-25.879,12.695,0.000
1728615301.096,-21.973,-14.160,-26.855,-13.672,0.000
1728615301.100,-14.648,-18.555,-29.785,-43.457,0.000
1728615301.104,-2.930,-20.020,-29.297,-31.250,0.000
1728615301.108,-35.156,-23.926,-25.879,-27.344,0.000
1728615301.112,-36.133,-27.832,-27.344,-21.484,0.000
1728615301.116,-31.250,-28.320,-33.203,-31.250,0.000
1728615301.120,-22.949,-26.367,-38.086,-46.875,0.000
1728615301.124,-18.066,-24.414,-34.180,-46.387,0.000
1728615301.128,-50.781,-22.461,-33.203,-39.062,0.000
1728615301.131,-42.969,-27.344,-35.645,-5.859,0.000
1728615301.135,0.000,-22.949,-28.809,-19.531,0.000
1728615301.139,0.000,-15.137,-17.578,-55.176,0.000
1728615301.143,0.000,-21.973,-21.973,-62.012,0.000
1728615301.147,0.000,-37.598,-37.598,-52.246,0.000
1728615301.151,0.000,-41.504,-40.039,-22.461,0.000
1728615301.155,0.000,-36.621,-37.109,-23.926,0.000
1728615301.159,0.000,-36.621,-40.527,-49.805,0.000
1728615301.163,0.000,-42.480,-41.992,-52.734,0.000
1728615301.167,0.000,-37.598,-36.621,-41.016,0.000
1728615301.171,0.000,-22.949,-27.344,-9.277,0.000
1728615301.175,0.000,-22.461,-26.367,-10.254,0.000
1728615301.178,0.000,-22.461,-37.109,-55.664,0.000
1728615301.182,-21.973,-29.297,-41.992,-58.105,0.000
1728615301.186,-56.641,-52.246,-45.410,-47.363,0.000
1728615301.190,-55.664,-51.270,-48.340,-21.973,0.000
1728615301.194,-36.621,-34.180,-44.922,-16.113,0.000
1728615301.198,-38.574,-40.039,-38.574,-54.199,0.000
1728615301.202,-13.672,-44.434,-34.668,-66.406,0.000
1728615301.206,-29.785,-30.273,-32.227,-45.410,0.000
1728615301.210,-40.527,-26.367,-34.180,-8.789,0.000
1728615301.214,-30.762,-28.320,-39.062,1.953,0.000
1728615301.217,-27.832,-34.668,-42.480,-43.457,0.000
1728615301.221,-3.906,-36.133,-43.457,-64.941,0.000
1728615301.225,-30.273,-36.133,-41.504,-51.270,0.000
1728615301.229,0.000,-32.227,-39.551,-26.367,0.000
1728615301.233,0.000,-34.180,-34.180,-3.418,0.000
1728615301.237,0.000,-47.852,-35.645,-33.691,0.000
1728615301.241,0.000,-39.551,-30.273,-57.129,0.000
1728615301.245,0.000,-34.668,-20.996,-49.805,0.000
1728615301.249,0.000,-41.016,-26.855,-29.297,0.000
1728615301.253,0.000,-41.016,-33.203,-3.906,0.000
1728615301.256,0.000,-38.086,-31.738,-33.691,0.000
1728615301.260,0.000,-35.156,-22.949,-62.500,0.000
1728615301.264,0.000,-39.551,-21.973,-59.570,0.000
1728615301.268,0.000,-41.504,-34.180,-45.410,0.000
1728615301.272,0.000,-41.504,-34.668,-7.324,0.000
1728615301.276,-45.898,-49.805,-32.227,-23.926,0.000
1728615301.280,-22.461,-47.363,-30.762,-54.199,0.000
1728615301.284,-23.438,-35.645,-29.297,-44.922,0.000
1728615301.288,-59.082,-32.227,-40.039,-33.691,0.000
1728615301.292,-42.480,-31.738,-41.992,-6.348,0.000
1728615301.295,-41.504,-36.133,-34.180,-19.531,0.000
1728615301.299,-45.898,-38.574,-38.086,-62.988,0.000
1728615301.303,-30.273,-35.156,-41.992,-64.941,0.000
1728615301.307,-63.965,-32.715,-39.551,-37.109,0.000
1728615301.311,-53.223,-32.715,-41.016,-0.977,0.000
1728615301.315,-26.367,-37.109,-40.527,-11.230,0.000
1728615301.319,-34.668,-41.504,-37.109,-57.129,0.000
1728615301.323,-30.762,-36.133,-42.480,-61.523,0.000
1728615301.326,-57.129,-35.156,-45.410,-38.086,0.000
1728615301.330,-53.711,-46.875,-36.133,-7.812,0.000
1728615301.334,-37.109,-50.293,-37.598,-15.137,0.000
1728615301.338,-27.832,-48.828,-40.039,-53.223,0.000
1728615301.342,-13.184,-42.969,-32.227,-60.059,0.000
1728615301.346,-52.734,-34.668,-33.203,-45.898,0.000
1728615301.350,-46.387,-26.367,-27.832,-2.930,0.000
1728615301.354,-18.555,-25.391,-20.020,2.930,0.000
1728615301.358,-6.836,-33.691,-19.531,-28.809,0.000
1728615301.362,0.000,-31.250,-26.367,-45.410,0.000
1728615301.365,-47.363,-35.156,-39.062,-59.570,0.000
1728615301.370,-51.758,-42.480,-42.480,-38.086,0.000
1728615301.374,-27.344,-39.551,-41.016,-25.391,0.000
1728615301.377,-30.273,-25.879,-37.598,-50.781,0.000
1728615301.381,-14.648,-24.414,-34.668,-64.453,0.000
1728615301.385,-37.109,-49.805,-37.598,-64.453,0.000
1728615301.389,-60.547,-52.734,-37.109,-40.039,0.000
1728615301.393,-36.133,-33.203,-32.715,-12.207,0.000
1728615301.397,-30.762,-34.668,-33.691,-28.320,0.000
1728615301.401,-7.324,-50.781,-31.738,-49.805,0.000
1728615301.405,-33.203,-44.434,-33.691,-62.500,0.000
1728615301.409,-65.918,-25.879,-43.945,-43.457,0.000
1728615301.413,-39.551,-31.250,-40.527,-11.230,0.000
1728615301.417,-41.992,-39.062,-33.203,-35.645,0.000
1728615301.421,-26.855,-38.574,-39.062,-59.570,0.000
1728615301.425,-28.320,-46.875,-41.504,-62.012,0.000
1728615301.429,-61.035,-30.273,-33.691,-42.480,0.000
1728615301.432,-46.387,-15.625,-27.344,0.000,0.000
1728615301.436,-45.898,-32.227,-30.273,-20.508,0.000
1728615301.440,-32.227,-31.250,-36.133,-59.082,0.000
1728615301.444,-25.391,-25.879,-39.551,-60.547,0.000
1728615301.448,-55.176,-42.969,-40.527,-43.945,0.000
1728615301.452,-42.480,-43.945,-39.551,-10.742,0.000
1728615301.456,-35.156,-32.715,-44.434,-24.414,0.000
1728615301.460,-20.508,-40.039,-54.199,-56.641,0.000
1728615301.464,-22.461,-39.062,-44.922,-62.012,0.000
1728615301.468,-60.059,-33.203,-30.273,-45.410,0.000
1728615301.472,-32.227,-37.598,-27.344,4.395,0.000
1728615301.476,-14.160,-37.598,-27.832,-3.418,0.000
1728615301.479,-20.020,-34.180,-35.645,-50.293,0.000
1728615301.483,-12.207,-34.180,-43.945,-49.805,0.000
1728615301.487,-37.598,-21.973,-40.527,-38.574,0.000
1728615301.491,-27.832,-16.602,-40.527,-18.066,0.000
1728615301.495,-21.973,-24.414,-48.340,-13.184,0.000
1728615301.499,-42.969,-42.480,-50.293,-52.246,0.000
1728615301.503,-27.832,-54.199,-39.062,-63.965,0.000
1728615301.507,-39.551,-1.953,-26.367,-48.828,0.000
1728615301.511,-33.203,-7.812,-32.227,-12.695,0.000
1728615301.515,-28.809,18.066,-41.992,-6.348,0.000
1728615301.519,-58.594,65.918,-42.969,-60.059,0.000
1728615301.522,-20.020,-3.418,-29.297,-49.316,0.000
1728615301.526,-47.363,4.395,-36.621,-48.828,0.000
1728615301.530,-66.406,-11.230,-34.180,-36.621,0.000
1728615301.534,10.254,-81.055,-1.465,28.320,0.000
1728615301.538,22.461,-105.957,12.695,17.090,0.000
1728615301.542,-25.391,-58.105,-14.160,-50.293,0.000
1728615301.546,-97.656,63.477,-52.734,-86.426,0.000
1728615301.550,-61.523,-31.738,-29.785,-13.184,0.000
1728615301.554,7.812,-109.863,-3.418,44.434,0.000
1728615301.558,-4.395,-9.277,-14.648,-8.301,0.000
1728615301.562,-7.812,-21.484,-23.438,-41.016,0.000
1728615301.565,-22.461,-82.031,-28.809,-43.457,0.000
1728615301.569,-52.734,-23.926,-35.156,-28.320,0.000
1728615301.573,-38.086,-76.660,-31.250,1.953,0.000
1728615301.577,-43.945,-56.152,-39.551,-31.250,0.000
1728615301.581,-35.156,25.879,-50.293,-65.430,0.000
1728615301.585,-2.930,-77.637,-35.156,-43.945,0.000
1728615301.589,-27.832,-49.316,-31.250,-22.949,0.000
1728615301.593,-27.344,40.527,-41.016,0.977,0.000
1728615301.597,-24.414,80.078,-53.223,-35.156,0.000
1728615301.601,-18.555,41.016,-59.082,-70.801,0.000
1728615301.604,0.000,-3.906,-60.059,-57.129,0.000
1728615301.608,0.000,6.348,-53.711,-35.645,0.000
1728615301.612,0.000,-46.875,-48.828,-12.695,0.000
1728615301.616,0.000,-123.535,-58.105,-26.855,0.000
1728615301.620,0.000,-152.832,-55.664,-49.316,0.000
1728615301.624,0.000,-205.078,-54.199,-60.059,0.000
1728615301.628,0.000,-288.086,-59.570,-60.059,0.000
1728615301.632,0.000,-366.699,-56.152,-19.043,0.000
1728615301.636,0.000,-413.574,-53.223,-15.137,0.000
1728615301.640,0.000,-411.133,-52.246,-48.828,0.000
1728615301.643,0.000,-421.387,-48.828,-54.688,0.000
1728615301.647,0.000,-428.223,-41.504,-34.180,0.000
1728615301.651,-46.875,-427.734,-41.992,-4.395,0.000
1728615301.655,-25.879,-440.918,-42.969,-3.418,0.000
1728615301.659,-35.645,-445.801,-31.250,-32.227,0.000
1728615301.663,-23.438,-455.078,-19.531,-39.062,0.000
1728615301.667,-41.504,-468.750,-17.578,-31.250,0.000
1728615301.671,-54.688,-454.102,-28.809,-6.836,0.000
1728615301.675,-37.109,-444.824,-35.645,-7.324,0.000
1728615301.678,-31.738,-453.613,-35.645,-46.875,0.000
1728615301.682,-11.719,-446.289,-31.250,-49.805,0.000
1728615301.686,-43.457,-421.387,-29.297,-42.480,0.000
1728615301.690,-55.664,-388.672,-23.438,-13.672,0.000
1728615301.694,-37.109,-356.934,-23.438,2.441,0.000
1728615301.698,-44.922,-321.289,-29.297,-31.738,0.000
1728615301.702,-25.391,-263.184,-31.250,-58.105,0.000
1728615301.706,-49.316,-192.871,-30.762,-56.152,0.000
1728615301.709,-58.594,-127.930,-21.973,-17.090,0.000
1728615301.713,-31.250,-107.422,-24.414,-7.324,0.000
1728615301.717,-32.715,-103.516,-26.855,-44.922,0.000
1728615301.721,-21.484,-64.941,-14.648,-60.547,0.000
1728615301.725,-41.016,-27.344,-13.184,-51.758,0.000
1728615301.729,-62.500,-10.254,-22.461,-17.578,0.000
1728615301.733,-42.480,10.742,-30.762,-6.836,0.000
1728615301.737,-40.039,37.109,-35.645,-45.410,0.000
1728615301.741,-16.113,59.082,-33.203,-61.523,0.000
1728615301.745,-20.996,69.336,-34.180,-57.617,0.000
1728615301.749,-48.828,69.824,-41.992,-43.945,0.000
1728615301.753,-7.324,73.242,-31.250,0.977,0.000
1728615301.757,-7.812,84.473,-26.855,-13.184,0.000
1728615301.761,-20.508,96.191,-36.621,-56.641,0.000
1728615301.764,-20.996,97.168,-31.250,-47.363,0.000
1728615301.768,-48.828,88.379,-32.715,-30.762,0.000
1728615301.772,-41.992,90.820,-39.551,-8.789,0.000
1728615301.776,-35.156,92.285,-37.598,-16.113,0.000
1728615301.780,-18.066,93.262,-30.762,-34.180,0.000
1728615301.784,-16.602,95.703,-29.297,-37.598,0.000
1728615301.788,-47.852,90.820,-30.762,-34.668,0.000
1728615301.792,-33.691,92.773,-29.297,-5.371,0.000
1728615301.796,-30.273,93.262,-24.902,-18.066,0.000
1728615301.800,-29.297,90.820,-33.203,-55.176,0.000
1728615301.804,-32.227,87.402,-36.133,-55.664,0.000
1728615301.808,-72.266,83.984,-25.391,-42.480,0.000
1728615301.812,-59.082,82.031,-23.438,-8.789,0.000
1728615301.815,-38.086,89.355,-22.461,-2.441,0.000
1728615301.819,-34.180,89.355,-18.066,-41.016,0.000
1728615301.823,-28.320,73.242,-20.020,-50.293,0.000
1728615301.827,-63.477,79.102,-23.438,-35.156,0.000
1728615301.831,-54.688,92.285,-22.949,-1.465,0.000
1728615301.835,-35.645,75.684,-29.297,-6.348,0.000
1728615301.839,-30.762,78.125,-26.367,-40.527,0.000
1728615301.843,-3.418,85.938,-26.855,-46.875,0.000
1728615301.847,-30.273,77.148,-33.691,-50.293,0.000
1728615301.851,-41.992,77.637,-33.691,-20.508,0.000
1728615301.855,-20.996,68.848,-34.180,-13.672,0.000
1728615301.858,-24.902,63.477,-36.133,-42.969,0.000
1728615301.862,-14.160,67.383,-37.109,-58.105,0.000
1728615301.866,-36.133,62.012,-34.668,-64.941,0.000
1728615301.870,-58.594,46.875,-35.645,-39.551,0.000
1728615301.874,-44.922,52.246,-40.039,-17.090,0.000
1728615301.878,-40.039,52.734,-42.480,-39.551,0.000
1728615301.882,-25.879,38.574,-43.945,-62.988,0.000
1728615301.886,-51.758,43.457,-48.340,-63.477,0.000
1728615301.890,-73.242,35.645,-51.758,-52.734,0.000
1728615301.894,-41.504,26.855,-42.969,-30.762,0.000
1728615301.898,-48.828,36.133,-35.645,-45.898,0.000
1728615301.902,-48.828,31.738,-38.086,-69.824,0.000
1728615301.905,-54.199,33.691,-37.109,-62.988,0.000
1728615301.909,-79.590,32.715,-36.621,-40.527,0.000
1728615301.913,-51.270,22.461,-42.969,-8.301,0.000
1728615301.917,-44.434,15.137,-49.316,-28.320,0.000
1728615301.921,-32.227,7.324,-53.711,-65.918,0.000
1728615301.925,-18.066,0.977,-48.828,-59.082,0.000
1728615301.929,-36.621,10.742,-33.203,-31.250,0.000
1728615301.933,-28.809,21.973,-31.738,-10.742,0.000
1728615301.937,-36.133,20.996,-45.898,-30.273,0.000
1728615301.941,-30.273,18.066,-47.363,-52.734,0.000
1728615301.944,-22.949,22.461,-41.992,-52.734,0.000
1728615301.948,-52.246,15.137,-44.922,-35.156,0.000
1728615301.952,-36.133,10.742,-44.434,-1.465,0.000
1728615301.956,-23.438,5.859,-44.434,-18.066,0.000
1728615301.960,-22.461,0.000,-39.551,-50.781,0.000
1728615301.964,-14.648,9.277,-31.738,-50.781,0.000
1728615301.968,-35.645,14.648,-26.855,-38.574,0.000
1728615301.972,-31.738,9.277,-27.344,-7.324,0.000
1728615301.976,-35.156,9.277,-32.715,-15.137,0.000
1728615301.980,-39.062,9.766,-35.645,-63.965,0.000
1728615301.983,-37.109,-2.441,-44.434,-87.891,0.000
1728615301.987,-69.336,-2.441,-49.316,-71.289,0.000
1728615301.991,-66.406,11.230,-43.945,-28.320,0.000
1728615301.995,-52.734,8.301,-42.969,-23.926,0.000
1728615301.999,-41.992,8.789,-45.410,-60.059,0.000
1728615302.003,-21.973,6.836,-41.992,-68.359,0.000
1728615302.007,-62.500,0.488,-37.109,-64.941,0.000
1728615302.011,-73.242,0.488,-36.133,-47.363,0.000
1728615302.015,-46.387,-8.789,-37.598,-30.762,0.000
1728615302.019,-46.387,8.789,-44.434,-58.105,0.000
1728615302.022,-27.344,19.043,-44.434,-71.777,0.000
1728615302.026,-51.758,9.766,-41.016,-57.129,0.000
1728615302.030,-63.965,7.324,-43.945,-30.762,0.000
1728615302.034,-27.344,0.000,-44.434,-11.719,0.000
1728615302.038,-17.090,-1.465,-40.039,-41.992,0.000
1728615302.042,-6.836,6.348,-39.062,-59.570,0.000
1728615302.046,-41.992,2.930,-44.434,-51.270,0.000
1728615302.050,-64.453,-0.488,-39.551,-30.273,0.000
1728615302.054,-32.227,8.789,-35.156,-8.301,0.000
1728615302.057,-34.668,2.441,-34.668,-36.133,0.000
1728615302.061,-22.461,-5.371,-33.691,-62.012,0.000
1728615302.065,-34.668,-7.324,-35.645,-63.477,0.000
1728615302.069,-62.988,-14.160,-42.480,-40.527,0.000
1728615302.073,-26.855,-6.348,-41.504,-12.695,0.000
1728615302.077,-32.227,-4.883,-37.598,-32.715,0.000
1728615302.081,-31.738,-15.137,-35.645,-55.176,0.000
1728615302.085,-30.273,-20.020,-38.574,-52.246,0.000
1728615302.088,-64.941,-28.809,-43.457,-30.273,0.000
1728615302.092,-38.574,-37.598,-39.551,1.465,0.000
1728615302.096,-22.461,-18.066,-30.273,-25.879,0.000
1728615302.100,-26.367,-6.348,-28.320,-56.152,0.000
1728615302.104,-21.973,-15.137,-30.273,-57.129,0.000
1728615302.108,-46.387,-20.020,-28.320,-39.551,0.000
1728615302.112,-29.785,-30.273,-27.832,-12.695,0.000
1728615302.116,-19.043,-34.180,-32.715,-25.391,0.000
1728615302.120,-26.367,-28.320,-33.691,-44.922,0.000
1728615302.124,-12.695,-32.715,-28.809,-47.363,0.000
1728615302.128,-46.875,-30.762,-25.879,-27.832,0.000
1728615302.132,-45.898,-21.484,-24.902,2.441,0.000
1728615302.136,-27.344,-30.762,-24.902,-6.348,0.000
1728615302.140,-24.414,-41.992,-32.227,-42.480,0.000
1728615302.143,-23.438,-45.898,-38.574,-59.082,0.000
1728615302.147,-53.711,-40.527,-41.016,-49.805,0.000
1728615302.151,-39.062,-36.133,-38.574,-4.883,0.000
1728615302.155,-27.832,-35.645,-37.109,-3.418,0.000
1728615302.159,-39.551,-33.691,-43.457,-46.387,0.000
1728615302.163,-22.461,-27.832,-47.852,-62.988,0.000
1728615302.167,-47.852,-27.832,-41.992,-60.059,0.000
1728615302.171,-51.758,-34.668,-44.922,-25.391,0.000
1728615302.175,-25.879,-43.457,-50.293,-12.207,0.000
1728615302.179,-22.461,-55.664,-44.434,-42.969,0.000
1728615302.183,-7.324,-47.852,-43.457,-52.246,0.000
1728615302.187,-44.434,-40.527,-42.480,-52.734,0.000
1728615302.191,-66.406,-44.922,-37.109,-23.926,0.000
1728615302.194,-47.363,-41.504,-39.062,0.977,0.000
1728615302.198,-42.969,-36.621,-36.133,-26.855,0.000
1728615302.202,-29.297,-37.598,-32.227,-47.852,0.000
1728615302.206,-45.410,-48.340,-34.180,-53.223,0.000
1728615302.210,-58.105,-56.152,-30.762,-24.414,0.000
1728615302.214,-25.879,-49.316,-26.855,-2.930,0.000
1728615302.218,-17.090,-42.480,-24.414,-27.344,0.000
1728615302.222,-8.301,-32.227,-29.297,-51.270,0.000
1728615302.226,-29.785,-25.879,-37.109,-50.781,0.000
1728615302.230,-53.711,-28.320,-30.762,-20.020,0.000
1728615302.234,-27.344,-28.809,-24.902,10.742,0.000
1728615302.238,-32.227,-32.715,-26.855,-21.973,0.000
1728615302.241,-23.438,-44.434,-29.297,-59.570,0.000
1728615302.245,-17.090,-36.621,-30.273,-62.500,0.000
1728615302.249,-46.875,-26.367,-23.438,-45.410,0.000
1728615302.253,-22.461,-38.574,-20.508,-14.160,0.000
1728615302.257,-14.648,-41.016,-27.344,-22.949,0.000
1728615302.261,-23.438,-38.574,-31.250,-49.805,0.000
1728615302.265,-21.973,-39.551,-25.879,-56.641,0.000
1728615302.269,-53.711,-34.668,-32.227,-40.039,0.000
1728615302.273,-51.270,-39.062,-42.969,-11.719,0.000
1728615302.277,-47.363,-44.922,-37.598,-30.273,0.000
1728615302.281,-37.598,-44.922,-25.879,-69.336,0.000
1728615302.284,-28.809,-38.574,-22.949,-71.289,0.000
1728615302.288,-49.805,-32.715,-29.297,-41.992,0.000
1728615302.292,-40.527,-33.691,-34.180,-8.789,0.000
1728615302.296,-35.645,-37.598,-37.109,-20.508,0.000
1728615302.300,-39.062,-37.598,-38.086,-60.059,0.000
1728615302.304,-25.391,-33.203,-35.156,-69.824,0.000
1728615302.308,-51.758,-34.668,-32.227,-56.152,0.000
1728615302.312,-47.852,-34.668,-35.645,-24.902,0.000
1728615302.316,-33.203,-46.387,-43.457,-11.719,0.000
1728615302.320,-33.203,-47.852,-42.480,-44.922,0.000
1728615302.324,-3.418,-22.949,-39.551,-49.316,0.000
1728615302.327,-37.109,-24.902,-41.504,-37.598,0.000
1728615302.331,-50.781,-39.062,-35.645,-3.418,0.000
1728615302.335,-31.738,-46.387,-35.645,13.672,0.000
1728615302.339,-35.645,-37.598,-34.180,-20.020,0.000
1728615302.343,-6.836,-39.551,-32.227,-41.504,0.000
1728615302.347,-34.180,-52.246,-38.574,-46.387,0.000
1728615302.351,-48.340,-36.133,-32.715,-15.625,0.000
1728615302.355,0.000,-30.273,-31.738,2.441,0.000
1728615302.359,0.000,-39.551,-36.133,-30.273,0.000
1728615302.363,0.000,-33.203,-29.297,-52.246,0.000
1728615302.366,0.000,-23.438,-27.832,-52.734,0.000
1728615302.370,0.000,-27.344,-26.855,-21.484,0.000
1728615302.374,0.000,-32.715,-25.391,-1.953,0.000
1728615302.378,0.000,-26.367,-27.832,-22.461,0.000
1728615302.382,0.000,-30.762,-25.391,-40.039,0.000
1728615302.386,0.000,-40.039,-27.832,-56.152,0.000
1728615302.390,0.000,-33.691,-40.527,-35.156,0.000
1728615302.394,0.000,-26.367,-41.504,-4.395,0.000
1728615302.398,0.000,-25.391,-29.785,-24.902,0.000
1728615302.401,-27.832,-31.250,-28.320,-55.664,0.000
1728615302.405,-41.504,-41.016,-34.668,-61.523,0.000
1728615302.409,-74.707,-49.805,-38.086,-44.434,0.000
1728615302.413,-50.781,-54.199,-39.062,-15.137,0.000
1728615302.417,-36.133,-43.945,-36.133,-28.320,0.000
1728615302.421,-24.414,-45.898,-32.227,-60.547,0.000
1728615302.425,-24.902,-52.246,-26.855,-59.082,0.000
1728615302.429,-52.246,-41.016,-32.227,-33.203,0.000
1728615302.433,-43.457,-44.922,-40.039,6.348,0.000
1728615302.437,-39.551,-43.945,-36.621,-15.625,0.000
1728615302.440,-31.250,-30.273,-35.156,-71.289,0.000
1728615302.444,-28.809,-36.621,-43.457,-85.938,0.000
1728615302.448,-72.266,-47.852,-44.434,-64.941,0.000
1728615302.452,-62.500,-43.945,-40.039,-12.207,0.000
1728615302.456,-31.250,-37.598,-37.598,-8.301,0.000
1728615302.460,-39.062,-36.621,-41.992,-51.270,0.000
1728615302.464,-29.297,-35.645,-44.434,-60.547,0.000
1728615302.468,-62.012,-44.922,-39.062,-48.340,0.000
1728615302.471,-63.477,-53.223,-41.992,-24.414,0.000
1728615302.475,-38.086,-48.340,-44.434,-16.113,0.000
1728615302.479,-35.645,-36.133,-42.480,-51.270,0.000
1728615302.483,-4.883,-30.273,-34.180,-57.617,0.000
1728615302.487,-37.598,-32.227,-34.668,-46.387,0.000
1728615302.491,-55.664,-34.668,-44.922,-26.855,0.000
1728615302.495,-38.574,-38.574,-48.828,-23.438,0.000
1728615302.499,-37.109,-33.203,-43.457,-56.152,0.000
1728615302.503,-10.254,-39.062,-36.621,-68.359,0.000
1728615302.507,-36.621,-36.621,-38.086,-58.594,0.000
1728615302.511,-49.805,-17.090,-39.062,-18.555,0.000
1728615302.515,-25.391,-31.738,-38.086,-1.953,0.000
1728615302.519,-27.832,-44.434,-36.621,-46.387,0.000
1728615302.523,-4.883,-33.691,-35.156,-66.406,0.000
1728615302.526,-11.719,-20.508,-27.832,-47.852,0.000
1728615302.530,-37.598,-15.137,-28.809,-18.066,0.000
1728615302.534,-28.809,-24.414,-33.203,-18.555,0.000
1728615302.538,-36.621,-34.180,-32.227,-54.688,0.000
1728615302.542,-22.949,-42.969,-39.062,-73.242,0.000
1728615302.546,-38.574,-42.969,-47.852,-79.590,0.000
1728615302.550,-65.918,-30.762,-39.062,-44.922,0.000
1728615302.554,-38.574,-29.297,-34.668,-8.301,0.000
1728615302.558,-31.738,-26.855,-38.086,-41.016,0.000
1728615302.562,-25.391,-32.715,-39.062,-63.965,0.000
1728615302.566,-35.156,-41.016,-44.434,-54.199,0.000
1728615302.570,-62.500,-35.645,-41.504,-41.016,0.000
1728615302.574,-47.363,-40.527,-40.039,-16.113,0.000
1728615302.577,-50.293,-42.969,-43.457,-29.785,0.000
1728615302.581,-37.109,-42.969,-41.992,-68.359,0.000
1728615302.585,-28.320,-33.691,-36.621,-58.594,0.000
1728615302.589,-75.195,-27.344,-36.621,-39.062,0.000
1728615302.593,-59.570,-24.414,-42.480,-19.043,0.000
1728615302.597,-34.668,-32.227,-44.434,-28.809,0.000
1728615302.601,-25.879,-40.039,-36.133,-50.293,0.000
1728615302.605,-21.484,-38.574,-30.273,-52.246,0.000
1728615302.609,-53.223,-38.574,-36.621,-42.480,0.000
1728615302.613,-44.922,-21.973,-42.480,-11.719,0.000
1728615302.617,-38.574,-28.809,-42.969,-26.367,0.000
1728615302.621,-35.645,-37.598,-38.086,-59.570,0.000
1728615302.624,-21.973,-31.738,-34.668,-65.430,0.000
1728615302.628,-52.246,-32.227,-29.785,-51.758,0.000
1728615302.632,-47.852,-28.809,-26.855,-5.859,0.000
1728615302.636,-31.738,-37.109,-29.785,-3.418,0.000
1728615302.640,-31.250,-39.551,-31.250,-43.945,0.000
1728615302.644,-13.672,-31.250,-28.320,-42.969,0.000
1728615302.648,-42.480,-23.438,-28.809,-23.438,0.000
1728615302.652,-43.457,-17.090,-23.926,6.836,0.000
1728615302.656,-18.066,-23.438,-15.625,6.348,0.000
1728615302.660,-19.531,-25.391,-17.090,-27.344,0.000
1728615302.664,1.953,-20.508,-21.973,-37.109,0.000
1728615302.667,-16.602,-19.043,-27.344,-31.250,0.000
1728615302.671,-42.969,-15.625,-33.691,-11.230,0.000
1728615302.675,-30.273,-24.414,-33.691,1.465,0.000
1728615302.679,-27.832,-34.668,-32.715,-34.668,0.000
1728615302.683,-11.719,-42.969,-34.180,-49.316,0.000
1728615302.687,-38.086,-41.992,-31.250,-41.992,0.000
1728615302.691,-59.570,-38.086,-32.227,-26.855,0.000
1728615302.695,-39.551,-44.434,-39.551,-5.859,0.000
1728615302.699,-43.945,-40.039,-44.434,-41.016,0.000
1728615302.703,-29.785,-30.273,-50.781,-76.660,0.000
1728615302.706,-40.527,-35.645,-52.246,-74.219,0.000
1728615302.710,-59.082,-44.922,-37.598,-30.762,0.000
1728615302.714,-34.180,-28.809,-24.414,6.836,0.000
1728615302.718,-29.785,-22.949,-33.691,-24.414,0.000
1728615302.722,-20.020,-40.039,-44.922,-62.500,0.000
1728615302.726,-26.855,-39.551,-41.016,-59.082,0.000
1728615302.730,-55.664,-36.133,-35.156,-31.250,0.000
1728615302.734,-27.344,-27.832,-29.297,0.000,0.000
1728615302.738,-11.719,-18.066,-29.297,-16.113,0.000
1728615302.742,-10.742,-24.902,-36.621,-46.875,0.000
1728615302.745,-26.367,-31.738,-44.922,-59.570,0.000
1728615302.749,-67.383,-34.180,-51.758,-48.340,0.000
1728615302.753,-45.898,-36.133,-44.434,-3.418,0.000
1728615302.757,-27.344,-39.062,-41.504,-7.812,0.000
1728615302.761,-15.625,-36.133,-35.645,-45.898,0.000
1728615302.765,-8.301,-41.992,-27.344,-49.805,0.000
1728615302.769,-38.574,-45.410,-27.344,-36.621,0.000
1728615302.773,-25.391,-39.062,-33.203,-4.883,0.000
1728615302.777,-29.297,-38.086,-49.316,-17.090,0.000
1728615302.781,-30.762,-38.086,-49.805,-50.293,0.000
1728615302.784,-21.484,-37.598,-40.527,-54.199,0.000
1728615302.788,-66.406,-32.227,-38.086,-46.875,0.000
1728615302.792,-56.152,-30.273,-33.203,-8.789,0.000
1728615302.796,-17.578,-30.273,-30.762,6.836,0.000
1728615302.800,-22.949,-35.156,-37.598,-29.785,0.000
1728615302.804,-17.090,-30.273,-34.180,-43.457,0.000
1728615302.808,-39.551,-19.043,-32.715,-35.645,0.000
1728615302.812,-39.062,-20.508,-35.645,-4.883,0.000
1728615302.816,-7.812,-11.230,-30.273,18.066,0.000
1728615302.820,-8.789,-12.695,-31.250,-15.137,0.000
1728615302.823,0.000,-36.621,-40.527,-46.875,0.000
1728615302.827,0.000,-36.621,-42.969,-45.898,0.000
1728615302.831,0.000,-32.227,-40.527,-22.461,0.000
1728615302.835,0.000,-41.016,-32.715,-7.812,0.000
1728615302.839,0.000,-38.574,-26.367,-47.852,0.000
1728615302.843,0.000,-39.551,-37.598,-65.918,0.000
1728615302.847,0.000,-35.645,-43.945,-55.176,0.000
1728615302.851,0.000,-35.156,-44.922,-36.621,0.000
1728615302.855,0.000,-48.340,-48.340,-16.113,0.000
1728615302.858,0.000,-41.016,-42.969,-37.598,0.000
1728615302.862,0.000,-31.738,-40.527,-63.965,0.000
1728615302.866,0.000,-38.086,-46.875,-66.406,0.000
1728615302.870,-74.219,-52.734,-46.875,-41.016,0.000
1728615302.874,-50.781,-42.969,-43.945,-15.625,0.000
1728615302.878,-48.828,-27.832,-41.992,-38.574,0.000
1728615302.882,-36.133,-31.250,-40.039,-57.617,0.000
1728615302.886,-38.086,-27.832,-35.156,-50.781,0.000
1728615302.890,-67.871,-25.879,-35.156,-30.273,0.000
1728615302.894,-43.457,-26.367,-43.457,-8.789,0.000
1728615302.898,-38.086,-34.668,-41.504,-37.109,0.000
1728615302.902,-28.320,-36.621,-33.691,-64.453,0.000
1728615302.906,-24.902,-29.785,-33.203,-59.570,0.000
1728615302.909,-55.176,-28.809,-33.203,-42.480,0.000
1728615302.913,-29.785,-36.133,-32.227,-4.395,0.000
1728615302.917,-14.648,-39.551,-27.832,-12.695,0.000
1728615302.921,-12.695,-33.203,-25.391,-49.805,0.000
1728615302.925,-12.695,-30.762,-28.320,-58.105,0.000
1728615302.929,-52.246,-41.016,-27.832,-38.574,0.000
1728615302.933,-36.621,-40.039,-28.320,2.441,0.000
1728615302.937,-17.578,-42.480,-25.391,-0.977,0.000
1728615302.941,-22.949,-52.246,-20.020,-32.715,0.000
1728615302.945,-1.953,-41.992,-17.090,-43.945,0.000
1728615302.949,-37.109,-45.410,-22.461,-38.574,0.000
1728615302.953,-49.805,-45.410,-25.391,3.906,0.000
1728615302.957,-31.738,-33.691,-22.461,2.930,0.000
1728615302.960,-37.598,-41.016,-24.414,-38.574,0.000
1728615302.965,-25.879,-46.875,-23.438,-51.758,0.000
1728615302.968,-62.500,-50.781,-22.949,-41.016,0.000
1728615302.972,-68.359,-43.457,-24.902,-13.672,0.000
1728615302.976,-33.203,-33.691,-28.320,-13.184,0.000
1728615302.980,-40.527,-35.645,-31.250,-41.992,0.000
1728615302.984,-38.086,-32.227,-35.156,-49.805,0.000
1728615302.988,-59.570,-28.809,-33.691,-49.316,0.000
1728615302.992,-61.035,-35.156,-36.133,-23.926,0.000
1728615302.996,-38.086,-47.363,-40.527,-10.254,0.000
1728615303.000,-50.293,-47.852,-42.480,-50.781,0.000
1728615303.004,-29.297,-41.992,-48.340,-71.777,0.000
1728615303.007,-31.738,-43.945,-46.875,-61.523,0.000
1728615303.011,-41.504,-41.992,-40.039,-23.438,0.000
1728615303.015,-27.344,-40.039,-41.016,-2.441,0.000
1728615303.019,-33.691,-42.969,-40.039,-34.180,0.000
1728615303.023,-17.090,-51.758,-37.109,-59.570,0.000
1728615303.027,-36.621,-51.270,-40.039,-58.105,0.000
1728615303.031,-61.035,-43.945,-36.133,-23.926,0.000
1728615303.035,-34.180,-40.527,-33.203,6.836,0.000
1728615303.039,-35.645,-49.316,-47.852,-29.297,0.000
1728615303.043,-19.043,-50.781,-46.387,-49.805,0.000
1728615303.047,-41.504,-41.504,-36.621,-50.293,0.000
1728615303.050,-80.566,-35.645,-36.621,-39.551,0.000
1728615303.054,-52.734,-36.621,-29.297,-0.488,0.000
1728615303.058,-42.480,-44.434,-31.738,-15.625,0.000
1728615303.062,-26.855,-45.410,-37.109,-60.059,0.000
1728615303.066,-37.109,-46.387,-38.574,-56.152,0.000
1728615303.070,-63.477,-32.715,-40.039,-20.996,0.000
1728615303.074,-39.551,-32.227,-45.410,-1.953,0.000
1728615303.078,-34.180,-41.504,-41.504,-26.367,0.000
1728615303.082,-17.578,-29.297,-34.668,-55.664,0.000
1728615303.086,-18.555,-28.809,-36.621,-57.617,0.000
1728615303.089,-72.754,-30.273,-39.062,-62.012,0.000
1728615303.093,-62.500,-37.598,-48.340,-35.156,0.000
1728615303.097,-41.504,-47.363,-46.875,-26.855,0.000
1728615303.101,-33.691,-41.016,-40.527,-61.523,0.000
1728615303.105,-19.043,-49.316,-44.434,-71.777,0.000
1728615303.109,-52.246,-62.988,-48.828,-60.059,0.000
1728615303.113,-59.570,-48.828,-48.340,-26.855,0.000
1728615303.117,-41.504,-38.574,-41.016,-22.461,0.000
1728615303.121,-36.621,-43.945,-35.156,-51.270,0.000
1728615303.125,-28.809,-44.922,-40.039,-58.594,0.000
1728615303.128,-54.199,-51.270,-40.527,-51.758,0.000
1728615303.132,-43.457,-49.805,-31.738,-8.789,0.000
1728615303.136,-29.785,-45.898,-34.180,-5.859,0.000
1728615303.140,-43.457,-56.152,-38.086,-57.129,0.000
1728615303.144,-34.180,-54.688,-39.062,-68.359,0.000
1728615303.148,-60.059,-44.922,-41.992,-57.617,0.000
1728615303.152,-57.617,-38.574,-41.016,-23.438,0.000
1728615303.156,-28.809,-39.062,-36.133,-8.789,0.000
1728615303.160,-38.574,-48.828,-35.156,-54.199,0.000
1728615303.163,-22.461,-61.035,-39.551,-80.566,0.000
1728615303.167,-46.387,-50.781,-43.457,-63.477,0.000
1728615303.171,-66.895,-32.227,-44.922,-35.156,0.000
1728615303.175,-31.738,-31.738,-51.758,-26.367,0.000
1728615303.179,-35.645,-33.203,-47.363,-47.852,0.000
1728615303.183,-30.762,-30.762,-46.387,-67.871,0.000
1728615303.187,-41.992,-22.949,-46.875,-58.105,0.000
1728615303.191,-52.734,-18.555,-40.039,-34.668,0.000
1728615303.195,-26.367,-28.320,-44.434,-19.043,0.000
1728615303.198,-17.578,-34.668,-49.316,-37.109,0.000
1728615303.202,-8.301,-25.391,-48.340,-52.246,0.000
1728615303.206,-28.809,6.836,-43.945,-46.875,0.000
1728615303.210,-44.434,40.039,-44.922,-25.391,0.000
1728615303.214,-28.809,36.133,-51.270,-7.812,0.000
1728615303.218,-28.809,27.832,-50.781,-31.738,0.000
1728615303.222,-13.184,40.527,-40.527,-53.711,0.000
1728615303.226,-16.602,33.691,-44.922,-65.918,0.000
1728615303.230,-53.223,27.344,-43.457,-53.711,0.000
1728615303.233,-23.438,37.598,-30.762,-9.766,0.000
1728615303.237,-15.137,41.992,-29.297,-23.438,0.000
1728615303.241,-20.996,36.621,-37.109,-59.082,0.000
1728615303.245,-22.461,22.949,-39.551,-59.570,0.000
1728615303.249,-61.035,8.789,-35.645,-44.922,0.000
1728615303.253,-41.016,18.066,-30.273,-8.789,0.000
1728615303.257,-30.762,10.254,-34.180,-28.809,0.000
1728615303.261,-43.457,-9.766,-43.457,-65.430,0.000
1728615303.265,-31.250,-8.301,-37.109,-60.059,0.000
1728615303.269,-47.363,2.441,-28.320,-41.992,0.000
1728615303.273,-50.293,-6.836,-28.320,-7.324,0.000
1728615303.277,-45.898,-17.578,-34.180,-10.742,0.000
1728615303.281,-39.551,-7.324,-39.551,-48.340,0.000
1728615303.285,-32.715,-5.859,-38.574,-61.523,0.000
1728615303.288,-64.453,-15.625,-30.273,-54.688,0.000
1728615303.293,-68.359,-17.578,-26.855,-27.832,0.000
1728615303.296,-42.480,-16.113,-28.809,-16.602,0.000
1728615303.300,-32.227,-13.672,-26.855,-42.969,0.000
1728615303.304,-26.367,-15.625,-27.832,-62.988,0.000
1728615303.308,-56.641,-23.438,-30.762,-62.988,0.000
1728615303.312,-58.105,-24.902,-33.203,-33.203,0.000
1728615303.316,-30.273,-26.855,-34.668,-23.438,0.000
1728615303.320,-30.273,-29.785,-31.738,-53.711,0.000
1728615303.324,-21.973,-16.113,-34.668,-58.594,0.000
1728615303.328,-56.641,-8.301,-39.551,-57.617,0.000
1728615303.332,-64.941,-23.438,-41.992,-48.828,0.000
1728615303.336,-30.273,-27.344,-46.875,-22.949,0.000
1728615303.340,-30.273,-23.438,-48.340,-49.316,0.000
1728615303.343,-11.719,-19.531,-43.945,-67.871,0.000
1728615303.347,-25.879,-13.184,-36.133,-57.617,0.000
1728615303.351,-52.246,-9.766,-37.598,-29.785,0.000
1728615303.355,-21.973,-8.789,-52.246,-9.277,0.000
1728615303.359,-21.484,-17.090,-53.223,-45.410,0.000
1728615303.363,-18.555,-12.695,-40.527,-61.523,0.000
1728615303.367,-18.066,-10.742,-39.062,-53.223,0.000
1728615303.371,-44.434,-21.484,-42.480,-27.344,0.000
1728615303.375,-32.227,-12.207,-40.527,14.160,0.000
1728615303.379,-37.598,-17.578,-40.527,-19.043,0.000
1728615303.383,-25.879,-26.855,-34.180,-45.898,0.000
1728615303.386,-8.301,-18.555,-27.832,-38.086,0.000
1728615303.390,-35.645,-25.391,-26.855,-24.414,0.000
1728615303.394,-30.762,-37.109,-35.645,-10.254,0.000
1728615303.398,-40.039,-43.945,-41.504,-36.133,0.000
1728615303.402,-38.086,-34.668,-38.086,-54.688,0.000
1728615303.406,-17.578,-26.855,-41.992,-50.293,0.000
1728615303.410,-53.223,-30.762,-38.086,-37.109,0.000
1728615303.414,-53.223,-39.551,-31.738,-7.812,0.000
1728615303.418,-40.039,-42.969,-33.203,-12.695,0.000
1728615303.422,-36.621,-30.273,-34.668,-54.688,0.000
1728615303.426,-29.785,-34.668,-34.180,-54.199,0.000
1728615303.429,-52.734,-48.340,-39.551,-40.039,0.000
1728615303.433,-38.086,-40.039,-49.316,-18.555,0.000
1728615303.437,-22.461,-35.645,-46.875,-14.648,0.000
1728615303.441,-36.621,-49.805,-37.598,-58.594,0.000
1728615303.445,-34.668,-51.270,-30.762,-71.777,0.000
1728615303.449,-63.477,-40.039,-25.879,-49.805,0.000
1728615303.453,-69.824,-49.316,-22.949,-20.020,0.000
1728615303.457,-37.598,-54.199,-27.344,-12.207,0.000
1728615303.461,-33.691,-37.109,-36.621,-36.621,0.000
1728615303.465,-18.066,-23.438,-39.551,-53.711,0.000
1728615303.468,-43.457,-29.785,-38.574,-46.875,0.000
1728615303.472,-61.035,-29.297,-36.621,-12.207,0.000
1728615303.476,-33.203,-25.879,-39.551,-4.395,0.000
1728615303.480,-26.367,-30.762,-41.016,-37.109,0.000
1728615303.484,-12.695,-26.855,-34.668,-55.664,0.000
1728615303.488,-34.668,-26.855,-36.133,-47.363,0.000
1728615303.492,-47.852,-23.438,-42.480,-14.648,0.000
1728615303.496,-23.438,-9.277,-42.480,-5.371,0.000
1728615303.500,-14.648,-7.324,-41.016,-24.902,0.000
1728615303.504,-0.488,-14.160,-43.945,-43.945,0.000
1728615303.507,-32.227,-12.695,-39.062,-53.223,0.000
1728615303.511,-58.105,-11.719,-33.691,-24.414,0.000
1728615303.515,-20.996,-18.555,-41.992,-5.371,0.000
1728615303.519,-23.438,-18.555,-47.852,-34.180,0.000
1728615303.523,-16.602,-20.996,-46.875,-60.059,0.000
1728615303.527,-20.020,-27.832,-40.039,-43.945,0.000
1728615303.531,-50.293,-23.438,-28.320,-21.973,0.000
1728615303.535,-28.320,-20.020,-28.809,-4.395,0.000
1728615303.539,-16.602,-28.320,-28.809,-12.695,0.000
1728615303.542,-4.883,-30.273,-23.438,-37.598,0.000
1728615303.546,-13.184,-27.344,-22.949,-42.480,0.000
1728615303.550,-51.758,-33.203,-24.414,-15.625,0.000
1728615303.554,-39.551,-36.133,-28.809,7.324,0.000
1728615303.558,-36.621,-29.297,-36.133,-17.578,0.000
1728615303.562,-37.109,-28.320,-27.344,-60.059,0.000
1728615303.566,-39.551,-36.621,-19.043,-69.336,0.000
1728615303.570,-62.500,-38.086,-24.414,-42.969,0.000
1728615303.573,-47.852,-44.922,-24.414,-11.719,0.000
1728615303.577,-39.551,-49.316,-27.344,-13.672,0.000
1728615303.581,-25.391,-49.805,-28.809,-41.992,0.000
1728615303.585,-27.344,-54.199,-35.156,-64.453,0.000
1728615303.589,-66.895,-45.898,-36.133,-52.246,0.000
1728615303.593,-48.340,-37.598,-32.227,-15.625,0.000
1728615303.597,-38.574,-43.457,-36.133,-22.949,0.000
1728615303.601,-38.574,-43.457,-42.969,-57.129,0.000
1728615303.605,-8.301,-40.039,-39.062,-57.617,0.000
1728615303.609,-34.180,-42.969,-31.250,-43.945,0.000
1728615303.612,-41.504,-37.598,-28.809,-19.043,0.000
1728615303.616,-22.461,-29.785,-26.367,-3.906,0.000
1728615303.621,-32.227,-26.855,-37.598,-26.367,0.000
1728615303.624,-21.484,-20.996,-49.316,-57.617,0.000
1728615303.628,-44.922,-25.879,-41.504,-48.340,0.000
1728615303.632,-53.223,-34.180,-40.039,-10.742,0.000
1728615303.636,-25.391,-23.438,-44.922,3.906,0.000
1728615303.640,-21.973,-22.949,-42.480,-22.461,0.000
1728615303.644,6.836,-34.180,-39.551,-41.504,0.000
1728615303.648,-24.902,-32.227,-39.551,-43.945,0.000
1728615303.652,-55.176,-23.438,-40.039,-18.066,0.000
1728615303.656,-6.836,-12.207,-30.273,26.367,0.000
1728615303.660,-9.766,-10.742,-18.555,-4.883,0.000
1728615303.664,-7.324,-20.996,-26.855,-51.270,0.000
1728615303.668,-27.832,-22.461,-34.668,-47.363,0.000
1728615303.672,-50.781,-20.996,-34.668,-19.531,0.000
1728615303.675,-16.113,-23.438,-40.527,2.930,0.000
1728615303.679,-17.090,-27.832,-37.598,-15.625,0.000
1728615303.683,-16.113,-35.645,-35.156,-48.340,0.000
1728615303.687,-25.879,-42.480,-38.574,-48.340,0.000
1728615303.691,-56.152,-45.410,-30.762,-14.648,0.000
1728615303.695,-32.715,-46.387,-23.926,5.859,0.000
1728615303.699,-33.691,-49.805,-26.367,-21.484,0.000
1728615303.703,-41.016,-51.758,-35.156,-51.758,0.000
1728615303.707,-48.340,-43.457,-36.133,-52.246,0.000
1728615303.711,-72.754,-36.133,-32.227,-34.180,0.000
1728615303.715,-51.758,-41.016,-35.645,-8.789,0.000
1728615303.719,-50.293,-54.199,-41.992,-22.461,0.000
1728615303.722,-48.340,-58.105,-42.969,-51.758,0.000
1728615303.726,-41.992,-58.105,-41.504,-62.988,0.000
1728615303.730,-63.477,-49.805,-40.039,-55.664,0.000
1728615303.734,-52.246,-53.223,-45.898,-13.184,0.000
1728615303.738,-41.992,-55.664,-40.039,-14.648,0.000
1728615303.742,-34.180,-42.480,-27.832,-47.852,0.000
1728615303.746,-26.367,-45.410,-33.203,-58.105,0.000
1728615303.750,-62.988,-57.129,-39.551,-48.828,0.000
1728615303.754,-55.664,-51.758,-42.969,-20.508,0.000
1728615303.758,-28.320,-47.852,-42.480,-20.508,0.000
1728615303.762,-20.996,-49.805,-40.039,-58.105,0.000
1728615303.765,-19.043,-39.062,-36.133,-65.430,0.000
1728615303.769,-64.453,-33.203,-40.527,-62.500,0.000
1728615303.773,-62.012,-32.715,-41.504,-45.898,0.000
1728615303.777,-24.902,-32.715,-35.156,-20.996,0.000
1728615303.781,-21.484,-30.273,-34.668,-40.527,0.000
1728615303.785,-19.531,-30.273,-36.133,-57.129,0.000
1728615303.789,-52.246,-35.156,-39.551,-50.293,0.000
1728615303.793,-51.270,-32.227,-40.039,-13.672,0.000
1728615303.797,-23.438,-23.438,-39.062,-0.488,0.000
1728615303.801,-17.090,-18.555,-42.480,-34.180,0.000
1728615303.805,1.465,-10.254,-44.434,-56.641,0.000
1728615303.808,-37.109,-18.555,-42.969,-52.734,0.000
1728615303.812,-53.711,-25.879,-42.969,-19.043,0.000
1728615303.816,-21.484,-12.207,-33.691,-6.348,0.000
1728615303.820,-16.113,-7.324,-22.949,-31.250,0.000
1728615303.824,-6.348,-16.113,-28.809,-49.805,0.000
1728615303.828,-31.738,-23.438,-33.203,-51.758,0.000
1728615303.832,-46.387,-29.785,-32.715,-28.320,0.000
1728615303.836,-12.695,-37.598,-34.180,-1.465,0.000
1728615303.840,-31.738,-43.945,-36.621,-32.227,0.000
1728615303.844,-37.109,-59.082,-43.945,-62.988,0.000
1728615303.847,-44.922,-66.895,-46.387,-61.523,0.000
1728615303.851,-72.266,-55.176,-37.109,-38.574,0.000
1728615303.855,-36.133,-42.969,-33.691,-4.395,0.000
1728615303.859,-35.156,-57.129,-41.504,-31.738,0.000
1728615303.863,-46.387,-73.242,-41.504,-60.059,0.000
1728615303.867,-49.316,-61.523,-44.922,-57.129,0.000
1728615303.871,-79.590,-50.781,-44.922,-44.434,0.000
1728615303.875,-58.594,-62.012,-37.109,-8.301,0.000
1728615303.879,-44.922,-68.359,-37.109,-14.160,0.000
1728615303.883,-36.133,-64.941,-33.203,-57.617,0.000
1728615303.886,-24.902,-55.176,-34.668,-67.383,0.000
1728615303.890,-60.547,-54.199,-37.598,-42.480,0.000
1728615303.894,-53.711,-60.547,-39.062,-10.254,0.000
1728615303.898,-40.039,-55.664,-41.992,-23.438,0.000
1728615303.902,-26.855,-48.828,-41.992,-57.129,0.000
1728615303.906,-18.066,-58.594,-44.434,-62.012,0.000
1728615303.910,-58.594,-56.152,-41.504,-49.316,0.000
1728615303.914,-48.828,-44.922,-39.062,-6.836,0.000
1728615303.917,-37.109,-49.316,-43.945,-3.418,0.000
1728615303.921,-38.574,-50.781,-50.781,-52.246,0.000
1728615303.925,-13.672,-54.199,-44.434,-61.035,0.000
1728615303.929,-53.711,-53.711,-37.598,-41.992,0.000
1728615303.933,-55.664,-45.898,-39.551,-18.066,0.000
1728615303.937,-6.836,-40.527,-38.086,-12.207,0.000
1728615303.941,7.324,-40.039,-32.715,-39.551,0.000
1728615303.945,-1.465,-48.340,-39.062,-62.500,0.000
1728615303.949,-53.711,-47.363,-51.758,-65.918,0.000
1728615303.952,-54.199,-32.715,-48.828,-31.250,0.000
1728615303.956,-17.578,-25.879,-39.551,-4.395,0.000
1728615303.960,-21.484,-37.598,-41.504,-51.270,0.000
1728615303.964,-12.207,-39.062,-43.945,-73.730,0.000
1728615303.968,-29.785,-37.109,-43.457,-54.199,0.000
1728615303.972,-48.828,-44.434,-39.062,-20.020,0.000
1728615303.976,-26.855,-45.898,-29.785,-1.953,0.000
1728615303.980,-22.949,-53.223,-32.715,-44.434,0.000
1728615303.984,-3.906,-45.410,-33.203,-67.383,0.000
1728615303.988,-21.484,-29.785,-18.555,-56.152,0.000
1728615303.991,-51.270,-32.715,-24.902,-28.809,0.000
1728615303.996,-33.203,-36.621,-38.574,-5.859,0.000
1728615304.000,-41.016,-35.156,-37.598,-46.387,0.000
1728615304.003,-28.809,-34.180,-35.156,-77.148,0.000
1728615304.007,-28.320,-48.828,-36.621,-67.383,0.000
1728615304.011,-58.105,-50.293,-30.273,-46.387,0.000
1728615304.015,-42.480,-45.898,-23.438,-12.207,0.000
1728615304.019,-39.062,-49.805,-25.879,-23.926,0.000
1728615304.023,-34.180,-32.715,-23.438,-53.711,0.000
1728615304.027,-35.156,-38.574,-26.855,-51.758,0.000
1728615304.031,-59.570,-51.758,-34.668,-33.203,0.000
1728615304.035,-41.504,-42.480,-42.969,-12.695,0.000
1728615304.039,-35.156,-44.922,-48.828,-31.738,0.000
1728615304.043,-25.879,-57.617,-45.410,-61.035,0.000
1728615304.047,-25.879,-57.617,-46.387,-58.594,0.000
1728615304.051,-62.012,-39.551,-43.945,-38.086,0.000
1728615304.054,-39.062,-32.715,-43.457,0.000,0.000
1728615304.058,-23.438,-52.734,-41.992,-7.324,0.000
1728615304.062,-21.484,-59.082,-39.062,-45.410,0.000
1728615304.066,-21.973,-44.922,-38.086,-46.875,0.000
1728615304.070,-49.316,-34.180,-30.273,-19.531,0.000
1728615304.074,-20.996,-26.855,-23.438,2.441,0.000
1728615304.078,-6.836,-35.156,-33.203,-22.461,0.000
1728615304.082,-11.230,-39.551,-41.016,-64.453,0.000
1728615304.086,-6.348,-40.527,-40.527,-72.266,0.000
1728615304.090,-37.598,-41.992,-38.086,-51.758,0.000
1728615304.094,-35.156,-21.973,-32.227,-3.418,0.000
1728615304.098,-10.254,-20.508,-33.691,11.230,0.000
1728615304.101,-20.508,-35.645,-34.668,-26.367,0.000
1728615304.105,-16.602,-26.855,-31.738,-53.223,0.000
1728615304.109,-35.645,-26.367,-33.691,-58.105,0.000
1728615304.113,-43.945,-39.551,-33.203,-21.484,0.000
1728615304.117,-30.762,-41.016,-32.227,6.348,0.000
1728615304.121,-32.715,-34.668,-28.809,-20.020,0.000
1728615304.125,-19.043,-27.344,-25.879,-30.273,0.000
1728615304.129,-46.875,-32.227,-30.273,-35.156,0.000
1728615304.133,-52.734,-38.086,-28.809,-10.742,0.000
1728615304.137,0.000,-27.344,-24.414,9.277,0.000
1728615304.141,0.000,-23.926,-19.531,-26.367,0.000
1728615304.144,0.000,-31.250,-16.113,-40.527,0.000
1728615304.148,0.000,-30.273,-17.090,-41.504,0.000
1728615304.152,0.000,-30.273,-20.996,-35.645,0.000
1728615304.156,0.000,-29.297,-23.438,-6.348,0.000
1728615304.160,0.000,-38.086,-25.391,-22.461,0.000
1728615304.164,0.000,-47.852,-23.438,-45.410,0.000
1728615304.168,0.000,-45.898,-25.391,-49.805,0.000
1728615304.172,0.000,-45.898,-37.109,-40.039,0.000
1728615304.176,0.000,-52.246,-40.039,-9.766,0.000
1728615304.180,0.000,-53.223,-36.133,-35.645,0.000
1728615304.183,-21.484,-50.781,-38.086,-71.289,0.000
1728615304.187,-36.621,-44.434,-39.551,-58.105,0.000
1728615304.191,-64.453,-34.668,-30.273,-34.180,0.000
1728615304.195,-41.992,-39.062,-29.297,-7.812,0.000
1728615304.199,-38.086,-49.805,-42.480,-22.461,0.000
1728615304.203,-31.738,-51.270,-40.039,-58.594,0.000
1728615304.207,-22.461,-43.945,-33.691,-63.477,0.000
1728615304.211,-44.434,-47.363,-38.574,-47.363,0.000
1728615304.215,-20.508,-46.387,-33.691,-9.277,0.000
1728615304.219,-17.578,-39.062,-34.180,-20.508,0.000
1728615304.223,-22.949,-35.156,-40.527,-54.688,0.000
1728615304.226,-7.324,-32.715,-40.527,-52.734,0.000
1728615304.230,-48.828,-49.316,-39.551,-50.293,0.000
1728615304.234,-39.062,-33.691,-35.645,-13.672,0.000
1728615304.238,-8.789,-21.973,-35.156,-1.465,0.000
1728615304.242,-6.348,-51.270,-38.086,-40.527,0.000
1728615304.246,1.953,-50.781,-36.133,-47.852,0.000
1728615304.250,-41.504,-29.297,-36.621,-35.645,0.000
1728615304.254,-36.133,-25.879,-31.250,-1.465,0.000
1728615304.258,-20.508,-33.203,-32.715,-5.371,0.000
1728615304.262,-28.809,-40.039,-37.109,-54.199,0.000
1728615304.265,-2.441,-42.480,-27.832,-46.387,0.000
1728615304.269,-36.133,-41.016,-27.344,-24.902,0.000
1728615304.273,-53.223,-33.203,-27.832,-9.766,0.000
1728615304.277,-25.879,-41.016,-31.738,-5.859,0.000
1728615304.281,-24.902,-41.504,-37.109,-44.922,0.000
1728615304.285,-13.184,-36.133,-35.645,-59.082,0.000
1728615304.289,-38.574,-48.828,-31.250,-47.363,0.000
1728615304.293,-58.594,-56.641,-28.809,-30.762,0.000
1728615304.297,-35.156,-55.664,-27.344,-14.648,0.000
1728615304.300,-30.762,-55.664,-29.297,-29.785,0.000
1728615304.304,-17.578,-52.734,-33.691,-47.852,0.000
1728615304.308,-37.598,-43.457,-30.762,-56.152,0.000
