timestamps,TP9,AF7,AF8,TP10,Right AUX
1728627045.819,0.977,-7.812,-23.926,-19.531,0.000
1728627045.823,-26.367,-21.484,-28.809,-24.902,0.000
1728627045.827,-47.852,-31.250,-36.133,-28.809,0.000
1728627045.831,-42.480,-38.574,-38.574,-35.645,0.000
1728627045.835,-28.809,-27.344,-36.133,-29.297,0.000
1728627045.839,-13.672,-11.230,-31.250,-21.973,0.000
1728627045.842,-22.949,-10.742,-26.367,-17.578,0.000
1728627045.846,-55.176,-16.602,-27.832,-22.461,0.000
1728627045.850,-58.105,-19.531,-29.785,-33.691,0.000
1728627045.854,-29.297,-12.695,-23.926,-35.156,0.000
1728627045.858,-8.789,-19.531,-22.461,-23.438,0.000
1728627045.862,-16.113,-30.273,-28.809,-22.461,0.000
1728627045.866,-39.551,-31.738,-40.039,-34.668,0.000
1728627045.870,-46.387,-29.297,-35.645,-43.945,0.000
1728627045.874,-30.273,-19.531,-37.598,-55.176,0.000
1728627045.878,-5.371,-14.160,-42.969,-38.574,0.000
1728627045.882,-7.812,-17.090,-40.039,-24.414,0.000
1728627045.885,-41.016,-31.250,-47.363,-40.527,0.000
1728627045.889,-54.199,-43.457,-50.781,-48.828,0.000
1728627045.893,-29.297,-41.016,-41.504,-39.551,0.000
1728627045.897,0.977,-25.879,-22.949,-21.484,0.000
1728627045.901,-1.465,-30.273,-30.762,-24.414,0.000
1728627045.905,-37.109,-53.711,-47.363,-33.691,0.000
1728627045.909,-59.082,-45.898,-45.410,-36.621,0.000
1728627045.913,-41.016,-19.531,-32.715,-36.133,0.000
1728627045.917,-11.719,-18.066,-20.508,-32.227,0.000
1728627045.921,-9.277,-37.109,-19.531,-29.785,0.000
1728627045.924,-45.410,-49.805,-34.180,-41.504,0.000
1728627045.928,-65.918,-47.852,-41.016,-49.316,0.000
1728627045.932,-33.203,-34.668,-24.902,-34.668,0.000
1728627045.936,5.371,-24.414,-12.695,-18.555,0.000
1728627045.940,1.953,-27.344,-23.926,-10.742,0.000
1728627045.944,-38.086,-35.645,-33.203,-28.809,0.000
1728627045.948,-64.453,-44.922,-32.715,-42.969,0.000
1728627045.952,-43.945,-41.504,-33.691,-42.480,0.000
1728627045.956,-15.625,-28.809,-28.320,-39.551,0.000
1728627045.960,-12.207,-41.016,-29.785,-33.203,0.000
1728627045.963,-34.180,-49.805,-35.156,-36.133,0.000
1728627045.967,-61.035,-52.246,-45.898,-44.434,0.000
1728627045.971,-48.828,-43.945,-37.109,-47.363,0.000
1728627045.975,-21.484,-22.461,-31.250,-44.922,0.000
1728627045.979,-3.906,-17.578,-41.504,-33.203,0.000
1728627045.983,-12.695,-44.434,-49.316,-23.438,0.000
1728627045.987,-49.805,-60.547,-48.340,-37.109,0.000
1728627045.991,-61.523,-40.039,-43.945,-41.504,0.000
1728627045.995,-31.738,-28.320,-39.551,-31.250,0.000
1728627045.999,-14.160,-37.598,-36.621,-30.273,0.000
1728627046.003,-29.785,-42.480,-41.992,-29.785,0.000
1728627046.006,-54.199,-37.109,-57.617,-37.109,0.000
1728627046.010,-55.664,-27.344,-56.152,-38.574,0.000
1728627046.014,-24.902,-20.020,-35.156,-28.320,0.000
1728627046.018,-10.254,-20.508,-29.785,-28.809,0.000
1728627046.022,-32.227,-27.344,-50.293,-32.715,0.000
1728627046.026,-60.059,-41.504,-56.641,-35.645,0.000
1728627046.030,-55.176,-43.945,-41.992,-31.738,0.000
1728627046.034,-25.879,-19.043,-31.738,-27.344,0.000
1728627046.038,-3.418,-14.648,-36.133,-23.438,0.000
1728627046.042,-5.859,-31.250,-45.410,-19.531,0.000
1728627046.045,-41.504,-36.133,-46.387,-21.973,0.000
1728627046.049,-51.758,-26.367,-43.457,-28.809,0.000
1728627046.053,-14.648,-20.996,-31.250,-20.996,0.000
1728627046.057,5.371,-23.438,-32.715,-13.672,0.000
1728627046.061,-13.672,-20.508,-43.945,-16.602,0.000
1728627046.065,-43.945,-28.809,-52.246,-23.926,0.000
1728627046.069,-51.270,-32.227,-45.898,-31.738,0.000
1728627046.073,-12.695,-24.414,-29.785,-14.648,0.000
1728627046.077,14.160,-17.578,-23.438,-4.395,0.000
1728627046.081,-0.977,-28.320,-28.809,-7.324,0.000
1728627046.085,-12.695,-40.527,-53.711,0.977,0.000
1728627046.088,-17.578,-49.316,-51.270,-0.488,0.000
1728627046.092,-16.113,-30.762,-20.020,-9.277,0.000
1728627046.096,2.930,-28.320,-16.602,-6.836,0.000
1728627046.100,0.000,-52.246,-28.809,-8.301,0.000
1728627046.104,0.000,-57.617,-38.574,-19.531,0.000
1728627046.108,0.000,-54.199,-45.410,-35.156,0.000
1728627046.112,0.000,-50.781,-43.457,-43.457,0.000
1728627046.116,0.000,-47.363,-38.086,-38.574,0.000
1728627046.120,0.000,-50.293,-56.641,-33.203,0.000
1728627046.124,0.000,-61.035,-74.219,-38.574,0.000
1728627046.128,0.000,-66.895,-62.012,-47.852,0.000
1728627046.132,0.000,-54.199,-53.223,-44.922,0.000
1728627046.135,0.000,-43.945,-51.758,-26.855,0.000
1728627046.139,0.000,-32.715,-43.945,-23.926,0.000
1728627046.143,0.000,-38.574,-53.711,-37.598,0.000
1728627046.147,-63.965,-60.059,-66.895,-45.898,0.000
1728627046.151,-56.152,-56.152,-55.664,-45.410,0.000
1728627046.155,-15.625,-43.457,-45.898,-29.785,0.000
1728627046.159,3.906,-48.340,-57.129,-22.949,0.000
1728627046.163,-27.832,-51.270,-61.035,-23.438,0.000
1728627046.167,-44.434,-51.270,-50.293,-24.902,0.000
1728627046.171,-40.039,-47.852,-29.785,-28.320,0.000
1728627046.175,-15.137,-23.438,-15.625,-15.625,0.000
1728627046.178,1.953,-27.832,-30.273,1.953,0.000
1728627046.182,-22.461,-44.434,-41.992,-3.906,0.000
1728627046.186,-56.152,-45.898,-42.480,-26.367,0.000
1728627046.190,-40.527,-41.016,-38.086,-28.320,0.000
1728627046.194,0.000,-31.738,-34.180,-10.742,0.000
1728627046.198,0.000,-34.180,-33.203,-8.301,0.000
1728627046.202,0.000,-40.527,-39.551,-10.254,0.000
1728627046.206,0.000,-51.270,-50.293,-22.949,0.000
1728627046.210,0.000,-48.828,-53.223,-32.715,0.000
1728627046.214,0.000,-19.043,-35.645,-25.879,0.000
1728627046.218,0.000,-10.254,-29.785,-19.043,0.000
1728627046.221,0.000,-21.973,-37.109,-9.277,0.000
1728627046.225,0.000,-34.180,-40.039,-16.113,0.000
1728627046.229,0.000,-25.879,-38.574,-40.039,0.000
1728627046.233,0.000,-5.859,-28.809,-43.457,0.000
1728627046.237,0.000,-16.113,-33.691,-34.668,0.000
1728627046.241,-23.926,-49.805,-43.457,-37.109,0.000
1728627046.245,-56.152,-54.199,-43.945,-50.781,0.000
1728627046.249,-56.152,-41.992,-47.363,-55.176,0.000
1728627046.253,-24.414,-37.109,-36.133,-46.387,0.000
1728627046.257,-11.230,-31.738,-23.926,-41.016,0.000
1728627046.260,-13.672,-45.410,-35.645,-39.551,0.000
1728627046.264,-37.109,-67.383,-48.340,-41.504,0.000
1728627046.268,-69.824,-85.449,-41.504,-39.551,0.000
1728627046.272,-54.688,-65.918,-23.438,-38.574,0.000
1728627046.276,-22.461,-44.922,-12.695,-26.855,0.000
1728627046.280,-32.227,-61.035,-17.090,-20.020,0.000
1728627046.284,-61.523,-73.730,-40.039,-30.762,0.000
1728627046.288,-65.918,-76.660,-45.898,-42.969,0.000
1728627046.292,-41.992,-58.594,-24.414,-42.480,0.000
1728627046.296,-7.324,-40.039,-31.250,-31.738,0.000
1728627046.300,-11.719,-53.711,-47.852,-36.133,0.000
1728627046.303,-46.875,-74.707,-55.664,-45.410,0.000
1728627046.307,-58.594,-70.312,-53.223,-50.293,0.000
1728627046.311,-36.133,-45.410,-38.574,-47.363,0.000
1728627046.315,0.488,-49.316,-30.273,-35.645,0.000
1728627046.319,1.953,-51.270,-23.926,-36.133,0.000
1728627046.323,-21.484,-45.410,-36.621,-33.203,0.000
1728627046.327,-41.016,-43.457,-43.945,-37.109,0.000
1728627046.331,-27.832,-32.715,-28.809,-38.086,0.000
1728627046.335,-2.930,-30.762,-31.738,-25.879,0.000
1728627046.339,-6.836,-36.621,-44.922,-30.273,0.000
1728627046.342,-21.973,-36.133,-46.875,-30.762,0.000
1728627046.346,-48.828,-45.898,-42.480,-36.133,0.000
1728627046.350,-47.363,-51.270,-35.645,-42.969,0.000
1728627046.354,-16.113,-47.852,-35.156,-40.039,0.000
1728627046.358,-9.277,-51.270,-43.457,-29.297,0.000
1728627046.362,-37.598,-52.734,-39.551,-27.344,0.000
1728627046.366,-57.129,-55.176,-36.133,-40.527,0.000
1728627046.370,-51.270,-58.594,-31.738,-36.621,0.000
1728627046.374,-31.250,-38.086,-23.926,-26.855,0.000
1728627046.378,-25.879,-27.344,-26.855,-22.461,0.000
1728627046.381,-59.570,-58.594,-36.133,-34.668,0.000
1728627046.385,-90.820,-81.055,-36.133,-52.246,0.000
1728627046.389,-83.496,-67.871,-24.414,-49.805,0.000
1728627046.393,-48.828,-56.641,-16.113,-43.457,0.000
1728627046.397,-29.297,-52.734,-12.695,-41.016,0.000
1728627046.401,-44.922,-61.035,-20.020,-33.691,0.000
1728627046.405,-69.336,-76.172,-33.203,-42.969,0.000
1728627046.409,-66.895,-59.570,-23.438,-64.453,0.000
1728627046.413,-38.574,-48.340,-19.043,-56.641,0.000
1728627046.417,-21.973,-69.824,-38.574,-40.039,0.000
1728627046.420,-41.504,-82.031,-48.340,-48.828,0.000
1728627046.424,-62.988,-72.754,-59.082,-58.594,0.000
1728627046.428,-61.523,-57.129,-58.594,-54.199,0.000
1728627046.432,-32.227,-54.199,-42.480,-47.363,0.000
1728627046.436,-6.836,-40.039,-32.227,-38.086,0.000
1728627046.440,-13.184,-29.785,-37.109,-28.809,0.000
1728627046.444,-34.180,-32.227,-55.176,-38.086,0.000
1728627046.448,-43.457,-29.297,-63.965,-42.480,0.000
1728627046.452,-36.133,-10.254,-46.387,-37.109,0.000
1728627046.456,-24.902,3.418,-38.086,-42.969,0.000
1728627046.459,-27.832,-6.348,-50.293,-38.086,0.000
1728627046.463,-48.828,-20.020,-58.105,-31.250,0.000
1728627046.467,-66.895,-16.602,-52.734,-41.992,0.000
1728627046.471,-47.363,-2.441,-39.551,-45.898,0.000
1728627046.475,-10.742,6.836,-35.156,-31.250,0.000
1728627046.479,-1.465,5.371,-28.320,-16.602,0.000
1728627046.483,-26.855,-2.441,-21.973,-10.254,0.000
1728627046.487,-49.805,7.324,-18.066,-17.090,0.000
1728627046.491,-37.109,19.043,-9.766,-18.066,0.000
1728627046.495,-13.672,15.625,-2.930,-4.883,0.000
1728627046.499,-17.090,6.836,-4.883,-11.719,0.000
1728627046.502,-46.387,-1.953,-20.020,-30.273,0.000
1728627046.506,-57.617,-11.230,-29.297,-30.762,0.000
1728627046.510,-43.945,-15.137,-19.531,-26.855,0.000
1728627046.514,-17.578,2.441,-4.395,-26.855,0.000
1728627046.518,1.953,10.742,-10.254,-25.391,0.000
1728627046.522,-14.648,-2.930,-26.367,-34.180,0.000
1728627046.526,-53.711,-14.648,-24.902,-56.152,0.000
1728627046.530,-55.176,-12.695,-18.066,-60.059,0.000
1728627046.534,-30.273,-7.324,-19.531,-47.852,0.000
1728627046.538,-22.461,-14.160,-26.855,-38.574,0.000
1728627046.542,-35.156,-17.090,-29.785,-28.320,0.000
1728627046.545,-55.176,-19.043,-38.086,-32.715,0.000
1728627046.549,-55.176,-16.113,-39.062,-44.922,0.000
1728627046.553,-24.414,-7.324,-36.621,-28.320,0.000
1728627046.557,-5.371,-7.324,-33.203,-18.066,0.000
1728627046.561,-21.973,-16.602,-24.902,-20.996,0.000
1728627046.565,-38.086,-21.484,-38.086,-23.926,0.000
1728627046.569,-40.527,-18.555,-46.387,-32.715,0.000
1728627046.573,-30.762,-20.508,-42.480,-33.691,0.000
1728627046.577,-30.273,-21.484,-41.992,-29.785,0.000
1728627046.581,-46.387,-30.762,-48.828,-30.273,0.000
1728627046.585,-61.523,-37.109,-49.316,-44.434,0.000
1728627046.588,-56.152,-26.855,-48.340,-52.246,0.000
1728627046.592,-32.715,-21.973,-42.969,-44.434,0.000
1728627046.596,-12.695,-20.020,-32.715,-29.297,0.000
1728627046.600,-24.414,-32.715,-39.551,-32.715,0.000
1728627046.604,-49.805,-31.738,-41.504,-53.223,0.000
1728627046.608,-53.711,-28.809,-34.180,-59.082,0.000
1728627046.612,-41.016,-30.273,-26.855,-53.711,0.000
1728627046.616,-32.715,-26.855,-22.949,-56.641,0.000
1728627046.620,-43.945,-30.273,-34.180,-52.734,0.000
1728627046.624,-60.547,-49.805,-44.922,-42.969,0.000
1728627046.628,-68.359,-55.664,-26.367,-53.223,0.000
1728627046.631,-40.039,-43.457,-6.836,-37.109,0.000
1728627046.635,-12.207,-34.668,-20.020,-20.020,0.000
1728627046.639,-33.691,-26.367,-30.762,-32.227,0.000
1728627046.643,-54.688,-38.574,-37.598,-33.203,0.000
1728627046.647,-52.734,-43.945,-35.156,-34.668,0.000
1728627046.651,-32.227,-21.484,-16.602,-25.879,0.000
1728627046.655,-7.812,-13.184,-13.184,-7.324,0.000
1728627046.659,-16.602,-30.273,-29.785,-12.695,0.000
1728627046.663,-42.480,-33.203,-42.969,-25.879,0.000
1728627046.667,-57.617,-32.227,-35.645,-37.109,0.000
1728627046.670,-29.785,-34.180,-20.508,-26.855,0.000
1728627046.674,-3.418,-45.410,-14.160,-16.113,0.000
1728627046.678,-19.043,-51.270,-24.902,-19.043,0.000
1728627046.682,-44.434,-48.828,-34.180,-21.484,0.000
1728627046.686,-62.500,-53.711,-39.062,-37.109,0.000
1728627046.690,-55.176,-48.340,-35.156,-38.574,0.000
1728627046.694,-35.156,-25.391,-20.508,-35.156,0.000
1728627046.698,-30.762,-23.926,-26.855,-38.086,0.000
1728627046.702,-49.805,-38.086,-36.621,-39.062,0.000
1728627046.706,-72.266,-48.340,-34.180,-48.828,0.000
1728627046.709,-65.430,-46.875,-31.738,-52.734,0.000
1728627046.713,-26.855,-37.109,-20.996,-37.109,0.000
1728627046.717,-18.555,-43.945,-18.066,-29.297,0.000
1728627046.721,-53.223,-62.500,-35.645,-42.480,0.000
1728627046.725,-76.660,-65.430,-48.828,-58.105,0.000
1728627046.729,-64.941,-54.688,-40.039,-53.223,0.000
1728627046.733,-26.855,-44.922,-30.273,-31.738,0.000
1728627046.737,-10.742,-30.762,-25.391,-21.973,0.000
1728627046.741,-39.062,-33.203,-31.250,-34.668,0.000
1728627046.745,-60.059,-57.129,-49.316,-49.316,0.000
1728627046.749,-59.082,-63.965,-47.363,-49.805,0.000
1728627046.752,-31.250,-41.504,-31.738,-41.016,0.000
1728627046.756,0.000,-24.414,-30.273,-33.691,0.000
1728627046.760,0.000,-37.598,-46.387,-33.203,0.000
1728627046.764,0.000,-44.434,-62.012,-41.992,0.000
1728627046.768,0.000,-33.691,-48.828,-49.316,0.000
1728627046.772,0.000,-25.391,-29.297,-30.273,0.000
1728627046.776,0.000,-33.691,-32.227,-15.137,0.000
1728627046.780,0.000,-49.316,-45.410,-16.602,0.000
1728627046.784,0.000,-47.852,-54.688,-29.785,0.000
1728627046.787,0.000,-38.086,-47.363,-38.086,0.000
1728627046.791,0.000,-27.344,-33.203,-22.949,0.000
1728627046.795,0.000,-8.789,-22.461,-13.184,0.000
1728627046.799,0.000,-12.207,-25.391,-15.137,0.000
1728627046.803,-38.574,-38.086,-41.992,-18.555,0.000
1728627046.807,-50.293,-43.945,-44.434,-32.715,0.000
1728627046.811,-25.879,-25.879,-29.785,-27.344,0.000
1728627046.815,2.930,-17.578,-26.367,-13.672,0.000
1728627046.819,-8.301,-32.715,-33.203,-11.230,0.000
1728627046.823,-36.621,-51.270,-42.969,-16.602,0.000
1728627046.827,-36.133,-52.246,-39.551,-28.809,0.000
1728627046.831,-16.602,-33.691,-20.996,-20.508,0.000
1728627046.834,-1.465,-27.832,-13.672,-10.254,0.000
1728627046.838,-8.301,-50.293,-20.020,-16.602,0.000
1728627046.842,-42.969,-55.176,-20.020,-29.785,0.000
1728627046.846,-70.312,-52.246,-31.250,-45.410,0.000
1728627046.850,-56.641,-59.570,-34.180,-41.504,0.000
1728627046.854,-31.738,-55.664,-23.438,-32.227,0.000
1728627046.858,-25.879,-52.246,-23.438,-33.691,0.000
1728627046.862,-37.598,-62.988,-36.621,-37.109,0.000
1728627046.866,-54.688,-72.266,-41.992,-40.039,0.000
1728627046.870,-54.199,-66.895,-32.715,-42.480,0.000
1728627046.874,-44.434,-65.430,-32.715,-50.293,0.000
1728627046.877,-41.992,-60.059,-41.504,-51.270,0.000
1728627046.881,-52.246,-58.105,-48.340,-47.852,0.000
1728627046.885,-76.660,-77.637,-60.059,-52.246,0.000
1728627046.889,-74.707,-79.102,-60.059,-59.570,0.000
1728627046.893,-33.691,-69.824,-48.340,-43.945,0.000
1728627046.897,-21.484,-73.730,-43.457,-31.738,0.000
1728627046.901,-43.945,-82.520,-41.016,-33.691,0.000
1728627046.905,-54.199,-87.402,-45.410,-41.504,0.000
1728627046.909,-52.246,-80.078,-47.852,-49.316,0.000
1728627046.913,-29.297,-63.477,-44.434,-37.598,0.000
1728627046.917,-16.602,-52.246,-42.969,-26.855,0.000
1728627046.920,-35.645,-55.176,-42.969,-27.344,0.000
1728627046.924,-49.805,-54.199,-54.199,-39.062,0.000
1728627046.928,-35.645,-52.246,-56.641,-33.203,0.000
1728627046.932,-5.859,-43.945,-34.668,-20.508,0.000
1728627046.936,-3.418,-35.156,-25.879,-27.832,0.000
1728627046.940,-22.949,-34.668,-40.039,-27.344,0.000
1728627046.944,-39.551,-36.133,-41.992,-21.484,0.000
1728627046.948,-34.668,-43.945,-29.297,-26.855,0.000
1728627046.952,0.977,-40.527,-23.438,-22.949,0.000
1728627046.956,18.066,-34.668,-24.414,-16.113,0.000
1728627046.960,-12.207,-41.016,-38.574,-23.438,0.000
1728627046.963,-41.504,-39.551,-44.434,-30.273,0.000
1728627046.967,-38.086,-23.926,-27.344,-34.180,0.000
1728627046.971,-2.930,-20.020,-25.391,-29.785,0.000
1728627046.975,8.301,-44.434,-36.621,-22.461,0.000
1728627046.979,-17.578,-36.133,-29.785,-25.879,0.000
1728627046.983,-44.434,-37.109,-32.227,-34.668,0.000
1728627046.987,-51.758,-53.711,-34.180,-41.992,0.000
1728627046.991,-38.086,-43.457,-22.949,-44.922,0.000
1728627046.995,-26.367,-40.039,-21.973,-47.852,0.000
1728627046.999,-36.621,-49.805,-31.738,-49.316,0.000
1728627047.003,-63.965,-61.035,-41.504,-44.434,0.000
1728627047.006,-70.801,-61.523,-44.434,-50.781,0.000
1728627047.010,-43.457,-51.270,-34.180,-51.270,0.000
1728627047.014,-20.508,-49.316,-21.973,-37.109,0.000
1728627047.018,-31.738,-68.848,-23.438,-31.250,0.000
1728627047.022,-65.430,-72.754,-30.273,-43.457,0.000
1728627047.026,-77.148,-69.824,-34.668,-57.617,0.000
1728627047.030,-48.340,-60.547,-31.250,-56.152,0.000
1728627047.034,-22.461,-44.434,-22.949,-43.945,0.000
1728627047.038,-31.250,-28.809,-31.738,-48.340,0.000
1728627047.042,-58.105,-37.598,-49.805,-59.082,0.000
1728627047.045,-64.453,-60.059,-55.176,-58.105,0.000
1728627047.049,-41.504,-43.945,-36.133,-45.410,0.000
1728627047.053,-13.672,-20.508,-25.391,-34.668,0.000
1728627047.057,-10.254,-35.645,-37.598,-33.691,0.000
1728627047.061,-40.039,-48.828,-57.617,-31.738,0.000
1728627047.065,-59.082,-55.176,-66.895,-31.738,0.000
1728627047.069,-48.340,-41.504,-35.645,-36.621,0.000
1728627047.073,-11.230,-16.113,-14.160,-28.809,0.000
1728627047.077,9.277,-25.879,-37.598,-20.996,0.000
1728627047.081,-15.137,-36.621,-44.922,-20.020,0.000
1728627047.084,-41.016,-24.414,-41.992,-14.648,0.000
1728627047.088,-29.297,-21.973,-40.039,-8.301,0.000
1728627047.092,-3.418,-21.973,-31.250,-7.324,0.000
1728627047.096,0.000,-16.113,-39.062,-14.648,0.000
1728627047.100,-25.879,-22.949,-38.086,-25.391,0.000
1728627047.104,-45.898,-56.152,-39.551,-42.969,0.000
1728627047.108,-37.598,-64.453,-34.668,-37.598,0.000
1728627047.112,-8.301,-30.273,-12.207,-13.672,0.000
1728627047.116,3.418,-14.160,-11.230,-12.207,0.000
1728627047.120,-23.438,-25.879,-35.156,-28.809,0.000
1728627047.124,-53.711,-41.016,-54.199,-48.340,0.000
1728627047.127,-53.711,-63.477,-53.223,-53.223,0.000
1728627047.131,-27.832,-49.316,-32.715,-39.551,0.000
1728627047.135,-20.020,-40.527,-22.461,-30.762,0.000
1728627047.139,-49.316,-54.199,-23.438,-45.898,0.000
1728627047.143,-62.500,-35.645,-39.551,-66.406,0.000
1728627047.147,-48.340,-124.023,-57.617,-62.500,0.000
1728627047.151,-60.059,-149.902,-49.805,-54.199,0.000
1728627047.155,-37.109,-25.879,-24.414,-34.180,0.000
1728627047.159,-60.547,-33.691,-37.109,-46.875,0.000
1728627047.162,-125.488,-76.660,-69.336,-75.684,0.000
1728627047.166,-91.309,-89.844,-47.852,-59.570,0.000
1728627047.170,-28.809,-31.738,-22.461,-37.598,0.000
1728627047.174,-12.695,-35.156,-38.574,-32.715,0.000
1728627047.178,-18.066,-78.125,-67.383,-16.113,0.000
1728627047.182,-63.477,-83.496,-50.781,-10.742,0.000
1728627047.186,-92.285,-165.527,-30.273,-47.852,0.000
1728627047.190,-57.617,-221.680,-19.531,-59.082,0.000
1728627047.194,-32.715,-206.055,-19.043,-57.129,0.000
1728627047.198,-32.715,-290.039,-40.039,-42.969,0.000
1728627047.202,-33.203,-396.484,-50.293,-17.090,0.000
1728627047.206,-58.105,-449.707,-39.062,-32.227,0.000
1728627047.209,-36.133,-517.090,-21.973,-40.039,0.000
1728627047.213,11.719,-586.914,-43.457,-35.156,0.000
1728627047.217,-2.930,-682.617,-49.316,-40.527,0.000
1728627047.221,-42.480,-749.023,-43.457,-44.922,0.000
1728627047.225,-72.754,-816.895,-52.734,-56.152,0.000
1728627047.229,-20.020,-892.578,-27.832,-28.320,0.000
1728627047.233,20.020,-933.594,-16.113,-14.648,0.000
1728627047.237,4.883,-991.211,-22.461,-17.090,0.000
1728627047.241,-15.625,-1000.000,-28.320,-8.789,0.000
1728627047.245,-48.828,-998.047,-32.715,-19.043,0.000
1728627047.249,-39.551,-1000.000,-20.020,-26.367,0.000
1728627047.252,-8.789,-1000.000,-22.949,-29.297,0.000
1728627047.256,-6.836,-1000.000,-30.762,-14.648,0.000
1728627047.260,-22.949,-1000.000,-22.949,-8.301,0.000
1728627047.264,-42.969,-1000.000,-12.695,-21.973,0.000
1728627047.268,-34.668,-1000.000,-5.371,-15.137,0.000
1728627047.272,2.441,-1000.000,-1.465,2.441,0.000
1728627047.276,13.672,-1000.000,-5.371,5.859,0.000
1728627047.280,-14.160,-1000.000,-3.418,-5.371,0.000
1728627047.284,-44.922,-1000.000,-5.859,-20.508,0.000
1728627047.288,-41.016,-1000.000,-13.184,-21.484,0.000
1728627047.292,-19.531,-999.023,-15.137,-12.695,0.000
1728627047.295,-8.789,-999.512,-7.324,-7.324,0.000
1728627047.299,-25.879,-998.047,-11.719,-7.324,0.000
1728627047.303,-60.547,-943.359,-25.391,-18.555,0.000
1728627047.307,-64.941,-834.473,-13.184,-30.273,0.000
1728627047.311,-27.344,-744.141,-3.906,-35.645,0.000
1728627047.315,-12.695,-690.918,-16.602,-34.180,0.000
1728627047.319,-42.969,-645.020,-26.367,-32.227,0.000
1728627047.323,-61.035,-589.355,-30.273,-34.180,0.000
1728627047.327,-57.617,-518.555,-29.297,-36.133,0.000
1728627047.331,-36.133,-433.594,-19.531,-32.227,0.000
1728627047.335,-13.672,-369.141,-20.020,-31.738,0.000
1728627047.338,-20.020,-330.566,-35.156,-31.250,0.000
1728627047.342,-51.270,-274.902,-51.758,-41.504,0.000
1728627047.346,-58.594,-208.984,-50.781,-48.340,0.000
1728627047.350,-28.320,-136.719,-29.297,-27.832,0.000
1728627047.354,-9.766,-79.590,-20.508,-25.391,0.000
1728627047.358,-25.391,-67.871,-41.016,-31.738,0.000
1728627047.362,-57.129,-60.547,-56.152,-36.621,0.000
1728627047.366,-71.289,-25.879,-43.457,-44.434,0.000
1728627047.370,-41.504,25.391,-28.320,-39.551,0.000
1728627047.374,-13.672,56.641,-28.320,-35.645,0.000
1728627047.378,-25.879,69.336,-41.504,-27.832,0.000
1728627047.381,-46.875,77.148,-42.480,-23.926,0.000
1728627047.385,-55.664,90.332,-39.551,-32.227,0.000
1728627047.389,-35.156,119.141,-42.969,-31.738,0.000
1728627047.393,-4.883,131.836,-33.203,-27.344,0.000
1728627047.397,-19.531,138.672,-36.621,-27.832,0.000
1728627047.401,-50.781,155.273,-44.434,-25.391,0.000
1728627047.405,-51.758,166.992,-30.273,-26.367,0.000
1728627047.409,-32.227,169.922,-14.160,-24.414,0.000
1728627047.413,-14.648,166.016,0.000,-18.066,0.000
1728627047.417,-19.531,161.133,-9.766,-23.438,0.000
1728627047.420,-36.621,170.410,-22.949,-31.738,0.000
1728627047.424,-62.012,202.148,-30.273,-41.504,0.000
1728627047.428,-64.941,226.074,-28.320,-49.805,0.000
1728627047.432,-33.203,220.215,-29.297,-50.781,0.000
1728627047.436,-25.879,203.125,-40.039,-49.316,0.000
1728627047.440,-52.246,208.496,-44.434,-43.457,0.000
1728627047.444,-76.660,231.445,-40.039,-57.617,0.000
1728627047.448,-55.664,240.723,-26.855,-57.617,0.000
1728627047.452,-11.719,243.164,-22.949,-43.457,0.000
1728627047.456,-13.672,243.164,-30.273,-44.922,0.000
1728627047.459,-52.734,236.816,-45.410,-54.688,0.000
1728627047.463,-71.777,230.957,-53.223,-68.359,0.000
1728627047.467,-57.617,224.609,-47.363,-70.312,0.000
1728627047.471,-24.414,220.703,-44.922,-54.199,0.000
1728627047.475,-3.906,225.586,-53.223,-32.227,0.000
1728627047.479,-22.949,217.285,-56.152,-39.062,0.000
1728627047.483,-47.363,199.219,-49.805,-46.387,0.000
1728627047.487,-42.480,214.355,-34.180,-37.598,0.000
1728627047.491,-15.137,213.867,-20.996,-27.344,0.000
1728627047.495,-4.883,201.660,-32.715,-16.602,0.000
1728627047.499,-24.902,198.730,-42.480,-20.508,0.000
1728627047.502,-49.316,176.270,-43.457,-35.156,0.000
1728627047.506,-47.852,173.340,-43.945,-40.039,0.000
1728627047.510,-7.812,198.730,-33.203,-23.438,0.000
1728627047.514,12.695,210.938,-27.832,-20.508,0.000
1728627047.518,-3.418,194.824,-39.062,-29.785,0.000
1728627047.522,-28.809,178.711,-43.945,-28.320,0.000
1728627047.526,-31.738,179.688,-28.809,-17.578,0.000
1728627047.530,1.953,191.895,-12.207,-1.465,0.000
1728627047.534,5.859,207.520,-15.137,-8.301,0.000
1728627047.538,-23.926,194.824,-40.039,-25.879,0.000
1728627047.541,-48.828,181.641,-43.457,-35.156,0.000
1728627047.545,-52.246,191.406,-29.785,-41.992,0.000
1728627047.549,-35.645,194.336,-20.508,-41.504,0.000
1728627047.553,-11.230,187.500,-25.391,-33.691,0.000
1728627047.557,-17.090,172.852,-43.457,-35.156,0.000
1728627047.561,-53.223,159.180,-41.504,-48.828,0.000
1728627047.565,-70.801,152.344,-21.973,-56.641,0.000
1728627047.569,-50.293,156.250,-11.719,-53.223,0.000
1728627047.573,-26.367,155.273,-22.949,-43.945,0.000
1728627047.577,-32.715,148.926,-33.691,-43.457,0.000
1728627047.581,-58.105,131.348,-37.598,-58.105,0.000
1728627047.584,-74.707,124.023,-45.410,-66.406,0.000
1728627047.588,-55.176,130.371,-45.410,-54.199,0.000
1728627047.592,-18.555,146.973,-38.086,-38.086,0.000
1728627047.596,-20.508,161.621,-40.527,-35.156,0.000
1728627047.600,-54.199,148.926,-40.039,-37.598,0.000
1728627047.604,-71.289,144.531,-34.180,-43.945,0.000
1728627047.608,-44.922,160.156,-20.996,-41.504,0.000
1728627047.612,-17.578,161.621,-16.113,-33.691,0.000
1728627047.616,-21.973,152.832,-27.344,-28.809,0.000
1728627047.620,-42.969,143.555,-37.598,-27.832,0.000
1728627047.624,-70.801,132.812,-42.969,-39.062,0.000
1728627047.628,-60.547,130.371,-40.039,-33.691,0.000
1728627047.631,-18.555,132.812,-34.668,-15.137,0.000
1728627047.635,3.906,133.789,-36.133,-14.160,0.000
1728627047.639,-26.367,127.930,-36.621,-30.762,0.000
1728627047.643,-56.152,119.141,-41.504,-45.410,0.000
1728627047.647,-36.621,125.488,-38.086,-39.551,0.000
1728627047.651,8.301,133.301,-29.297,-23.926,0.000
1728627047.655,11.230,123.047,-33.203,-22.949,0.000
1728627047.659,-19.531,107.422,-49.316,-21.973,0.000
1728627047.663,-39.551,92.773,-60.547,-19.531,0.000
1728627047.667,-33.691,99.121,-55.664,-32.715,0.000
1728627047.671,-6.836,122.070,-34.180,-30.762,0.000
1728627047.674,9.277,129.883,-25.879,-22.461,0.000
1728627047.678,-8.789,107.422,-34.180,-18.066,0.000
1728627047.682,-42.480,99.121,-34.668,-31.738,0.000
1728627047.686,-50.781,127.930,-32.227,-43.457,0.000
1728627047.690,-18.066,155.762,-25.391,-26.367,0.000
1728627047.694,1.465,168.945,-23.438,-24.902,0.000
1728627047.698,-16.602,155.762,-30.273,-31.738,0.000
1728627047.702,-54.199,138.672,-41.992,-43.945,0.000
1728627047.706,-67.871,131.348,-40.039,-59.570,0.000
1728627047.710,-38.574,136.230,-27.344,-51.270,0.000
1728627047.713,-20.508,145.508,-19.043,-33.203,0.000
1728627047.717,-38.086,138.672,-22.949,-30.273,0.000
1728627047.721,-60.547,116.211,-43.457,-35.156,0.000
1728627047.725,-62.988,106.934,-45.898,-34.668,0.000
1728627047.729,-40.527,128.418,-21.973,-39.551,0.000
1728627047.733,-11.230,121.582,-17.578,-30.273,0.000
1728627047.737,-28.320,71.289,-41.504,-27.344,0.000
1728627047.741,-71.289,27.832,-59.570,-42.969,0.000
1728627047.745,-84.961,8.301,-57.617,-56.641,0.000
1728627047.749,-54.199,12.207,-37.109,-48.340,0.000
1728627047.753,-18.066,13.184,-23.438,-34.180,0.000
1728627047.756,-20.020,5.859,-26.367,-30.762,0.000
1728627047.760,-50.781,-2.930,-35.156,-33.691,0.000
1728627047.764,-70.312,-10.254,-41.992,-42.480,0.000
1728627047.768,-49.316,0.977,-37.109,-38.086,0.000
1728627047.772,-18.066,5.371,-20.508,-40.527,0.000
1728627047.776,-20.508,11.719,-36.133,-46.387,0.000
1728627047.780,-52.734,15.137,-66.895,-51.270,0.000
1728627047.784,-67.383,1.465,-66.895,-52.734,0.000
1728627047.788,-45.898,13.672,-42.480,-48.340,0.000
1728627047.792,-20.508,27.832,-35.645,-51.758,0.000
1728627047.795,-8.789,12.207,-47.852,-47.363,0.000
1728627047.799,-26.367,2.930,-49.316,-40.039,0.000
1728627047.803,-56.152,11.230,-46.387,-42.969,0.000
1728627047.807,-37.109,24.902,-35.645,-38.086,0.000
1728627047.811,6.836,34.668,-30.273,-31.738,0.000
1728627047.815,8.301,34.180,-42.480,-23.926,0.000
1728627047.819,-31.738,44.922,-41.016,-31.738,0.000
1728627047.823,-57.129,41.016,-40.039,-55.176,0.000
1728627047.827,-42.480,34.668,-38.086,-52.734,0.000
1728627047.831,-7.812,32.227,-23.926,-31.250,0.000
1728627047.834,-0.977,26.367,0.000,-26.855,0.000
1728627047.838,-27.344,16.113,0.000,-19.531,0.000
1728627047.842,-39.551,5.371,0.000,-20.508,0.000
1728627047.846,-39.551,9.277,0.000,-35.156,0.000
1728627047.850,-29.297,15.137,0.000,-31.250,0.000
1728627047.854,-9.766,10.254,0.000,-26.367,0.000
1728627047.858,-20.996,3.906,0.000,-24.414,0.000
1728627047.862,-55.664,10.254,0.000,-33.691,0.000
1728627047.866,-54.688,19.043,0.000,-44.922,0.000
1728627047.870,-23.926,25.391,0.000,-26.855,0.000
1728627047.874,-9.766,31.738,0.000,-18.066,0.000
1728627047.877,-19.531,19.043,0.000,-24.902,0.000
1728627047.881,-54.688,0.488,-42.969,-41.016,0.000
1728627047.885,-59.570,9.766,-40.527,-51.270,0.000
1728627047.889,-34.180,34.180,-24.902,-42.480,0.000
1728627047.893,-23.926,22.949,-28.320,-28.809,0.000
1728627047.897,-28.809,13.672,-40.039,-33.691,0.000
1728627047.901,-46.875,20.996,-47.363,-40.527,0.000
1728627047.905,-53.711,24.414,-40.039,-39.551,0.000
1728627047.909,-26.367,42.969,-22.461,-41.504,0.000
1728627047.913,-5.859,53.223,-21.484,-29.297,0.000
1728627047.916,-17.578,47.363,-22.949,-21.973,0.000
1728627047.920,-42.480,38.574,-27.832,-27.832,0.000
1728627047.924,-45.410,35.156,-30.273,-32.715,0.000
1728627047.928,-13.672,53.223,-28.809,-28.809,0.000
1728627047.932,7.324,65.918,-47.852,-19.531,0.000
1728627047.936,-9.766,72.754,-52.734,-19.531,0.000
1728627047.940,-44.434,87.891,-52.246,-28.320,0.000
1728627047.944,-54.199,106.934,-48.340,-32.715,0.000
1728627047.948,-28.320,122.559,-32.715,-27.344,0.000
1728627047.951,-12.207,127.930,-22.949,-23.926,0.000
1728627047.955,-17.578,121.094,-18.555,-20.996,0.000
1728627047.959,-42.969,99.609,-25.879,-27.344,0.000
1728627047.963,-54.688,81.055,-33.691,-32.227,0.000
1728627047.967,-37.109,83.496,-17.090,-32.715,0.000
1728627047.971,-16.602,80.566,-20.020,-36.621,0.000
1728627047.975,-7.812,68.359,-42.480,-23.926,0.000
1728627047.979,-40.039,57.129,-46.875,-19.043,0.000
1728627047.983,-63.965,53.223,-34.180,-29.785,0.000
1728627047.987,-45.410,51.270,-22.949,-27.832,0.000
1728627047.991,-12.695,56.641,-23.438,-21.484,0.000
1728627047.995,-5.859,70.801,-21.484,-15.137,0.000
1728627047.998,-29.785,60.547,-26.367,-18.555,0.000
1728627048.002,-49.316,35.156,-42.480,-32.227,0.000
1728627048.006,-42.969,20.020,-45.410,-40.527,0.000
1728627048.010,-17.090,26.367,-28.320,-22.461,0.000
1728627048.014,-12.207,42.969,-26.855,-27.832,0.000
1728627048.018,-28.809,34.668,-37.598,-35.156,0.000
1728627048.022,-60.059,22.461,-36.133,-36.133,0.000
1728627048.026,-50.781,30.273,-27.832,-39.551,0.000
1728627048.030,-16.113,33.691,-15.625,-29.297,0.000
1728627048.034,-6.836,18.066,-25.879,-31.250,0.000
1728627048.038,-31.250,10.742,-50.293,-32.715,0.000
1728627048.041,-62.500,11.719,-61.035,-41.992,0.000
1728627048.045,-55.664,15.625,-51.758,-51.270,0.000
1728627048.049,-25.391,23.926,-42.969,-40.527,0.000
1728627048.053,-9.277,16.113,-57.617,-32.715,0.000
1728627048.057,-26.855,-3.418,-61.523,-38.086,0.000
1728627048.061,-52.246,-19.043,-43.457,-45.898,0.000
1728627048.065,-41.992,-14.648,-29.785,-42.969,0.000
1728627048.069,-9.277,0.000,-38.574,-34.668,0.000
1728627048.073,-7.812,7.812,-47.363,-36.133,0.000
1728627048.077,-26.855,15.137,-45.898,-35.645,0.000
1728627048.081,-57.129,10.742,-63.477,-46.875,0.000
1728627048.084,-65.430,12.695,-62.988,-60.059,0.000
1728627048.088,-37.598,30.762,-40.527,-45.410,0.000
1728627048.092,-11.719,32.227,-38.574,-36.133,0.000
1728627048.096,-23.438,11.719,-47.363,-39.551,0.000
1728627048.100,-56.152,-11.230,-48.340,-36.621,0.000
1728627048.104,-56.152,-4.395,-25.879,-41.016,0.000
1728627048.108,-22.949,16.113,-9.277,-34.668,0.000
1728627048.112,-6.836,26.367,-18.066,-25.879,0.000
1728627048.116,-42.480,18.066,-32.227,-32.715,0.000
1728627048.120,-85.938,-1.465,-41.992,-41.992,0.000
1728627048.123,-84.961,5.859,-41.016,-49.805,0.000
1728627048.127,-59.570,17.578,-28.809,-45.410,0.000
1728627048.131,-35.645,20.020,-26.855,-43.945,0.000
1728627048.135,-30.273,13.672,-47.363,-43.945,0.000
1728627048.139,-50.293,7.812,-51.270,-44.922,0.000
1728627048.143,-69.336,12.207,-37.109,-49.316,0.000
1728627048.147,-51.758,23.438,-23.438,-40.039,0.000
1728627048.151,-20.996,38.086,-21.484,-35.645,0.000
1728627048.155,-23.926,45.410,-35.156,-37.109,0.000
1728627048.159,-52.246,33.691,-58.594,-40.039,0.000
1728627048.163,-71.777,17.578,-61.035,-54.199,0.000
1728627048.166,-52.246,18.555,-41.992,-55.176,0.000
1728627048.170,-15.137,20.020,-34.180,-37.109,0.000
1728627048.174,-11.719,17.090,-37.109,-24.902,0.000
1728627048.178,-39.551,14.648,-41.992,-29.785,0.000
1728627048.182,-62.012,8.789,-47.363,-49.316,0.000
1728627048.186,-49.316,10.742,-41.016,-52.246,0.000
1728627048.190,-16.602,1.953,-42.480,-36.133,0.000
1728627048.194,-15.137,8.789,-39.551,-38.574,0.000
1728627048.198,-39.551,13.184,-41.992,-36.133,0.000
1728627048.202,-56.641,-3.418,-65.430,-38.574,0.000
1728627048.205,-46.875,-8.301,-65.430,-35.645,0.000
1728627048.209,-17.090,2.930,-43.457,-18.555,0.000
1728627048.213,-0.488,11.230,-44.922,-16.602,0.000
1728627048.217,-31.250,1.953,-57.129,-22.461,0.000
1728627048.221,-70.312,-16.113,-68.359,-41.016,0.000
1728627048.225,-56.152,-11.230,-54.688,-39.551,0.000
1728627048.229,-18.555,-1.953,-35.156,-21.973,0.000
1728627048.233,-5.859,-8.301,-42.969,-15.137,0.000
1728627048.237,-25.391,-9.277,-46.875,-16.113,0.000
1728627048.241,-49.316,-19.531,-42.969,-26.367,0.000
1728627048.244,-41.504,-41.016,-39.062,-30.762,0.000
1728627048.248,-30.273,-42.969,-23.926,-27.832,0.000
1728627048.252,-27.832,-36.133,-17.090,-25.879,0.000
1728627048.256,-32.227,-44.922,-27.832,-25.879,0.000
1728627048.260,-41.504,-56.152,-31.738,-27.344,0.000
1728627048.264,-51.758,-51.758,-38.086,-33.203,0.000
1728627048.268,-35.156,-40.527,-28.320,-23.926,0.000
1728627048.272,-11.230,-32.715,-19.043,-20.020,0.000
1728627048.276,-22.949,-40.039,-30.762,-28.320,0.000
1728627048.280,-45.410,-54.199,-46.875,-36.621,0.000
1728627048.283,-55.664,-45.410,-40.039,-43.457,0.000
1728627048.287,-41.016,-26.855,-23.926,-41.504,0.000
1728627048.291,-24.414,-26.855,-25.879,-38.574,0.000
1728627048.295,-22.461,-35.156,-41.992,-39.062,0.000
1728627048.299,-38.574,-29.785,-33.203,-40.527,0.000
1728627048.303,-52.246,-26.367,-19.531,-41.016,0.000
1728627048.307,-26.855,-34.668,-21.973,-29.297,0.000
1728627048.311,5.859,-34.668,-20.020,-20.020,0.000
1728627048.315,0.000,-36.133,-32.227,-24.902,0.000
1728627048.319,-33.691,-40.527,-45.898,-24.902,0.000
1728627048.322,-48.828,-44.922,-44.434,-30.762,0.000
1728627048.326,-34.180,-24.902,-29.297,-39.551,0.000
1728627048.330,-11.719,-9.766,-26.855,-33.203,0.000
1728627048.334,-7.324,-20.020,-42.969,-23.926,0.000
1728627048.338,-30.762,-24.414,-55.176,-18.555,0.000
1728627048.342,-54.688,-22.949,-52.734,-33.691,0.000
1728627048.346,-48.828,-21.973,-43.457,-48.828,0.000
1728627048.350,-18.555,-26.855,-36.133,-41.504,0.000
1728627048.354,-15.137,-34.180,-43.945,-39.551,0.000
1728627048.358,-49.805,-34.180,-52.734,-44.922,0.000
1728627048.362,-73.242,-24.902,-53.711,-46.875,0.000
1728627048.365,-59.082,-9.766,-48.340,-47.852,0.000
1728627048.369,-24.902,-13.672,-36.621,-47.363,0.000
1728627048.373,-17.090,-15.137,-36.133,-41.504,0.000
1728627048.377,-44.922,-17.578,-43.945,-37.598,0.000
1728627048.381,-66.895,-30.273,-47.852,-50.781,0.000
1728627048.385,-53.711,-37.109,-36.621,-50.781,0.000
1728627048.389,-23.438,-25.879,-18.066,-48.340,0.000
1728627048.393,-20.996,-18.066,-21.484,-43.457,0.000
1728627048.397,-49.805,-35.645,-28.320,-37.109,0.000
1728627048.401,-76.172,-46.387,-29.297,-50.781,0.000
1728627048.405,-65.430,-38.086,-25.879,-57.129,0.000
1728627048.409,-35.645,-28.320,-23.438,-49.805,0.000
1728627048.412,-26.367,-28.809,-23.438,-34.180,0.000
1728627048.416,-41.992,-28.809,-22.461,-30.273,0.000
1728627048.420,-68.848,-29.297,-25.391,-39.551,0.000
1728627048.424,-65.918,-24.414,-20.508,-45.410,0.000
1728627048.428,-22.949,-24.414,-16.602,-34.668,0.000
1728627048.432,-14.160,-24.414,-19.531,-28.320,0.000
1728627048.436,-43.457,-25.391,-24.414,-37.109,0.000
1728627048.440,-59.570,-31.738,-31.250,-39.062,0.000
1728627048.444,-51.758,-15.625,-24.902,-39.062,0.000
1728627048.448,-22.949,0.000,-24.414,-39.062,0.000
1728627048.451,0.977,-5.859,-21.484,-31.250,0.000
1728627048.455,-0.977,-8.789,-16.602,-15.137,0.000
1728627048.459,-30.273,-15.137,-27.344,-20.508,0.000
1728627048.463,-54.688,-19.531,-33.203,-37.109,0.000
1728627048.467,-34.180,-8.789,-27.344,-32.227,0.000
1728627048.471,-5.859,-13.672,-23.926,-14.160,0.000
1728627048.475,-14.160,-31.250,-42.480,-4.395,0.000
1728627048.479,-36.621,-34.180,-58.594,-26.367,0.000
1728627048.483,-45.410,-39.551,-56.152,-46.387,0.000
1728627048.487,-30.762,-35.645,-41.016,-39.062,0.000
1728627048.491,-12.695,-20.508,-23.438,-25.879,0.000
1728627048.494,-20.996,-20.996,-27.832,-21.973,0.000
1728627048.498,-37.598,-39.062,-48.828,-28.320,0.000
1728627048.502,-54.688,-41.504,-57.617,-29.785,0.000
1728627048.506,-37.109,-22.461,-39.062,-20.996,0.000
1728627048.510,-5.859,-16.602,-32.227,-15.137,0.000
1728627048.514,-15.625,-34.668,-47.363,-19.531,0.000
1728627048.518,-38.574,-47.852,-53.711,-21.973,0.000
1728627048.522,-54.199,-44.922,-43.945,-29.297,0.000
1728627048.526,-44.922,-41.992,-42.480,-34.180,0.000
1728627048.530,-19.531,-37.109,-37.598,-22.949,0.000
1728627048.534,-23.438,-28.809,-36.133,-23.438,0.000
1728627048.537,-49.316,-38.086,-48.340,-36.133,0.000
1728627048.541,-69.824,-41.504,-45.410,-42.480,0.000
1728627048.545,-63.965,-39.551,-31.250,-39.551,0.000
1728627048.549,-38.574,-39.062,-26.855,-41.504,0.000
1728627048.553,-31.250,-38.574,-22.949,-46.875,0.000
1728627048.557,-52.734,-61.035,-33.203,-43.457,0.000
1728627048.561,-66.406,-77.637,-44.922,-47.363,0.000
1728627048.565,-41.504,-63.477,-28.809,-43.457,0.000
1728627048.569,-26.367,-44.434,-25.391,-38.086,0.000
1728627048.573,-33.203,-33.203,-46.875,-35.645,0.000
1728627048.576,-38.574,-26.855,-43.945,-30.762,0.000
1728627048.580,-52.734,-33.203,-35.156,-33.691,0.000
1728627048.584,-47.852,-25.391,-26.855,-38.574,0.000
1728627048.588,-22.461,-15.625,-24.902,-33.203,0.000
1728627048.592,-10.742,-22.461,-31.250,-25.879,0.000
1728627048.596,-18.555,-31.738,-23.438,-24.414,0.000
1728627048.600,-29.297,-32.227,-30.273,-21.484,0.000
1728627048.604,-43.945,-34.668,-47.363,-27.832,0.000
1728627048.608,-25.879,-25.879,-37.109,-26.855,0.000
1728627048.612,-2.441,-6.348,-26.367,-16.602,0.000
1728627048.615,-21.973,-5.371,-29.785,-20.996,0.000
1728627048.619,-41.016,-15.625,-45.410,-22.461,0.000
1728627048.623,-32.227,-16.602,-46.387,-22.461,0.000
1728627048.627,-1.953,-9.766,-30.273,-17.090,0.000
1728627048.631,4.883,-10.254,-35.645,-12.207,0.000
1728627048.635,-16.602,-10.742,-48.828,-15.137,0.000
1728627048.639,-40.527,-6.836,-55.176,-23.438,0.000
1728627048.643,-47.852,-0.977,-51.270,-37.598,0.000
1728627048.647,-18.555,0.000,-34.180,-34.668,0.000
1728627048.651,-6.836,-0.977,-33.691,-24.902,0.000
1728627048.654,-30.762,2.441,-42.969,-19.043,0.000
1728627048.658,-50.293,18.555,-44.434,-22.949,0.000
1728627048.662,-44.922,13.672,-46.387,-33.691,0.000
1728627048.666,-32.715,11.719,-40.527,-34.668,0.000
1728627048.670,-22.949,20.508,-38.574,-34.668,0.000
1728627048.674,-32.227,34.180,-37.598,-36.133,0.000
1728627048.678,-56.641,39.062,-49.316,-40.527,0.000
1728627048.682,-65.430,36.133,-48.340,-42.969,0.000
1728627048.686,-47.852,43.457,-23.438,-39.551,0.000
1728627048.690,-21.484,41.016,-21.973,-39.062,0.000
1728627048.694,-29.297,28.320,-39.551,-44.922,0.000
1728627048.698,-47.363,4.883,-57.129,-41.504,0.000
1728627048.701,-61.035,-4.395,-63.965,-50.781,0.000
1728627048.705,-54.199,13.672,-40.527,-55.176,0.000
1728627048.709,-27.832,23.438,-19.043,-41.504,0.000
1728627048.713,-25.879,21.973,-22.461,-26.855,0.000
1728627048.717,-57.617,19.043,-35.645,-38.574,0.000
1728627048.721,-73.730,19.043,-37.598,-48.340,0.000
1728627048.725,0.000,20.020,-25.391,-35.156,0.000
1728627048.729,0.000,15.625,-18.066,-32.227,0.000
1728627048.733,0.000,20.508,-29.785,-29.297,0.000
1728627048.737,0.000,17.578,-34.668,-41.992,0.000
1728627048.741,0.000,1.953,-27.344,-49.805,0.000
1728627048.744,0.000,3.418,-24.902,-43.457,0.000
1728627048.748,0.000,19.531,-25.391,-41.504,0.000
1728627048.752,0.000,20.020,-20.996,-46.387,0.000
1728627048.756,0.000,0.488,-32.227,-44.922,0.000
1728627048.760,0.000,-13.672,-44.434,-43.945,0.000
1728627048.764,0.000,-4.883,-32.227,-54.199,0.000
1728627048.768,0.000,3.906,-36.133,-43.457,0.000
1728627048.772,3.906,9.766,-43.457,-26.855,0.000
1728627048.776,-20.508,3.906,-41.992,-30.762,0.000
1728627048.780,-62.012,-4.395,-44.434,-40.527,0.000
1728627048.784,-63.965,-5.371,-40.527,-39.551,0.000
1728627048.787,-23.438,-2.930,-27.344,-33.203,0.000
1728627048.791,-0.488,-5.371,-20.020,-36.621,0.000
1728627048.795,-31.250,-18.066,-37.598,-43.457,0.000
1728627048.799,-58.594,-16.113,-46.875,-41.992,0.000
1728627048.803,-58.105,-13.672,-45.898,-43.945,0.000
1728627048.807,-33.691,-5.371,-35.645,-32.715,0.000
1728627048.811,-17.090,9.766,-32.227,-26.367,0.000
1728627048.815,-35.156,1.953,-59.570,-35.156,0.000
1728627048.819,-56.641,-17.578,-63.477,-46.387,0.000
1728627048.823,-52.246,-13.184,-36.621,-49.316,0.000
1728627048.827,-30.273,-11.230,-20.508,-42.480,0.000
1728627048.830,-12.207,-28.809,-26.367,-25.391,0.000
1728627048.834,-16.602,-28.320,-29.785,-9.766,0.000
1728627048.838,-39.062,-23.438,-36.133,-15.625,0.000
1728627048.842,-53.223,-14.160,-33.203,-25.879,0.000
1728627048.846,-28.809,-13.672,-18.555,-29.297,0.000
1728627048.850,-4.395,-30.273,-21.973,-23.926,0.000
1728627048.854,-17.578,-34.180,-33.691,-21.484,0.000
1728627048.858,-48.828,-47.363,-43.457,-30.273,0.000
1728627048.862,-55.664,-52.246,-36.621,-44.922,0.000
1728627048.866,-34.668,-33.691,-19.043,-41.016,0.000
1728627048.870,-15.137,-33.203,-11.230,-33.203,0.000
1728627048.873,-19.531,-45.898,-28.809,-39.062,0.000
1728627048.877,-51.270,-52.734,-51.758,-50.781,0.000
1728627048.881,-62.012,-46.875,-53.711,-54.199,0.000
1728627048.885,-31.250,-22.949,-42.480,-40.527,0.000
1728627048.889,-6.348,-5.859,-37.109,-31.738,0.000
1728627048.893,-16.113,-22.949,-41.992,-29.785,0.000
1728627048.897,-37.109,-34.668,-38.574,-34.180,0.000
1728627048.901,-61.035,-20.996,-38.086,-52.246,0.000
1728627048.905,-61.523,-17.578,-44.922,-54.688,0.000
1728627048.909,-20.020,-13.672,-42.480,-38.574,0.000
1728627048.912,-9.766,-10.254,0.000,-22.949,0.000
1728627048.916,-36.621,-27.832,0.000,-22.461,0.000
1728627048.920,-46.875,-26.855,0.000,-31.250,0.000
1728627048.924,-37.598,-10.742,0.000,-37.109,0.000
1728627048.928,-15.625,-8.789,0.000,-38.574,0.000
1728627048.932,-15.625,-20.020,0.000,-39.062,0.000
1728627048.936,-44.922,-26.855,0.000,-37.109,0.000
1728627048.940,-58.594,-24.414,0.000,-36.621,0.000
1728627048.944,-60.059,-1.953,0.000,-51.758,0.000
1728627048.948,-33.203,7.812,0.000,-48.340,0.000
1728627048.952,-19.531,-18.555,0.000,-37.598,0.000
1728627048.955,-36.133,-31.250,0.000,-40.527,0.000
1728627048.959,-62.500,-26.855,-48.340,-49.805,0.000
1728627048.963,-65.430,-25.391,-45.410,-54.199,0.000
1728627048.967,-34.180,-25.879,-40.527,-39.062,0.000
1728627048.971,-12.695,-23.438,-33.203,-18.555,0.000
1728627048.975,-23.438,-31.250,-30.762,-20.508,0.000
1728627048.979,-52.734,-45.410,-41.016,-34.668,0.000
1728627048.983,-57.617,-41.016,-41.504,-34.180,0.000
1728627048.987,-30.762,-19.043,-29.297,-25.879,0.000
1728627048.991,-15.625,-22.461,-21.973,-19.043,0.000
1728627048.994,-22.461,-40.039,-26.855,-14.648,0.000
1728627048.998,-47.852,-39.551,-42.480,-30.762,0.000
1728627049.002,-50.781,-33.691,-43.945,-36.621,0.000
1728627049.006,-16.602,-21.484,-22.461,-17.578,0.000
1728627049.010,3.418,-9.277,-21.484,-4.883,0.000
1728627049.014,-18.066,-18.555,-39.062,-17.578,0.000
1728627049.018,-53.223,-41.016,-53.223,-31.738,0.000
1728627049.022,-61.523,-48.828,-51.758,-33.691,0.000
1728627049.026,-28.809,-31.738,-42.969,-32.715,0.000
1728627049.030,0.000,-28.809,-47.852,-25.391,0.000
1728627049.033,-28.809,-24.414,-48.340,-29.297,0.000
1728627049.037,-58.105,-18.555,-44.922,-44.922,0.000
1728627049.041,-61.523,-36.621,-48.828,-56.152,0.000
1728627049.045,-29.785,-27.832,-42.969,-44.922,0.000
1728627049.049,3.906,-16.602,-50.293,-27.832,0.000
1728627049.053,-16.602,-42.969,-71.777,-33.203,0.000
1728627049.057,-53.223,-54.688,-70.801,-43.945,0.000
1728627049.061,-67.383,-44.922,-64.453,-54.688,0.000
1728627049.065,-44.434,-33.691,-49.316,-48.340,0.000
1728627049.069,-18.066,-35.156,-39.062,-41.016,0.000
1728627049.072,-22.461,-48.828,-50.781,-37.598,0.000
1728627049.076,-53.223,-64.453,-69.336,-41.504,0.000
1728627049.080,-72.754,-63.477,-71.777,-56.641,0.000
1728627049.084,-56.641,-47.852,-59.082,-50.293,0.000
1728627049.088,-18.555,-47.363,-53.223,-22.461,0.000
1728627049.092,-20.996,-44.434,-56.152,-27.832,0.000
1728627049.096,-46.387,-39.062,-60.059,-45.410,0.000
1728627049.100,-59.570,-54.688,-65.430,-50.781,0.000
1728627049.104,-58.105,-56.641,-53.711,-46.875,0.000
1728627049.108,-25.391,-43.945,-28.809,-29.297,0.000
1728627049.112,-8.789,-37.109,-33.203,-18.066,0.000
1728627049.115,-26.855,-44.922,-45.898,-23.438,0.000
1728627049.119,-48.340,-59.082,-49.316,-36.133,0.000
1728627049.123,-50.781,-55.176,-38.574,-38.574,0.000
1728627049.127,-20.508,-43.945,-20.508,-23.438,0.000
1728627049.131,-12.207,-37.109,-25.391,-13.672,0.000
1728627049.135,-40.039,-46.875,-35.645,-13.672,0.000
1728627049.139,-64.453,-70.801,-41.016,-33.203,0.000
1728627049.143,-57.129,-57.617,-37.109,-40.039,0.000
1728627049.147,-15.137,-27.832,-25.391,-22.461,0.000
1728627049.151,-2.441,-28.809,-32.715,-20.508,0.000
1728627049.155,-37.109,-36.133,-42.969,-27.344,0.000
1728627049.158,-51.270,-40.039,-35.156,-29.785,0.000
1728627049.162,-36.621,-39.551,-29.785,-34.668,0.000
1728627049.166,-20.996,-32.227,-20.508,-30.762,0.000
1728627049.170,-12.207,-30.273,-20.996,-35.156,0.000
1728627049.174,-23.926,-38.574,-38.086,-37.109,0.000
1728627049.178,-43.457,-49.805,-49.316,-31.250,0.000
1728627049.182,-41.992,-54.688,-41.016,-35.645,0.000
1728627049.186,-18.555,-42.480,-34.180,-38.086,0.000
1728627049.190,-8.301,-32.715,-47.852,-35.645,0.000
1728627049.194,-26.855,-35.156,0.000,-37.109,0.000
1728627049.198,-51.758,-44.434,0.000,-52.246,0.000
1728627049.201,-53.711,-52.246,0.000,-53.711,0.000
1728627049.205,-26.855,-39.551,0.000,-37.598,0.000
1728627049.209,-7.812,-32.715,0.000,-27.832,0.000
1728627049.213,-25.879,-43.457,0.000,-19.531,0.000
1728627049.217,-59.570,-42.969,0.000,-32.227,0.000
1728627049.221,-75.195,-33.691,0.000,-50.781,0.000
1728627049.225,-48.340,-36.621,0.000,-37.598,0.000
1728627049.229,-28.320,-32.227,0.000,-33.203,0.000
1728627049.233,-36.133,-32.715,0.000,-40.527,0.000
1728627049.237,-51.270,-40.527,0.000,-35.645,0.000
1728627049.241,-59.570,-43.945,-49.805,-36.621,0.000
1728627049.244,-40.527,-36.621,-41.504,-41.504,0.000
1728627049.248,-10.254,-44.434,-32.715,-26.367,0.000
1728627049.252,-12.695,-56.641,-29.785,-18.066,0.000
1728627049.256,-50.781,-47.363,-52.734,-31.738,0.000
1728627049.260,-67.383,-38.574,-50.293,-40.527,0.000
1728627049.264,-42.969,-28.809,-31.250,-43.945,0.000
1728627049.268,-9.766,-21.973,-27.344,-28.320,0.000
1728627049.272,-6.348,-24.902,-24.414,-14.648,0.000
1728627049.276,-42.969,-31.738,-30.273,-25.391,0.000
1728627049.280,-59.082,-43.945,-27.832,-30.762,0.000
1728627049.283,-41.016,-43.457,-15.137,-17.578,0.000
1728627049.287,-13.184,-31.738,-12.695,-16.602,0.000
1728627049.291,-8.301,-26.367,-15.625,-17.090,0.000
1728627049.295,-31.738,-29.785,-25.391,-14.160,0.000
1728627049.299,-60.547,-32.227,-33.203,-30.273,0.000
1728627049.303,-42.480,-34.180,-18.555,-34.180,0.000
1728627049.307,-3.906,-29.785,-4.395,-17.578,0.000
1728627049.311,1.465,-29.297,-0.488,-7.812,0.000
1728627049.315,-25.879,-50.781,-27.344,-18.555,0.000
1728627049.319,-56.641,-48.828,-42.480,-46.387,0.000
1728627049.322,-53.223,-37.109,-31.738,-50.781,0.000
1728627049.326,-20.508,-33.691,-40.039,-31.738,0.000
1728627049.330,-12.207,-18.555,-43.945,-28.320,0.000
1728627049.334,-33.203,-11.719,-32.227,-40.039,0.000
1728627049.338,-49.316,-22.461,-39.551,-50.781,0.000
1728627049.342,-51.758,-35.645,-44.922,-46.387,0.000
1728627049.346,-27.832,-28.320,-34.668,-38.086,0.000
1728627049.350,-4.883,-21.484,-25.391,-33.691,0.000
1728627049.354,-31.738,-34.180,-35.645,-28.320,0.000
1728627049.358,-62.500,-52.246,-62.012,-40.039,0.000
1728627049.361,-52.246,-41.504,-48.828,-47.363,0.000
1728627049.365,-25.391,-15.137,-27.832,-33.691,0.000
1728627049.369,-13.184,-13.672,-41.992,-29.785,0.000
1728627049.373,-32.227,-26.367,-50.293,-45.410,0.000
1728627049.377,-54.688,-20.508,-51.758,-52.246,0.000
1728627049.381,-44.922,-20.508,-49.316,-46.875,0.000
1728627049.385,-22.461,-29.785,-42.480,-40.527,0.000
1728627049.389,-10.254,-25.879,-39.062,-32.715,0.000
1728627049.393,-21.484,-14.160,-38.574,-22.949,0.000
1728627049.397,-48.340,-9.766,-38.086,-34.180,0.000
1728627049.400,-48.340,1.465,-35.156,-41.016,0.000
1728627049.404,-19.043,1.953,-35.156,-30.762,0.000
1728627049.408,-5.859,4.395,-25.391,-32.715,0.000
1728627049.412,-26.367,4.883,-34.180,-37.598,0.000
1728627049.416,-46.387,-4.395,-47.852,-34.668,0.000
1728627049.420,-42.480,0.488,-34.180,-34.668,0.000
1728627049.424,-14.160,14.648,-26.367,-31.738,0.000
1728627049.428,0.488,14.648,-33.203,-25.391,0.000
1728627049.432,-16.113,1.465,-31.738,-22.461,0.000
1728627049.436,-43.945,-10.742,-36.133,-32.227,0.000
1728627049.439,-60.059,-3.418,-42.480,-39.062,0.000
1728627049.443,-35.156,13.184,-25.879,-34.668,0.000
1728627049.447,-4.395,12.695,-25.391,-20.996,0.000
1728627049.451,-13.672,9.277,-37.598,-9.766,0.000
1728627049.455,-46.387,2.930,-48.828,-29.785,0.000
1728627049.459,-62.012,-15.137,-52.734,-47.852,0.000
1728627049.463,-36.621,-5.859,-33.203,-34.668,0.000
1728627049.467,-7.324,11.230,-17.090,-22.461,0.000
1728627049.471,-20.508,1.465,-24.902,-35.645,0.000
1728627049.475,-44.434,-16.602,-43.945,-42.969,0.000
1728627049.479,-54.688,-21.973,-57.129,-45.410,0.000
1728627049.482,-46.387,-3.418,-53.711,-51.758,0.000
1728627049.486,-13.672,20.020,-48.828,-33.203,0.000
1728627049.490,-0.977,17.090,-61.523,-21.973,0.000
1728627049.494,-30.273,-6.348,-69.824,-30.273,0.000
1728627049.498,-61.035,-21.484,-59.570,-38.086,0.000
1728627049.502,-56.152,-17.090,-40.039,-40.527,0.000
1728627049.506,-24.414,-2.930,-45.410,-23.926,0.000
1728627049.510,-11.719,-1.953,-53.711,-14.648,0.000
1728627049.514,-33.691,-4.395,-41.504,-30.273,0.000
1728627049.518,-56.152,-15.137,-45.898,-39.062,0.000
1728627049.522,-50.293,-8.789,-40.039,-33.203,0.000
1728627049.525,-29.785,-1.953,-33.691,-29.785,0.000
1728627049.529,-18.555,-13.672,-31.738,-32.227,0.000
1728627049.533,-26.855,-31.250,-36.621,-29.785,0.000
1728627049.537,-44.922,-37.109,-58.594,-27.344,0.000
1728627049.541,-53.223,-22.461,-55.664,-30.273,0.000
1728627049.545,-40.039,-11.230,-28.809,-31.738,0.000
1728627049.549,-27.344,-9.277,-26.367,-33.203,0.000
1728627049.553,-28.809,-12.695,-34.668,-23.926,0.000
1728627049.557,-55.664,-16.113,-34.668,-25.391,0.000
1728627049.561,-68.848,-10.742,-31.250,-41.504,0.000
1728627049.565,-37.109,-13.184,-24.414,-38.086,0.000
1728627049.568,0.000,-19.531,-31.738,-25.879,0.000
1728627049.572,0.000,-16.602,-41.992,-27.344,0.000
1728627049.576,0.000,-25.391,-46.387,-36.133,0.000
1728627049.580,0.000,-31.250,-40.039,-36.133,0.000
1728627049.584,0.000,-17.090,-22.949,-28.809,0.000
1728627049.588,0.000,-13.672,-29.785,-20.508,0.000
1728627049.592,0.000,-9.766,-40.039,-27.344,0.000
1728627049.596,0.000,-13.184,-53.223,-34.180,0.000
1728627049.600,0.000,-32.715,-53.223,-32.715,0.000
1728627049.604,0.000,-11.719,-27.832,-30.273,0.000
1728627049.608,0.000,8.301,-21.484,-26.855,0.000
1728627049.611,0.000,-9.277,-38.574,-28.809,0.000
1728627049.615,-50.293,-34.668,-49.316,-36.621,0.000
1728627049.619,-57.129,-36.621,-38.574,-40.527,0.000
1728627049.623,-41.016,-27.344,-29.785,-44.434,0.000
1728627049.627,-16.113,-22.949,-36.621,-42.969,0.000
1728627049.631,-13.672,-16.602,-42.480,-31.738,0.000
1728627049.635,-51.758,-24.902,-45.410,-38.574,0.000
1728627049.639,-73.242,-27.832,-46.387,-52.246,0.000
1728627049.643,-50.781,-20.996,-39.062,-46.875,0.000
1728627049.647,-16.113,-20.996,-33.691,-30.762,0.000
1728627049.650,-23.438,-29.297,-29.785,-31.250,0.000
1728627049.654,-49.805,-29.785,-29.785,-37.598,0.000
1728627049.658,-60.547,-21.484,-33.691,-44.434,0.000
1728627049.662,-59.570,-19.531,-30.273,-47.363,0.000
1728627049.666,-26.367,-15.625,-23.926,-38.574,0.000
1728627049.670,-9.766,-23.438,-30.762,-33.691,0.000
1728627049.674,-40.527,-35.156,-35.156,-38.574,0.000
1728627049.678,-67.871,-33.203,-34.668,-47.852,0.000
1728627049.682,-56.152,-28.809,-32.227,-41.504,0.000
1728627049.686,-24.414,-25.391,-26.367,-29.297,0.000
1728627049.690,-8.301,-21.484,-22.949,-16.113,0.000
1728627049.693,-31.738,-16.602,-28.320,-24.902,0.000
1728627049.697,-58.594,-30.762,-41.992,-42.969,0.000
1728627049.701,-54.199,-37.109,-40.527,-41.992,0.000
1728627049.705,-26.855,-32.715,-30.273,-30.762,0.000
1728627049.709,-15.625,-34.180,-31.738,-33.203,0.000
1728627049.713,-24.902,-33.691,-34.180,-38.086,0.000
1728627049.717,-41.992,-41.504,-41.504,-41.504,0.000
1728627049.721,-56.152,-50.293,-42.969,-54.199,0.000
1728627049.725,-31.250,-34.180,-30.762,-41.016,0.000
1728627049.729,-0.488,-23.926,-22.461,-20.508,0.000
1728627049.732,-16.113,-36.133,-29.297,-20.020,0.000
1728627049.736,-55.664,-36.621,-42.969,-32.715,0.000
1728627049.740,-68.848,-31.738,-41.504,-34.180,0.000
1728627049.744,-33.203,-35.645,-32.715,-22.949,0.000
1728627049.748,-12.695,-30.762,-37.598,-26.855,0.000
1728627049.752,-28.809,-25.391,-56.152,-31.738,0.000
1728627049.756,-59.570,-40.527,-56.641,-41.992,0.000
1728627049.760,-70.312,-40.039,-35.156,-48.340,0.000
1728627049.764,-35.156,-28.320,-22.949,-39.551,0.000
1728627049.768,-9.277,-22.461,-17.578,-27.344,0.000
1728627049.771,-22.461,-29.297,-33.203,-29.297,0.000
1728627049.775,-50.293,-43.457,-51.270,-33.691,0.000
1728627049.779,-54.199,-48.340,-50.293,-38.574,0.000
1728627049.783,-28.320,-16.602,-41.992,-42.480,0.000
1728627049.787,0.488,-10.742,-38.086,-35.156,0.000
1728627049.791,3.906,-31.738,-47.852,-24.902,0.000
1728627049.795,-31.250,-34.668,-52.734,-37.109,0.000
1728627049.799,-54.199,-30.762,-38.086,-49.316,0.000
1728627049.803,-40.527,-26.855,-28.809,-41.504,0.000
1728627049.807,-22.461,-29.297,-35.156,-33.203,0.000
1728627049.810,-24.414,-31.738,-42.969,-35.156,0.000
1728627049.814,-42.969,-40.527,-41.504,-40.039,0.000
1728627049.818,-58.105,-44.922,-45.898,-50.293,0.000
1728627049.822,-41.016,-41.992,-43.457,-38.574,0.000
1728627049.826,-7.812,-37.109,-28.320,-16.113,0.000
1728627049.830,-0.977,-43.457,-20.020,-13.672,0.000
1728627049.834,-33.691,-61.523,-31.250,-12.207,0.000
1728627049.838,-54.688,-55.176,-45.410,-21.484,0.000
1728627049.842,-39.551,-35.156,-38.574,-27.832,0.000
1728627049.846,-16.602,-29.297,-32.227,-24.902,0.000
1728627049.850,-16.602,-45.898,-38.574,-30.762,0.000
1728627049.853,-45.898,-54.199,-58.594,-40.527,0.000
1728627049.857,-64.941,-47.363,-55.664,-54.199,0.000
1728627049.861,-39.062,-35.156,-28.809,-50.293,0.000
1728627049.865,-18.066,-34.180,-23.926,-35.156,0.000
1728627049.869,-12.695,-38.574,-26.855,-25.391,0.000
1728627049.873,-23.926,-37.598,-33.203,-27.344,0.000
1728627049.877,-53.711,-45.898,-41.016,-41.016,0.000
1728627049.881,-53.223,-42.969,-39.062,-43.457,0.000
1728627049.885,-19.531,-44.434,-36.133,-33.691,0.000
1728627049.889,-10.742,-37.598,-38.086,-35.645,0.000
1728627049.893,-28.320,-30.273,-47.363,-46.387,0.000
1728627049.896,-42.480,-38.086,-45.898,-46.875,0.000
1728627049.900,-41.992,-40.039,-31.250,-39.551,0.000
1728627049.904,-26.855,-38.086,-31.738,-37.109,0.000
1728627049.908,-15.137,-39.062,-38.086,-38.574,0.000
1728627049.912,-27.832,-45.410,-38.086,-34.668,0.000
1728627049.916,-46.875,-52.734,-48.828,-37.109,0.000
1728627049.920,-49.316,-44.922,-44.434,-45.898,0.000
1728627049.924,-23.926,-39.551,-27.832,-31.738,0.000
1728627049.928,-4.395,-48.828,-32.227,-26.855,0.000
1728627049.932,-22.949,-47.363,-43.945,-36.621,0.000
1728627049.936,-60.547,-48.340,-43.457,-42.480,0.000
1728627049.939,-57.617,-50.293,-41.504,-41.504,0.000
1728627049.943,-18.555,-46.387,-33.691,-30.273,0.000
1728627049.947,-10.742,-41.504,-26.367,-21.484,0.000
1728627049.951,-23.438,-49.316,-31.250,-17.090,0.000
1728627049.955,-40.039,-52.734,-35.645,-19.531,0.000
1728627049.959,-52.734,-38.086,-41.504,-24.902,0.000
1728627049.963,-29.785,-22.461,-31.738,-16.602,0.000
1728627049.967,-4.883,-27.832,-19.531,-15.625,0.000
1728627049.971,-18.555,-49.316,-32.227,-13.184,0.000
1728627049.975,-45.898,-73.730,-61.523,-17.090,0.000
1728627049.979,-57.129,-58.105,-46.387,-35.156,0.000
1728627049.982,-41.504,-33.691,-16.113,-31.738,0.000
1728627049.986,-16.602,-36.621,-17.578,-27.344,0.000
1728627049.990,-21.973,-48.340,-24.902,-28.809,0.000
1728627049.994,-45.410,-45.410,-30.273,-28.320,0.000
1728627049.998,-57.129,-43.945,-27.344,-27.832,0.000
1728627050.002,-41.992,-45.898,-26.367,-24.414,0.000
1728627050.006,-14.648,-40.527,-32.227,-22.949,0.000
1728627050.010,-17.578,-60.059,-38.574,-26.855,0.000
1728627050.014,-41.016,-86.914,-43.457,-37.598,0.000
1728627050.018,-55.664,-76.660,-59.570,-42.480,0.000
1728627050.021,-47.852,-57.129,-57.129,-36.133,0.000
1728627050.025,-32.715,-47.363,-32.227,-35.645,0.000
1728627050.029,-27.832,-53.223,-28.809,-32.227,0.000
1728627050.033,-33.203,-62.500,-36.621,-32.715,0.000
1728627050.037,0.000,-69.336,-51.758,-51.758,0.000
1728627050.041,0.000,-61.523,-53.223,-53.223,0.000
1728627050.045,0.000,-59.082,-31.250,-32.715,0.000
1728627050.049,0.000,-62.988,-33.203,-29.297,0.000
1728627050.053,0.000,-59.570,-45.410,-34.180,0.000
1728627050.057,0.000,-72.754,-50.781,-33.691,0.000
1728627050.061,0.000,-83.496,-57.129,-35.156,0.000
1728627050.064,0.000,-65.918,-51.758,-17.578,0.000
1728627050.068,0.000,-40.039,-32.715,-22.461,0.000
1728627050.072,0.000,-47.852,-37.109,-38.574,0.000
1728627050.076,0.000,-60.059,-56.641,-44.434,0.000
1728627050.080,0.000,-59.082,-48.828,-54.199,0.000
1728627050.084,-30.762,-47.852,-31.250,-49.316,0.000
1728627050.088,-23.438,-44.922,-33.203,-43.457,0.000
1728627050.092,-32.715,-60.547,-53.223,-41.504,0.000
1728627050.096,-50.781,-67.871,-62.012,-46.875,0.000
1728627050.100,-49.805,-54.199,-46.387,-41.992,0.000
1728627050.103,-15.625,-27.832,-32.227,-20.996,0.000
1728627050.107,0.977,-15.137,-42.969,-16.113,0.000
1728627050.111,-20.996,-20.020,-55.176,-22.461,0.000
1728627050.115,-56.152,-20.996,-66.406,-41.016,0.000
1728627050.119,-47.852,-12.695,-60.547,-41.504,0.000
1728627050.123,-16.113,-8.301,-33.691,-37.598,0.000
1728627050.127,-14.648,0.488,-43.457,-41.016,0.000
1728627050.131,-33.203,-4.395,-54.199,-27.832,0.000
1728627050.135,-57.129,-13.184,-51.270,-27.344,0.000
1728627050.139,-63.477,-7.812,-52.734,-38.086,0.000
1728627050.142,-35.645,2.441,-39.062,-32.715,0.000
1728627050.146,-3.418,10.254,-30.762,-26.367,0.000
1728627050.150,-5.859,1.465,-45.898,-24.414,0.000
1728627050.154,-26.855,-14.160,-61.523,-23.438,0.000
1728627050.158,-56.152,-12.207,-54.199,-37.109,0.000
1728627050.162,-41.504,-5.371,-51.270,-39.062,0.000
1728627050.166,3.906,7.324,-49.805,-23.438,0.000
1728627050.170,3.418,7.324,-41.992,-16.602,0.000
1728627050.174,-25.391,-3.418,-55.664,-28.809,0.000
1728627050.178,-46.387,-9.766,-65.918,-33.691,0.000
1728627050.181,-25.879,-11.719,-41.992,-26.855,0.000
1728627050.185,2.930,-13.184,-28.809,-23.438,0.000
1728627050.189,-12.695,-10.742,-43.945,-26.855,0.000
1728627050.193,-47.363,-0.977,-52.246,-38.086,0.000
1728627050.197,-61.523,-6.836,-50.781,-39.062,0.000
1728627050.201,-43.945,-10.254,-29.297,-35.156,0.000
1728627050.205,-14.648,2.441,-16.602,-33.203,0.000
1728627050.209,-12.695,-9.277,-17.578,-21.484,0.000
1728627050.213,-37.109,-33.691,-20.508,-16.602,0.000
1728627050.217,-58.594,-30.273,-22.949,-28.809,0.000
1728627050.220,-50.293,-18.555,-10.254,-32.227,0.000
1728627050.224,-21.484,-20.996,-11.230,-22.949,0.000
1728627050.228,-20.020,-22.949,-32.715,-26.855,0.000
1728627050.232,-47.363,-25.879,-40.039,-38.574,0.000
1728627050.236,-71.777,-27.344,-38.086,-44.434,0.000
1728627050.240,-64.941,-23.926,-36.621,-44.434,0.000
1728627050.244,-31.250,-19.043,-40.039,-44.922,0.000
1728627050.248,-20.508,-17.578,-46.387,-45.898,0.000
1728627050.252,-30.762,-25.879,-45.898,-38.086,0.000
1728627050.256,-45.898,-41.504,-45.898,-37.598,0.000
1728627050.260,-46.387,-41.504,-47.852,-38.574,0.000
1728627050.264,-18.066,-16.113,-43.945,-32.227,0.000
1728627050.267,-4.883,-3.418,-51.270,-29.785,0.000
1728627050.271,-26.855,-2.441,-59.082,-27.832,0.000
1728627050.275,-55.664,-18.066,-59.082,-31.738,0.000
1728627050.279,-55.664,-27.832,-57.617,-41.992,0.000
1728627050.283,-19.043,-11.230,-42.969,-36.621,0.000
1728627050.287,-1.953,-10.742,-37.598,-28.320,0.000
1728627050.291,-31.250,-32.715,-51.270,-19.043,0.000
1728627050.295,-55.176,-38.086,-59.082,-23.926,0.000
1728627050.299,-45.898,-12.695,-43.945,-38.086,0.000
1728627050.303,-8.789,-14.648,-24.414,-21.484,0.000
1728627050.307,8.301,-18.066,-19.043,-19.531,0.000
1728627050.310,-18.066,-23.438,-26.855,-35.156,0.000
1728627050.314,-48.340,-53.711,-36.621,-41.992,0.000
1728627050.318,-59.082,-47.852,-26.367,-43.457,0.000
1728627050.322,-29.785,-23.926,-3.906,-29.785,0.000
1728627050.326,-5.859,-22.461,3.906,-12.695,0.000
1728627050.330,-21.484,-30.273,-5.371,-5.859,0.000
1728627050.334,-47.852,-39.062,-19.531,-21.484,0.000
1728627050.338,-48.828,-38.086,-21.973,-38.086,0.000
1728627050.342,-30.762,-22.949,-22.949,-33.691,0.000
1728627050.346,-20.508,-21.973,-27.344,-25.391,0.000
1728627050.350,-22.949,-40.527,-29.785,-15.625,0.000
1728627050.353,-51.758,-41.992,-30.273,-28.320,0.000
1728627050.357,-62.988,-39.551,-26.855,-41.016,0.000
1728627050.361,-26.367,-28.809,-22.949,-28.320,0.000
1728627050.365,-2.930,-13.672,-23.438,-26.855,0.000
1728627050.369,-19.043,-25.391,-39.062,-37.109,0.000
1728627050.373,-44.922,-40.039,-54.199,-40.527,0.000
1728627050.377,-56.152,-40.527,-55.176,-47.363,0.000
1728627050.381,-35.645,-29.297,-49.316,-42.480,0.000
1728627050.385,-2.930,-13.672,-45.410,-30.273,0.000
1728627050.389,-4.883,-12.207,-38.086,-32.715,0.000
1728627050.393,-32.715,-26.367,-41.992,-31.250,0.000
1728627050.396,-41.016,-28.809,-46.387,-30.273,0.000
1728627050.400,-36.621,-24.902,-25.391,-39.551,0.000
1728627050.404,-11.230,-24.414,-14.160,-33.691,0.000
1728627050.408,-3.906,-31.738,-27.344,-22.949,0.000
1728627050.412,-36.133,-36.133,-39.062,-28.320,0.000
1728627050.416,-60.059,-27.344,-35.156,-41.504,0.000
1728627050.420,-50.293,-28.320,-22.461,-44.922,0.000
1728627050.424,-20.996,-32.715,-7.812,-37.109,0.000
1728627050.428,-21.973,-33.203,-12.695,-30.273,0.000
1728627050.432,-45.410,-36.133,-24.902,-21.973,0.000
1728627050.435,-67.871,-38.574,-28.320,-19.531,0.000
1728627050.439,-62.500,-49.805,-27.344,-19.531,0.000
1728627050.443,-35.645,-42.480,-17.090,-24.902,0.000
1728627050.447,-22.461,-41.504,-19.531,-33.691,0.000
1728627050.451,-28.320,-52.246,-36.133,-29.297,0.000
1728627050.455,-51.270,-45.410,-37.598,-39.551,0.000
1728627050.459,0.000,-33.691,-23.926,-51.270,0.000
1728627050.463,0.000,-16.602,-18.066,-40.039,0.000
1728627050.467,0.000,-26.367,-24.902,-42.480,0.000
1728627050.471,0.000,-48.340,-33.203,-46.387,0.000
1728627050.474,0.000,-49.805,-44.434,-45.898,0.000
1728627050.478,0.000,-47.363,-44.922,-49.316,0.000
1728627050.482,0.000,-52.246,-35.645,-36.133,0.000
1728627050.486,0.000,-53.223,-32.227,-33.691,0.000
1728627050.490,0.000,-39.062,-30.762,-34.668,0.000
1728627050.494,0.000,-45.410,-42.480,-34.180,0.000
1728627050.498,0.000,-39.551,-37.109,-41.992,0.000
1728627050.502,0.000,-24.414,-16.602,-33.691,0.000
1728627050.506,-7.324,-31.738,-16.602,-24.414,0.000
1728627050.510,-34.668,-41.992,-28.809,-32.715,0.000
1728627050.513,-49.805,-50.781,-46.387,-45.898,0.000
1728627050.517,-66.895,-57.617,-55.664,-54.688,0.000
1728627050.521,-57.617,-51.270,-34.668,-39.551,0.000
1728627050.525,-25.879,-41.504,-30.273,-25.879,0.000
1728627050.529,-25.879,-42.969,-44.434,-14.648,0.000
1728627050.533,-62.500,-39.062,-36.621,-24.902,0.000
1728627050.537,-70.801,-45.410,-30.273,-46.387,0.000
1728627050.541,-39.062,-47.363,-17.578,-39.551,0.000
1728627050.545,-27.344,-40.527,-8.789,-34.180,0.000
1728627050.549,-36.133,-37.598,-14.648,-36.621,0.000
1728627050.552,-55.176,-41.016,-26.855,-40.527,0.000
1728627050.556,-66.895,-57.617,-43.457,-44.922,0.000
1728627050.560,-45.410,-46.875,-38.574,-41.016,0.000
1728627050.564,-8.789,-19.043,-20.020,-23.926,0.000
1728627050.568,-2.930,-23.926,-21.484,-14.160,0.000
1728627050.572,-49.805,-60.059,-41.992,-29.297,0.000
1728627050.576,-76.660,-82.031,-59.082,-51.758,0.000
1728627050.580,-57.617,-57.129,-47.363,-46.875,0.000
1728627050.584,-20.020,-30.762,-24.902,-24.414,0.000
1728627050.588,-10.742,-40.527,-26.367,-21.484,0.000
1728627050.591,-49.805,-42.480,-42.480,-30.762,0.000
1728627050.595,-64.453,-38.086,-44.434,-39.551,0.000
1728627050.599,-46.875,-48.340,-39.062,-43.945,0.000
1728627050.603,-34.668,-54.688,-46.875,-43.457,0.000
1728627050.607,-39.062,-49.316,-55.664,-46.875,0.000
1728627050.611,-62.500,-55.664,-60.059,-52.734,0.000
1728627050.615,-85.938,-29.297,-61.035,-53.711,0.000
1728627050.619,-92.285,-34.668,-59.570,-71.289,0.000
1728627050.623,-77.637,-65.918,-52.734,-81.055,0.000
1728627050.627,-53.223,-26.367,-44.434,-60.059,0.000
1728627050.631,-38.086,-35.645,-36.621,-38.574,0.000
1728627050.635,-43.945,-90.820,-32.227,-35.645,0.000
1728627050.638,-70.312,-92.285,-44.434,-54.688,0.000
1728627050.642,-70.312,-69.336,-52.246,-60.059,0.000
1728627050.646,-18.555,-125.977,-44.434,-28.809,0.000
1728627050.650,13.184,-190.918,-25.879,4.883,0.000
1728627050.654,-31.250,-233.887,-33.203,-24.414,0.000
1728627050.658,-44.922,-275.879,-22.949,-45.898,0.000
1728627050.662,20.996,-301.270,-2.441,-17.090,0.000
1728627050.666,-21.484,-304.688,-32.227,-39.062,0.000
1728627050.670,-41.992,-348.633,-34.668,-32.715,0.000
1728627050.674,-63.477,-415.039,-49.316,-39.551,0.000
1728627050.678,-76.660,-519.043,-70.312,-48.340,0.000
1728627050.681,-28.320,-630.859,-32.715,-12.207,0.000
1728627050.685,-16.113,-672.852,-1.465,-19.043,0.000
1728627050.689,-9.277,-750.000,-18.555,-33.203,0.000
1728627050.693,-47.852,-881.836,-39.551,-40.039,0.000
1728627050.697,-99.609,-935.059,-44.922,-58.105,0.000
1728627050.701,-66.406,-971.191,-37.598,-54.199,0.000
1728627050.705,-10.254,-1000.000,-23.438,-28.320,0.000
1728627050.709,-19.043,-999.023,-29.785,-25.391,0.000
1728627050.713,-44.922,-1000.000,-42.480,-33.691,0.000
1728627050.717,-78.613,-1000.000,-49.316,-53.223,0.000
1728627050.721,-59.082,-1000.000,-52.246,-48.340,0.000
1728627050.724,-16.602,-1000.000,-50.293,-24.902,0.000
1728627050.728,-29.297,-1000.000,-35.645,-34.668,0.000
1728627050.732,-43.457,-1000.000,-30.273,-43.945,0.000
1728627050.736,-46.875,-1000.000,-34.668,-45.410,0.000
1728627050.740,-25.879,-1000.000,-17.090,-34.180,0.000
1728627050.744,4.883,-1000.000,-15.625,-18.066,0.000
1728627050.748,-6.348,-1000.000,-41.016,-16.113,0.000
1728627050.752,-39.551,-1000.000,-42.969,-21.484,0.000
1728627050.756,-60.059,-1000.000,-39.551,-37.598,0.000
1728627050.760,-44.922,-1000.000,-37.109,-41.992,0.000
1728627050.764,-6.836,-1000.000,-24.414,-28.320,0.000
1728627050.767,-0.488,-1000.000,-20.020,-21.484,0.000
1728627050.771,-45.898,-1000.000,-33.691,-26.367,0.000
1728627050.775,-68.359,-1000.000,-31.738,-42.969,0.000
1728627050.779,-42.969,-1000.000,-20.508,-46.387,0.000
1728627050.783,-18.555,-997.070,-29.785,-34.668,0.000
1728627050.787,-19.531,-1000.000,-35.645,-30.762,0.000
1728627050.791,-44.434,-975.586,-44.434,-33.203,0.000
1728627050.795,-61.035,-865.723,-47.852,-36.621,0.000
1728627050.799,-44.922,-758.301,-31.250,-38.574,0.000
1728627050.803,-19.043,-656.738,-26.367,-34.668,0.000
1728627050.806,-12.695,-568.848,-38.086,-27.344,0.000
1728627050.810,-27.832,-514.160,-47.852,-29.297,0.000
1728627050.814,-46.875,-448.242,-59.082,-35.156,0.000
1728627050.818,-52.246,-361.328,-53.223,-46.387,0.000
1728627050.822,-30.273,-289.551,-39.062,-38.574,0.000
1728627050.826,-15.137,-217.773,-38.086,-23.438,0.000
1728627050.830,-33.691,-142.090,-48.828,-21.973,0.000
1728627050.834,-49.316,-91.797,-61.035,-30.273,0.000
1728627050.838,-43.945,-22.949,-44.434,-32.227,0.000
1728627050.842,-32.227,47.852,-39.062,-36.133,0.000
1728627050.845,-25.391,89.844,-44.434,-40.527,0.000
1728627050.849,-42.480,147.461,-48.828,-39.062,0.000
1728627050.853,-65.918,213.867,-55.664,-49.316,0.000
1728627050.857,-53.711,261.230,-44.434,-49.316,0.000
1728627050.861,-24.902,307.129,-29.785,-37.598,0.000
1728627050.865,-19.531,339.355,-38.086,-36.133,0.000
1728627050.869,-32.715,360.840,-49.316,-41.504,0.000
1728627050.873,-57.129,381.836,-47.363,-47.852,0.000
1728627050.877,-62.988,399.414,-35.645,-43.457,0.000
1728627050.881,-36.133,419.922,-28.809,-29.785,0.000
1728627050.884,-14.648,434.082,-28.320,-26.367,0.000
1728627050.888,-13.672,441.406,-26.855,-37.109,0.000
1728627050.892,-41.016,435.547,-38.574,-43.457,0.000
1728627050.896,-62.988,442.383,-41.504,-43.945,0.000
1728627050.900,-40.527,453.613,-30.762,-41.504,0.000
1728627050.904,-17.578,447.754,-37.109,-42.969,0.000
1728627050.908,-30.762,459.961,-46.875,-42.480,0.000
1728627050.912,-55.176,465.820,-50.781,-44.922,0.000
1728627050.916,-60.547,458.496,-41.016,-53.223,0.000
1728627050.920,-31.738,468.262,-22.949,-43.457,0.000
1728627050.924,-5.859,469.238,-14.160,-23.438,0.000
1728627050.927,-17.578,458.496,-26.367,-20.020,0.000
1728627050.931,-41.504,453.125,-38.574,-27.832,0.000
1728627050.935,-65.430,439.941,-33.691,-39.551,0.000
1728627050.939,-52.734,439.453,-21.484,-35.645,0.000
1728627050.943,-19.043,433.105,-18.066,-24.414,0.000
1728627050.947,-14.160,407.715,-20.508,-17.090,0.000
1728627050.951,-39.062,397.461,-25.391,-23.438,0.000
1728627050.955,-58.105,379.395,-35.156,-43.945,0.000
1728627050.959,-46.387,371.094,-25.391,-41.992,0.000
1728627050.962,-18.555,381.836,-15.625,-22.949,0.000
1728627050.966,-14.648,384.277,-9.766,-19.531,0.000
1728627050.970,-46.875,363.770,-22.461,-29.297,0.000
1728627050.974,0.000,341.797,-42.480,-38.574,0.000
1728627050.978,0.000,330.566,-36.621,-38.574,0.000
1728627050.982,0.000,324.219,-18.555,-34.180,0.000
1728627050.986,0.000,322.754,-18.066,-29.785,0.000
1728627050.990,0.000,308.594,-43.945,-32.227,0.000
1728627050.994,0.000,301.270,-60.059,-40.039,0.000
1728627050.998,0.000,318.359,-42.969,-44.922,0.000
1728627051.002,0.000,336.426,-26.855,-34.180,0.000
1728627051.006,0.000,333.496,-37.109,-27.832,0.000
1728627051.009,0.000,322.266,-46.875,-28.809,0.000
1728627051.013,0.000,317.871,-49.316,-44.922,0.000
1728627051.017,0.000,310.059,-46.875,-50.293,0.000
1728627051.021,-25.391,323.242,-57.129,-42.480,0.000
1728627051.025,-10.742,331.055,-50.781,-37.109,0.000
1728627051.029,-33.203,314.453,-45.898,-37.598,0.000
1728627051.033,-57.617,294.434,-54.688,-40.527,0.000
1728627051.037,-62.012,281.738,-41.992,-44.434,0.000
1728627051.041,-37.109,283.203,-33.203,-40.527,0.000
1728627051.045,-14.160,275.391,-34.668,-31.250,0.000
1728627051.049,-28.320,246.094,-37.109,-34.668,0.000
1728627051.052,-59.082,223.145,-59.570,-42.480,0.000
1728627051.056,-67.383,230.957,-71.777,-50.293,0.000
1728627051.060,-33.203,243.164,-35.645,-46.875,0.000
1728627051.064,-12.695,233.887,-23.438,-27.344,0.000
1728627051.068,-35.645,215.820,-47.852,-23.926,0.000
1728627051.072,-65.918,198.242,-55.664,-37.109,0.000
1728627051.076,-66.406,183.594,-46.387,-52.246,0.000
1728627051.080,-38.086,181.152,-33.691,-49.316,0.000
1728627051.084,-21.484,174.316,-29.297,-33.203,0.000
1728627051.088,-23.926,152.344,-42.969,-31.738,0.000
1728627051.092,-46.875,151.855,-47.852,-43.945,0.000
1728627051.095,-65.430,158.691,-41.504,-47.852,0.000
1728627051.099,-44.922,148.438,-37.598,-35.645,0.000
1728627051.103,-20.996,149.414,-26.855,-31.250,0.000
1728627051.107,-31.738,151.367,-34.180,-26.855,0.000
1728627051.111,-54.199,141.113,-51.758,-32.715,0.000
1728627051.115,-67.871,141.113,-49.316,-42.480,0.000
1728627051.119,-44.922,156.250,-35.645,-29.297,0.000
1728627051.123,-8.789,161.133,-27.832,-18.555,0.000
1728627051.127,-7.812,137.207,-31.738,-13.672,0.000
1728627051.131,-39.551,123.535,-31.738,-23.438,0.000
1728627051.135,-60.547,135.742,-30.273,-33.691,0.000
1728627051.138,-49.316,140.137,-31.250,-37.598,0.000
1728627051.142,-23.926,127.930,-35.645,-32.227,0.000
1728627051.146,-18.066,125.488,-37.598,-28.320,0.000
1728627051.150,-38.574,129.395,-42.969,-41.016,0.000
1728627051.154,-66.406,107.422,-55.176,-48.340,0.000
1728627051.158,-57.129,98.633,-53.223,-44.922,0.000
1728627051.162,-20.996,110.840,-30.762,-38.086,0.000
1728627051.166,-5.859,125.000,-21.973,-29.785,0.000
1728627051.170,-27.344,132.812,-33.203,-31.250,0.000
1728627051.174,-52.734,127.930,-50.781,-43.945,0.000
1728627051.177,-48.340,138.672,-49.805,-44.434,0.000
1728627051.181,-25.879,140.625,-39.062,-39.551,0.000
1728627051.185,-13.184,124.512,-35.156,-37.109,0.000
1728627051.189,-35.156,99.609,-39.551,-26.855,0.000
1728627051.193,-57.617,104.492,-41.992,-33.691,0.000
1728627051.197,-45.410,122.070,-52.246,-38.574,0.000
1728627051.201,-26.855,107.422,-51.270,-31.250,0.000
1728627051.205,-3.906,100.098,-29.297,-27.832,0.000
1728627051.209,-18.066,104.004,-35.156,-26.367,0.000
1728627051.213,-49.805,85.938,-47.363,-34.668,0.000
1728627051.217,-49.316,71.777,-38.086,-41.504,0.000
1728627051.220,-32.715,75.684,-28.320,-36.621,0.000
1728627051.224,-16.602,75.195,-28.809,-30.273,0.000
1728627051.228,-25.879,68.848,-33.691,-36.133,0.000
1728627051.232,-58.105,50.293,-46.875,-44.922,0.000
1728627051.236,-65.430,61.523,-50.293,-40.039,0.000
1728627051.240,-35.156,83.008,-38.574,-32.715,0.000
1728627051.244,-9.766,60.059,-31.738,-24.414,0.000
1728627051.248,-32.227,43.457,-34.180,-19.043,0.000
1728627051.252,-63.965,45.898,-43.457,-30.273,0.000
1728627051.256,-58.594,54.199,-32.227,-29.785,0.000
1728627051.259,-31.738,57.617,-20.996,-17.578,0.000
1728627051.263,-12.207,53.711,-27.832,-22.461,0.000
1728627051.267,-24.414,51.270,-35.156,-32.227,0.000
1728627051.271,-48.828,47.852,-44.434,-32.227,0.000
1728627051.275,-55.664,36.621,-53.223,-33.203,0.000
1728627051.279,-29.297,42.969,-43.457,-27.344,0.000
1728627051.283,-6.348,55.664,-24.414,-22.461,0.000
1728627051.287,-17.090,37.598,-21.484,-24.902,0.000
1728627051.291,-34.668,20.020,-34.668,-20.996,0.000
1728627051.295,-44.434,23.438,-40.527,-20.996,0.000
1728627051.298,-41.992,31.250,-28.320,-31.250,0.000
1728627051.302,-13.184,38.574,-22.949,-35.156,0.000
1728627051.306,-3.418,39.551,-35.156,-25.391,0.000
1728627051.310,-32.227,13.184,-54.688,-26.367,0.000
1728627051.314,-60.547,7.324,-57.617,-40.039,0.000
1728627051.318,-44.922,32.227,-32.715,-41.504,0.000
1728627051.322,-8.789,33.203,-25.391,-25.879,0.000
1728627051.326,-20.996,27.344,-32.715,-24.414,0.000
1728627051.330,-53.223,30.762,-24.902,-32.227,0.000
1728627051.334,-62.988,18.066,-30.273,-38.574,0.000
1728627051.337,-45.898,19.531,-39.551,-41.992,0.000
1728627051.341,-12.207,54.199,-29.297,-33.203,0.000
1728627051.345,-8.789,62.500,-28.809,-31.738,0.000
1728627051.349,-39.551,43.945,-37.109,-34.668,0.000
1728627051.353,-61.035,34.180,-44.434,-42.969,0.000
1728627051.357,-61.523,29.785,-36.133,-45.898,0.000
1728627051.361,-28.809,38.574,-26.367,-34.180,0.000
1728627051.365,-9.277,50.781,-25.879,-23.926,0.000
1728627051.369,-29.785,37.109,-32.715,-27.344,0.000
1728627051.373,-53.711,32.715,-49.805,-43.945,0.000
1728627051.377,-42.480,48.340,-41.016,-44.922,0.000
1728627051.380,-7.324,40.527,-34.180,-30.273,0.000
1728627051.384,-3.418,22.949,-42.969,-29.785,0.000
1728627051.388,-29.297,20.508,-39.062,-42.480,0.000
1728627051.392,-41.992,22.461,-37.598,-54.688,0.000
1728627051.396,-40.527,35.645,-32.227,-51.270,0.000
1728627051.400,-24.902,42.480,-26.855,-39.551,0.000
1728627051.404,-10.742,44.434,-38.086,-33.691,0.000
1728627051.408,-25.879,47.852,-51.270,-30.273,0.000
1728627051.412,-51.270,49.316,-43.945,-33.691,0.000
1728627051.416,-56.641,48.340,-31.250,-40.039,0.000
1728627051.420,-37.598,47.363,-26.855,-35.156,0.000
1728627051.423,-16.602,39.551,-24.414,-22.461,0.000
1728627051.427,-17.578,17.090,-35.156,-13.184,0.000
1728627051.431,-45.410,15.625,-42.969,-28.320,0.000
1728627051.435,-63.477,35.645,-34.668,-46.875,0.000
1728627051.439,-36.133,41.504,-21.973,-30.273,0.000
1728627051.443,-5.371,37.598,-20.996,-12.207,0.000
1728627051.447,-22.461,32.227,-33.691,-11.719,0.000
1728627051.451,-54.688,26.855,-57.617,-22.949,0.000
1728627051.455,-68.359,22.461,-54.199,-38.574,0.000
1728627051.459,-46.875,20.996,-31.738,-45.410,0.000
1728627051.463,-11.719,34.668,-31.738,-30.762,0.000
1728627051.466,-15.625,46.875,-34.668,-19.531,0.000
1728627051.470,-57.617,33.203,-40.039,-39.062,0.000
1728627051.474,-60.547,9.277,-54.199,-35.645,0.000
1728627051.478,-30.273,36.621,-25.879,-21.973,0.000
1728627051.482,-13.672,50.781,-21.973,-33.691,0.000
1728627051.486,-12.207,40.527,-39.062,-38.086,0.000
1728627051.490,-39.551,37.598,-41.504,-34.668,0.000
1728627051.494,-49.805,37.598,-39.551,-42.969,0.000
1728627051.498,-24.414,49.316,-33.691,-41.016,0.000
1728627051.502,-6.348,56.641,-25.391,-29.785,0.000
1728627051.506,-6.348,59.082,-28.809,-14.160,0.000
1728627051.509,-25.391,61.035,-34.180,-7.324,0.000
1728627051.513,-43.457,52.246,-25.879,-28.320,0.000
1728627051.517,-39.551,46.875,-29.785,-37.109,0.000
1728627051.521,-10.254,60.059,-29.297,-31.250,0.000
1728627051.525,-2.930,67.871,-21.973,-29.297,0.000
1728627051.529,-37.109,53.223,-24.902,-32.227,0.000
1728627051.533,-66.895,42.969,-31.250,-47.363,0.000
1728627051.537,-59.570,53.711,-39.551,-41.992,0.000
1728627051.541,-22.949,64.941,-30.273,-27.344,0.000
1728627051.545,-13.672,60.059,-23.438,-26.855,0.000
1728627051.548,-34.180,51.270,-36.133,-27.344,0.000
1728627051.552,-53.711,36.133,-37.598,-36.621,0.000
1728627051.556,-38.574,31.250,-35.645,-41.016,0.000
1728627051.560,-10.742,43.457,-43.945,-28.320,0.000
1728627051.564,-3.906,46.875,-43.945,-13.672,0.000
1728627051.568,-29.297,63.477,-28.320,-20.996,0.000
1728627051.572,-59.570,69.824,-42.480,-39.062,0.000
1728627051.576,-56.152,56.641,-50.781,-39.551,0.000
1728627051.580,-25.391,57.129,-35.645,-36.621,0.000
1728627051.584,-2.441,73.730,-34.180,-37.109,0.000
1728627051.588,-22.949,53.223,-48.340,-39.551,0.000
1728627051.591,-54.199,25.879,-63.477,-42.969,0.000
1728627051.595,-54.199,41.016,-44.922,-46.875,0.000
1728627051.599,-28.320,66.895,-23.926,-41.504,0.000
1728627051.603,-1.953,73.242,-27.832,-28.809,0.000
1728627051.607,-16.113,54.199,-40.039,-19.531,0.000
1728627051.611,-45.898,50.781,-50.293,-21.973,0.000
1728627051.615,-51.758,58.105,-39.062,-29.297,0.000
1728627051.619,-25.879,60.059,-14.160,-20.996,0.000
1728627051.623,-4.395,48.828,-14.648,-18.066,0.000
1728627051.627,-15.625,32.715,-25.879,-18.555,0.000
1728627051.630,-49.316,37.109,-32.715,-29.297,0.000
1728627051.634,-54.688,45.410,-32.227,-37.598,0.000
1728627051.638,-19.043,46.875,-15.625,-22.461,0.000
1728627051.642,-5.859,47.363,-8.301,-21.973,0.000
1728627051.646,-29.785,40.527,-23.438,-35.156,0.000
1728627051.650,-58.594,19.043,-40.039,-38.086,0.000
1728627051.654,-65.430,20.020,-48.828,-41.504,0.000
1728627051.658,-49.316,42.969,-42.969,-50.293,0.000
1728627051.662,-24.902,46.875,-29.297,-42.969,0.000
1728627051.666,-16.602,37.598,-35.645,-26.367,0.000
1728627051.669,-37.109,28.809,-45.898,-42.969,0.000
1728627051.673,-57.129,28.320,-36.621,-52.246,0.000
1728627051.677,-36.621,41.504,-22.461,-32.227,0.000
1728627051.681,-10.742,37.598,-26.367,-24.414,0.000
1728627051.685,-13.672,29.785,-34.180,-27.832,0.000
1728627051.689,-36.133,25.391,-34.668,-32.227,0.000
1728627051.693,-55.176,14.648,-43.457,-36.621,0.000
1728627051.697,-38.086,7.324,-43.457,-29.297,0.000
1728627051.701,0.000,13.184,-16.602,-14.648,0.000
1728627051.705,-1.465,21.973,-20.508,-20.020,0.000
1728627051.709,-29.297,16.602,-34.180,-26.855,0.000
1728627051.713,-51.758,2.441,-35.645,-29.785,0.000
1728627051.716,-44.434,10.254,-27.832,-33.691,0.000
1728627051.720,-24.902,25.879,-16.113,-31.250,0.000
1728627051.724,-19.531,21.484,-20.508,-18.555,0.000
1728627051.728,-27.344,8.789,-41.992,-20.020,0.000
1728627051.732,-47.363,5.859,-51.758,-37.598,0.000
1728627051.736,-51.270,15.137,-42.480,-38.086,0.000
1728627051.740,-26.367,13.672,-32.227,-34.180,0.000
1728627051.744,-9.766,13.184,-23.926,-27.832,0.000
1728627051.748,-25.391,29.297,-32.227,-36.133,0.000
1728627051.752,-55.664,22.949,-41.016,-51.270,0.000
1728627051.756,-50.293,11.230,-39.551,-44.434,0.000
1728627051.759,-13.184,14.160,-27.832,-28.320,0.000
1728627051.763,5.859,16.602,-34.180,-19.043,0.000
1728627051.767,-16.113,9.766,-44.434,-18.066,0.000
1728627051.771,0.000,6.348,-47.363,-32.715,0.000
1728627051.775,0.000,15.137,-48.828,-36.133,0.000
1728627051.779,0.000,37.109,-31.738,-34.668,0.000
1728627051.783,0.000,43.945,-24.902,-31.738,0.000
1728627051.787,0.000,27.832,-42.480,-35.156,0.000
1728627051.791,0.000,9.277,-48.828,-38.086,0.000
1728627051.795,0.000,13.184,-34.668,-43.945,0.000
1728627051.799,0.000,20.508,-28.809,-48.340,0.000
1728627051.803,0.000,17.578,-34.180,-23.926,0.000
1728627051.806,0.000,18.555,-38.574,-19.043,0.000
1728627051.810,0.000,14.648,-47.363,-43.457,0.000
1728627051.814,0.000,2.441,-46.387,-52.734,0.000
1728627051.818,-40.039,6.836,-35.156,-46.875,0.000
1728627051.822,-13.672,18.066,-32.715,-35.645,0.000
1728627051.826,-30.762,9.277,-38.086,-35.645,0.000
1728627051.830,-54.688,-8.789,-39.551,-41.504,0.000
1728627051.834,-56.152,-5.371,-33.203,-41.992,0.000
1728627051.838,-31.250,15.625,-29.297,-36.621,0.000
1728627051.842,-10.254,17.578,-25.391,-32.227,0.000
1728627051.846,-19.043,0.488,-28.320,-30.273,0.000
1728627051.849,-47.363,-12.695,-47.363,-35.156,0.000
1728627051.853,-79.590,-10.742,-50.293,-58.105,0.000
1728627051.857,-56.641,-0.488,-52.246,-52.246,0.000
1728627051.861,-15.137,5.371,-54.199,-31.738,0.000
1728627051.865,-14.160,5.371,-31.738,-27.832,0.000
1728627051.869,-40.527,0.000,-21.484,-38.086,0.000
1728627051.873,-56.641,-0.977,-28.320,-48.828,0.000
1728627051.877,-36.133,14.160,-27.832,-40.039,0.000
1728627051.881,-2.930,22.461,-23.926,-29.785,0.000
1728627051.885,-9.277,4.395,-42.480,-29.785,0.000
1728627051.888,-41.992,-14.648,-57.617,-32.227,0.000
1728627051.892,-55.176,-22.949,-58.105,-32.715,0.000
1728627051.896,-53.711,-17.090,-51.270,-38.574,0.000
1728627051.900,-38.086,4.395,-35.156,-46.387,0.000
1728627051.904,-28.809,8.301,-30.273,-41.992,0.000
1728627051.908,-44.922,3.906,-30.762,-36.621,0.000
1728627051.912,-49.805,2.441,-40.527,-36.133,0.000
1728627051.916,-34.668,-4.395,-49.316,-30.273,0.000
1728627051.920,-20.020,-3.418,-41.016,-20.996,0.000
1728627051.924,-7.812,-11.230,-28.320,-15.137,0.000
1728627051.928,-29.785,-14.160,-36.133,-24.902,0.000
1728627051.931,-63.477,-28.320,-47.363,-51.270,0.000
1728627051.935,-57.129,-26.367,-49.805,-51.758,0.000
1728627051.939,-23.438,-6.836,-48.828,-31.250,0.000
1728627051.943,-9.766,7.324,-37.598,-31.738,0.000
1728627051.947,-22.949,9.277,-33.203,-24.902,0.000
1728627051.951,-49.805,-2.441,-32.227,-22.949,0.000
1728627051.955,-61.523,-0.977,-31.738,-38.574,0.000
1728627051.959,0.000,-11.230,-31.738,-39.551,0.000
1728627051.963,0.000,-14.648,-35.645,-35.645,0.000
1728627051.967,0.000,-11.230,-38.574,-33.691,0.000
1728627051.970,0.000,-28.809,-48.828,-39.551,0.000
1728627051.974,0.000,-28.809,-57.617,-57.617,0.000
1728627051.978,0.000,-5.859,-41.992,-46.387,0.000
1728627051.982,0.000,-8.301,-36.621,-22.949,0.000
1728627051.986,0.000,-11.230,-38.086,-23.926,0.000
1728627051.990,0.000,-10.254,-34.668,-35.156,0.000
1728627051.994,0.000,-13.184,-47.852,-42.969,0.000
1728627051.998,0.000,-11.230,-38.574,-38.574,0.000
1728627052.002,0.000,-8.301,-33.203,-27.344,0.000
1728627052.006,-9.766,-4.395,-40.039,-28.320,0.000
1728627052.009,-34.668,-19.043,-42.969,-46.387,0.000
1728627052.013,-57.129,-33.203,-43.945,-55.176,0.000
1728627052.017,-46.387,-21.484,-38.086,-43.457,0.000
1728627052.021,-17.090,-11.230,-39.062,-35.156,0.000
1728627052.025,-15.625,-8.789,-44.922,-32.227,0.000
1728627052.029,-42.969,-19.043,-48.828,-30.273,0.000
1728627052.033,-61.035,-20.508,-44.922,-42.969,0.000
1728627052.037,-40.039,-11.230,-41.504,-39.551,0.000
1728627052.041,-9.766,-6.348,-31.738,-33.203,0.000
1728627052.045,-12.207,-7.324,-29.297,-39.062,0.000
1728627052.049,-46.387,-19.531,-42.480,-44.922,0.000
1728627052.052,-69.336,-27.344,-41.992,-53.223,0.000
1728627052.056,-55.664,-28.320,-28.809,-57.617,0.000
1728627052.060,-35.645,-20.508,-25.391,-51.270,0.000
1728627052.064,-30.762,-6.836,-31.250,-41.504,0.000
1728627052.068,-43.945,-8.301,-33.691,-51.270,0.000
1728627052.072,-60.059,-27.832,-40.527,-50.781,0.000
1728627052.076,-58.594,-26.367,-27.832,-36.133,0.000
1728627052.080,-36.621,-15.625,-20.020,-34.668,0.000
1728627052.084,-29.785,-28.809,-32.715,-43.945,0.000
1728627052.087,-52.246,-40.527,-39.551,-47.852,0.000
1728627052.091,-66.895,-33.691,-33.203,-49.805,0.000
1728627052.095,-51.270,-13.184,-32.227,-50.781,0.000
1728627052.099,-9.766,-6.836,-41.016,-32.227,0.000
1728627052.103,15.137,-14.160,-38.574,-21.973,0.000
1728627052.107,-18.555,-15.137,-34.180,-39.062,0.000
1728627052.111,-58.594,-17.090,-36.621,-48.340,0.000
1728627052.115,-49.316,-22.461,-31.738,-40.527,0.000
1728627052.119,-17.578,-33.203,-36.621,-29.785,0.000
1728627052.123,0.000,-27.832,-40.039,-28.320,0.000
1728627052.127,-12.207,-14.160,-34.668,-28.809,0.000
1728627052.131,-31.738,-21.484,-43.945,-34.180,0.000
1728627052.134,-34.668,-23.926,-58.594,-41.504,0.000
1728627052.138,-18.066,2.930,-36.621,-34.180,0.000
1728627052.142,-1.465,5.859,-14.648,-23.438,0.000
1728627052.146,-32.227,-16.602,-38.086,-29.297,0.000
1728627052.150,-70.801,-28.809,-56.152,-38.086,0.000
1728627052.154,-64.941,-24.414,-36.133,-34.180,0.000
1728627052.158,-29.785,-6.348,-20.508,-20.996,0.000
1728627052.162,-11.719,-3.418,-37.598,-21.484,0.000
1728627052.166,-20.996,-11.719,-56.641,-32.227,0.000
1728627052.170,-55.176,-16.113,-53.711,-42.969,0.000
1728627052.174,-69.336,-18.066,-39.062,-43.945,0.000
1728627052.177,-39.551,-18.555,-37.598,-25.391,0.000
1728627052.181,-14.160,-14.648,-33.203,-24.902,0.000
1728627052.185,-22.949,-22.461,-36.133,-37.598,0.000
1728627052.189,-55.176,-40.039,-54.199,-42.480,0.000
1728627052.193,-64.453,-36.133,-43.457,-45.410,0.000
1728627052.197,-34.180,-10.254,-34.668,-41.016,0.000
1728627052.201,-8.789,-1.465,-42.480,-28.809,0.000
1728627052.205,-15.137,-6.836,-39.062,-29.297,0.000
1728627052.209,-37.598,-4.395,-40.527,-26.367,0.000
1728627052.213,-62.500,-12.695,-43.945,-30.762,0.000
1728627052.217,-46.875,-14.648,-33.691,-41.992,0.000
1728627052.220,-10.254,-7.324,-25.391,-27.344,0.000
1728627052.224,-7.324,-25.391,-21.484,-5.859,0.000
1728627052.228,-39.062,-19.043,-27.344,-20.020,0.000
1728627052.232,-50.781,-14.160,-45.898,-32.227,0.000
1728627052.236,-30.762,-11.719,-40.039,-23.438,0.000
1728627052.240,-4.883,8.301,-23.926,-16.113,0.000
1728627052.244,-9.766,1.465,-19.531,-13.672,0.000
1728627052.248,-45.410,-16.113,-26.855,-18.066,0.000
1728627052.252,-62.012,-30.762,-41.992,-25.391,0.000
1728627052.256,-45.898,-31.250,-29.785,-25.391,0.000
1728627052.259,-1.953,-19.043,-12.695,-12.207,0.000
1728627052.263,3.418,-26.855,-22.461,-10.742,0.000
1728627052.267,-33.691,-41.992,-39.062,-21.973,0.000
1728627052.271,-56.641,-35.645,-35.156,-23.926,0.000
1728627052.275,-46.387,-16.113,-15.137,-17.090,0.000
1728627052.279,-20.996,-2.441,-21.973,-19.043,0.000
1728627052.283,-16.602,-16.602,-36.133,-29.785,0.000
1728627052.287,-34.668,-25.879,-42.969,-29.785,0.000
1728627052.291,-58.105,-28.809,-45.898,-38.086,0.000
1728627052.295,-52.246,-26.367,-40.527,-40.527,0.000
1728627052.299,-17.578,-19.531,-28.809,-20.508,0.000
1728627052.302,-1.953,-24.414,-20.020,-14.160,0.000
1728627052.306,-24.414,-29.297,-23.926,-17.090,0.000
1728627052.310,-60.059,-41.504,-38.574,-33.203,0.000
1728627052.314,-51.758,-40.527,-43.457,-36.133,0.000
1728627052.318,-16.602,-15.137,-27.832,-23.926,0.000
1728627052.322,-9.277,-10.742,-24.902,-22.461,0.000
1728627052.326,-25.391,-34.180,-45.898,-24.414,0.000
1728627052.330,-51.270,-45.410,-50.293,-35.645,0.000
1728627052.334,-52.734,-25.879,-23.926,-38.574,0.000
1728627052.338,-24.902,-12.207,-13.672,-27.344,0.000
1728627052.341,-2.930,-24.414,-20.020,-19.043,0.000
1728627052.345,-19.043,-36.621,-24.902,-19.531,0.000
1728627052.349,-57.617,-42.480,-41.016,-26.367,0.000
1728627052.353,-55.176,-46.875,-41.504,-36.133,0.000
1728627052.357,-19.043,-36.133,-34.180,-25.879,0.000
1728627052.361,3.418,-20.508,-28.809,-17.578,0.000
1728627052.365,-14.648,-13.672,-15.137,-27.344,0.000
1728627052.369,-43.457,-19.043,-20.020,-32.227,0.000
1728627052.373,-50.781,-24.902,-23.926,-37.109,0.000
1728627052.377,-20.996,-21.973,-15.137,-31.250,0.000
1728627052.380,-0.488,-25.879,-17.578,-28.320,0.000
1728627052.384,-18.555,-34.668,-41.992,-30.273,0.000
1728627052.388,-44.922,-42.969,-62.500,-34.668,0.000
1728627052.392,-58.594,-27.832,-45.898,-40.527,0.000
1728627052.396,-36.133,-5.371,-22.949,-37.598,0.000
1728627052.400,-4.395,-5.859,-25.391,-23.926,0.000
1728627052.404,-13.672,-24.414,-34.180,-14.160,0.000
1728627052.408,-43.945,-26.367,-33.203,-26.855,0.000
1728627052.412,-56.152,-22.461,-28.320,-37.598,0.000
1728627052.416,-38.086,-24.902,-31.738,-35.645,0.000
1728627052.420,-7.812,-11.719,-34.180,-19.043,0.000
1728627052.423,-18.066,-9.277,-38.574,-15.625,0.000
1728627052.427,-42.480,-32.715,-53.223,-28.809,0.000
1728627052.431,-45.410,-38.574,-47.363,-34.668,0.000
1728627052.435,-41.016,-17.578,-29.297,-30.273,0.000
1728627052.439,-24.902,-8.301,-11.719,-26.855,0.000
1728627052.443,-22.461,-23.438,-19.043,-25.391,0.000
1728627052.447,-42.969,-52.246,-54.688,-25.391,0.000
1728627052.451,-70.801,-45.898,-57.129,-43.945,0.000
1728627052.455,-65.430,-17.090,-40.039,-52.246,0.000
1728627052.458,-34.180,-10.742,-36.133,-48.340,0.000
1728627052.462,-27.344,-20.508,-33.691,-42.969,0.000
1728627052.466,-37.598,-20.020,-31.738,-30.762,0.000
1728627052.470,-54.688,-15.625,-33.203,-43.457,0.000
1728627052.474,-65.918,-21.484,-28.809,-56.641,0.000
1728627052.478,-41.504,-17.578,-27.832,-51.270,0.000
1728627052.482,-17.090,-16.113,-27.832,-39.551,0.000
1728627052.486,-36.133,-33.691,-30.762,-34.180,0.000
1728627052.490,-56.641,-38.086,-47.852,-34.668,0.000
1728627052.494,-49.805,-27.832,-55.176,-37.109,0.000
1728627052.498,-32.227,-20.508,-35.156,-38.086,0.000
1728627052.502,-14.160,-13.184,-25.879,-36.133,0.000
1728627052.505,-29.785,-19.531,-38.086,-37.598,0.000
1728627052.509,-60.547,-41.016,-49.805,-40.527,0.000
1728627052.513,-58.105,-35.645,-28.809,-47.852,0.000
1728627052.517,-29.297,-13.184,-14.648,-39.551,0.000
1728627052.521,-6.348,-8.789,-27.344,-25.879,0.000
1728627052.525,-13.672,-11.230,-28.320,-26.855,0.000
1728627052.529,-43.945,-20.020,-39.551,-34.668,0.000
1728627052.533,-56.152,-19.531,-33.203,-32.227,0.000
1728627052.537,-23.438,-9.277,-20.020,-23.438,0.000
1728627052.541,2.441,-8.789,-38.086,-20.508,0.000
1728627052.545,-14.160,-19.531,-45.410,-27.344,0.000
1728627052.548,-37.109,-38.086,-40.527,-36.133,0.000
1728627052.552,-42.480,-31.250,-44.434,-27.344,0.000
1728627052.556,-23.926,-22.461,-39.062,-18.066,0.000
1728627052.560,10.254,-15.137,-23.438,-18.066,0.000
1728627052.564,6.348,0.977,-20.996,-12.695,0.000
1728627052.568,-34.668,-7.324,-34.668,-22.461,0.000
1728627052.572,-60.059,-8.301,-45.898,-42.480,0.000
1728627052.576,-49.805,-10.254,-39.062,-49.316,0.000
1728627052.580,-24.414,-15.137,-36.621,-41.016,0.000
1728627052.584,-23.438,-17.578,-42.480,-34.180,0.000
1728627052.588,-42.969,-25.879,-45.898,-39.551,0.000
1728627052.591,-52.734,-27.832,-41.016,-45.898,0.000
1728627052.595,-45.410,-21.484,-41.504,-45.898,0.000
1728627052.599,-21.484,-28.320,-43.945,-31.738,0.000
1728627052.603,-15.137,-18.066,-28.809,-20.508,0.000
1728627052.607,-38.086,-20.508,-33.203,-30.762,0.000
1728627052.611,-61.035,-39.551,-45.898,-46.387,0.000
1728627052.615,-39.062,-22.949,-27.832,-29.297,0.000
1728627052.619,-8.301,-7.812,-17.090,-25.391,0.000
1728627052.623,-4.883,-10.742,-28.320,-36.621,0.000
1728627052.627,-30.273,-29.785,-39.551,-26.855,0.000
1728627052.631,-62.500,-36.133,-44.434,-45.410,0.000
1728627052.634,-45.898,-25.391,-37.598,-55.664,0.000
1728627052.638,-4.883,-16.113,-18.066,-42.969,0.000
1728627052.642,1.465,-23.438,-20.996,-32.715,0.000
1728627052.646,-31.738,-31.250,-43.945,-38.086,0.000
1728627052.650,-67.383,-37.109,-49.316,-55.664,0.000
1728627052.654,-45.898,-30.762,-39.062,-50.781,0.000
1728627052.658,-12.695,-16.602,-33.203,-32.715,0.000
1728627052.662,-17.578,-19.043,-35.156,-37.109,0.000
1728627052.666,-33.691,-19.531,-37.109,-40.527,0.000
1728627052.670,-62.012,-22.461,-41.992,-40.527,0.000
1728627052.673,-60.547,-22.461,-36.621,-49.316,0.000
1728627052.677,-26.855,-8.301,-27.832,-43.457,0.000
1728627052.681,-16.602,-1.465,-30.273,-29.785,0.000
1728627052.685,-22.461,-4.395,-35.156,-26.367,0.000
1728627052.689,-36.133,-17.578,-56.152,-24.414,0.000
1728627052.693,-48.828,-9.277,-40.039,-26.855,0.000
1728627052.697,-30.762,-1.953,-31.738,-35.645,0.000
1728627052.701,-15.137,-10.254,-46.875,-32.227,0.000
1728627052.705,-28.809,-6.836,-41.016,-22.461,0.000
1728627052.709,-50.781,-10.254,-40.039,-35.645,0.000
1728627052.712,-56.152,-14.160,-46.387,-46.387,0.000
1728627052.716,-20.020,-7.324,-41.504,-28.320,0.000
1728627052.720,-1.953,-13.672,-41.016,-21.973,0.000
1728627052.724,-21.973,-21.484,-43.457,-19.043,0.000
1728627052.728,-41.016,-25.391,-48.340,-17.578,0.000
1728627052.732,-48.340,-27.832,-47.852,-31.738,0.000
1728627052.736,-32.227,-18.555,-35.645,-24.902,0.000
1728627052.740,-15.137,-11.230,-35.645,-23.438,0.000
1728627052.744,-27.344,-22.949,-46.387,-26.855,0.000
1728627052.748,-55.664,-25.879,-46.387,-25.879,0.000
1728627052.752,-58.105,-24.902,-39.062,-32.715,0.000
1728627052.755,-27.832,-13.672,-13.672,-28.809,0.000
1728627052.759,-6.348,-9.277,-14.648,-20.020,0.000
1728627052.763,-15.625,-20.020,-38.574,-14.648,0.000
1728627052.767,-45.410,-37.109,-43.945,-30.762,0.000
1728627052.771,-59.570,-31.738,-36.621,-43.945,0.000
1728627052.775,-30.762,-3.418,-37.109,-32.715,0.000
1728627052.779,11.719,6.348,-37.598,-10.742,0.000
1728627052.783,5.859,2.441,-20.996,-7.324,0.000
1728627052.787,-31.738,-9.277,-17.578,-25.879,0.000
1728627052.791,-53.223,-13.672,-33.203,-29.785,0.000
1728627052.794,-34.180,-1.953,-25.391,-25.879,0.000
1728627052.798,8.301,12.695,-17.090,-20.020,0.000
1728627052.802,2.930,8.789,-33.203,-17.090,0.000
1728627052.806,-31.738,-6.836,-45.898,-23.926,0.000
1728627052.810,-35.645,-2.930,-41.016,-23.438,0.000
1728627052.814,-22.949,-1.953,-30.273,-24.902,0.000
1728627052.818,-4.883,-8.301,-26.855,-15.625,0.000
1728627052.822,0.000,-13.184,-25.391,-0.488,0.000
1728627052.826,-20.996,-27.832,-37.109,-4.395,0.000
1728627052.830,-37.598,-21.484,-39.551,-15.625,0.000
1728627052.833,-28.320,-17.578,-31.250,-20.020,0.000
1728627052.837,-0.977,-18.066,-52.246,-11.719,0.000
1728627052.841,5.859,-9.766,-60.547,-7.324,0.000
1728627052.845,-11.719,-9.277,-34.668,-12.695,0.000
1728627052.849,0.000,-25.879,-23.438,-25.391,0.000
1728627052.853,0.000,-39.551,-18.066,-26.855,0.000
1728627052.857,0.000,-18.555,-8.789,-14.648,0.000
1728627052.861,0.000,-15.625,-21.484,-12.695,0.000
1728627052.865,0.000,-35.645,-29.297,-20.020,0.000
1728627052.869,0.000,-35.645,-36.621,-30.273,0.000
1728627052.873,0.000,-15.137,-33.691,-39.062,0.000
1728627052.876,0.000,0.977,-17.090,-36.621,0.000
1728627052.880,0.000,-15.625,-29.297,-29.785,0.000
1728627052.884,0.000,-33.203,-41.016,-16.113,0.000
1728627052.888,0.000,-27.832,-35.156,-29.785,0.000
1728627052.892,0.000,-28.809,-36.133,-40.039,0.000
1728627052.896,-25.391,-23.926,-22.461,-29.785,0.000
1728627052.900,-6.836,-19.043,-12.207,-32.227,0.000
1728627052.904,-25.879,-34.180,-23.438,-34.180,0.000
1728627052.908,-49.316,-41.504,-29.297,-31.250,0.000
1728627052.912,-39.551,-15.137,-19.043,-20.996,0.000
1728627052.916,-15.625,-7.812,-16.602,-18.066,0.000
1728627052.919,-6.836,-22.461,-16.602,-24.902,0.000
1728627052.923,-27.344,-31.250,-36.133,-29.785,0.000
1728627052.927,-55.664,-38.086,-62.500,-36.133,0.000
1728627052.931,-66.895,-39.551,-41.992,-42.969,0.000
1728627052.935,-45.410,-24.902,-14.648,-35.645,0.000
1728627052.939,-21.973,-19.043,-18.066,-23.926,0.000
1728627052.943,-26.367,-19.531,-36.133,-22.461,0.000
1728627052.947,-52.734,-22.949,-40.527,-30.762,0.000
1728627052.951,-57.129,-30.762,-18.555,-36.621,0.000
1728627052.955,-21.973,-21.973,-19.043,-26.367,0.000
1728627052.959,8.789,-12.695,-26.367,-15.137,0.000
1728627052.962,4.883,-28.809,-31.738,-26.855,0.000
1728627052.966,-46.387,-40.039,-52.734,-40.039,0.000
1728627052.970,-69.824,-38.574,-45.898,-43.457,0.000
1728627052.974,-41.016,-28.320,-25.391,-32.227,0.000
1728627052.978,-12.207,-12.207,-15.137,-30.273,0.000
1728627052.982,-16.602,-0.488,-20.020,-27.832,0.000
1728627052.986,-41.016,-3.418,-38.086,-25.391,0.000
1728627052.990,-57.617,-25.391,-47.363,-37.109,0.000
1728627052.994,-44.434,-34.180,-45.898,-29.785,0.000
1728627052.998,-10.254,-16.113,-34.180,-26.367,0.000
1728627053.002,8.789,-17.578,-33.203,-25.391,0.000
1728627053.005,-16.602,-32.227,-40.527,-25.391,0.000
1728627053.009,-44.922,-35.156,-32.715,-29.297,0.000
1728627053.013,-41.992,-26.855,-28.320,-40.527,0.000
1728627053.017,-12.695,-12.695,-29.297,-33.203,0.000
1728627053.021,-0.977,-19.531,-31.738,-20.508,0.000
1728627053.025,-31.250,-31.250,-44.434,-35.156,0.000
1728627053.029,-48.828,-34.668,-47.852,-42.969,0.000
1728627053.033,-43.945,-34.180,-31.250,-34.180,0.000
1728627053.037,-19.043,-26.855,-12.695,-23.438,0.000
1728627053.041,-9.277,-20.508,-14.648,-37.109,0.000
1728627053.044,-28.809,-9.766,-30.762,-38.574,0.000
1728627053.048,-52.246,-16.113,-32.715,-32.227,0.000
1728627053.052,-55.176,-18.066,-21.973,-38.086,0.000
1728627053.056,-22.461,-20.020,-20.020,-33.203,0.000
1728627053.060,-4.395,-25.879,-26.855,-20.508,0.000
1728627053.064,-41.992,-36.133,-34.668,-24.414,0.000
1728627053.068,-66.895,-42.969,-31.250,-28.809,0.000
1728627053.072,-52.246,-39.062,-26.367,-31.738,0.000
1728627053.076,-26.367,-44.922,-21.973,-30.762,0.000
1728627053.080,-6.836,-43.457,-17.578,-12.207,0.000
1728627053.084,0.000,-15.625,-22.949,-6.348,0.000
1728627053.087,0.000,-26.367,-39.551,-23.926,0.000
1728627053.091,0.000,-33.691,-48.828,-39.062,0.000
1728627053.095,0.000,-8.301,-38.574,-38.086,0.000
1728627053.099,0.000,-1.465,-33.203,-39.062,0.000
1728627053.103,0.000,-26.367,-42.969,-45.410,0.000
1728627053.107,0.000,-54.199,-50.293,-47.852,0.000
1728627053.111,0.000,-50.781,-45.410,-42.969,0.000
1728627053.115,0.000,-23.926,-24.902,-36.133,0.000
1728627053.119,0.000,-17.090,-27.832,-31.738,0.000
1728627053.123,0.000,-23.926,-48.340,-32.227,0.000
1728627053.126,0.000,-26.367,-49.805,-41.504,0.000
1728627053.130,-62.500,-28.320,-34.668,-51.270,0.000
1728627053.134,-41.016,-29.785,-34.668,-45.898,0.000
1728627053.138,-15.625,-27.344,-42.969,-38.086,0.000
1728627053.142,-11.230,-26.855,-43.457,-32.227,0.000
1728627053.146,-44.434,-42.480,-43.945,-33.691,0.000
1728627053.150,-62.988,-51.758,-37.109,-39.551,0.000
1728627053.154,-35.645,-31.738,-31.250,-33.203,0.000
1728627053.158,-9.766,-12.207,-22.949,-27.344,0.000
1728627053.162,-17.090,-10.254,-12.695,-23.926,0.000
1728627053.165,-40.527,-14.648,-28.320,-31.738,0.000
1728627053.169,-53.223,-26.367,-33.203,-46.387,0.000
1728627053.173,-44.434,-24.902,-25.391,-50.781,0.000
1728627053.177,-17.090,-12.207,-28.809,-36.621,0.000
1728627053.181,-11.230,-7.812,-22.949,-29.297,0.000
1728627053.185,-34.180,-7.812,-25.879,-33.691,0.000
1728627053.189,-52.734,-15.625,-40.527,-36.621,0.000
1728627053.193,-39.062,-31.738,-34.668,-36.133,0.000
1728627053.197,-1.465,-43.457,-32.715,-29.785,0.000
1728627053.201,-11.230,-30.762,-30.273,-26.367,0.000
1728627053.204,-46.387,-4.395,-28.809,-32.227,0.000
1728627053.208,-58.594,-6.348,-47.363,-49.316,0.000
1728627053.212,-51.758,-11.230,-43.945,-46.387,0.000
1728627053.216,-27.832,2.441,-26.855,-25.879,0.000
1728627053.220,-14.160,-0.488,-24.902,-21.973,0.000
1728627053.224,-37.598,-21.973,-41.016,-32.227,0.000
1728627053.228,-59.570,-41.016,-53.711,-44.922,0.000
1728627053.232,-49.316,-36.133,-34.668,-45.898,0.000
1728627053.236,-16.602,-21.973,-15.625,-30.762,0.000
1728627053.240,-4.395,-27.344,-24.902,-23.926,0.000
1728627053.244,-16.602,-48.340,-35.645,-21.484,0.000
1728627053.248,-35.645,-40.039,-33.203,-27.344,0.000
1728627053.251,-49.805,-18.555,-33.203,-29.785,0.000
1728627053.255,-31.738,-19.531,-29.785,-14.160,0.000
1728627053.259,-8.789,-33.203,-30.273,-8.789,0.000
1728627053.263,-24.414,-35.156,-26.367,-17.090,0.000
1728627053.267,-56.152,-37.109,-34.668,-33.691,0.000
1728627053.271,0.000,-50.781,-49.805,-50.293,0.000
1728627053.275,0.000,-42.480,-34.668,-35.645,0.000
1728627053.279,0.000,-26.367,-22.949,-27.344,0.000
1728627053.283,0.000,-34.180,-32.227,-32.227,0.000
1728627053.287,0.000,-54.199,-40.527,-30.273,0.000
1728627053.291,0.000,-50.293,-39.062,-31.250,0.000
1728627053.294,0.000,-19.043,-25.391,-20.020,0.000
1728627053.298,0.000,-4.883,-29.297,-24.902,0.000
1728627053.302,0.000,-20.508,-34.668,-20.996,0.000
1728627053.306,0.000,-28.320,-38.574,-9.766,0.000
1728627053.310,0.000,-27.832,-43.945,-35.156,0.000
1728627053.314,0.000,-27.832,-30.762,-38.574,0.000
1728627053.317,-62.988,-30.273,-21.973,-26.855,0.000
1728627053.321,-30.762,-39.062,-33.203,-31.738,0.000
1728627053.325,-8.789,-39.551,-54.199,-33.203,0.000
1728627053.329,-28.320,-31.250,-47.852,-24.902,0.000
1728627053.333,-49.805,-24.414,-20.996,-12.695,0.000
1728627053.337,-49.316,-27.832,-13.672,-7.812,0.000
1728627053.341,-21.973,-30.273,-26.855,-14.160,0.000
1728627053.345,-5.371,-33.203,-37.109,-26.367,0.000
1728627053.349,-8.789,-41.504,-38.574,-24.902,0.000
1728627053.353,-31.738,-27.832,-30.273,-29.297,0.000
1728627053.356,-54.199,-19.531,-20.508,-32.227,0.000
1728627053.360,-28.320,-30.273,-32.715,-24.902,0.000
1728627053.364,-37.598,-39.551,-48.828,-31.250,0.000
1728627053.368,-50.781,-29.297,-45.898,-33.691,0.000
1728627053.372,-38.574,-11.719,-23.438,-31.738,0.000
1728627053.376,-19.531,-23.438,-17.090,-28.809,0.000
1728627053.380,-22.949,-45.410,-32.227,-35.156,0.000
1728627053.384,-35.156,-43.457,-42.480,-41.016,0.000
1728627053.388,-51.758,-27.344,-43.457,-37.109,0.000
1728627053.392,-46.387,-25.879,-42.969,-38.574,0.000
1728627053.396,-14.648,-20.508,-36.621,-32.227,0.000
1728627053.399,2.441,-12.207,-20.996,-22.461,0.000
1728627053.403,-23.926,-34.668,-29.297,-30.273,0.000
1728627053.407,-57.129,-54.199,-40.039,-39.551,0.000
1728627053.411,-52.246,-47.852,-27.832,-32.715,0.000
1728627053.415,-22.461,-38.086,-16.602,-23.926,0.000
1728627053.419,-0.488,-31.250,-28.809,-25.879,0.000
1728627053.423,-17.578,-35.156,-48.340,-32.227,0.000
1728627053.427,-62.500,-41.504,-48.828,-41.016,0.000
1728627053.431,-65.430,-37.109,-38.574,-41.016,0.000
1728627053.435,-26.367,-25.879,-31.738,-24.902,0.000
1728627053.438,-13.184,-29.785,-38.574,-18.555,0.000
1728627053.442,-41.992,-31.250,-34.180,-28.320,0.000
1728627053.446,-60.059,-37.109,-35.156,-40.039,0.000
1728627053.450,-51.270,-35.156,-31.738,-41.992,0.000
1728627053.454,-32.715,-10.742,-21.484,-35.645,0.000
1728627053.458,-16.113,-12.207,-28.809,-31.250,0.000
1728627053.462,-28.809,-19.531,-37.598,-34.668,0.000
1728627053.466,-56.641,-28.809,-37.109,-46.387,0.000
1728627053.470,-66.406,-36.621,-27.344,-54.199,0.000
1728627053.474,-42.480,-22.949,-21.484,-42.969,0.000
1728627053.478,-20.020,-20.508,-29.297,-34.180,0.000
1728627053.481,-26.367,-32.227,-36.621,-32.227,0.000
1728627053.485,-44.434,-27.832,-35.645,-25.391,0.000
1728627053.489,-56.152,-29.297,-30.273,-31.738,0.000
1728627053.493,-45.410,-25.879,-23.926,-30.762,0.000
1728627053.497,-25.391,-16.602,-25.879,-22.949,0.000
1728627053.501,-27.344,-13.672,-33.203,-22.461,0.000
1728627053.505,-57.617,-18.066,-34.180,-35.156,0.000
1728627053.509,-70.312,-28.809,-30.273,-51.270,0.000
1728627053.513,-42.969,-26.367,-26.367,-45.898,0.000
1728627053.517,-19.531,-27.344,-18.066,-32.227,0.000
1728627053.520,-21.484,-32.227,-17.090,-20.020,0.000
1728627053.524,-37.109,-37.598,-32.227,-19.043,0.000
1728627053.528,-46.387,-44.434,-43.457,-20.020,0.000
1728627053.532,-43.945,-20.508,-24.414,-24.414,0.000
1728627053.536,-27.344,-10.742,-11.719,-27.832,0.000
1728627053.540,-21.484,-22.949,-32.227,-27.832,0.000
1728627053.544,-43.457,-30.273,-47.363,-33.691,0.000
1728627053.548,-60.059,-34.668,-34.180,-37.598,0.000
1728627053.552,-51.758,-34.180,-20.996,-36.621,0.000
1728627053.556,-23.926,-27.344,-21.484,-40.039,0.000
1728627053.559,-3.418,-32.715,-27.832,-36.621,0.000
1728627053.563,-23.926,-35.645,-39.551,-40.527,0.000
1728627053.567,-54.688,-38.574,-42.480,-53.711,0.000
1728627053.571,-38.086,-46.875,-28.320,-43.457,0.000
1728627053.575,-17.578,-27.832,-22.949,-37.109,0.000
1728627053.579,-4.883,-11.719,-25.879,-42.969,0.000
1728627053.583,-20.020,-28.809,-38.086,-42.969,0.000
1728627053.587,-54.199,-52.246,-56.641,-50.293,0.000
1728627053.591,-55.664,-38.086,-46.387,-53.223,0.000
1728627053.595,-31.738,-21.973,-27.832,-45.898,0.000
1728627053.599,-11.719,-32.715,-28.809,-34.668,0.000
1728627053.602,-19.531,-50.781,-47.363,-34.180,0.000
1728627053.606,-53.223,-57.617,-48.340,-36.133,0.000
1728627053.610,-57.617,-38.574,-32.227,-36.621,0.000
1728627053.614,-32.715,-23.438,-21.973,-30.762,0.000
1728627053.618,-13.184,-28.809,-23.926,-21.973,0.000
1728627053.622,-26.855,-26.855,-37.598,-27.832,0.000
1728627053.626,-54.199,-30.762,-41.992,-32.227,0.000
1728627053.630,-48.828,-37.598,-38.574,-27.344,0.000
1728627053.634,-10.742,-39.062,-25.391,-17.090,0.000
1728627053.638,-1.465,-36.621,-21.484,-20.996,0.000
1728627053.642,-16.602,-33.203,-28.320,-20.996,0.000
1728627053.646,-38.574,-47.363,-28.809,-20.020,0.000
1728627053.649,-60.059,-46.387,-27.832,-27.344,0.000
1728627053.653,-39.062,-27.344,-14.648,-28.320,0.000
1728627053.657,-11.719,-15.625,-14.648,-31.738,0.000
1728627053.661,-25.391,-19.531,-34.180,-27.832,0.000
1728627053.665,-57.617,-31.738,-41.992,-28.320,0.000
1728627053.669,-63.477,-41.504,-40.039,-44.434,0.000
1728627053.673,-32.715,-43.457,-36.133,-41.016,0.000
1728627053.677,-7.812,-36.621,-26.855,-20.996,0.000
1728627053.681,-13.672,-39.062,-21.484,-13.672,0.000
1728627053.685,-51.270,-40.039,-32.227,-23.926,0.000
1728627053.688,-69.824,-40.039,-37.598,-39.062,0.000
1728627053.692,0.000,-36.621,-31.250,-35.156,0.000
1728627053.696,0.000,-17.578,-29.297,-21.484,0.000
1728627053.700,0.000,-17.090,-39.062,-20.996,0.000
1728627053.704,0.000,-40.527,-37.598,-29.297,0.000
1728627053.708,0.000,-45.410,-33.691,-36.621,0.000
1728627053.712,0.000,-38.574,-33.691,-36.133,0.000
1728627053.716,0.000,-31.738,-34.668,-32.227,0.000
1728627053.720,0.000,-27.344,-40.039,-27.832,0.000
1728627053.724,0.000,-47.363,-45.898,-29.297,0.000
1728627053.728,0.000,-46.875,-43.945,-48.340,0.000
1728627053.731,0.000,-20.508,-36.133,-47.852,0.000
1728627053.735,0.000,-16.602,-42.480,-36.621,0.000
1728627053.739,-3.418,-28.809,-47.363,-36.133,0.000
1728627053.743,-27.832,-30.762,-49.805,-42.969,0.000
1728627053.747,-54.199,-36.133,-43.457,-50.781,0.000
1728627053.751,-41.992,-25.879,-29.297,-41.016,0.000
1728627053.755,-6.348,-5.859,-20.508,-20.996,0.000
1728627053.759,-3.906,-24.902,-23.438,-23.926,0.000
1728627053.763,-28.809,-48.340,-31.738,-39.062,0.000
1728627053.767,-55.176,-61.035,-38.086,-36.133,0.000
1728627053.771,-49.316,-46.387,-34.180,-26.367,0.000
1728627053.774,-21.484,-21.973,-20.020,-25.391,0.000
1728627053.778,-18.066,-25.391,-41.016,-30.762,0.000
1728627053.782,-31.738,-33.691,-60.547,-21.484,0.000
1728627053.786,-49.316,-40.527,-51.758,-22.461,0.000
1728627053.790,-44.434,-26.367,-31.738,-34.668,0.000
1728627053.794,-11.719,-12.207,-14.648,-31.250,0.000
1728627053.798,-1.465,-14.648,-20.020,-22.949,0.000
1728627053.802,-18.555,-33.691,-32.227,-16.602,0.000
1728627053.806,-41.504,-50.781,-41.992,-28.809,0.000
1728627053.810,-50.293,-44.434,-42.969,-37.598,0.000
1728627053.814,-24.414,-34.180,-35.645,-26.367,0.000
1728627053.817,-8.301,-21.973,-31.250,-24.414,0.000
1728627053.821,-21.973,-21.484,-44.434,-28.320,0.000
1728627053.825,-51.758,-37.109,-52.246,-30.762,0.000
1728627053.829,-62.012,-41.504,-38.574,-33.203,0.000
1728627053.833,0.000,-27.832,-32.227,-28.809,0.000
1728627053.837,0.000,-17.090,-30.762,-21.484,0.000
1728627053.841,0.000,-31.250,-38.574,-25.879,0.000
1728627053.845,0.000,-46.875,-51.758,-42.480,0.000
1728627053.849,0.000,-30.273,-42.480,-50.781,0.000
1728627053.853,0.000,-24.902,-32.715,-52.734,0.000
1728627053.856,0.000,-25.879,-34.180,-58.105,0.000
1728627053.860,0.000,-26.367,-44.434,-56.641,0.000
1728627053.864,0.000,-38.574,-53.223,-56.641,0.000
1728627053.868,0.000,-35.645,-42.480,-49.805,0.000
1728627053.872,0.000,-25.391,-23.926,-42.969,0.000
1728627053.876,0.000,-28.809,-25.391,-35.156,0.000
1728627053.880,-19.531,-29.785,-36.621,-33.203,0.000
1728627053.884,-45.898,-37.109,-36.621,-41.504,0.000
1728627053.888,-63.477,-44.922,-43.457,-59.570,0.000
1728627053.892,-50.781,-33.203,-44.434,-57.129,0.000
1728627053.895,-23.926,-24.902,-27.344,-32.227,0.000
1728627053.899,-13.184,-28.809,-28.809,-17.090,0.000
1728627053.903,-33.203,-41.992,-41.504,-15.137,0.000
1728627053.907,-49.805,-37.109,-29.297,-23.926,0.000
1728627053.911,-26.855,-19.531,-12.207,-24.414,0.000
1728627053.915,9.766,-11.230,-7.812,-5.859,0.000
1728627053.919,2.441,-25.391,-20.996,-2.930,0.000
1728627053.923,-36.133,-44.434,-36.621,-18.066,0.000
1728627053.927,-52.734,-52.246,-42.969,-22.461,0.000
1728627053.931,-44.922,-52.734,-34.180,-23.926,0.000
1728627053.934,-19.043,-36.133,-12.695,-29.297,0.000
1728627053.938,-9.766,-19.043,-12.695,-21.973,0.000
1728627053.942,-33.691,-31.250,-20.508,-16.113,0.000
1728627053.946,-56.641,-52.734,-29.297,-27.832,0.000
1728627053.950,-49.805,-51.270,-29.297,-33.203,0.000
1728627053.954,-30.762,-33.203,-17.578,-32.715,0.000
1728627053.958,-28.320,-40.039,-26.855,-27.344,0.000
1728627053.962,-40.527,-55.664,-43.945,-30.762,0.000
1728627053.966,-62.500,-58.105,-56.641,-45.410,0.000
1728627053.970,-59.082,-48.340,-55.176,-50.293,0.000
1728627053.974,-20.020,-31.738,-40.039,-45.898,0.000
1728627053.977,-15.625,-25.879,-38.086,-44.434,0.000
1728627053.981,-48.340,-33.691,-41.992,-44.922,0.000
1728627053.985,-65.918,-35.645,-40.527,-54.688,0.000
1728627053.989,-60.547,-29.785,-33.691,-65.918,0.000
1728627053.993,-29.785,-33.203,-27.344,-50.781,0.000
1728627053.997,-16.602,-43.457,-31.738,-42.480,0.000
1728627054.001,-38.086,-57.129,-48.340,-48.340,0.000
1728627054.005,-47.852,-57.129,-63.477,-46.875,0.000
1728627054.009,-41.992,-38.086,-54.199,-49.316,0.000
1728627054.013,-32.227,-23.926,-40.039,-49.316,0.000
1728627054.017,-18.555,-19.531,-33.691,-41.992,0.000
1728627054.021,-28.809,-40.527,-41.992,-39.062,0.000
1728627054.024,-57.617,-52.734,-53.711,-36.133,0.000
1728627054.028,-66.895,-44.922,-47.852,-38.574,0.000
1728627054.032,-43.457,-34.180,-34.668,-32.227,0.000
1728627054.036,-9.766,-25.391,-36.621,-21.484,0.000
1728627054.040,-18.555,-28.320,-47.852,-16.113,0.000
1728627054.044,-56.641,-29.297,-50.781,-18.555,0.000
1728627054.048,-64.941,-47.363,-48.828,-27.832,0.000
1728627054.052,-34.180,-46.875,-31.738,-20.996,0.000
1728627054.056,-6.836,-13.184,-24.902,-7.812,0.000
1728627054.060,-24.902,-9.766,-31.738,-13.184,0.000
1728627054.063,-42.480,-32.227,-34.668,-12.207,0.000
1728627054.067,-43.457,-33.203,-32.715,-20.996,0.000
1728627054.071,-33.691,-25.879,-27.344,-30.762,0.000
1728627054.075,-15.137,-20.996,-27.344,-24.902,0.000
1728627054.079,-20.508,-20.508,-30.762,-17.090,0.000
1728627054.083,-46.875,-36.133,-40.527,-26.367,0.000
1728627054.087,-70.312,-60.059,-42.969,-41.992,0.000
1728627054.091,-55.664,-56.641,-33.691,-39.551,0.000
1728627054.095,-24.902,-39.551,-33.203,-35.156,0.000
1728627054.099,-21.973,-39.062,-41.992,-36.133,0.000
1728627054.103,-45.410,-33.203,-48.340,-45.410,0.000
1728627054.106,-66.895,-22.949,-52.734,-50.293,0.000
1728627054.110,-59.082,-28.320,-43.945,-49.805,0.000
1728627054.114,-30.762,-32.715,-29.785,-40.039,0.000
1728627054.118,-24.414,-28.320,-25.391,-37.598,0.000
1728627054.122,-41.016,-42.480,-33.203,-42.480,0.000
1728627054.126,-68.848,-70.801,-45.410,-50.293,0.000
1728627054.130,-54.688,-62.012,-36.621,-51.758,0.000
1728627054.134,-29.785,-23.926,-33.203,-36.621,0.000
1728627054.138,-26.855,-18.066,-41.992,-27.832,0.000
1728627054.142,-45.410,-40.039,-49.316,-29.297,0.000
1728627054.146,-72.266,-60.059,-47.363,-38.086,0.000
1728627054.149,-62.012,-45.898,-32.715,-44.434,0.000
1728627054.153,-22.949,-22.461,-19.531,-38.086,0.000
1728627054.157,-5.371,-30.273,-21.484,-38.086,0.000
1728627054.161,-26.855,-37.598,-32.715,-39.062,0.000
1728627054.165,-46.875,-29.297,-46.387,-39.551,0.000
1728627054.169,-34.668,-20.508,-39.062,-32.227,0.000
1728627054.173,-8.301,-22.461,-26.367,-26.855,0.000
1728627054.177,-1.465,-36.621,-31.738,-29.297,0.000
1728627054.181,-24.414,-36.621,-47.852,-32.715,0.000
1728627054.185,-49.316,-37.109,-51.758,-38.574,0.000
1728627054.189,-53.223,-40.527,-46.875,-37.109,0.000
1728627054.192,-29.785,-23.926,-32.715,-47.363,0.000
1728627054.196,-12.207,-20.996,-23.926,-52.734,0.000
1728627054.200,-18.066,-27.832,-33.203,-38.574,0.000
1728627054.204,-42.969,-41.504,-45.410,-41.016,0.000
1728627054.208,-55.664,-38.086,-31.738,-47.852,0.000
1728627054.212,-35.156,-16.113,-28.809,-37.109,0.000
1728627054.216,-9.277,-24.902,-42.969,-38.574,0.000
1728627054.220,-34.180,-49.316,-30.762,-46.387,0.000
1728627054.224,-62.500,-46.387,-20.996,-52.246,0.000
1728627054.228,-65.918,-33.203,-39.551,-61.035,0.000
1728627054.231,-63.477,-43.457,-49.316,-45.898,0.000
1728627054.235,-54.688,-54.199,-46.387,-44.434,0.000
1728627054.239,-88.379,-37.598,-70.312,-77.637,0.000
1728627054.243,-94.727,-31.250,-66.406,-62.988,0.000
1728627054.247,-61.035,-56.641,-41.016,-40.039,0.000
1728627054.251,-15.625,-42.480,-19.043,-27.832,0.000
1728627054.255,-9.766,-3.906,-21.973,-27.344,0.000
1728627054.259,-60.059,-30.273,-59.082,-55.664,0.000
1728627054.263,-80.566,-118.652,-59.082,-59.570,0.000
1728627054.267,-59.082,-121.094,-31.738,-41.504,0.000
1728627054.271,-33.691,-92.285,-15.137,-36.621,0.000
1728627054.275,-27.344,-136.230,-32.227,-42.480,0.000
1728627054.278,-17.578,-217.773,-51.270,-33.691,0.000
1728627054.282,-41.504,-237.305,-42.480,-46.387,0.000
1728627054.286,-61.035,-286.133,-31.250,-53.711,0.000
1728627054.290,-50.781,-364.746,-28.320,-37.598,0.000
1728627054.294,-28.809,-365.723,-39.062,-57.617,0.000
1728627054.298,-8.789,-428.711,-34.668,-54.199,0.000
1728627054.302,-0.977,-546.875,-20.508,-11.230,0.000
1728627054.306,-15.625,-688.965,-39.062,-23.926,0.000
1728627054.310,-15.137,-792.480,-35.645,-31.250,0.000
1728627054.314,-29.785,-853.516,-33.203,-44.922,0.000
1728627054.317,-54.688,-949.707,-53.711,-59.570,0.000
1728627054.321,-29.297,-1000.000,-63.965,-22.461,0.000
1728627054.325,-49.805,-999.023,-57.129,-21.973,0.000
1728627054.329,-51.270,-999.512,-28.320,-16.113,0.000
1728627054.333,-16.602,-1000.000,-10.742,-3.906,0.000
1728627054.337,-19.043,-1000.000,-22.949,-22.461,0.000
1728627054.341,-47.852,-1000.000,-39.551,-30.273,0.000
1728627054.345,-69.824,-1000.000,-40.527,-34.180,0.000
1728627054.349,0.000,-1000.000,-52.246,-41.992,0.000
1728627054.353,0.000,-1000.000,-42.969,-35.645,0.000
1728627054.357,0.000,-1000.000,-26.855,-30.762,0.000
1728627054.361,0.000,-1000.000,-40.039,-29.297,0.000
1728627054.365,0.000,-1000.000,-53.711,-38.086,0.000
1728627054.368,0.000,-1000.000,-45.410,-40.527,0.000
1728627054.372,0.000,-1000.000,-28.320,-28.809,0.000
1728627054.376,0.000,-1000.000,-13.672,-15.625,0.000
1728627054.380,0.000,-1000.000,-17.090,-8.301,0.000
1728627054.384,0.000,-1000.000,-30.273,-11.230,0.000
1728627054.388,0.000,-1000.000,-22.461,-22.949,0.000
1728627054.392,0.000,-1000.000,-18.555,-13.184,0.000
1728627054.396,13.184,-1000.000,-22.461,4.395,0.000
1728627054.400,-0.488,-1000.000,-31.250,-12.695,0.000
1728627054.404,-27.344,-1000.000,-41.016,-32.227,0.000
1728627054.408,-36.133,-1000.000,-43.945,-36.133,0.000
1728627054.411,-20.508,-1000.000,-38.086,-33.203,0.000
1728627054.415,9.766,-1000.000,-38.574,-19.531,0.000
1728627054.419,-4.883,-1000.000,-38.086,-7.812,0.000
1728627054.423,-34.180,-996.582,-38.574,-15.625,0.000
1728627054.427,-43.457,-998.535,-34.668,-27.832,0.000
1728627054.431,-28.320,-1000.000,-24.414,-26.367,0.000
1728627054.435,-7.324,-831.055,-29.785,-29.297,0.000
1728627054.439,-8.789,-624.023,-32.715,-23.438,0.000
1728627054.443,-22.461,-524.414,-45.410,-16.602,0.000
1728627054.447,-45.898,-363.770,-51.270,-20.508,0.000
1728627054.451,-25.879,-187.500,-35.156,-20.996,0.000
1728627054.454,5.859,-90.332,-27.832,-21.973,0.000
1728627054.458,-2.930,-31.250,-26.855,-6.836,0.000
1728627054.462,-19.043,24.414,-26.367,-0.488,0.000
1728627054.466,-39.062,66.895,-36.621,-21.484,0.000
1728627054.470,-24.414,127.441,-31.738,-21.973,0.000
1728627054.474,4.883,202.148,-37.598,-9.277,0.000
1728627054.478,-5.371,250.977,-41.504,-7.812,0.000
1728627054.482,-26.367,276.367,-34.668,-8.789,0.000
1728627054.486,-33.691,304.688,-45.898,-19.531,0.000
1728627054.490,-33.691,328.613,-47.363,-22.949,0.000
1728627054.494,-3.906,366.699,-25.879,-10.742,0.000
1728627054.497,7.812,405.762,-20.508,0.488,0.000
1728627054.501,-23.438,426.758,-33.691,-9.277,0.000
1728627054.505,-47.852,461.914,-44.434,-30.762,0.000
1728627054.509,-41.992,497.070,-42.480,-39.551,0.000
1728627054.513,-12.695,541.016,-25.879,-29.785,0.000
1728627054.517,-16.113,600.586,-24.902,-20.996,0.000
1728627054.521,-41.504,644.043,-44.434,-27.832,0.000
1728627054.525,-67.383,659.668,-49.805,-48.828,0.000
1728627054.529,-82.520,665.527,-38.574,-54.688,0.000
1728627054.533,-46.875,664.551,-35.156,-40.527,0.000
1728627054.537,-31.250,664.551,-31.250,-37.598,0.000
1728627054.540,-62.988,649.902,-35.156,-41.992,0.000
1728627054.544,-78.613,634.277,-54.199,-41.504,0.000
1728627054.548,-71.777,656.738,-49.316,-42.969,0.000
1728627054.552,-46.387,690.918,-28.320,-39.551,0.000
1728627054.556,-32.227,712.891,-26.855,-22.949,0.000
1728627054.560,-44.434,714.844,-36.133,-20.996,0.000
1728627054.564,-60.547,710.938,-43.457,-31.738,0.000
1728627054.568,-61.035,735.840,-41.504,-41.016,0.000
1728627054.572,-36.133,763.184,-32.715,-33.691,0.000
1728627054.576,-6.348,755.371,-24.902,-24.902,0.000
1728627054.579,-20.508,731.934,-29.297,-31.250,0.000
1728627054.583,-55.664,727.051,-44.434,-37.598,0.000
