,TP9,AF7,AF8,TP10
0,-0.42844748364794083,-0.35142504016968124,0.12103858051876804,-0.35043679302609454
1,-2.2318380519804073,-1.4210216863543073,0.43045276523159015,-1.4663805122065732
2,-6.053115777842115,-3.5945830463862873,1.037026307866898,-3.6929105032918965
3,-11.922035032425665,-6.871332436948076,1.9433604174109504,-7.179184445022424
4,-19.710735774244885,-11.491458050653101,3.3927015124106985,-11.859749183324768
5,-27.466687917234058,-16.776457502663376,5.277784842448397,-16.576376785921383
6,-33.25597536232345,-21.42099190882272,7.112713863219247,-20.13108164207603
7,-36.259508280802024,-24.44262307550008,8.425427749774043,-21.962554249322654
8,-36.5767094444481,-25.630241145467586,9.008159546321886,-22.096873166937986
9,-36.66339685858481,-25.33518010812108,8.892430767193467,-22.1361072778472
10,-36.92626780678035,-25.36352867935317,8.94273992889757,-22.373867258117706
11,-36.08446567848409,-25.840212674577845,9.18054837880517,-21.8191636912234
12,-31.860925750473662,-25.184239633438903,8.799846106387413,-19.01499331442856
13,-23.881404005879652,-22.265797125826825,7.223731058789928,-13.742805680099497
14,-12.762920514500347,-16.757757780406422,4.370032287225023,-6.566622888925803
15,-0.19208735117634923,-9.200262538507067,0.6506883803806163,1.2707091661409655
16,12.009184397207486,-0.8268363370704339,-3.2014536512358363,8.498375471378742
17,23.78192895461158,7.206392186160098,-6.6221650267990455,15.79074286643181
18,34.83652359741155,15.102893059677847,-9.85314239525514,22.207857929336864
19,43.95689702909286,22.721343929258715,-13.125449128825833,26.866125270529782
20,50.194930722783226,29.43736463610597,-16.110189834061334,29.401413466294642
21,53.38622614568526,34.40400026401651,-18.347317810319907,30.138017228166312
22,54.09298600977341,37.22297554806821,-19.579947065695542,29.78706618565071
23,53.614973750438146,38.1614040406424,-19.84177741409446,29.70798146125512
24,53.47816238516734,37.875081772952704,-19.714300096333844,30.03135862774932
25,53.75767150598683,37.811000962409324,-19.806666715378476,29.645794610991825
26,52.67508579617272,38.134193167955715,-19.832249161021295,28.140830738750434
27,49.82236499176323,37.71400058374574,-18.691261089477806,25.460221176930155
28,45.18143945249833,35.94610318528563,-16.054909252137655,21.982368337702955
29,39.479801738721804,32.73304834755938,-12.102848985732821,18.37470999232881
30,33.746915412400845,28.484820244781126,-7.599150741849835,15.170781585078421
31,28.37276881985322,23.97648963554966,-3.528790028610218,12.080557980214667
32,23.025454176373902,19.85378980664202,-0.10973977140785046,9.291226534266674
33,17.651964596425362,15.811791548472751,2.546404407952384,6.8583162173575065
34,12.364121924402452,12.072527363207339,4.229099589177844,4.810338257840351
35,7.490276249472518,8.706903979419602,5.017911601196231,3.1459921244866003
36,3.225159119133391,5.740507370275576,5.180223883855933,1.8217803511075135
37,-0.5738845087192761,3.1621249777003033,5.067456876046912,0.7531378171838674
38,-4.166300145540004,0.9376941941618608,4.979429585712163,-0.15816270247857211
39,-7.564211619310847,-0.9787309834853813,5.030969544291282,-0.9837046162355688
40,-10.50113694383915,-2.639656172371496,5.033292690616788,-1.7489386514756269
41,-12.763621014048123,-4.1008210491854635,5.033292690616788,-2.454853623320841
42,-14.57715440235847,-5.4163696482162536,5.038914777849482,-3.1096153998256004
43,-16.156710657732066,-6.630284798969848,5.02638363800352,-3.7005001828083874
44,-17.48165625489013,-7.765163075114747,5.016580671313326,-4.16600194220342
45,-18.384249820130748,-8.817813571258693,5.046756539886751,-4.477854771239902
46,-18.760021368821448,-9.76809126113913,5.115656003156971,-4.6016134923756535
47,-18.726241445044078,-10.592689915402332,5.213788560743923,-4.589358263112858
48,-18.631952602799505,-11.274890392241561,5.323120063656042,-4.588456886748463
49,-18.70990886237046,-11.809865201987257,5.358068470902177,-4.768937598673828
50,-18.774095887961717,-12.194849888759089,5.351258498336618,-5.236407877341097
51,-18.71148950694988,-12.498130309534021,5.43344495807908,-6.039442670769825
52,-18.73902052061864,-12.737707425719591,5.886448531256383,-7.198131332352773
53,-19.311928437451545,-12.911265884863933,6.625331400163219,-8.631612984874327
54,-20.360151951314112,-13.013690804839012,7.396679078317228,-10.294491039487308
55,-21.527427897991327,-13.024802871122947,7.917975351208448,-11.840836842808752
56,-22.34662076720424,-13.031123527122315,8.025390546170541,-12.939672074819242
57,-22.540235553245143,-13.095884625029594,8.019361060230404,-13.464694875223106
58,-22.444212628871714,-13.086142389621768,8.047383450064238,-13.543499583380068
59,-22.4895206234669,-12.71595508744105,7.982298972843998,-13.427028212468631
60,-22.462798276699644,-11.784876616447029,7.381645342279915,-13.428265856505408
61,-21.773165381807477,-10.229779140978195,6.103994544303957,-13.51185562729679
62,-20.331921419502827,-8.173857288381068,4.169042808353755,-13.391344365593005
63,-18.293477340090668,-5.856632484241231,1.7811826572298017,-12.971792941611866
64,-15.917839514212398,-3.4113730104017432,-0.8135361282663258,-12.227714295640585
65,-13.326834392974163,-0.9802802398189682,-3.566969000022815,-11.24725408066782
66,-10.316460597233254,1.5355497215573222,-6.539729479947802,-10.184272196740569
67,-6.859582023006793,3.8084390447200454,-9.438620625565303,-9.158792709443173
68,-3.2926924601457657,5.4762064746552,-11.761936642612906,-8.114810485713265
69,-0.003954911080084056,6.370764498927707,-13.179868116989987,-7.080352169624566
70,3.405704432073104,6.572978647912804,-13.706387128239005,-6.031022710543296
71,6.693668116374653,6.4188876108729955,-13.57158646484842,-4.912507450688448
72,9.37171056961116,6.438347229218264,-13.57763973446911,-3.6762059758714978
73,11.008338795403015,6.558214363180392,-13.782541220281553,-2.329681973145965
74,11.521128005709011,6.105035866687221,-13.50962930056706,-0.9535071405252642
75,11.192643215459904,4.8118294935345896,-12.267359778163236,0.4586318306749575
76,11.180330835965599,2.5959343629688454,-9.89265056849372,1.702254651799976
77,11.562615997530996,-0.3253101221414805,-6.557714570782697,2.5857892048712756
78,11.14504476792122,-3.5515961484006584,-2.7324980122112557,3.039831892906397
79,9.388258040581288,-6.819552713761407,1.0928390431292856,3.1060593809853234
80,6.190277026132639,-10.15043523405733,4.994297667328523,3.09756890871236
81,2.0502363781099042,-13.307145469896248,8.69861875233542,3.1078585522689646
82,-2.177632545941089,-16.406933638431386,12.088239270358006,3.026995419538851
83,-6.291517388427508,-19.09610858684975,15.161614778538501,2.6067807672825323
84,-10.316299859621289,-21.008155253345194,17.924504204238936,1.6745081257862338
85,-13.549792838352559,-22.005730298325258,20.683041160362148,0.48685213486727796
86,-15.50962474331061,-22.23564803394525,23.24453905664146,-0.5284391807749328
87,-16.161802235298108,-22.030082178489582,25.22794870242942,-1.064491969779469
88,-15.878068143306795,-22.038530808244943,26.389718590422778,-1.211589262186028
89,-15.855863730192624,-22.22899074909311,26.769190087183677,-1.1280171118376654
90,-16.182893412463205,-21.890777923778977,26.550176712715725,-1.1386641401019204
91,-15.767977007791355,-20.726317553245043,26.613611147986923,-1.1930741970084917
92,-14.11786791742616,-18.59390109670858,26.91570196528223,-0.8630223884903017
93,-11.244739267307171,-15.65385946947746,26.5343704715841,-0.03714267247796332
94,-7.649253088433306,-12.284789368070268,24.896328333087276,1.2086813962906156
95,-4.007230656345008,-8.799067577316539,21.815942471867007,2.743537817484643
96,-0.7317118597891458,-5.098620485794542,17.637944065296832,4.120751931491202
97,2.5906205114483747,-1.3677503611694046,13.077847021623048,5.046116929860264
98,5.7130894469749425,2.2582544999362573,8.735614266481313,5.540659787660924
99,8.143913861284664,5.604286759953402,4.324278172504757,5.649280729801842
100,9.56704584234888,8.794226313399712,0.005550792470992771,5.5470481186684895
101,10.08253499041597,11.501253944422357,-4.069456950775248,5.559710083854814
102,10.040500964462868,13.39450289259264,-7.669144509215878,5.659678077511646
103,10.043525541987787,14.367952014182203,-10.561099333044012,5.456826214266098
104,10.07609762747267,14.591965457315426,-12.633051300642553,4.753386477806948
105,9.905218732704997,14.407068517439699,-13.919781285884145,3.453845294092339
106,9.287915085050711,14.365088618274866,-14.572791511545805,1.6887926095984769
107,8.4399633475596,14.502694078212269,-14.820902768664734,-0.3542539447113898
108,7.681266910430234,14.32011937746528,-14.873256537130464,-2.36987094581961
109,7.28582643796086,13.767614508718571,-14.875930019623048,-4.073754249962861
110,7.310090077410668,12.762577808068087,-14.86914609546876,-5.168306421201956
111,7.323111881216378,11.612036855296004,-14.87598575377539,-5.621759877489566
112,7.34548877717717,10.726050882830759,-14.926636639603583,-5.5968704285702255
113,7.389128328928367,10.331113184707082,-15.089371503780718,-5.551770897007916
114,7.515025863919762,10.229242075408262,-15.437953385312825,-5.618032118909639
115,7.709746937127926,10.281051013952881,-15.999129409542565,-5.529922429452121
116,8.19907033658637,10.340945033909486,-16.766108605688697,-5.012939878125579
117,9.03645395051577,10.333109714920594,-17.664310863476246,-3.96958054239973
118,9.990123293991712,10.373594869951113,-18.798370047511217,-2.4994811267646195
119,10.811250083098052,10.414080024981633,-19.95545101241655,-0.5289098720366671
120,11.235767739122384,10.418678340390537,-20.870963539438552,1.457510059567224
121,11.212381579212455,10.434420369452614,-21.38933886066855,3.0948773154817593
122,11.192702461645466,10.496294175578065,-21.483111085783925,4.04209698699518
123,11.351699706874257,10.54628046435537,-21.547047249765505,4.307430252123281
124,11.081389799748294,10.094794432598526,-21.458047600615856,4.175354886024778
125,10.302864637104703,9.187374437832567,-21.244707583889827,4.03408596537705
126,9.311771768231102,8.152023534935859,-20.83117429210385,4.106383407229675
127,8.493536197689448,7.382537817254018,-20.41764100031787,4.106383407229675
128,-0.04780457452453657,-0.06488842592768523,-0.08305267131606808,-0.011343712468113776
129,-0.5257193644454122,-0.293912043784006,-0.38405052276016305,-0.07665528071332803
130,-1.4946385298180602,-0.7942328630908397,-1.0516509770664588,-0.25900732637486723
131,-2.7839167407893095,-1.6180963467679306,-2.1765610368508916,-0.606448508685644
132,-3.967640909603947,-2.695657801476121,-3.7206296888957837,-1.119782501533404
133,-4.7081266805454804,-4.123815681742489,-5.694580497403651,-1.7526544747187167
134,-4.964461366620286,-5.603758801412328,-7.928571272208732,-2.4406401822240875
135,-4.941014943954057,-6.781601578166103,-9.936858396611953,-3.1807861399857877
136,-4.890490208766547,-7.451680009098461,-11.312257068775587,-3.856978105235421
137,-4.932853970245179,-7.597923213172128,-11.933214303932452,-4.35350766987581
138,-4.916615280312064,-7.540262970055028,-11.901454590647102,-4.6150955943982535
139,-4.723970892626,-7.563068145304606,-11.912341630055405,-4.642866044342814
140,-4.3688814643985845,-7.5467494153283345,-12.054847661410498,-4.650252512022163
141,-3.8085254994204516,-6.980756360147849,-11.81950130358848,-4.682178853137434
142,-2.963842166045133,-5.759605205874596,-10.670923802187048,-4.6116285965788775
143,-1.8624511514792732,-3.9819007625427156,-8.472337311117549,-4.210655633571911
144,-0.6636686409492467,-1.9627703256269575,-5.42711527691145,-3.4295235483351174
145,0.41412847298655886,-0.04977326131942639,-2.0629500629002715,-2.3365507620994106
146,1.192293159609433,1.6993207651258284,1.079406114666198,-1.1208857516458826
147,1.8288839342871275,3.2841230543988686,4.041966991458595,0.00639037635591555
148,2.5448597459983464,4.619736340733846,6.611721897215818,1.0678821456748286
149,3.309615559329271,5.652062871219768,8.752110074505685,1.939514108132761
150,3.881718546167279,6.375299028615541,10.513858348411143,2.5339704881068132
151,4.20957951827455,6.852163941392508,11.94994962826311,2.8424528343709494
152,4.523836469479808,7.204215961380022,13.260647293489217,2.939632716112644
153,4.9500229796123625,7.570052186140954,14.389117664503555,2.8976957718173564
154,5.433012717715952,7.9422588044984845,15.212715994965702,2.8694169730189025
155,5.784370127241153,8.24588135610728,15.662711935326474,2.915816939117626
156,5.878479371048745,8.417870200706504,15.77593622065423,2.9837303563798385
157,5.814472795145081,8.434933118878105,15.685398595965806,3.0533476328319935
158,5.784126595415017,8.445528323009903,15.702956278544706,3.0986643275290966
159,5.820008687003575,8.473389289198263,15.793175053124909,3.0601188560502077
160,5.8230708151141215,8.41478219244846,15.58303735922564,3.0218013062235114
161,5.835384946292356,8.107469326628504,14.91498482691395,3.1571452386866086
162,5.827545914031017,7.51490063411427,13.74819145411198,3.525982188017607
163,5.862825207678498,6.688761889371519,12.230875801689562,4.186324837115736
164,5.953346705973725,5.764313189174965,10.638516263433194,5.103118683698313
165,6.061988218965593,4.885760166021729,9.181984564117627,6.001870991249055
166,6.149144766081778,4.046413675870041,7.815617210569965,6.641745797434793
167,6.180748677911537,3.291093009204976,6.596153140001292,6.972251206746315
168,6.1827117750148535,2.607782531293122,5.484571686452143,7.007093491087555
169,6.21389203262323,1.9661286081919884,4.373594160378093,6.9982001468912785
170,6.193302624417995,1.3466970531685292,3.168612910327052,6.995248011010752
171,5.988184035009984,0.7549819182959718,1.6853553329881126,6.9001989942538895
172,5.70124828373158,0.20875761091217412,0.02949297930406919,6.621900304928036
173,5.504692048193046,-0.29158518105017367,-1.434347882519086,6.251785755924434
174,5.372931975072162,-0.7774575440073588,-2.3958744821219966,5.848728700701341
175,4.987417237546073,-1.2979184199331388,-2.7831651451491557,5.3717234760934485
176,3.886035028383156,-1.9018889415324507,-2.7436931266161517,4.634472095432336
177,1.7794888922544798,-2.6360023982624297,-2.720254805097436,3.2835514516523467
178,-1.1950045989466611,-3.545777029614242,-2.722377083886407,1.21287211031898
179,-4.913396431254236,-4.666130334192936,-2.5920142992287745,-1.6112010738216747
180,-9.46454664376231,-6.005617700134289,-2.290325133906249,-5.166681815987694
181,-14.975005907849809,-7.536596023671496,-1.9204057699440227,-9.379475247304054
182,-21.10677005026879,-9.203649392537793,-1.6793391323247107,-13.977028019408271
183,-27.906395631227387,-10.934818248506092,-1.6575192218347614,-19.284482152639665
184,-34.37653348833967,-12.699134359358862,-1.6639485558569507,-24.42687800712184
185,-39.338356099800784,-14.525612985935028,-1.2762455568527464,-28.369276722565345
186,-42.21427953730137,-16.149423966676217,-0.07037812145278921,-30.549991555097503
187,-43.18080933680766,-17.29978655825446,1.7284415009074885,-31.007098152710885
188,-42.74606768829255,-17.871350888807143,3.451250852722042,-30.799951499288536
189,-42.78836792659595,-17.902226370022568,4.529491590125173,-30.84904525784907
190,-43.38526113239543,-17.915523992302255,4.813906973899642,-30.82953387519669
191,-42.72481745360028,-18.01087533508143,4.648911976929748,-29.14962949402308
192,-39.53281645140766,-17.851921392084282,4.712506491291628,-25.366926179227324
193,-33.086794156913555,-16.88868569898284,4.849616924366442,-19.53061692482287
194,-23.68654186359102,-14.906365771303573,4.067591034308434,-12.350545360735115
195,-12.661551673683181,-11.925173631486384,1.9469881720217213,-4.7794490541047026
196,-1.4807762881476019,-8.220914101423258,-1.5328109522491729,2.934349396842094
197,10.015296804020853,-4.1210296548701555,-5.8410632331067,10.6531062626231
198,21.352312246468223,0.4436765641836091,-10.158804886412874,18.066748863429165
199,32.23709245456043,5.265903206856415,-13.996280566664673,24.87846780653908
200,42.72195438053057,10.175188738186236,-17.36336674002367,31.38727119196722
201,51.89273196149218,14.9910031362971,-20.308819193991596,36.93183387604624
202,58.5376045222458,19.534090192158377,-22.64748531211826,40.81421499629172
203,62.19355293667418,23.879867942472973,-24.203670128757743,42.804130865132066
204,63.37284689218812,27.534367677929744,-24.968546186841817,43.258920066956755
205,63.016716982515646,30.037516151253783,-25.128372989786538,42.827297866415016
206,62.97292884219038,31.271556141327615,-24.967679416357175,42.81532389223702
207,63.35971549318151,31.419853713859865,-24.959514384127253,43.21452181357441
208,62.814579488054065,31.3862295423012,-25.107280157435063,42.73719360589046
209,60.53563204448742,31.437405989096,-24.920299443419072,40.91882561850367
210,56.26493854613134,31.213569019735438,-24.176033133043685,37.57565516196273
211,50.295471708365824,29.93273356778643,-22.73518263626686,33.06487638414006
212,43.50624279544991,27.530521607855228,-20.679370835034643,28.126885238710805
213,36.86154298738997,24.25337804555275,-18.277928115831525,23.403458526203476
214,30.224730624269007,20.642906607359734,-15.797829655023271,18.64590838510776
215,24.078580105361187,17.187425737209608,-13.206365121014885,14.106990472905416
216,18.40931438785205,13.70474237927483,-10.583777149974019,9.868142147767122
217,13.091440868459678,10.348127384246991,-7.933587146576886,5.933384924103628
218,8.183524183520426,7.157505686604086,-5.237622092584564,2.2553991873878054
219,3.873332911461948,4.144760052789106,-2.486792455258815,-1.2195656582725518
220,0.1539175511180202,1.318902304280004,0.2890464485177189,-4.515789704172878
221,-3.3027581254060303,-1.2929976717406109,3.0233356508228715,-7.6165561133462445
222,-6.863549887217789,-3.644179299364338,5.641335182513488,-10.475096639830602
223,-10.573916820445195,-5.681758634093926,8.07676814632582,-13.035812956841353
224,-14.172117082154594,-7.365678914982034,10.242612993762672,-15.255000042420406
225,-17.453554084362487,-8.686916536533298,12.223123657632827,-17.119428482295444
226,-20.514250390735466,-9.676053568388761,13.851688871976764,-18.66168810777445
227,-23.569978994872777,-10.39962304010943,14.959611717355802,-19.96116458042506
228,-26.604360965017737,-10.942763001299951,15.513595201943353,-21.117702175548647
229,-29.308379906271913,-11.379490161527837,15.638697719466464,-22.20783808988462
230,-31.48751202785739,-11.753901309522044,15.53366243343267,-23.23042776599995
231,-33.2353724076494,-12.091526343056971,15.511064806406832,-24.306237464466115
232,-34.589349860126575,-12.421831197143756,15.586819023289381,-25.30974870988474
233,-35.54576012695467,-12.782156549901428,15.487867782110829,-26.073117087328107
234,-36.06087618592979,-13.198933675761195,15.204446829191461,-26.503259768551214
235,-36.13112579680401,-13.667439631757365,14.781461012092803,-26.615465579040247
236,-36.074985115938276,-14.157159822582393,14.309100710520292,-26.526608360701
237,-36.13076056083744,-14.624271360765144,13.852671633454626,-26.556442838507824
238,-36.105007708830115,-15.14021261304236,13.399131304215008,-26.654494196119696
239,-35.560598096911676,-15.651547026364119,12.803670482122417,-26.403108448735722
240,-34.369627571052455,-16.06445433574666,12.13137938598253,-25.585144872560917
241,-32.699825999362986,-16.30888268482603,11.485996203330007,-24.113085161848485
242,-30.912876021680567,-16.368068064592872,10.960985030756333,-22.111470050577324
243,-29.22111701973155,-16.335837210541044,10.592913302539158,-19.843631567918766
244,-27.36338537147144,-16.362015624464863,10.359689991836522,-17.480922071495804
245,-25.05490932936178,-16.38529671662261,10.205244451121246,-14.894458162714416
246,-22.25954008349821,-16.147093188547117,10.070424939030483,-12.100188707158292
247,-19.23759775364708,-15.528417362110362,9.9133006883469,-9.202191088226405
248,-16.242292876645195,-14.505445139319912,9.715631139440923,-6.087043917348433
249,-13.317807379521849,-13.181172048897645,9.47938288220484,-3.2296079314949537
250,-10.441405122747236,-11.731868635752658,9.212956046320667,-1.1424110329580923
251,-7.8671883962279034,-10.28797829242967,8.938354066101041,-0.04301280804745267
252,-5.976976922650937,-8.804212546551032,8.597909554507796,0.2235020714971773
253,-4.968838338419461,-7.516613639807989,8.240561587228902,0.06485090737246779
254,-4.683687502729871,-6.623666981265525,7.945204531168994,-0.07989369824187176
255,-4.732675859838462,-6.181237805071224,7.766839992100014,-0.0011048962717966067
256,-0.295266199852948,-0.17864327402884617,-0.04030427044424208,-0.060621759518507706
257,-1.301852406611261,-0.7534193547130249,-0.15276888881974612,-0.2639872584290522
258,-3.0607947641811144,-1.942805418782032,-0.375066477957716,-0.6854761401294569
259,-5.525162213832889,-3.778822269350357,-0.7328757099621266,-1.3412944655820858
260,-7.97899252952794,-6.192130654056944,-1.2014469318768253,-2.172107072522256
261,-9.77342113447216,-9.015067494041187,-1.6611785455371946,-3.093105410433375
262,-10.673738445523691,-11.615039395549843,-1.9953747414579959,-4.0214302282122745
263,-10.872233249956476,-13.446762450293939,-2.155492165229793,-4.874137177621073
264,-10.66817487940573,-14.323524397346162,-2.1511154330158186,-5.551545239865078
265,-10.69647344407168,-14.367792492746885,-2.154154924069182,-5.981385841565778
266,-10.865072760492815,-14.342465615447738,-2.205861263696582,-6.154513039163387
267,-10.591738700769122,-14.43181095920239,-2.1926403812515445,-6.540483268923575
268,-9.734951144553348,-14.21961130922274,-1.7546420489062147,-7.225625792961603
269,-8.224663069929928,-13.122473183728252,-0.973077389299703,-8.032147910034857
270,-6.1538108643294205,-11.031139138954797,-0.13388106520890958,-8.668085073889015
271,-3.7984768127099415,-8.08448616216678,0.44737311885449244,-8.85935869755718
272,-1.4305668637788458,-4.656310725678192,0.6157000859739203,-8.882354403540438
273,1.1598661649331767,-1.0860748926784471,0.5253739643150519,-8.961170562100872
274,3.892023539652951,2.8073185254252695,0.4410500372273994,-8.859914626738785
275,6.866345128593604,6.819553168537665,0.5106496918738554,-7.821937687494778
276,10.264015999410443,10.727408133624813,0.5574017576968826,-5.588679703666125
277,13.79769652681004,14.65406432144188,0.6041538235199098,-2.2405348805231444
278,16.735077971290824,18.100621089082107,0.6966328410342395,1.688281093453499
279,18.55531564818331,20.5574149817467,0.5799135254156841,5.807673193187662
280,19.254650223158126,21.83355307166055,0.4351686952577913,9.818497708831446
281,19.152739294013365,22.090694252960983,0.6048941239800807,13.07312946055734
282,19.17314067963084,21.935361045563656,1.5845533859597816,15.083874662753638
283,19.31264448317658,21.907292906702786,3.2189067535543354,15.863970141939644
284,18.967432967026777,21.934030336915967,4.918144929429784,15.767677964805946
285,17.774346686413676,21.29193556880393,6.05258530622076,15.700026598884504
286,15.764716645864846,19.859252600848748,6.342173552210155,15.841598572775883
287,13.139329537447136,17.687171140805464,6.081778303806776,15.593761736519642
288,10.283374009124863,15.085501140934454,6.214714049570216,14.598255027236238
289,7.607483517829849,12.433519618857805,6.602740393388407,12.909131771514103
290,5.025902493818044,9.803437731916654,6.136179943591005,10.837320259835764
291,2.926515154176445,7.183641084313851,3.963305009416912,8.831595115131297
292,1.2754662073420082,4.63194849173777,-0.38950698801875827,7.159933569609196
293,-0.22392854036299364,2.1715036634752183,-6.788734828579253,5.5174763873493005
294,-1.7071384984069367,-0.10899494102207863,-14.619295558703925,3.745205302648423
295,-3.0388661635104577,-2.2389718362998074,-23.284737244077114,2.0524000707317245
296,-3.9569863964401333,-4.00331985464848,-33.15292422966215,0.7495462864597614
297,-4.369757525835949,-5.202657502443502,-43.91717814713703,0.02558149265514677
298,-4.440055311804546,-5.800994173870421,-55.32514872054122,-0.154498118850213
299,-4.4035277807627615,-5.940330035462372,-67.10372451752775,-0.06229630467895951
300,-4.4063137280417735,-5.84732447358132,-79.0020922603264,0.038433476568231664
301,-4.406266252537977,-5.799848801298154,-90.79877835542175,0.012091011374019772
302,-4.3736781752101335,-5.860913277510472,-102.04452195904067,0.05743543871395752
303,-4.342334234380289,-5.817889195685783,-113.41178749410545,0.10277986605389526
304,-4.265029265011983,-5.650986215369178,-123.55767002097929,0.11325467990239699
305,-4.1083283730934514,-5.351211031766912,-130.9476617839104,0.1494078207324745
306,-3.8957153462443577,-4.957462610232727,-134.88292378348922,0.16599350491664827
307,-3.6888129538812704,-4.548383128709296,-135.57643556530275,0.10476973282881724
308,-3.5236909830734344,-4.091352580217343,-135.42115679792474,-0.1256051256041745
309,-3.468601601499647,-3.5890963500395894,-135.50363982988338,-0.5085921999764917
310,-3.5015659682545035,-3.159523730292758,-135.02113347653392,-0.9320169747862783
311,-3.4744154812380246,-2.8851288709277525,-131.30125551862432,-1.2472961621333614
312,-3.4807927414564994,-2.787748384011942,-123.91213758827412,-1.4094696195569452
313,-3.5473157713888988,-2.831840166508915,-113.22789396629811,-1.5956065568511635
314,-3.73163724949044,-2.83141228397953,-100.41123083801699,-1.9190683951965601
315,-3.9572746445905915,-2.7785108114459818,-86.42261737430123,-2.421734540895473
316,-4.182305061537804,-2.8335946901937654,-70.27784652076707,-3.0319078611008226
317,-4.349040750898868,-3.151350616847513,-51.741499215250975,-3.6326007424142133
318,-4.46083486189462,-3.6597330824308596,-30.681110572996943,-4.189935140871492
319,-4.6302273411999835,-4.1705514662715295,-7.109676721053805,-4.652383281867215
320,-4.8122664707443334,-4.494362389736338,18.752553215126987,-4.981930221405187
321,-4.988598272822827,-4.552605129038466,46.47781730503584,-5.157369904039067
322,-5.081184935345741,-4.50539159209466,75.45496010324008,-5.168241892185273
323,-5.093028600706148,-4.502453158113297,104.93165448439181,-5.192120233034218
324,-5.117547221870883,-4.5413448882827945,134.06787592215505,-5.2292986997479325
325,-5.189405822677808,-4.423852154167304,161.99409788364463,-5.139722561660349
326,-5.106864642373794,-4.086629648530158,187.509620748116,-4.749865336267585
327,-4.647598976269043,-3.529829697589952,211.4595460142808,-4.071359294214146
328,-3.8397454354238496,-2.858510295069214,231.49530741147652,-3.221860887382976
329,-2.8441557407264395,-2.2372538163494515,245.3146923220758,-2.3469857564248184
330,-1.7651823445015642,-1.7721107401341039,252.30448044949327,-1.4909383888062069
331,-0.5546693793499854,-1.4283825765929876,253.58999742837835,-0.44077799849231997
332,0.9631924739552148,-1.1825771404600183,252.84062733998383,0.8431043626602118
333,2.6245013993205566,-0.9731586436187329,252.81824347773443,2.54945156618899
334,4.190983773841169,-0.7545858211417114,252.78514703104912,4.337662718131537
335,5.344798581096543,-0.5165186510272058,248.47611071556952,5.766334388763217
336,6.000118934559677,-0.27910665604890095,239.06452743047595,6.571844519771754
337,6.289871562620561,-0.0056004267738126445,224.8375004051017,6.7315536494808015
338,6.352332459328253,0.26958684832434177,207.5886118311858,6.683766342547742
339,6.350415258428176,0.4938918055256023,189.45875374268562,6.6977901471685675
340,6.334559956234162,0.6307309397099636,170.5987760212051,6.629634536395456
341,6.325380435115826,0.6751758955601219,151.0728594483558,5.932224934838509
342,6.091940534260852,0.6486749364738837,131.38767305269016,4.5260551489623095
343,5.46753272946404,0.6307627012527494,111.8526391547352,2.5327451744039227
344,4.325518421075258,0.6633046569143576,92.71124888937439,0.32158807793073607
345,2.8136526120706096,0.6954925692939197,74.14436446638132,-1.8816461727063243
346,1.3336304597677002,0.7376754565140361,56.278565487524595,-3.9473907970529147
347,0.16524956173108962,0.7306462917849335,39.19633265032521,-5.559737694900423
348,-0.6384142605111499,0.707393195737806,23.370341830355258,-6.511373494839154
349,-1.3535245842445036,0.7449543749386238,6.930751540796292,-6.842503259656678
350,-2.222773486836937,0.9074559051866634,-8.38420995402228,-6.750914467452572
351,-3.136956538021599,1.176252932462222,-20.07100276329827,-6.732843422278658
352,-3.8233852345115764,1.4933822169278008,-26.65155874726171,-6.840286244014225
353,-4.232210005510809,1.863015054505522,-28.3875890177276,-6.7105295401085066
354,-4.455915454768369,2.2068357003862302,-26.591287777158453,-6.024619995345786
355,-4.636730589049379,2.502782532760207,-27.32077204899784,-4.959937021300043
356,-4.804425345975749,2.6878752038560307,-29.791578233714993,-3.9125365550790825
357,-4.882064713961451,2.7475972077676403,-26.28366937192041,-3.269586386909391
358,-4.8516606327461,2.70562995176054,-10.732891866394443,-3.178110543807267
359,-4.85641570120159,2.7135684562129425,21.65312369185243,-3.2447345040060718
360,-4.933587024538126,2.7645148206068932,71.72447330707996,-3.290369934967874
361,-4.785961570997212,2.68519489846285,133.5250582846304,-3.291769223374738
362,-4.249171190692584,2.394748175286496,210.6663436466328,-3.452399813853025
363,-3.46781638033815,1.8673614049082383,290.7952938009724,-3.7054305587768037
364,-2.733187331167079,1.1631673924815504,354.550010277155,-3.985762463233572
365,-2.306944592025631,0.3975154857906438,390.7761093499589,-4.239402145440842
366,-2.274954683308618,-0.33597203196458736,399.78693838319595,-4.467424601091436
367,-2.3158626780897413,-1.0718463602653512,393.30047357310366,-4.769290361422531
368,-2.2639098452333792,-1.7503748585925931,394.2331341104852,-5.175250994056408
369,-2.3355632572613314,-2.383402413191485,399.78277046888763,-5.724620601345225
370,-2.824421028050007,-2.9411121871358086,381.4302935996883,-6.301240777325343
371,-3.590275497118584,-3.3640606838716107,327.8027937317282,-6.765596419212087
372,-4.3474392563908815,-3.619373338255966,235.87595545015714,-7.033361438194976
373,-4.814694405685947,-3.718518322553786,115.73166095870997,-7.092159364176564
374,-4.883245303690852,-3.7013367862334983,-10.615891745312517,-7.054691347994613
375,-4.768641628305964,-3.6962915101527347,-147.49446819965578,-7.086531672755678
376,-4.828568947709079,-3.7223551937126214,-281.9239592501767,-7.119274283261729
377,-4.918058232380672,-3.682611040604499,-385.9806743452709,-6.856712350286577
378,-4.704642045156135,-3.5153542377255507,-444.70759352717107,-6.170410124159974
379,-3.9627532925451643,-3.2191898387220443,-460.8272961439669,-4.677186372627431
380,-2.6971309241124892,-2.7426699536119723,-452.5808232268717,-2.7629835406808096
381,-1.3239926867903364,-2.217403588737168,-443.9246978435195,-1.0871172468610473
382,-0.33389458163489916,-1.8059107854721317,-448.44073511220694,-0.08652577956087237
383,0.04540967941720461,-1.5494767589328524,-448.44073511220694,0.2186723412831644
384,-0.3559433730446072,-0.07250630641638217,3.2302083165521616,-0.06977132508653833
385,-1.2899604037440624,-0.2995640828168462,13.507769974384566,-0.32887112757623976
386,-2.785644970818902,-0.7814405613952145,34.777797290876364,-0.9081149006076923
387,-4.493062900717982,-1.5712200439456607,68.39530913954346,-1.8838493561617145
388,-6.132512300311539,-2.649328618226286,111.16607453168714,-3.1833559129635516
389,-7.415711594115111,-3.95513940565157,165.67550673776455,-4.865242195013786
390,-8.239443459672534,-5.50068732434268,220.77515577538927,-6.563186522195092
391,-8.663622473864992,-6.983415159484193,263.8358166172037,-7.876080021008975
392,-8.735506399285747,-8.089947696620737,287.8733090880113,-8.595461062504622
393,-8.747684891584338,-8.672917862361345,292.0783884356326,-8.75504917163797
394,-8.777949738652458,-8.733311945577597,292.0356126429224,-8.646589332926936
395,-8.714037855231156,-8.754242770303339,293.0566628465191,-8.658736348007368
396,-8.112453516548674,-8.824118607889233,288.7290256880875,-8.727861547861473
397,-6.69484975204773,-8.657990088755783,260.8870797960805,-8.323377277696286
398,-4.393001871807469,-7.75098405985859,206.4010340649009,-7.2503046686958035
399,-1.5563591000319428,-5.997893020266485,129.3806901979197,-5.477932717136926
400,1.2416160492673325,-3.54732380246294,41.37225915994286,-3.2403473520488237
401,3.774877902831658,-0.7855742385736142,-45.85108465376421,-0.9244386580629546
402,5.929104853792883,1.9103223898903963,-133.87513129194178,1.2321867983068362
403,8.03787262145959,4.612161719533254,-216.5859471235514,3.216309819986177
404,10.009875869007361,7.188013832466366,-295.3060333944197,4.956051390509899
405,11.529533257913494,9.647217873219555,-362.713765093305,6.446868634626458
406,12.347995660129397,11.698946027170514,-410.69237780197614,7.686097068856329
407,12.506091087530297,13.08303296019307,-436.3195694399119,8.647884659992597
408,12.369115188988776,13.74317050010994,-443.4197704157166,9.291661154142782
409,12.383898844192295,13.813136594753377,-439.37628075971713,9.634890504646455
410,12.421321677634964,13.77333558475907,-438.7654449077992,9.761492317425315
411,12.033389936278734,13.787409459497102,-442.5994598828388,9.778238556766915
412,11.294009820893328,13.687080047086669,-438.2225317721717,9.768040178313196
413,10.442314976808799,13.131313327131412,-420.72278800403086,9.774006492039298
414,9.689686682477527,12.119948798922366,-388.8312791664728,9.778906289647345
415,9.041507302953093,10.758674485375456,-346.40180451798307,9.767137239858075
416,8.286135460436991,9.248846558425297,-300.7629424104594,9.778117761739155
417,7.263496492447709,7.749796939268181,-257.8925056061173,9.776368778999645
418,6.258001756256824,6.143178336118908,-214.42401920185944,9.668314396671729
419,5.447986950523885,4.51056599636185,-172.40234219954155,9.33811014761767
420,4.645607138261435,2.8999338521745623,-132.56656921290764,8.685665242966644
421,3.4746434912608444,1.3397435775514055,-95.3761444428185,7.668057598935424
422,1.8075002285868471,-0.13110898052080328,-61.01807049697305,6.359582956620005
423,-0.1439972403524935,-1.5809227308835776,-29.473663858983215,4.858015938773034
424,-2.2431071657335973,-2.849784260036068,-0.6006563744005913,3.2933318533217437
425,-4.086261438502441,-3.7554119974347864,25.800414830192143,1.9774155688316712
426,-5.405816499800546,-4.225886441976767,49.940013228895154,1.1268231869705048
427,-6.12732706245871,-4.338063007009048,72.0253612932254,0.761472799314804
428,-6.275370734130017,-4.271899706523,92.2634360702697,0.7513205037964477
429,-6.2431932349487,-4.213405687434385,110.85365581351131,0.7688866732557638
430,-6.233469791875619,-4.244937278620514,127.97860122372454,0.7781056137594017
431,-6.16483778003819,-4.245925478300645,143.7963562234793,0.8806577990081276
432,-5.565083716419508,-4.245925478300645,158.42036173609688,1.1216598932172073
433,-4.329337406059845,-4.248856591006385,171.897633972172,1.3868590266829084
434,-2.4956034874974717,-4.265578804394271,184.19503623499037,1.5731222030574588
435,-0.6371172044997209,-4.2181260194693335,195.04711981434284,1.5813093199080097
436,0.6622542578160013,-4.185856938274608,204.98348504638994,1.581317876571508
437,1.3326104368612006,-4.302039508237851,213.1787038331671,1.6564383236629157
438,1.3852808596166788,-4.6414224030875,218.79016126029168,1.543208101145401
439,1.3632091361072765,-5.306447048174935,221.6282107814875,1.0569053111148776
440,1.406060467456127,-6.10637526667964,222.22791037056788,0.15329716325652676
441,1.2420971715342712,-6.75899516428872,221.71015336397005,-1.0723722758999021
442,0.5297119204669856,-7.092327013876437,221.73458597023426,-2.420704229198262
443,-0.5758012746257098,-7.186692451992165,222.15061574701724,-3.7060025812415307
444,-1.8028411052500202,-7.103808079154405,220.96658119483803,-4.957737031671366
445,-3.0876043890840186,-7.121333352692826,217.3613763836995,-6.173697159071958
446,-4.171011339818045,-7.218054692600837,210.9324923328877,-7.207047064934981
447,-5.095417587787996,-7.074283624912443,202.03831046822324,-7.924249673020936
448,-5.700538682675227,-6.5110220928854945,191.45581500076975,-8.290711851790702
449,-5.88182957167544,-5.436378883698331,179.56532864747862,-8.369588035071718
450,-5.8230983691203,-3.936243147657806,165.9601436468749,-8.32939717925099
451,-5.781772584814761,-2.254167618513851,151.09659717447244,-8.292561280851748
452,-5.796246028536084,-0.6488271485201432,135.5751460415174,-8.288844344834999
453,-5.5005821874201715,0.8345210936737428,120.10584049714404,-8.1971249418474
454,-4.8300476553024385,2.099372326008701,105.28706077151368,-8.056246716140311
455,-3.9124582649031687,3.0652419903970882,91.46372054946379,-7.8913677736435845
456,-3.0719419434281234,3.6887894291144825,78.7103905019813,-7.727370649843076
457,-2.5524202367997746,3.9988817333006113,66.88950914581541,-7.5629221054713565
458,-2.2176656774014583,4.084482363246206,55.743440737432174,-7.33030000936747
459,-1.7934926191220624,4.046775592688788,45.010027772021246,-7.002861351277376
460,-1.2172734646245686,4.041964551079934,34.52821983545751,-6.572843525668158
461,-0.6258647158359125,4.0802548568255945,24.27234556786435,-6.042932290533217
462,-0.2927964993324406,4.035715725723055,14.307005024469515,-5.416185823037042
463,-0.2075863290922469,3.8441523047122077,4.727153624784945,-4.690331381786657
464,-0.07597028609692899,3.502898061716831,-4.382205743157601,-3.8611859968433397
465,0.28181026170544043,3.0788766600582544,-12.981994334632198,-2.940192160197685
466,0.7682451789065281,2.683140372744396,-21.1052652968358,-1.9705682254107697
467,1.1386846348567319,2.4031678452406227,-28.86070934801015,-1.0167939263297805
468,1.310223644888997,2.2052499724195025,-36.40826324706969,-0.10541073995796207
469,1.2894002810727425,2.086734099283311,-43.898598287791565,0.7244754118079818
470,1.2501782456745927,2.013049689985501,-51.39903131232735,1.3738187305590102
471,1.2540964715427465,1.9285081743631174,-58.85319867303904,1.7771752795032227
472,1.2862193307182515,1.76567792186807,-66.09566652843215,1.9434386179743741
473,1.2708094046042642,1.4713070379619881,-72.90284582937835,1.943843047946771
474,1.1678553457000203,1.032115561941411,-79.04433707553827,1.9222614146791797
475,0.9152223965133551,0.48046105079769463,-84.27352289797861,1.9360981736152882
476,0.26365650415306574,-0.11117897761081894,-88.67560060078952,1.9092238507484518
477,-0.6397776727968059,-0.7499315132154938,-91.99910398147526,1.779297694809093
478,-1.4883756402368558,-1.3373210512690263,-94.09162873844396,1.5943452567359728
479,-2.036941692314653,-1.7728962069962029,-95.06223640289126,1.4244079976771744
480,-2.2050884847546035,-2.0092935496021163,-95.22789981818859,1.3318052867162737
481,-2.1437064716848773,-2.0514232675231527,-95.08582721144786,1.344227269180094
482,-2.1361153320192683,-2.037281283809901,-95.06189534070799,1.3439585636901499
483,-2.172537788704961,-2.0621178835119047,-95.11382858409439,1.31394321604393
484,-1.7928901394253396,-2.0500583851889487,-94.7322753214182,1.336920214932424
485,-0.8407768857398037,-1.7671130797794588,-93.81609652797684,1.524828089392868
486,0.5588157060477561,-1.1222786072878936,-92.30054029166786,1.9303927473265818
487,2.170466496830597,-0.1517711949911033,-90.2230270984826,2.518740714995111
488,3.517996486442594,1.0961021493006582,-87.64012561427842,3.169288424917779
489,4.365893278512586,2.344113053076017,-84.42444288309525,3.74514206927896
490,4.7418747361104385,3.347572250592942,-80.38537963852762,4.22330691841597
491,4.77909211840424,3.960573115602206,-75.52638293735126,4.611512034196387
492,4.811778233932533,4.178291909648168,-69.95741588249729,4.942952466635046
493,4.8176598608361605,4.109435255313448,-63.882804147925896,5.328562331043094
494,4.693185505254038,4.106850231680437,-57.50504557272659,5.736786474427645
495,4.19509227911908,4.197105405168853,-50.928257095585614,6.08158776208496
496,3.2882486518139613,4.076585502277503,-44.16015900859387,6.292148291612942
497,1.8952151820790097,3.5652565986065996,-37.222747255170496,6.321792467766383
498,0.39635836651058703,2.632887180355481,-30.24106184319702,6.3501274328177795
499,-0.7572422341842671,1.4355999856232564,-23.41302968526446,6.391694519103598
500,-1.4862667224848405,0.16302914512268563,-16.923585057483805,6.31687827839202
501,-1.6891714101486544,-0.8925629158206738,-10.908157052782665,5.852584031742837
502,-1.563860112336073,-1.6891582485772105,-5.5562312516999235,4.938755191696936
503,-1.5386192178599358,-2.1280688022842646,-0.6706564972808255,3.347366129075048
504,-1.633505400157352,-2.2615004120180293,3.323947116129594,1.5145043973178325
505,-1.4903865437621764,-2.210264534271082,6.023892854697246,0.030905053212045522
506,-1.1070440288659578,-2.191129554729267,7.364755559899677,-0.8675150223833181
507,-0.6279448247692672,-2.2496093528649603,7.660318202806185,-1.1255136577031475
508,-0.21454129218336684,-2.1621069666956774,7.454832805280726,-1.0003608594011397
509,-0.007922043196135056,-1.9330695988926285,7.282821283356843,-0.8656045369988883
510,-0.019943864770857866,-1.6493017783012933,7.385198337429615,-0.9335674216160085
511,-0.0243636422450195,-1.4211576573738578,7.385198337429615,-0.9335674216160085
512,-0.4185158429665715,-0.08520220891332864,-0.10421256311151264,-0.07888407056911748
513,-1.4469041343773374,-0.3578498841338566,-0.3785045199597993,-0.32481250546678236
514,-2.864620455567098,-0.9233435141667145,-0.8207834748562219,-0.7815869646918161
515,-4.152250735364357,-1.817751597216728,-1.462950966958325,-1.4906147072991043
516,-4.879335681231207,-2.9696302773221106,-2.1318179091242513,-2.3202460540517698
517,-5.019322231792743,-4.385363396139834,-2.656031961715298,-3.049650991131846
518,-4.899998554057481,-5.76412964231578,-2.9510714668344558,-3.519383550438286
519,-4.931372290141817,-6.799915433585605,-3.025292658114487,-3.7046707781395627
520,-4.95628759061587,-7.3483177001981,-2.998969834194705,-3.6629907955402317
521,-4.530312526307352,-7.427490973240552,-2.9717511570233115,-3.672441959955103
522,-3.6673311206620993,-7.4204299882124545,-2.977520301462361,-3.7430321638747412
523,-2.527513573763741,-7.443369877771053,-2.862303205824575,-3.6348578493747663
524,-1.2917052540103697,-7.341608428359507,-2.5516606753607216,-3.176004563274616
525,-0.059302276192354175,-6.7351738676628585,-1.9870947442228495,-2.3403508097845154
526,1.1927749158770793,-5.567345768475521,-0.9259681305017917,-1.2714585548278112
527,2.4055023100123663,-3.9304328977639393,0.37915988436821485,-0.12544360302951305
528,3.261876535232083,-2.0708840808135642,1.5534909270478285,0.8065339548643791
529,3.6280891676426292,-0.23498803683880604,2.2755774332491354,1.484284664325531
530,3.6296195466914516,1.5959044449799418,2.483178077282048,1.8293980455501702
531,3.55229374559911,3.393613051738571,2.3518391078377974,1.898300983798436
532,3.6086327539971226,4.9724288152691045,2.325020057862507,1.8507879374710576
533,3.607619430900731,6.120264960089344,2.44344449547091,1.8418274556617282
534,3.3388198327295444,6.748455876903307,2.2437239585482875,1.8569934200453966
535,2.83852148055404,6.93462139421956,1.6502216329895816,1.7092177222179155
536,2.208390190327081,6.861899583740916,0.8324176010807066,1.3695771324959947
537,1.4057659518626044,6.828233942740126,0.10669234501356056,0.836279885495095
538,0.41637800421856486,6.882088725118232,-0.2905808272937039,0.18566391655071013
539,-0.605695952092269,6.810873709439334,-0.32937928079936724,-0.534516822474737
540,-1.4955064065923103,6.578816801037629,-0.315481521851563,-1.1982595465057038
541,-1.9860526573912458,6.222888368305017,-0.3451300569965111,-1.6988050673462378
542,-2.0157652006362246,5.840343712805545,-0.4045707720797226,-1.9598387358940328
543,-1.9740929652913215,5.542877577064449,-0.40674494734158173,-2.010192575771998
544,-2.0537988199482093,5.380175030120242,-0.3646103285051326,-1.961294186291021
545,-1.9578052698556625,5.250055247079782,-0.30760236506679484,-1.9755347446050384
546,-1.3289418081701112,5.149859668384569,-0.2864824305355039,-2.0180554638843584
547,-0.19585073111148243,5.063226482603788,-0.2932781279575726,-1.8664600491340537
548,1.1237214175357957,4.975971494324922,-0.11267600749864667,-1.405595069638608
549,2.2468369914227906,4.8723586582165135,0.3004794451608157,-0.5903114356697343
550,3.0544819744006215,4.741115146443059,0.7734324327502806,0.5226240953643793
551,3.8895338567104902,4.589282415108275,1.1929803290059635,1.8294847082770476
552,4.9010710471550825,4.442150733754668,1.4047346835549779,3.2910084027006197
553,5.9344986603632535,4.321318631559408,1.4672072232411553,4.954043034589463
554,6.887686188466465,4.220280017511902,1.5707552287885833,6.776865558503965
555,7.604501716230489,4.100291160049361,1.8348100604925863,8.739440820841002
556,8.069419992915934,3.9100149250653167,2.0059921906874147,10.495919642900867
557,8.344851322379563,3.610355355230574,2.0010485406028056,11.728769256721854
558,8.445455642521816,3.1843974026722095,1.932175281320125,12.333368819125802
559,8.435090505061373,2.6326031704830486,1.7393567945175226,12.38679350601208
560,8.392329743330945,1.9662314542094563,1.556049313617625,12.377463055454616
561,8.412345392969183,1.2063576773700142,1.4196428703175634,12.424378914301741
562,8.295816511025254,0.3847876011696664,1.3435700328617535,12.290561837103146
563,7.8934509506460415,-0.4606635598779765,1.2748802993025095,11.556789215052394
564,7.114989254024011,-1.2943354302915586,1.270999075475743,10.14706865615301
565,6.111323440973756,-2.0740851425413953,1.2676475510328327,8.150848378086083
566,5.172357753494559,-2.8327066208357685,1.1817966673722862,5.817194072279949
567,4.393483382168413,-3.4878027230802835,1.1161202670056165,3.3794645504220853
568,3.6191613510276794,-3.952282138415601,1.0673140831101995,0.7332305562824821
569,2.5029768650476507,-4.193806602303478,1.0135651937526324,-1.9256665433584288
570,0.9420142735170779,-4.246972468024764,0.9239657055575957,-4.613733449208045
571,-0.7999294068177532,-4.2081508184924115,0.6323945586632217,-6.981145425517477
572,-2.407361518294644,-4.202344993214856,0.18707453813396158,-8.671764223413547
573,-3.840150375026923,-4.22548730467865,-0.2373801920413643,-9.555418731843368
574,-5.260416890169145,-4.138135098536854,-0.5093411714393318,-9.777048383526413
575,-6.691067097038204,-3.914776058011146,-0.5689014049939941,-9.630153454225798
576,-7.893189029541709,-3.576182745965572,-0.6034193117245679,-9.594221395303066
577,-8.645975866305104,-3.165531689115559,-0.6994549727917262,-9.707211730221283
578,-9.052672449901017,-2.804505455878618,-0.4844554817701947,-9.573726233140444
579,-9.473977512413407,-2.5699825607383664,0.16543183028825617,-9.12126620288443
580,-10.063231761591824,-2.4482202234707247,0.9983127793902022,-8.379907101790424
581,-10.687011483769274,-2.427285017460843,1.6902892186626646,-7.516647185019716
582,-11.106728985366042,-2.4463782212506135,1.956660009248081,-6.762849187996592
583,-11.22965398224263,-2.4325563459070136,1.9130778254121226,-6.267152124154558
584,-11.167666058775863,-2.4181812301612866,1.8704256041468899,-5.882765604420648
585,-11.13611513900612,-2.509643755929596,1.7934507835617148,-5.596070525654349
586,-11.213274886112075,-2.835870660912164,1.3258021335917767,-5.34183307064512
587,-11.18075174754902,-3.319987921680716,0.5584450871505053,-5.051117465363717
588,-10.927271929357707,-3.7851308318610184,-0.3363901436618723,-4.658612413965828
589,-10.418733868132252,-4.069454704596787,-1.1394413872857605,-4.111790460164807
590,-9.598083338052627,-4.124976909071081,-1.980265773413954,-3.383956966420602
591,-8.341914333771385,-4.113553569342717,-2.9311925278582254,-2.483025667380316
592,-6.569578901186681,-4.110156230654612,-3.7975267698178077,-1.4499639665546156
593,-4.336541213190236,-4.079483698720069,-4.358624376186773,-0.3471567144287549
594,-1.9173846738059839,-3.8549610940988197,-4.517482431956004,0.758610892113289
595,0.3066724806216369,-3.4332809122651673,-4.483911024224352,1.8223892093991525
596,2.2604661780964723,-2.8650927866594036,-4.450250765640657,2.83477170750186
597,4.181843130201557,-2.2470666212501538,-4.425599431702025,3.866102904186395
598,5.9614930290670705,-1.657763567713539,-4.090011548761174,4.94558766105994
599,7.315373156711812,-1.0565684193906397,-3.437664698954105,5.915502084903792
600,8.027330564743826,-0.45377139611728834,-2.3667867255315533,6.599452139082626
601,8.143491823217955,0.13274200543489284,-1.1818701258251485,6.92078353022179
602,8.072088696800048,0.6884113098028883,-0.26087015366092126,6.936143158769919
603,7.99769528194418,1.20163670858956,0.2775970782271852,6.907810086408812
604,7.942100032781554,1.6620153898310734,0.4181122590266801,6.924544394505251
605,7.786808273901031,2.062647082933354,0.349980896615766,6.866101711977945
606,7.583859434366015,2.400904727750343,0.31579070984051605,6.59871705795856
607,7.378834696994667,2.7325248176789843,0.3137998746688565,6.153239387991363
608,7.238587811916346,3.039318820753461,0.13494825036697816,5.625139103659393
609,7.156091755493706,3.2785833577475163,-0.12734319257784588,5.150883748826961
610,7.031591583754656,3.417395843081327,-0.37308833443250883,4.828877033543432
611,6.949075467344746,3.4491207005386015,-0.5108105817388444,4.586507162660248
612,6.974183124687483,3.435032133203568,-0.46218590024051776,4.398037167765693
613,7.032789876975325,3.440912307896276,-0.5165111717832473,4.170245835364673
614,6.941127339061826,3.4458870534303045,-0.6266920098143205,3.79397015133311
615,6.436323434109244,3.3289717038748585,-0.4551297762548301,3.190865271717497
616,5.430238514264948,3.0309987525824402,0.23041723342753972,2.3434683977205917
617,4.080771450987941,2.5206566937818944,1.5181231772768111,1.2808601909852748
618,2.562384331900596,1.821934599944033,3.005060744947725,0.031644696742149536
619,0.8914997101769854,1.0275145250260176,4.151604800038834,-1.3999174625301372
620,-1.0853811176108212,0.07988542649996055,4.64042968640254,-3.0099312278977255
621,-3.427891210008813,-0.8884756089305943,4.696445594016842,-4.7399161776475305
622,-5.644450935433336,-1.6692811064817101,4.67895830424252,-6.552709318342869
623,-7.19952907705084,-2.13320538941727,4.691259134529869,-8.321192252934916
624,-7.909821454803367,-2.2839286189553962,4.598863972906906,-9.759941235928281
625,-7.976985973533262,-2.2026628826686205,4.104896634590398,-10.673647692791922
626,-7.896289798240808,-2.216243958645061,3.1674252554767826,-11.058878126516909
627,-7.914808186369659,-2.3157239279580213,1.8301005607411083,-11.040674493665371
628,-7.845819591229259,-2.175352037102765,0.27591256014859306,-11.033031756864771
629,-7.398394078300589,-1.6429913267569578,-1.2886293857207392,-11.099976829867071
630,-6.686473079194149,-0.7372059864467506,-2.8336212753286034,-10.975755152893031
631,-5.8180066160189865,0.47263065163799456,-4.0468331559102815,-10.3946871383629
632,-4.84088611434708,1.6121220573935418,-4.775732932765491,-9.324805229597036
633,-3.7756597082780363,2.3516188491568935,-5.063335191558103,-7.884109573149543
634,-2.61102806236074,2.7559891400604037,-5.05477014900198,-6.3347604869492
635,-1.5237641704294138,2.8534253126490468,-5.068884931680797,-4.776455805562615
636,-0.7442560925914032,2.79272099796271,-5.044324411102291,-3.0723253023515302
637,-0.3208032017816267,2.7377590714513396,-4.924094615168644,-1.5410183894267147
638,-0.12373199434046338,2.768551201019295,-4.695849276404074,-0.4631356109694816
639,-0.018712771113574132,2.768551201019295,-4.467603937639503,0.05099916529069043
640,-0.44396965910130654,-0.11016073212192778,-0.09427363367827618,-0.1091340897370845
641,-1.2542318925304083,-0.4412493865869712,-0.40481524930066826,-0.46964868586692093
642,-2.2844820914459234,-1.1034553657941821,-1.0568896607862812,-1.148921896235762
643,-3.3034716691831285,-2.1203959396984353,-2.0606065332593495,-2.2096303985723376
644,-4.022377524282597,-3.3842134161388673,-3.590182300491914,-3.4149985976311985
645,-4.410135207702191,-4.9885158692031215,-5.47569410267703,-4.433759409691357
646,-4.58040393942738,-6.617688430413488,-7.235622313000954,-5.0520766099140175
647,-4.627833942599195,-7.902459165360245,-8.45078824935323,-5.264535336719617
648,-4.634429299327037,-8.629023536487557,-8.971058676026106,-5.196021814203657
649,-4.612646480146382,-8.80795931946516,-8.879033570622545,-5.1777532546083425
650,-4.6169509770353825,-8.675096873621536,-8.890576011460016,-5.25755903005379
651,-4.490174447197578,-8.700967552869338,-9.061866889946659,-5.1701863864763276
652,-4.03437488879449,-8.819908910672742,-8.783065699612429,-4.751090213274694
653,-3.046614273894878,-8.433938092156675,-7.640649784218903,-3.917495072728125
654,-1.3333075370657468,-7.287962187734265,-5.573148004197628,-2.7092131908493253
655,0.6375569026753378,-5.317784623167448,-2.8544772792968565,-1.3173737158070262
656,2.2834452845497792,-2.758894426149866,-0.03174093064394401,0.1216414950182298
657,3.17558897831935,-0.03746042869462951,2.495732645847195,1.5395332397198895
658,3.336878581362933,2.496608669139711,4.897659575387687,2.657933461255934
659,3.2034244713285203,4.981748770919055,6.788720513440332,3.3337546475036
660,3.22609546923751,7.066928542035642,7.973805931500003,3.5898312811419433
661,3.2283937160499767,8.487985571073793,8.479093806031416,3.5527632742418263
662,2.7797438346485945,9.1880551772661,8.51182205186073,3.532712402938332
663,1.8306641982925886,9.302575544045688,8.43352496510664,3.5890362365267516
664,0.6733479660593519,9.247424129824397,8.405302220710576,3.5086364638738528
665,-0.26539572137288353,9.225415394274085,8.379647661089102,3.1627243495841406
666,-0.6927004774624735,9.171136898461048,8.259389350292073,2.429548065641502
667,-0.6913729490198689,8.763068560214652,8.136174050131432,1.5176766398738006
668,-0.6938861691156187,8.009362731024307,8.015665843869934,0.7559933118381974
669,-0.6819459801005286,7.102280454772103,7.924558992272017,0.3702780618648843
670,-0.6157096189338832,6.358176422346081,7.898963466437979,0.29203774699378887
671,-0.315758388724057,5.986970328880996,7.845866888919148,0.29821094383783286
672,0.27738581566658593,5.861618230999096,7.752512956227741,0.2855365234360144
673,1.2655403719637288,5.8946703831386875,7.568078977949006,0.34532740550339797
674,2.6132915558481518,5.908747397381612,7.294006385501335,0.785948316936945
675,4.051627572680032,5.870960630550418,6.921694143650211,1.661590670982759
676,5.4966635823351275,5.937389436477746,6.529030897789098,2.896977221580727
677,6.69666857420234,6.114616736380199,5.823577853575048,4.266383055196305
678,7.5054998980701635,6.332799591833851,4.8631009677172825,5.696505723178012
679,7.968595552867849,6.507089114606725,3.9268705931098524,7.044893528754331
680,8.18050448810953,6.5371546916989125,3.2958199290432737,8.053053067053117
681,8.181224854077582,6.567739629420315,3.0728716379041545,8.601647224179963
682,8.146813779802212,6.624559458426093,3.166298023272245,8.708976241278137
683,8.201616341426998,6.52327785959414,3.272653372944092,8.674046559932624
684,8.198830122649069,6.014946721216133,3.193404873548959,8.66758758483298
685,7.881108350663521,5.018426627563502,3.144459722938075,8.627945405496268
686,7.0058595046598615,3.6096080440559244,3.095514572327191,8.217659143966408
687,5.539796988537006,2.0093573532590803,2.9922456237521886,7.378770303963629
688,3.7794221923142404,0.4477282196361858,3.115592469916955,6.161149103048841
689,2.132951122145183,-1.0812803147562229,3.2888507925822217,4.757540391992009
690,0.7246984713809288,-2.5190111162262676,3.068576296468936,3.39464968594045
691,-0.6028900911168378,-3.7607114060934896,2.0749359979737814,2.113983858949862
692,-1.8485214302634854,-4.667310923129412,0.19554904781029514,1.012383056917093
693,-2.8623892361042502,-5.179640323052334,-2.6061825115101858,0.1089848540210902
694,-3.4551145030374117,-5.354418416567132,-5.487060604011921,-0.634307976849549
695,-3.5977625159067794,-5.325386255512933,-7.553300422841789,-1.265078869917607
696,-3.472531907200308,-5.2987806839625655,-8.68973973285631,-1.8091825736672262
697,-3.462552871270543,-5.321738933866817,-8.926292461190101,-2.2599118005406313
698,-3.5606888617570114,-5.287847015446157,-8.786557454220587,-2.598442387206072
699,-3.4128599377773607,-5.133216676674763,-8.760636841359174,-2.8448628098341824
700,-3.0265772772374655,-4.902590718794398,-8.80939827110394,-3.0813941033169687
701,-2.531599268682119,-4.689682790772855,-8.158742700694807,-3.4152844036317047
702,-2.1181612602170174,-4.5614706494780615,-7.010048611110126,-3.9247407174460025
703,-1.9343816216218075,-4.53991255784766,-5.786476031674629,-4.602567729950154
704,-2.009726386216389,-4.532241675374076,-4.949693929350605,-5.469066738805822
705,-1.991848270638123,-4.513921228768728,-4.737138403633577,-6.329020888305262
706,-1.9420068221861932,-4.4667028892260285,-4.893902688170788,-6.981495056380815
707,-2.0782645119454597,-4.417676723754541,-4.90026716104854,-7.332597523866525
708,-2.4126825828375345,-4.403267609183055,-4.88104965992942,-7.392702053716791
709,-2.799123976194981,-4.39953161681619,-5.093453299021571,-7.3835325279990265
710,-3.1072084850042145,-4.36893239445351,-5.414879651441075,-7.388920300303234
711,-3.4930736584067263,-4.262312808621118,-5.720329580135902,-7.33333768692667
712,-3.9470819691447963,-4.071514418166007,-5.873360853579441,-6.9932494909871865
713,-4.506159345111558,-3.81852171337779,-5.875028037012469,-6.364732086331412
714,-4.957991395712785,-3.5529333137323897,-5.877202691669479,-5.526714569348309
715,-5.12569749677749,-3.298912543602568,-5.90547114145534,-4.616414780674027
716,-5.049165612154809,-3.016376005787944,-5.552750444683742,-3.7289525743278653
717,-5.041048079478082,-2.6942544600804705,-4.670690467181571,-2.777434191705395
718,-5.130416883577174,-2.329966215763646,-3.278850579852695,-1.7921667215621286
719,-4.924098541760277,-1.942296493367362,-1.5597887531133148,-0.8281168210551109
720,-4.298582113972294,-1.4903167637397372,0.12927587521061257,-0.04270445261612827
721,-3.3688869950847966,-0.9883427328646108,1.4503784243540145,0.45436448809866314
722,-2.4645083735476727,-0.5317215407373085,2.286553687108939,0.6657955960421957
723,-1.7366421636729643,-0.21170432092221575,2.591941518068334,0.679738055433045
724,-1.239082753014957,-0.06530933195218187,2.6279015826201406,0.6519328934009112
725,-0.8344361648330829,-0.07837789077716396,2.5886054667411527,0.6556843953282092
726,-0.5061005935453712,-0.05324865769674769,2.6901131026147667,0.6514348104371809
727,-0.32480648108675725,-0.06204037773068166,2.883803958314667,0.529210419352746
728,-0.32505606801470455,-0.17193826501201728,3.07082490552346,0.26515305520319254
729,-0.37743803507097,-0.3639411805270172,3.0872232642174495,-0.10930008315173473
730,-0.34462378079974737,-0.5559440960420169,3.0997806647238666,-0.576023878976291
731,-0.3029147196908281,-0.6696337387941794,3.3513140966879096,-1.0117698293865056
732,-0.2552972392528488,-0.6559608890125908,3.7805715648537386,-1.3410426490714995
733,-0.29182898355699094,-0.6485271489411423,4.307092040893655,-1.5194092410589164
734,-0.33805081881905774,-0.709724132469469,4.675362181034307,-1.5644582788487416
735,-0.19209918333692036,-0.5703558047518414,4.73312262854654,-1.5186385231867634
736,0.22581565088725314,-0.1281966835879853,4.724105615335322,-1.5367997831287397
737,0.8003552669690224,0.6320745365994658,4.8222698182553,-1.5941961964743785
738,1.4195056712843734,1.5791314870133157,4.594961668173713,-1.4997862332769905
739,2.079686798526022,2.6173974965168205,3.940494655763557,-1.1288632575698987
740,3.0262140125518204,3.513733711070496,3.103503142025625,-0.4005085990451718
741,4.230616289118768,4.192602502245236,2.407572742891943,0.6607310464636977
742,5.3539010738760355,4.557785283502106,2.103743358212352,1.9173122919462462
743,6.035930447819591,4.6304567142468045,2.2535049275949226,3.198114465191571
744,6.188464981201798,4.5976951518186,2.235063219886413,4.439907124859834
745,6.080132512296968,4.605344775103808,2.0754297118019407,5.576174271680673
746,6.103107479183341,4.594116855588647,2.352132603160137,6.479022183368042
747,6.132977264150454,4.312898652579144,3.1153616034122913,7.068326303304244
748,5.737106527905511,3.7213996111901806,4.105150194548576,7.349559995351166
749,4.957009351171606,2.8899943840263767,4.940693926534639,7.3995623555001355
750,4.047584283990181,1.8713167697963655,5.3205142768990985,7.35489709804531
751,3.2815256700307898,0.9369230307172607,5.16630666723942,7.341234881984303
752,2.7239165805079613,0.2446473003310478,5.184958016741164,7.365375655541074
753,2.1638607073589817,-0.1412975676605993,5.323950176250786,7.286227162898546
754,1.378591826040903,-0.2310656977050921,5.116383964950109,7.050791649476497
755,0.5490731349542861,-0.18214958472626674,4.312683996041237,6.605067652069647
756,-0.1770884049319108,-0.16794052483890876,2.899643362414129,5.941300836767999
757,-0.9132285802724168,-0.1801152989413583,1.1051434565072338,5.09650919841106
758,-1.879821264927254,-0.025281456348020925,-0.6641329404303641,4.150472876178464
759,-3.1510861088345856,0.36100203464201613,-2.32666031954308,2.901238005817585
760,-4.405493111039358,0.8716947176511098,-3.9009073890489754,1.556954473396415
761,-5.272929867770894,1.3199194579732498,-5.092927686869188,0.43049370555760014
762,-5.635956906895944,1.55980252973902,-5.757830801971985,-0.25355657469087606
763,-5.661930642853951,1.6073137030805589,-5.937276984439443,-0.46380279139575703
764,-5.593604424019565,1.5741131631528604,-5.842869044422488,-0.37365668516863676
765,-5.564836198515463,1.5424207287416578,-5.746553761753943,-0.2648039121549365
766,-5.588989591390342,1.5595478363080109,-5.79762159711006,-0.31805396733513003
767,-5.588989591390342,1.5595478363080109,-5.79762159711006,-0.31805396733513003
768,-0.3926849314389453,-0.05841375220117806,-0.1361864964112663,-0.17110374449347893
769,-0.9846470674701142,-0.23275908257829986,-0.5776697912860831,-0.6691217266902674
770,-1.6710852270394745,-0.5886040425191323,-1.4639978425785785,-1.6050224433014284
771,-2.261298835090176,-1.1535008012798338,-2.7496699853044566,-3.1246650786828796
772,-2.760352559073496,-1.9103936639046064,-4.432526876100633,-5.054387279470307
773,-3.514799932663802,-2.7981758715372274,-6.15242586962806,-6.8898683817982
774,-4.507206603050923,-3.85362611879599,-7.498863516027906,-8.18101627211641
775,-5.461166218657866,-4.92942376882871,-8.260826075813284,-8.7649812227152
776,-6.056579013908884,-5.804407034269751,-8.483565933272962,-8.713768871294697
777,-6.172177637299222,-6.334913281317673,-8.339672341646663,-8.733153771276504
778,-6.119156566669597,-6.51936727383292,-8.35604204550509,-8.885322702324272
779,-6.1506239175164445,-6.450575897229488,-8.521314138894532,-8.609515971940144
780,-6.102830921676399,-6.446873570535433,-8.311851705968163,-7.439661735150369
781,-5.569801519717617,-6.53425225827966,-7.470780192408284,-5.347564410301768
782,-4.582721425101504,-6.428204998685741,-5.968708330132511,-2.6599022062896287
783,-3.3908816491912206,-5.960015468787219,-4.084188373070541,0.05691595172499886
784,-2.2653287352157156,-5.065676572187372,-2.259584496978941,2.3581482980900756
785,-1.2421906103417781,-3.8131343508157998,-0.783311248726372,4.47570664270711
786,-0.01248550484124833,-2.3824467424481455,0.6256939057272927,6.304176977832576
787,1.5348680548559224,-0.9593831421215164,2.088014057267574,7.906319105192639
788,3.1486338102514635,0.4825156987304442,3.742390948013292,9.170068759945067
789,4.486286201150261,1.831587643842734,5.605772566448572,9.994104216574922
790,5.718949796998652,3.029831393281468,7.577084198727419,10.382855685607574
791,6.864374647177617,4.053493397724516,9.487373353958489,10.448592223394254
792,7.849191648652458,4.903082091304519,11.357444438358941,10.379365837227532
793,8.513253523391644,5.58466523148721,12.96040440044362,10.381126050555464
794,8.736565927246996,6.105754972912967,14.089164978713095,10.423527224350181
795,8.62789440188483,6.493746003940271,14.676397809428176,10.271546840521951
796,8.611348112233635,6.794677133824917,14.76317490154639,9.85478378287406
797,8.73747398738587,7.01530522839725,14.762906132001307,9.154091499011482
798,8.450706418535026,7.160085249668254,14.79423302508022,8.234663864308589
799,7.536666628272785,7.238185577098031,14.688644667321494,7.217135840885725
800,6.060248647209228,7.25826768626952,13.986587453087333,6.189236411314339
801,4.392374661025836,7.261736833405524,12.565788538361586,5.152231831662806
802,2.9014275488168235,7.277250860412568,10.497720380264814,4.139413973020888
803,1.620840238061671,7.284211396473733,8.094252937801816,3.1240356113448144
804,0.1865771944491577,7.314301667310023,5.7107607863723615,2.054767160567975
805,-1.2835469761236273,7.382246989678501,3.3594682597972163,0.9026267036205639
806,-2.464463040569312,7.463803400708285,1.1149502654727996,-0.3060989254259647
807,-3.091226237380858,7.530625477036391,-0.9423377603015246,-1.4833055734991505
808,-3.1515750957017405,7.554513645301865,-2.571101988471955,-2.6304566090013775
809,-3.1209807171285893,7.568204100340163,-3.589731844394667,-3.6062650703898207
810,-3.1728707247952403,7.590361699899554,-4.002749606889101,-4.282824135209098
811,-3.0411827792127717,7.5707538512352,-3.961395626967589,-4.623323970436962
812,-2.3588637063994082,7.361420917008358,-3.9625779750082994,-4.687495167503426
813,-1.2173221994051189,6.883494528841556,-4.059333567954343,-4.645291265981931
814,0.0745108751452751,6.126468498180621,-3.9574782097017063,-4.635899390850076
815,1.5095671273383484,5.1609862949127745,-3.1040915537366085,-4.645700173338353
816,2.789680239678213,4.088340180579313,-1.7003461271798719,-4.484048879737304
817,3.8710732525452003,2.9256369183351585,-0.26441219552165685,-4.112756052909042
818,4.587085763904073,1.7011119801737897,0.6689858874099733,-3.5413018512336576
819,4.843677489184503,0.45233002846636905,0.8594775423450869,-2.8484244041115505
820,4.735917105874421,-0.7824719739661645,0.7244450742755127,-2.128415317824282
821,4.65610912894711,-1.9614330537414055,0.7162927802432478,-1.3852734761915235
822,4.7787698215189565,-3.051509276380253,0.8029835913567012,-0.5823819946010332
823,4.665715774062999,-4.042000633793165,0.44020043779938994,0.3089628515954964
824,4.164291723475025,-4.9244698805129765,-0.45430634547920024,1.3735472774300508
825,3.260619889181488,-5.801310459281336,-1.806728351396715,2.4251614127565926
826,2.2084225191986113,-6.605202529910991,-3.3646791392111233,3.2317614849009595
827,1.324090995683861,-7.217626244795517,-4.834197802358155,3.664199590998562
828,0.6650344190414392,-7.564397053579792,-6.083599704420062,3.7270206569612405
829,-0.09037941940605343,-7.664362079535416,-7.475940325058747,3.7187412794151027
830,-1.1500230212024374,-7.5934774543587595,-8.811409546408306,3.7292751418409162
831,-2.3641258480583933,-7.600014909327818,-9.851100595783699,3.642983410983355
832,-3.523421486035242,-7.680163595464875,-10.448350351452675,3.207892804524803
833,-4.361723928448493,-7.583318185087077,-10.58670584039795,2.4417052172557616
834,-4.825782851854619,-7.191292037157895,-10.533357578922935,1.4821263432637608
835,-5.037419497221482,-6.467273985488716,-10.570530151614257,0.5559131361553183
836,-5.10427095423365,-5.503587973057745,-10.572342567628334,-0.16830893956884416
837,-5.093747874076331,-4.4886997754119164,-10.011942224086289,-0.7927283681049463
838,-5.051850855438644,-3.5919318227400097,-8.75092800817797,-1.317144871595188
839,-5.074910983563565,-2.769254241863773,-6.917891132911711,-1.7895947235937142
840,-5.039145611857679,-2.066573235498433,-4.879102460315555,-2.2444273243826904
841,-4.824481794085869,-1.476812216969668,-3.1131272587920917,-2.678201019485025
842,-4.293750520136098,-1.0330495115052012,-1.8703927185139646,-3.0608438496291783
843,-3.519643403219062,-0.7569560558749454,-1.1518242907147038,-3.367115869184792
844,-2.7552711007023953,-0.6353471791517741,-0.8874109371028277,-3.6036504667249636
845,-2.225457538315553,-0.6235628732812696,-0.8852611081285312,-3.8108013928844158
846,-2.0367605084703984,-0.6387038933724358,-0.9485815543438111,-4.010502591172021
847,-2.080281484883257,-0.6395882887092558,-0.9571589133624195,-4.184869007304766
848,-2.105857288178454,-0.6436194990413628,-0.9401675470147665,-4.302750320340206
849,-2.0366483871927117,-0.7049366506940725,-0.9401675470147665,-4.353363383722122
850,-2.098374025090791,-0.8298745608590742,-0.9292361665691572,-4.3557838772848685
851,-2.3724524674938046,-1.0046113203674871,-0.9270796082670894,-4.352194725185483
852,-2.8910729919888842,-1.190779957718774,-0.9790951366925741,-4.3430576127316405
853,-3.493215321087056,-1.3349402471274059,-0.9963311924902711,-4.350374978527157
854,-3.959551447752613,-1.425642461947039,-0.8043374358520823,-4.376728724714491
855,-4.156540496657073,-1.4606229975796974,-0.2332070546682939,-4.414885775981287
856,-4.167979403039209,-1.4571758566769606,0.7925164609252741,-4.450377762974515
857,-4.154787585575437,-1.4537722703587028,2.2276044192114717,-4.436262091303785
858,-4.177288749168923,-1.4689407766316722,3.927765920320191,-4.496663326209663
859,-4.192857600454977,-1.4700900279473428,5.7746918658186,-4.556070252664541
860,-3.996352749584617,-1.3908375144295841,7.74261642297872,-4.455596642217116
861,-3.430370996389317,-1.178664952440611,9.480402400259878,-3.9989958814973563
862,-2.33296325511984,-0.8144297432781404,10.680920765487445,-3.108566806464882
863,-0.7704950001968862,-0.3297839272578428,11.251547722422474,-1.8651217782046599
864,1.132647875016613,0.21030463803992164,11.309141242893114,-0.2516543166093922
865,2.9283841874552587,0.7600231027640465,11.276246041112397,1.3309210218340692
866,4.232589919209143,1.3335762794364125,11.28664867361396,2.6159963739127865
867,4.857207241105607,1.9032979406697437,11.18261150455902,3.350865758703472
868,4.945229992466633,2.3810042006805356,10.707068650227697,3.4792547960946387
869,4.88246276198789,2.6935685692165383,9.976157960944139,3.50881032538511
870,4.90010044919103,2.8260315082773793,9.239365838077498,3.543324912417149
871,4.860583704779883,2.8257034727069525,8.783395452329312,3.3024989352148424
872,4.397666405956613,2.800139818810687,8.709647311322824,2.3462828518966163
873,3.6740621345086275,2.8043858420531853,8.672595901171926,1.0124079727638118
874,2.961308785941714,2.7959097503038914,8.39206886927133,-0.19375711122203942
875,2.5253637811371084,2.742725648334357,7.673788982626716,-0.8325231323178381
876,2.4688757715596505,2.6428101477106494,6.531596286582816,-0.7732592260343882
877,2.551659213575332,2.488790205212931,5.134184049629185,-0.7486387927853234
878,2.5788083628901712,2.2648032213779086,3.723189225918177,-0.7983593812560084
879,2.571319487715223,1.9428040848993064,2.5164056756492106,-0.6699451786167756
880,2.595841259967164,1.499633225154031,1.6192290247307892,-0.12947310432182835
881,2.620363032219105,0.9958541500686304,1.01470656906714,0.974174798787581
882,2.611020604090055,0.5210409486989948,0.6035040778924531,2.322976579310839
883,2.6443790159718166,0.1439429574059234,0.24248043398026373,3.431577486719252
884,2.723026703455797,-0.12314967537709684,-0.20285170493777605,3.9795387917521428
885,2.653411478911491,-0.318941695450828,-0.820369891634815,4.117079770031857
886,2.22790134673933,-0.47756057931543205,-1.513447897361968,4.080695943185482
887,1.490342207361672,-0.6821865801953971,-3.1676946283534577,4.054943138345751
888,0.7116244546305812,-0.9136943216585057,-5.574098506785258,3.997180944674221
889,0.1636830400999045,-1.119579788564962,-7.99846482477523,3.6231159321810424
890,-0.012685066842684695,-1.2549567968868836,-9.70443376825277,3.007761860558944
891,0.007206855207677283,-1.3041215057374647,-10.349660819847394,2.3254782051055125
892,0.021358148375178992,-1.289219914958443,-10.166465445505057,1.6530553164121995
893,0.0033327658426930713,-1.2642579266622058,-9.844639577938839,1.1339573281903292
894,-0.005367360693388414,-1.2754172932242547,-9.98405020197336,0.7262398813418035
895,0.0027071654332653052,-1.2754172932242547,-9.98405020197336,0.4673511652611226
896,-0.29336527046052085,-0.16236520905115176,-0.9655808476054726,-0.17607422826223046
897,-0.6382464507113794,-0.6316937120923892,-4.244323072264948,-0.6504541961101296
898,-0.9659557528940023,-1.5603562508484,-11.366709305213476,-1.554164281722295
899,-1.2562714136385091,-2.97380861619102,-23.201283347903846,-2.8801557506902817
900,-1.7213926175970504,-4.715146566538491,-39.69019943105634,-4.462901574454297
901,-2.6753884873705833,-6.845593503516625,-60.230460992457594,-6.341839305999946
902,-4.126037302602806,-8.942565982716685,-83.75470842512546,-8.20175580730867
903,-5.761321974939577,-10.550684484172947,-108.81380393801768,-9.664160042146056
904,-7.415658722832516,-11.43305497530159,-134.4886301747141,-10.509990697507215
905,-8.800963560922872,-11.609512896814088,-159.7328346732458,-10.768590971292587
906,-9.787296517899668,-11.53764743549298,-180.77797985272804,-10.592660192083137
907,-10.357143398822867,-11.552435342575338,-194.67958478646005,-10.643642752203343
908,-10.45641039034536,-11.515374640571133,-200.9836304419232,-10.866284659263794
909,-10.502562351975842,-10.816505960872904,-201.0590461488955,-10.57932138572741
910,-10.585813371502432,-9.312719567122581,-200.96724688903387,-9.381551194612491
911,-10.431780071984653,-7.030602974977366,-201.94581339203765,-7.118272412781584
912,-9.365185687837329,-4.222292374343075,-200.2940844347612,-3.9935907255772802
913,-7.105621521123853,-1.208235032559459,-190.90427782087733,-0.4868482673262916
914,-3.7944646683281986,1.9768280235958213,-172.12060048890476,2.956794801230127
915,-0.10006383454756129,5.22433124375987,-144.521501387744,6.423163317864615
916,3.1965374846210666,8.393596384604772,-110.96831893585053,9.907919494504066
917,5.977080542086711,11.453599161252528,-74.48454697455895,12.95010704705087
918,8.500108679431504,14.01443945488018,-33.937790457713845,15.099611459940578
919,10.735896342958565,15.739776687550984,8.990271139054656,16.197473170865905
920,12.481190387073216,16.55733990724424,52.97136072176629,16.44073919041891
921,13.50959031633078,16.622003123332114,96.6334244802757,16.212727494192237
922,13.768880896571591,16.59927647680088,138.64034668464015,16.184210108983887
923,13.660233100707064,16.649260545821228,177.7643038787014,16.368922427340138
924,13.602710651021491,16.463762153893633,212.53695181788277,16.158017914644127
925,13.61209888881704,15.573602158632314,243.96640576327442,15.409451371517871
926,13.13967345411354,14.000362877382383,269.42162081958577,14.102379623816343
927,12.207349514262933,11.998524631130607,286.5100357007087,12.443156889500454
928,11.082951064808515,10.013061429779581,294.92870291547376,10.765159137883895
929,10.198049876523944,8.406100177112942,296.247812006995,9.304441388427978
930,9.62883201217241,7.01786110047426,295.7501133573744,7.875815422045624
931,9.282413981136788,5.926153804736259,295.6869596167471,6.5458024614548895
932,8.971529671604484,5.110812249745703,294.8420262900439,5.337590120364111
933,8.697980723102507,4.53974866873564,288.4888128321562,4.290212966865631
934,8.477011153344586,4.180463302701645,276.32162402025193,3.4596545201111915
935,8.331830223645794,3.9779518446494113,259.35764961056304,2.882905167590069
936,8.233065594398795,3.8389342150147314,240.07644921487883,2.539380149395218
937,8.048272815369732,3.6562669788814417,220.74021111264616,2.3442418631424067
938,7.925877425219497,3.3440063485350016,200.39192859834804,2.162842403598859
939,7.835573648847719,2.839603197534363,179.71068550727864,1.8247990312443045
940,7.674273322715504,2.0920792195814313,159.05335670260018,1.153892134451196
941,7.089127201310705,1.0776787350035022,138.66151005023355,0.03717088702896998
942,5.936406957136049,-0.16900472437608693,118.68687827817013,-1.5006292736646114
943,4.285150658043694,-1.5490851978928293,99.27187414049486,-3.2766479619093496
944,2.398333434202579,-2.9353770415889175,80.71888522833339,-5.015941582005356
945,0.5756913949002392,-4.227610501072023,63.51601059804806,-6.481453343476803
946,-1.2535266516651402,-5.363090922340634,47.75268529688802,-7.5704511939697365
947,-3.294790341645863,-6.40228357449788,35.132488465995465,-8.300867920860197
948,-5.7011128257427615,-7.264277754199265,26.94095299109744,-8.781729317549026
949,-7.998344129300648,-7.858573006245324,23.167193096924255,-9.085257508718236
950,-9.638905434055129,-8.16100347953689,22.738698733369354,-9.259654730273603
951,-10.416716885134605,-8.213325008668031,23.06147491469888,-9.341222291780898
952,-10.504006521697086,-8.197602938613116,23.104239017528204,-9.348914192818707
953,-10.433765147168977,-8.195393314047237,23.509902134247127,-9.357984373729884
954,-10.460544996857124,-8.163427167598895,25.95018511122891,-9.373312365823582
955,-10.366929594502386,-7.926649579386419,30.28462683254227,-9.344374446479687
956,-9.784382012547796,-7.476935005239683,36.1840280149667,-9.178434443886756
957,-8.832319901378638,-6.861115016326324,43.49319607174017,-8.843815763530005
958,-7.701445378736773,-6.185043313605356,53.12893751111554,-8.337607290687366
959,-6.531241150279253,-5.5453866750222645,67.98202474809945,-7.6853620669157685
960,-5.55722813442342,-4.9099701503954085,89.92517969942658,-6.914800602412888
961,-4.761162923964707,-4.290220935028214,119.35828816085645,-5.995292468451641
962,-4.206640077263843,-3.67569929874929,159.873519449524,-4.965654019209379
963,-3.996151925490488,-3.045752713519541,202.82972886465504,-3.8769540266382925
964,-4.022554359371963,-2.392215136532424,237.29435406476316,-2.7688356625337223
965,-4.070991394996679,-1.6570817930660993,256.7045765332722,-1.6501706573974542
966,-4.059025864661648,-0.9530900182745795,259.42808355158337,-0.4494020110972681
967,-4.049369425110261,-0.4199635926059331,260.19088847723475,0.6654753292738473
968,-4.077243481866614,-0.13231799768887847,262.12426553637647,1.4920006883080779
969,-4.135360129551559,-0.08974007906536861,257.0055845427602,1.9264412108303082
970,-4.166039314496036,-0.09119983014887498,227.7409111035778,1.970775942970169
971,-4.225567224269116,-0.07541306995771688,170.1347608692808,1.9833833078346765
972,-4.463783528585691,-0.1297008223561517,87.56862102342963,2.034400422373749
973,-4.950393321920316,-0.46832109954241397,-8.973600455194166,1.914387214810281
974,-5.531154063524659,-1.1083001297129484,-108.03288987460016,1.2582483055874183
975,-6.078894726469646,-2.105228608727967,-211.61493068435487,0.04548037178015574
976,-6.487980501891181,-3.1685926652823637,-313.7094873535995,-1.7726514713341284
977,-6.754975791209375,-3.965617624096609,-408.7723599272217,-3.6569065603449795
978,-6.966432446547853,-4.425111769107648,-498.9143009537395,-5.025706415828867
979,-7.132809601598044,-4.520269302371854,-575.420520505823,-5.800772474469194
980,-7.178348700832863,-4.490586968301717,-629.1905166505003,-5.996844675782433
981,-7.155537488116979,-4.487044868760518,-657.2912392151911,-5.8316863150979374
982,-7.188915764215199,-4.449437658858629,-664.489680785664,-5.8191724058758165
983,-7.2168924994256605,-4.102467466968717,-659.4747724800584,-5.972573220095394
984,-6.965604757891385,-3.4428180348088815,-658.8004389106212,-5.795106494947378
985,-6.1850588054872455,-2.5693287259150646,-663.3442458583331,-5.119250128014614
986,-4.825024703290139,-1.6708920004745702,-658.2540447919225,-3.8888185168947658
987,-3.1233906281950827,-0.9048861460345446,-638.5958712009271,-2.2552874081991825
988,-1.3961176964281794,-0.21415324717804482,-603.2858212794991,-0.5050588028408451
989,0.3017441795114959,0.4334109293218187,-557.2542020936986,1.0982645956017665
990,2.0870433469662775,1.0422637847155491,-509.29275246228,2.8009806183560144
991,4.065817119399309,1.644380404741156,-466.3767121047641,4.372852101066362
992,5.907643193669689,2.166568071801819,-424.5335614219873,5.5630455766249725
993,7.194091890380413,2.5316119386523215,-385.53243893831024,6.2345954946678575
994,7.763554022122301,2.7145237964942996,-349.3900943015852,6.434433096392745
995,7.809883707220157,2.745813841382738,-315.72660957810575,6.319782904606511
996,7.708712687686464,2.7249385042482395,-283.9476767437124,6.3234514893091704
997,7.677877181531104,2.724966533418808,-253.39756953404554,6.4490422879781635
998,7.699236636779174,2.7267849053360136,-223.43392233243128,6.288811028015022
999,7.618625366434195,2.635224839565298,-193.43043448690798,5.660255874145677
1000,7.491737939657012,2.340848631985298,-162.75964257076078,4.577918367841232
1001,7.365801287940339,1.9119090372677008,-130.82037853845938,3.062138573353414
1002,7.292379603197851,1.5035755162063154,-97.13358054188011,1.569020399850564
1003,7.283717557057202,1.253580644860367,-61.45627615063618,0.5408059701879372
1004,7.256060012734136,1.1873853823729938,-23.850931061409504,-0.0437500103219843
1005,7.250961511354533,1.2248801342158169,15.312330274270387,-0.16760679973729434
1006,7.396150449545764,1.2055468836442031,55.41561260199131,-0.11857766990610452
1007,7.685345611890535,1.1729063753489215,95.68689671584661,-0.12756246360108395
1008,8.037860947985752,1.3719700459533966,135.29739126924187,-0.11570651520485775
1009,8.32799811463299,1.903783558149994,173.45580913123393,0.34247228227126314
1010,8.462766804819763,2.7477994736574627,209.48411402820912,1.345534457800169
1011,8.464431307152898,3.8563717832328375,242.84624870670146,2.8141591397578907
1012,8.448702855545434,4.9091450259924985,273.1392393853807,4.565233677402124
1013,8.482793318745246,5.653025623268316,300.0839050807113,6.174597282939038
1014,8.467987194805925,6.056535468297169,323.2103436228314,7.377463294103823
1015,8.442144628532677,6.135727700842841,343.85311106303834,8.063669149636372
1016,8.386727258925223,6.093797373867885,360.6479920991951,8.281962592810364
1017,8.184998520723239,6.084710593972461,372.0989416399632,8.2127323288139
1018,7.659204612676019,6.080471391002629,377.88912490245855,8.184412411733254
1019,6.815446380991252,5.889617479882883,379.21139152601006,8.28420709158931
1020,5.713923819991755,5.321750223770216,378.3310751827172,8.14550151139961
1021,4.627973151831812,4.511829193926823,377.57983967801204,7.75227733458582
1022,3.901071883562196,3.7523101233001785,378.021458311811,7.253481979460812
1023,3.5835486873317857,3.29525300294747,378.021458311811,6.843091417462089
1024,0.002356986174312591,-0.0980955106746299,0.3362273880902861,-0.1002589144345456
1025,-0.02516308282257635,-0.39345416972596564,1.335872741368327,-0.4046351279617189
1026,-0.018242218494563422,-0.9806732178741868,3.184301410799618,-0.9942264714628173
1027,0.06652165211535407,-1.872667612064764,6.233355327344291,-1.8400721254260297
1028,-0.005380977089060934,-2.966977434316066,9.66904101130267,-3.0472681908497523
1029,-0.500766482266662,-4.311569375160025,12.502937540340623,-4.35368435041762
1030,-1.4657492117147568,-5.674618489363884,14.12485037631278,-5.425606439302122
1031,-2.6632628045450932,-6.764655784488966,14.441237818640666,-6.0540578338037925
1032,-4.0780218411510525,-7.404681368483963,14.35693984551184,-6.207781815957175
1033,-5.36801824661611,-7.60492805438459,14.431601014733944,-6.1368241743213146
1034,-6.345648152921466,-7.483539964398016,14.294178031328888,-6.136074184820095
1035,-6.981184355312548,-7.5026199167304775,12.660906492816805,-6.152492475434595
1036,-7.184340738804863,-7.649588686422518,9.196034214466888,-5.753609965554336
1037,-7.134581773683094,-7.461507566198391,4.076734220532128,-4.846043866255266
1038,-7.116764445897822,-6.695624852034949,-1.9235727092415287,-3.4679443653612143
1039,-7.165134292769936,-5.272103250636593,-7.888864837979069,-1.8131738490362372
1040,-6.707183251319794,-3.330887638945102,-13.632101534651873,-0.13489111188752012
1041,-5.465852591564244,-1.1734209008442524,-19.17431740264005,1.5983458920246758
1042,-3.4278354008518512,0.918917084412399,-24.342376495736975,3.3004031391122695
1043,-0.9968405989398712,3.0145063404979746,-28.50852330747107,4.6654306453367935
1044,1.2309017756965495,4.962868043940918,-31.1870905847997,5.497929079307673
1045,3.3427947207330844,6.676965986392067,-32.34361417952078,5.805428362133971
1046,5.290042582583038,7.978398112200251,-32.29106913495096,5.758241848260158
1047,6.902986069618373,8.77685950552936,-32.27039887825958,5.720582965500204
1048,7.990721806693976,9.11816618408291,-32.49067890536604,5.769416097328424
1049,8.440919979163944,9.12436857765328,-32.1118668030643,5.695834446225656
1050,8.317745702140641,9.11346430368696,-30.29233590591091,5.344024477824104
1051,8.291171047975139,9.149528017573127,-26.907732966094287,4.81940254285952
1052,8.503788159248831,9.064767367415625,-22.368540890957288,4.318031710881617
1053,8.266098208005856,8.64866016944507,-17.518151946186432,4.024017341332672
1054,7.176566843890193,7.899457667531871,-13.087746964860074,4.004062450759
1055,5.279382868385084,6.935290801725176,-8.792745074902912,4.027623519199826
1056,3.0230776134588018,5.97353984898737,-4.782665733150814,3.9943398204143064
1057,1.0682867489162187,5.2013854123679355,-1.0496427509747894,4.050033917552269
1058,-0.06292843477356695,4.566458031845395,2.397638271338708,4.285845415354928
1059,-0.6245187322270983,4.114068759611365,5.508841965979144,4.6020179654700835
1060,-0.8097009873148814,3.8350919362957328,8.232026134723576,4.875595576186287
1061,-0.8108966694058325,3.697456991052116,10.571423447616311,4.9647450192220575
1062,-0.7875612275846564,3.6538858243074808,12.610969562745854,5.006023761098698
1063,-0.7813726268340264,3.649325334872746,14.49598163953648,5.031718982494366
1064,-0.7726361226365459,3.633479041253931,16.38533900623264,4.928623173902745
1065,-0.692368891376271,3.5748621021273386,18.389232976577425,4.38960453240342
1066,-0.4190739832095048,3.4613032905481225,20.47557352359732,3.3487771408703217
1067,0.0493389871433097,3.286305206343285,22.73513903963231,1.8879546848020141
1068,0.5746048360534202,3.0397683351490574,24.812058509416595,0.22841044877540806
1069,0.9821335316570885,2.7119028392640514,26.32748314795932,-1.560400661924975
1070,1.1663453420286107,2.30232681277356,27.119965805039246,-3.293556419752939
1071,1.2209963066779164,1.8245366990021705,27.279038757136835,-4.5959065657789075
1072,1.4484212532292342,1.2980355372666732,27.13965716618865,-5.292251673809317
1073,1.9385589802851733,0.7312291074930698,27.197731006699076,-5.400368711927055
1074,2.4387094273896284,0.11757621954297473,27.30964161858434,-5.3886815665976915
1075,2.741678877906787,-0.5453079702887067,26.773831623409997,-5.40488398929712
1076,2.9823481018546385,-1.236326109898651,25.286292313186472,-5.269115500614978
1077,3.280294275115199,-1.9099945580748867,22.825226329927354,-4.560022816781626
1078,3.7114444465130605,-2.513978976715721,19.77385574559447,-3.3025137775482643
1079,4.125923954716413,-3.01694663522453,16.74744203708333,-1.7442921158485105
1080,4.332079036549515,-3.422759878511213,14.137372252303994,-0.15980335027379738
1081,4.3082516156126776,-3.7547282459062528,11.888513748809599,1.0524493386115095
1082,4.222054252615375,-4.028529124356175,10.020032360661759,1.9073374676652617
1083,4.294020149101878,-4.257206144995697,8.429492098491831,2.332421420644211
1084,4.32247002561148,-4.427848019227898,6.984450696546906,2.417908265340974
1085,4.162006759723898,-4.531633244382333,5.578673792237892,2.328816727416516
1086,3.7662662941400953,-4.576723547010913,4.178851345003352,2.359387053244237
1087,3.197361925693036,-4.576435527500061,2.8300371619523905,2.4460624852437745
1088,2.4836812369874672,-4.5767159832901285,1.6165144987055742,2.211875320301554
1089,1.5310624968551374,-4.595184790772543,0.587502489379371,1.4738269637382357
1090,0.22889057647043276,-4.589327973153542,-0.31885685354451954,0.21657085504235424
1091,-1.5683618448909586,-4.475005420540209,-1.2697526215366302,-1.4688659024107844
1092,-3.3966531506881674,-4.198990151894022,-2.4319452165091873,-3.0739009061660414
1093,-4.732276324458023,-3.7561790867992237,-3.864771174815954,-4.16993753204415
1094,-5.362245780462383,-3.1983460213207544,-5.497137037711784,-4.740101167298534
1095,-5.424078688891293,-2.6126966707811254,-7.196227982236426,-4.822505850675852
1096,-5.353636652971787,-1.9506244121225829,-8.87228972273221,-4.796461626687256
1097,-5.404728955837382,-1.3024747645128616,-10.524153366748989,-4.794375494343368
1098,-5.3475632354710525,-0.7931178474096111,-12.157349301083327,-4.70941168393017
1099,-4.817944937651204,-0.4996015587938157,-13.868193382297589,-4.245749750015015
1100,-3.85027558260966,-0.41567752234154626,-15.41689920908192,-3.430589126071982
1101,-2.5819107660626672,-0.4666834190837669,-16.529324250608468,-2.384035167997098
1102,-0.9965396620091955,-0.4834187233800912,-17.09355222841733,-1.3134641911855658
1103,0.5214298455369089,-0.43874269375424657,-17.195018162507857,-0.2748607974325677
1104,1.7425589325412532,-0.48168375505531963,-17.10071481870492,0.8129272309267359
1105,2.5199033696353323,-0.6430525968409582,-17.133628493042046,1.7427762262957378
1106,2.717003827768283,-0.9800950571341892,-17.196164636410256,2.3548757721477624
1107,2.6141530208366577,-1.3958691312072682,-16.840137176255006,2.6105386116153975
1108,2.6335292374254204,-1.740352621336231,-15.887753899878884,2.5676216481628655
1109,2.6797808087659285,-1.912207226506161,-14.373095120155265,2.576476236295509
1110,2.1527938990377504,-1.9509867513958952,-12.647680785563104,2.6642270429144306
1111,0.9411471393097053,-1.936654028817926,-11.198813561536129,2.5394649108360454
1112,-0.7624934424643701,-1.939067168007358,-10.24349474738629,1.9545041717007936
1113,-2.5411870914138888,-1.929820174455759,-9.577484346463775,0.825424276016921
1114,-4.201183754042871,-1.785848776024238,-8.930973934614528,-0.7501175942330163
1115,-5.768649057211796,-1.4962651925898103,-8.018107690993311,-2.637685719715508
1116,-7.202726066324465,-1.0699620262475926,-6.745062405801226,-4.343929901747208
1117,-8.267443150525867,-0.5948436440579071,-5.227792271966399,-5.640465880325316
1118,-8.790823532180973,-0.21087716951426902,-3.69021572346282,-6.31722666277975
1119,-8.790566456975085,0.03344942585614259,-2.2584341009527353,-6.392137856954282
1120,-8.734561543761686,0.13832955684113277,-1.0584004612360176,-6.3986266566973855
1121,-8.842690096529154,0.1329407198425546,-0.20244484708192242,-6.464691635803133
1122,-8.752080412964796,0.13547952765305332,0.2855820210577746,-6.3089235369488375
1123,-8.03785682046673,0.13519458152925062,0.4225439672598095,-5.374251284736187
1124,-6.622778490430628,0.08467401973113887,0.4263212413440513,-3.5340948962518404
1125,-4.736880403513724,-0.017700281889730586,0.4267966104985591,-0.9376918539486881
1126,-2.7463625150294764,-0.12700617090995203,0.5743776905942021,1.9539081217379048
1127,-0.8540872478606565,-0.20073580159943932,0.8011069315003568,4.793319648896509
1128,1.2606986524142316,-0.19933564107810425,1.048230719870662,7.490826782315054
1129,3.6380474987417566,-0.1975931266192109,1.100373980603114,9.583930472745216
1130,5.834064278154208,-0.23060577817858866,1.0660451881253061,10.841590881177087
1131,7.342136484791925,-0.1813989297339446,1.2595581699073508,11.317927294784447
1132,7.9845730657432155,0.01757944999350486,1.8690420910727017,11.263992732308822
1133,7.936798112763991,0.3877523494168434,3.0081799774747138,11.203660540840279
1134,7.9426610558454165,0.8847695107827674,4.426467724324832,11.285555716348751
1135,8.049710075871884,1.478393452436383,5.944682818657179,11.187925778630198
1136,7.7698751463425,2.0760149586784715,7.202385978770969,10.654535745301025
1137,6.790644091315367,2.6087218351688772,8.12485141101417,9.640007169224814
1138,5.305028958105699,2.96189714918631,8.610330243100123,8.25244339505037
1139,3.6697419044394297,3.10968843811239,8.71420989349852,6.7140046717850925
1140,2.2004313412838097,3.088396709543339,8.659201519854799,5.195294910156663
1141,0.9323643023552777,3.0908389572265533,8.64483791392965,3.567126905250164
1142,-0.35513148836951997,3.1311707977398577,8.644753627178947,1.8988223413688812
1143,-1.3851108421564782,3.056820069240512,8.39980860230396,0.001357115559379396
1144,-1.9445547931813516,2.7670973843599556,7.914312541194217,-1.841696534004331
1145,-2.0436248308117273,2.27197318217055,7.267454781342588,-3.26253428241594
1146,-1.9397805265466108,1.6721118866165146,6.618464077913348,-4.055636366914566
1147,-1.9593763581975336,1.1202062736419978,6.1289629695337675,-4.268334257535555
1148,-1.9497092653047585,0.7327950587842041,5.6547880732708276,-4.156172839763968
1149,-1.7446194962209904,0.4595050526589815,5.1712401963995545,-4.040816457663478
1150,-1.4491454946079958,0.3156140528622097,4.761092373844016,-4.101556004135546
1151,-1.1781938166486057,0.26710596868589825,4.495338513474695,-4.101556004135546
1152,0.14892296903632118,-0.08395914486430334,-0.07051452873843286,-0.09475893101048141
1153,0.278758239398167,-0.343508611178485,-0.25564979311308517,-0.3506756750947391
1154,0.38320561226448924,-0.8743110156225867,-0.5925949943239353,-0.8291031195041212
1155,0.37968704458415525,-1.7023395971689013,-1.0515273473042768,-1.5231077360454934
1156,0.4467368008336512,-2.7811635953501423,-1.6990062619018014,-2.3717053053939834
1157,0.49743400201113785,-4.084150534329878,-2.40490226494983,-3.2834786902939808
1158,0.35957219608531604,-5.327751324111878,-2.9940537396565485,-4.248292436051299
1159,-0.1579785001327687,-6.239608739829454,-3.3479980324820273,-5.148836016996546
1160,-1.1815393466157773,-6.703098125553293,-3.4036506465455285,-5.834896068403243
1161,-2.920399890735431,-6.756491639670066,-3.443275941907414,-6.228762457555033
1162,-5.023716458681864,-6.741196248719728,-3.4878577109969795,-6.359554910573238
1163,-6.856325597378824,-6.762582174494302,-3.355010851163426,-6.288866678681706
1164,-8.118274003321686,-6.675588422539863,-2.7017585499687535,-6.320925451644344
1165,-8.584056402040627,-6.192981008229353,-1.4786194390704146,-6.425556941728281
1166,-8.446301392533655,-5.291659041250351,0.14256994836968973,-6.291334481779811
1167,-8.43571285390953,-4.062521495739036,2.0279849212650345,-5.684662156783631
1168,-8.596188073090351,-2.699643820864082,3.7025169722647906,-4.476455697501937
1169,-8.334786031193527,-1.3766872872554978,4.988712604342076,-2.6891285515154024
1170,-7.400754761595214,-0.030751803758629126,5.685350150280089,-0.5044900221931563
1171,-5.898432315965968,1.2484748647286696,5.807087461355633,1.8418936174009066
1172,-4.11337647015306,2.4021370800176367,5.788993943625403,4.294573872039982
1173,-2.299296292727388,3.3964855657842348,5.794655106787167,6.843691533818314
1174,-0.5263916489233861,4.237191676431245,5.692509361316642,9.111875861194486
1175,1.4779470404731696,4.962299727816456,5.038722520045675,10.741657881955652
1176,3.4558284867045677,5.614688116393494,3.778741061731626,11.597466205848615
1177,5.166767281650566,6.2428666351293876,2.048112773416535,11.781480436397214
1178,6.367115886338119,6.871801546761503,-0.14386738599186089,11.655228808817752
1179,7.045784079235819,7.417656788166783,-2.2537158218507445,11.64901839830062
1180,7.34855253110745,7.794387668411637,-3.9547632051567585,11.718565540778386
1181,7.410129226758872,7.97408219758971,-4.92025530720642,11.307947079316895
1182,7.373243595013148,7.982870550223573,-5.166339842724137,10.259712501898196
1183,7.334088893782862,7.9783905540863005,-5.000188884872648,8.577224661524765
1184,7.358416527127917,7.999573332506193,-4.970933315618634,6.503343757881313
1185,7.312218257222932,7.957406820176449,-5.086853940798707,4.3810838927227795
1186,7.055736965337862,7.721288009977072,-4.798172946985612,2.3652457111331393
1187,6.4483972585313944,7.259658636750691,-3.976860674221184,0.42272568563094426
1188,5.567458817429189,6.604003955151534,-2.7120275481579443,-1.375727539609489
1189,4.686511408046513,5.853925424068363,-1.4326923764187076,-2.976707651026027
1190,4.001365811869495,5.121710239075576,-0.5517001465793843,-4.30501001839685
1191,3.5001080618082985,4.411254190608412,-0.22754571900757686,-5.358851544476819
1192,2.9161623174290154,3.776591163928752,-0.11739538294030472,-6.10125217866883
1193,2.127825837076357,3.221252146082528,-0.062921164435514,-6.536599107039075
1194,1.3584446165546828,2.7133459180658672,0.10498192191294864,-6.723273711349918
1195,0.7392035431866688,2.2045705534249773,0.22131926045942799,-6.748255444772694
1196,0.3408960021020493,1.659179051803139,0.23879261162052706,-6.707534400937705
1197,0.09314076348396134,1.0753175023137007,0.377222044451908,-6.729968402732329
1198,-0.09347212759552502,0.48207983143517485,0.8884906230446665,-6.774679760604782
1199,-0.2107687398447518,-0.08176729450158912,1.956435894297472,-6.644541341835402
1200,-0.20105075227097968,-0.5885107301432219,3.5923568226119182,-6.205412862493911
1201,-0.1589942584136806,-1.0300326192608882,5.577231756198859,-5.381593702784017
1202,-0.23125263489016817,-1.4119226789378319,7.324484295840607,-4.204286993688019
1203,-0.24467586898744378,-1.744460743981838,8.522754816242117,-2.785163990997277
1204,0.004524480644106321,-2.0454020871687106,9.074522146786505,-1.2267981730970186
1205,0.7148525638774488,-2.3338410938992866,9.065167566319763,0.4083879251140433
1206,1.6925549470716188,-2.6854104286536455,9.065543487575757,2.066204763299147
1207,2.577549981740159,-3.0579681261799627,9.16338706587665,3.4854767778736906
1208,3.0710838390028727,-3.3680692579330858,8.975073295028913,4.447617580398121
1209,3.1616738838501246,-3.5516790519898875,8.0881216858334,4.907224480740988
1210,3.063297022664501,-3.601414619894957,6.446823265160313,4.978282091859969
1211,3.0492395608952023,-3.5691784122158356,4.248385141439519,4.931054050191006
1212,3.0831795234984547,-3.561812119727503,1.8868390390784167,4.909635020247897
1213,2.999728421186359,-3.58526085736636,-0.2974807374606183,4.880979467360835
1214,2.8186761022930513,-3.536301149222501,-2.436569785262802,4.675154778780379
1215,2.60608908435813,-3.3931709219670574,-4.397800553751043,4.367294596502868
1216,2.4446402459283276,-3.143672772588217,-6.239053199508104,4.052596602224718
1217,2.3545224522403534,-2.8017591737288146,-7.775096781158393,3.807523010279776
1218,2.2415992264192783,-2.404098890852642,-8.826179745218724,3.625596029304967
1219,2.024011310744127,-1.9945147538982582,-9.349281395322324,3.3743434776270567
1220,1.787608496516614,-1.4895786240663096,-9.457120370105503,3.0305227053058323
1221,1.5043222863147583,-0.9818955141640694,-9.367657188529442,2.6512242051317525
1222,1.039537342571764,-0.5794410694190196,-9.312928205845402,2.307590834039255
1223,0.2767411491725946,-0.3461071682872065,-9.368964013253098,2.039958844688359
1224,-0.6693116483693409,-0.2823033621271472,-9.34786256970153,1.8435948806732756
1225,-1.4886369187446615,-0.3241873177619673,-9.180397505349235,1.6781305834434774
1226,-1.9737776502393602,-0.32008614718848705,-8.704560598041292,1.4790617277120728
1227,-2.3106451954809124,-0.2808541247113131,-7.753505889268363,1.1595555285070018
1228,-2.854284290733639,-0.37287730323700163,-6.2369130880426535,0.617939651334777
1229,-3.714692198563907,-0.7453766726875446,-4.206162046350121,-0.22525950904674497
1230,-4.66095322817268,-1.3116794537550018,-1.844205898657572,-1.383580619420027
1231,-5.454141166235005,-1.8636345212034486,0.6824224743489954,-2.786498647659694
1232,-6.260463010773604,-2.2041361815075198,2.8893368567784674,-4.3385204786479346
1233,-7.11311798933555,-2.2573109073922506,4.39716513877268,-5.943027634797694
1234,-7.916616681183224,-2.245877461486519,5.1181669326008805,-7.320591404464919
1235,-8.4728660860195,-2.2600088550995427,5.20986886268566,-8.253253594137368
1236,-8.626921772719308,-2.2249430120326488,5.167050853658302,-8.690360555898257
1237,-8.579345802867364,-1.8955038651630536,5.145161124885855,-8.717114417336385
1238,-8.583167701713098,-1.2401104207195626,4.9943541771139435,-8.691908261728502
1239,-8.580138475587358,-0.3595892571153499,4.567323746944632,-8.729690974748475
1240,-8.132480135181023,0.6001741292905556,4.048862806062387,-8.661677422563304
1241,-7.147881688907218,1.3835439612549048,3.6216211398160585,-8.179054789932161
1242,-5.793707546286836,1.9182514380165758,3.432713205020876,-7.156827853414909
1243,-4.415666015437696,2.1902856147707497,3.4697337679804265,-5.558401659720911
1244,-3.2232726886630996,2.254330179884033,3.4543349855659073,-3.481157731351809
1245,-2.022182261336128,2.2009801104109736,3.4343617088149188,-1.1050621367886988
1246,-0.6245856296130339,2.1972878987189515,3.474645774730724,1.51309297325526
1247,0.8790782215346883,2.247588881330549,3.5088691458615573,4.220094344545774
1248,2.1326435025258808,2.1955952248420374,3.54519578858604,6.55113131118854
1249,2.9963307683856213,1.9770195357846927,3.5447959367100585,8.132389987351443
1250,3.5411957111889367,1.563093663563296,3.552006579945693,8.88215896206865
1251,3.951322822934588,0.9889584180183227,3.601110211986045,8.965922160004006
1252,4.3117063325027205,0.3382102210570379,3.4508430117651847,8.915797387855555
1253,4.55694301361859,-0.3109323716059967,3.0904381746085314,8.921692065314136
1254,4.619217296655627,-0.9724811012429967,2.629067301335266,8.821175624194765
1255,4.590056391630928,-1.653756248887251,2.2652359864767067,8.241194651209302
1256,4.573671808874146,-2.278875068416726,2.0621011887760563,7.194996653034748
1257,4.607286427527201,-2.7501739593447527,2.006596265592099,5.812301892153975
1258,4.566843940318847,-3.0173570211576553,1.8933665374434188,4.3322663589041515
1259,4.410283922029571,-3.1007543091430914,1.6049413109156363,2.947472201879886
1260,4.168921538728355,-3.057527657186705,1.4962054019996316,1.5437419613411139
1261,3.988244968300352,-3.0630212550857823,1.4804603217167196,0.19028009560727577
1262,3.886351278790277,-3.114592750852554,1.345529944801006,-1.1047065721801952
1263,3.6946733352067502,-3.046055091737585,0.8272235781930112,-2.3738322677162484
1264,3.2428586413844798,-2.7707615004705946,-0.09622494898405382,-3.625304059601449
1265,2.451047193214456,-2.2737936892277375,-1.2492899431852482,-5.04256242580475
1266,1.5731336073530156,-1.6322057206365475,-2.2967106531827266,-6.436216129608807
1267,0.7216226447785961,-0.9835705229933743,-2.9891070970105824,-7.526271346180831
1268,-0.1476220410885955,-0.4368927993888079,-3.4338657247090896,-8.140084382415527
1269,-1.1504983854898458,0.06309482714393472,-3.665719324406725,-8.278384957459558
1270,-2.1441542572594834,0.5102297021546627,-3.7625997127438633,-8.213031236536297
1271,-2.880261400259909,0.953992957182778,-3.7899867857201435,-8.22961249545276
1272,-3.213639522385306,1.3538995328948438,-3.7834668345619105,-8.229835251237889
1273,-3.236838034552849,1.6485075356928265,-3.780106417911051,-7.777958747173288
1274,-3.17773489962415,1.8049220546037017,-3.8196016438672067,-6.830831868465136
1275,-3.172146797969776,1.8404527017303793,-3.840922148663541,-5.560192869912865
1276,-3.1830226182494865,1.814906818693464,-3.643916326596619,-4.150095906041778
1277,-3.1703513927586724,1.7960215241201116,-3.2532566658255995,-2.989680288284169
1278,-3.1562853031529507,1.807305282363722,-2.811078142089321,-2.2238543874487977
1279,-3.143981145012214,1.807305282363722,-2.486011146365901,-1.8065425620734643
1280,0.03842729023044099,-0.0723992025128517,-0.1668368636827855,-0.06231050072752381
1281,-0.013644468342965142,-0.2787057785541526,-0.7203390865339648,-0.22186345263610968
1282,0.06000169477201281,-0.7077235944151838,-1.7940061391690711,-0.5692112485650493
1283,0.21636653461826008,-1.4120997157493833,-3.5301560778231096,-1.1841237868335581
1284,0.05990983943483463,-2.3909043438573914,-5.447091386809567,-2.0944236887643246
1285,-0.7449489596819818,-3.608178798369692,-6.987282682166199,-3.353777520179013
1286,-2.1647309091193176,-5.135171846635842,-7.832658318799883,-4.865269293869573
1287,-4.297253179568767,-6.667481465375481,-7.976131466477396,-6.267412361303077
1288,-6.522591759573426,-7.8537117487509125,-7.940843843147563,-7.242647527169167
1289,-8.15026282425089,-8.502885281204414,-7.945109508957116,-7.687460289811247
1290,-9.066404104016266,-8.586078186977154,-7.8329042426892554,-7.663542956565363
1291,-9.308891362443207,-8.6118818378962,-7.093943728345795,-7.685878653981794
1292,-9.269913305456436,-8.676294912288334,-5.677768395695177,-7.792055329863043
1293,-9.24787097816009,-8.492320600374262,-3.726290602244158,-7.597000627632472
1294,-9.212915585332858,-7.521954341218854,-1.612107225879866,-6.711057491864251
1295,-8.443063574630967,-5.684948487818488,0.2673095915602056,-5.067550011204792
1296,-6.6780317566935175,-3.1763145980031893,1.8933685075719913,-2.8459016682141467
1297,-3.9361008702860287,-0.44378372455642523,3.2521231750241237,-0.4195200654340984
1298,-0.7173908056504426,2.044902255058529,4.28942703134695,1.8515773754816043
1299,2.227888656711358,4.4745602011245325,4.977131483176719,4.170460808412827
1300,4.970965874638125,6.490118309211606,5.332804847640219,6.159524699643669
1301,7.212300891630667,7.848613270962732,5.4120601246586615,7.526274977113972
1302,8.785269438219691,8.510836342837976,5.389638389105352,8.19286427575766
1303,9.670755427208478,8.62512532545491,5.347422512336569,8.292592043644566
1304,9.922340714039782,8.5545744358654,5.313427974897829,8.234115726618697
1305,9.814212596812503,8.518482456935727,5.194949384673089,8.209747013861943
1306,9.757910724158483,8.498147720588008,5.064533119422547,8.157101531571033
1307,9.850641914591359,8.221882519711464,4.972896615632523,7.795850653806552
1308,9.496584500715281,7.730694618738616,4.965951649551137,7.17469884059587
1309,8.465802019341366,7.10641407066749,4.952753564547752,6.403142894019105
1310,6.74079231866088,6.4825569348662455,4.956447390706455,5.646922839456287
1311,4.734814682709887,5.960860464639854,5.036296820377288,5.028082339297427
1312,2.9454820790339937,5.48308540443378,5.172540774136431,4.471056322467957
1313,1.5738047905227441,5.052481945217354,5.308784727895574,4.020470844341048
1314,0.6502834139994547,4.672641256327981,5.356724567515306,3.6863618943749286
1315,0.0975814817763855,4.337410565977624,5.4198682602053125,3.4445260658902566
1316,-0.18872526112840882,4.038406580956774,5.451778819122463,3.2431101345326634
1317,-0.2367000337828714,3.770967448761026,5.420913006463829,3.0358200245152
1318,-0.20890640810209635,3.535900694856701,4.826309665313838,2.8041767040287944
1319,-0.23514282369566253,3.3331775216065984,3.784343412389604,2.5562697609042115
1320,-0.2277485773107517,3.1541282463547775,2.6764552349145485,2.314418678117597
1321,0.0830709741945932,2.976423629987837,1.917988824166799,2.105572166145649
1322,0.8370667270285116,2.7651360032625742,1.748534791371314,1.8960248242031572
1323,2.000346177343552,2.4853179312834146,1.7772550144277115,1.6994295994787543
1324,3.198339044929488,2.1160866439134227,1.8011827260611826,1.544137452455047
1325,4.037149945467683,1.6523484550706824,1.8362039820738605,1.4495412245216923
1326,4.424911062785456,1.1001787554920692,2.4435201492367105,1.4201210413437624
1327,4.422702622983096,0.47605993772359845,3.439181974879056,1.4234207008485693
1328,4.397163263499226,-0.1911623341237123,4.454541194444392,1.4407401573287426
1329,4.465027517063298,-0.8637893189262071,5.110819455072962,1.4475051657776126
1330,4.374711983005727,-1.4950433142404909,5.202447860591342,1.4713339619841406
1331,3.865627481918724,-2.1383032842396084,5.187494934716544,1.4951627581906684
1332,2.970364793288922,-2.7264022952799563,5.197126745113603,1.4987834690924957
1333,1.8074207663963031,-3.171345011395988,5.097424944962206,1.5144665265053223
1334,0.4214213969396714,-3.421662131515583,4.505974463724775,1.5356537314406784
1335,-1.1583699669540253,-3.470306214028464,3.3642631469955018,1.5141855074116504
1336,-2.758286565612351,-3.4596754523596025,1.7427940063913492,1.3554159780911823
1337,-4.038606530851716,-3.4809060843572057,-0.1373250140261073,1.0168559497240106
1338,-4.7081390823826075,-3.4602743576410813,-1.995791494241086,0.5182564094828095
1339,-4.757355332313341,-3.164879120709857,-4.011882754542919,-0.06720978919548798
1340,-4.717734299823982,-2.5158018728183023,-5.83466396087859,-0.6609966018784655
1341,-4.7893256176814205,-1.5407528317448802,-7.152586165747504,-1.2731127321449214
1342,-4.642496351724625,-0.4106389577051042,-7.842562494050727,-1.92160176342226
1343,-3.873400462532129,0.7156401217207474,-7.969038051969466,-2.617976074735333
1344,-2.609413303760747,1.7584571502047637,-7.918000555946744,-3.3358103520839526
1345,-1.027979352326303,2.574256098783659,-7.925192837796025,-4.072401079734434
1346,0.4311456260528549,3.071262829504824,-7.883551917030066,-4.782536947113851
1347,1.3711212387618585,3.2692716851613453,-7.34552882165058,-5.356952538875159
1348,1.9108477467955944,3.240896736281218,-6.245528729456451,-5.723218583125357
1349,2.1223195471535057,3.2482084642256357,-4.709294064663062,-5.880666316930412
1350,2.0782696838682506,3.305784308499863,-2.9398294217235437,-5.8767378323006625
1351,2.055361662134239,3.211525000925538,-1.4217956918281618,-5.866726880058154
1352,2.1469705386897227,2.794617787841676,-0.35614057307965036,-5.88430943276556
1353,2.088609473719212,2.011587134853564,0.18213318029734493,-5.838011770541865
1354,1.6136305735486907,0.9179891187090092,0.28234076183810203,-5.658279417065201
1355,0.525459138875674,-0.3379745160796641,0.1940188019068647,-5.355541517131529
1356,-1.1507612794565072,-1.592541165451974,0.1813480406366837,-4.968052024469425
1357,-2.884909218841697,-2.8640027784820994,0.22535033404279312,-4.532844768782362
1358,-4.11470400317025,-4.0358525072154885,0.03810940426767492,-4.041601736918685
1359,-4.718524441088361,-4.94380007603568,-0.42389762925437485,-3.401418910897946
1360,-4.787323788832189,-5.501815265374544,-1.1106653074587105,-2.6442060840068313
1361,-4.660837132804355,-5.739058308577831,-1.9160126581935528,-1.8451103284616246
1362,-4.675081506916376,-5.751688603657786,-2.6617605002877505,-1.042133620980027
1363,-4.687492474584517,-5.73434519855787,-3.2104403878626266,-0.3554563816513903
1364,-4.542695821800847,-5.7433539717644,-3.558175510641807,0.12158906618136626
1365,-4.302781442587172,-5.7062369291165576,-3.703044993417137,0.3676376086420306
1366,-4.108959868928313,-5.5066087136316115,-3.697951761292795,0.42906330254052294
1367,-3.977213445737743,-5.156053239714908,-3.684862880591476,0.3891500394090532
1368,-3.7923834361864497,-4.721074376063115,-3.6989503367512295,0.37452680843347624
1369,-3.445230222409526,-4.3107573509140185,-3.6552560719583096,0.40602405927887625
1370,-2.926493421322599,-4.00396220777705,-3.51374261573764,0.39278489311010695
1371,-2.5043882157474,-3.7454240334136952,-3.3236595224677266,0.256207167409441
1372,-2.1494037840254014,-3.5170011236379435,-3.1644089581165753,0.02221269403931643
1373,-1.6875416772505405,-3.2731138915917577,-3.0979225415869607,-0.22335862428590855
1374,-0.9249611068132979,-2.973805093042157,-3.1091474032514372,-0.38871307887496725
1375,-0.03613780808792105,-2.5988662394944333,-3.0683519178826795,-0.42319289730645765
1376,0.6453023968429537,-2.142775671328854,-2.9250679676993556,-0.4045312151534357
1377,1.0416971104777948,-1.6043496066706875,-2.6618131462424732,-0.4233113130798577
1378,1.2430788832426225,-0.9963954292094437,-2.289895284747024,-0.4350720719655609
1379,1.4064463859712306,-0.32086740198705205,-1.8151780887438058,-0.2915142709142686
1380,1.5771741542918685,0.406952829666502,-1.2195375650966394,0.1276713764688526
1381,1.6751829555658269,1.0566163040830665,-0.49794686318277215,0.7125194537020207
1382,1.6499390092732207,1.5077824693055037,0.48744418838713016,1.2483330389113712
1383,1.6268099310412276,1.7222041073285863,1.551230845031651,1.552979188990481
1384,1.7002080156934645,1.7302742535640554,2.426211313210536,1.6011266945644058
1385,1.6763342565965624,1.7327156968592357,2.935053909859973,1.5882723320357737
1386,1.3684547446721744,1.75949514350586,3.040139517368874,1.5747473781276622
1387,0.7337936457600611,1.6884903702990983,3.0363516547634717,1.5210532244458221
1388,-0.008678263790371316,1.3773974649070473,3.0511099895198606,1.3489398309839609
1389,-0.7668504195979093,0.8318650077073577,2.891213229639689,1.1420849088932512
1390,-1.367602052597668,0.153331044561264,2.4036469148591157,0.980932038986747
1391,-1.770853013857713,-0.5638657705742298,1.8017205411346005,0.9272120137891534
1392,-2.038103554821258,-1.143875399222496,1.3195165871367873,0.9537051041449941
1393,-2.1737787258172774,-1.5768023023730158,1.1702067877484683,0.9633251395189624
1394,-2.1345103378993,-1.8052216063777458,1.1895714527940462,0.9727126864199778
1395,-2.115657657575029,-1.8433975726583314,1.1697044782915198,1.03121214983333
1396,-2.2266960031669116,-1.8317374891922027,1.271240210916323,1.1287937947368598
1397,-2.176160875681016,-1.8451101984802822,1.7835881255950672,1.257584589617723
1398,-1.7057899719645535,-1.8544029023084545,2.8732460103529043,1.4425341089745642
1399,-0.5539253330272031,-1.5534104258993342,4.229311789534685,1.73066950602589
1400,0.9560267407318842,-1.0043152707653034,5.3620846252339955,2.081102978709525
1401,2.2721951934909015,-0.4074699425125637,5.9343403212776,2.383656982336927
1402,2.9725877753476726,0.012215821363061609,6.058540540105912,2.5588830587498452
1403,3.123434603661947,0.1361225242141504,6.073686182517748,2.5982565055028575
1404,3.00098129016545,0.08276838297970379,5.9777476320249185,2.5658826278466367
1405,2.9212453507143636,0.01890117491494371,5.835526028235882,2.547654274260361
1406,2.969106233831703,0.04894180593096732,5.528930344300117,2.5590411804036264
1407,2.969106233831703,0.04894180593096732,5.222334660364353,2.5590411804036264
1408,0.051236751324152945,-0.07746228249322312,-0.10348494705702604,-0.1047080149500616
1409,0.005169444991802126,-0.32377851926293383,-0.44148036287659553,-0.4138241808586005
1410,0.06922355773237537,-0.8355081008462801,-1.1319439102125304,-1.0452010474412028
1411,0.20168007095462792,-1.65605997491295,-2.158811595337299,-2.047689220074498
1412,0.06745434900445912,-2.746098671684535,-3.6519840056307538,-3.3451345168881623
1413,-0.6170027847983592,-4.112108543662191,-5.274963430323038,-5.147328206463877
1414,-1.880284845340213,-5.707508587121844,-6.600728934011661,-7.094570298370013
1415,-3.8821656935926168,-7.202483373314805,-7.36875374983214,-8.70137605175643
1416,-6.337533580785323,-8.278713604805494,-7.579117815730782,-9.646730723620955
1417,-8.537443561887851,-8.804369111296454,-7.420539342813431,-9.868340225427286
1418,-10.10849903182158,-8.815718996668881,-7.403016838792251,-9.768742808149847
1419,-10.873920788190993,-8.827403545741529,-7.557371289522206,-9.81075919574755
1420,-10.833215131656878,-8.914597422252072,-7.373403959114794,-9.835538675938087
1421,-10.784181613986856,-8.729158241283818,-6.640348403346294,-9.053411379259707
1422,-10.986103995048408,-7.862079124424079,-5.221639147756673,-7.203604901724478
1423,-10.761779626469574,-6.255634754439155,-3.1897830346873093,-4.321097255221037
1424,-9.444687234082297,-4.079373855784724,-0.8118375585026244,-0.8950984508256499
1425,-6.865648536149518,-1.6868925727426216,1.6227644667962653,2.8232685797537345
1426,-3.412538758566425,0.607612563387271,4.09065944614336,6.21091569984202
1427,0.09220753739755372,2.8905868506783867,6.591267242857125,8.753738321844168
1428,3.2450387120728355,5.177762532066696,8.794365930364549,10.119831317346085
1429,6.178342617268044,7.178224681992905,10.373165954494056,10.425600264594879
1430,8.555125250422531,8.599684736518125,11.196909696562443,10.227671252188134
1431,10.135808335389257,9.334882856686589,11.385555715966841,10.197415467881255
1432,10.835506238968968,9.476552274881495,11.225269731058935,10.284564471522971
1433,10.773052129299117,9.404513604324455,11.194175804154499,9.703418040206437
1434,10.73289556173963,9.383423856377908,11.307005743624439,8.32785684109279
1435,10.921343574739074,9.361374932809285,11.143389937674785,6.2105897577721905
1436,10.674529670490822,8.947683460731874,10.64740398229809,3.694129517812441
1437,9.465932887963975,8.13393261486246,9.809398918460106,1.273332823092212
1438,7.322208266445085,7.0052323163798205,8.710411110784545,-0.7494621368778333
1439,4.716865502327447,5.704460300858383,7.445372784161171,-2.3836105984015408
1440,2.3212608697893664,4.281643317987356,6.024051189931319,-3.4635665022198507
1441,0.06780655459389717,2.549056920360064,3.9007455802145734,-4.027312130165456
1442,-2.170414027063575,0.49050105773492975,1.3957730945203128,-4.234746085455898
1443,-4.0560870015306065,-1.9307063090554033,-0.8606783057189986,-4.253244896225033
1444,-5.258399101372756,-4.225477626800508,-2.271200931288924,-4.169842784594982
1445,-5.616191419300494,-5.897743475266508,-2.7900288425811275,-4.250509760459044
1446,-5.406434591408667,-6.751822818350748,-2.7123288704272426,-4.398401072740711
1447,-5.447047383824562,-6.89408467189997,-2.6984557546089167,-4.169326357736041
1448,-5.695461743007585,-6.790356813897104,-3.0488737074568757,-3.2534319107871528
1449,-5.136588246148844,-6.873430886336848,-3.4952937455409616,-0.6963421083213579
1450,-2.516590466472201,-6.9159867009817635,-3.6205065217392463,2.8931180526726044
1451,1.5981970609685052,-5.99878266212317,-3.3067482459164674,6.23592049482855
1452,5.702070685811506,-4.34029524911699,-3.3468203136388466,8.275831600586834
1453,8.32362310862222,-2.5506792974225134,-5.05297940314758,8.907824517722005
1454,8.748594667797096,-1.3075271766815748,-10.040205688535602,8.386273555711293
1455,8.782776061806821,-1.1867247653794164,-19.471457717455245,8.551871466257607
1456,9.005909439189631,-1.0541640038328217,-34.10294035495089,9.234882086424676
1457,8.511769826776,-0.7240330394786534,-54.28470987946036,8.224411926851625
1458,5.016833191605809,-1.2279896789005664,-80.63678750627923,4.168712470743844
1459,-2.009232958089709,-4.1516985494118055,-112.55889041790103,-3.6157778636285203
1460,-12.058642168477235,-10.167110896364914,-151.12996248948855,-14.600335566384079
1461,-23.387692914324482,-18.726193266742655,-193.52645160942592,-26.942084702859553
1462,-35.998112965247614,-30.191357043125784,-231.02616130241992,-40.52176319090872
1463,-48.49731691302428,-41.70110580189658,-256.3404051429703,-53.83994453950661
1464,-58.31900853566552,-51.07944620317928,-267.48307231580793,-64.04315197128264
1465,-63.90922518863637,-56.4927939020947,-266.53105737638737,-69.68677673469776
1466,-65.1081534797192,-57.990641044169415,-266.77254633239625,-70.68533964950821
1467,-64.63606137246506,-56.689152882185866,-269.7089117075337,-70.6267503096401
1468,-64.84798313632737,-56.88946336130387,-265.094686510847,-70.82365197192297
1469,-64.74000122753127,-58.383612356341274,-242.9821932245085,-69.90190426128427
1470,-59.86240610819282,-56.494678739424614,-200.71953737051618,-63.685442335259
1471,-48.90146351080529,-48.86645700788258,-141.8568097188065,-51.3369273401361
1472,-32.17391799178331,-34.42823688001393,-75.2636429550534,-33.487950182417165
1473,-11.889267092540761,-14.403427551280267,-9.443921544279158,-12.402074912196767
1474,9.291681918427512,8.235019789301765,57.89828841829936,9.502379298710794
1475,30.94180418333179,30.713800472155445,122.78435473341253,32.60315771946777
1476,52.76230601844782,53.80447864538239,182.19710438319265,55.61644222648741
1477,73.3322229256366,75.87465136138576,236.56965962539238,77.14168252078872
1478,92.87460628729424,97.08617275578892,282.44638475054813,97.63873910693304
1479,109.26867412024245,115.72374232088438,315.25612750357567,114.89383052161564
1480,120.59683451696195,129.45971076342622,333.3591397417161,126.8176453521031
1481,126.42052925882642,137.21744890954292,339.17158814742726,132.85073378925807
1482,127.872822124839,139.7670360360899,337.3616004785152,134.06590010595443
1483,126.75166442475386,138.93207640212876,336.8136131077652,133.15186450730377
1484,126.62098778515849,138.78144932584172,338.69082458810476,133.11477767467585
1485,127.68868313218591,139.73030858126535,336.338369401639,133.5643211807273
1486,126.59995270474164,138.53618018570234,326.42247998854924,130.81073808870553
1487,122.0404334907503,133.3926744851815,308.44874846560657,124.04040166623493
1488,113.38892558236759,123.8545074566489,284.67275880835774,113.37509111689157
1489,101.4861038226025,110.89434440543181,259.28655195469634,100.25660278139762
1490,88.28011032391967,96.52474939226231,235.65598651024885,86.57556094344262
1491,75.44827966102353,82.42978684168742,211.77910251012702,72.93864268687597
1492,62.10726630975448,67.62011994028823,188.70235630815077,58.782715600905064
1493,48.53189819143974,52.67974405222671,166.6928653025739,44.50293342514642
1494,34.76072338128298,37.84538926600347,145.86063062843235,30.354115894855383
