,TP9,AF7,AF8,TP10
0,-0.1617176655386083,-0.05394392780533508,-0.09431129812000383,-0.0955250399672441
1,-0.4231117432241213,-0.21036909654591182,-0.3673878279409347,-0.32604309308151264
2,-0.7630217768448504,-0.5291912934765723,-0.913159651507811,-0.7301718760972797
3,-1.122272170339659,-1.0306235632745016,-1.7623915393081975,-1.2834350556160237
4,-1.5118496134966528,-1.6735940989719484,-2.838159416844194,-1.9110755884547015
5,-2.030137547754217,-2.4577820856018975,-4.2247715714288425,-2.6451619697238966
6,-2.6855410492301246,-3.2687516476854066,-5.642993414965651,-3.3614178053335424
7,-3.48767255175943,-3.934644853736287,-6.7619875796908255,-3.9156358574530197
8,-4.243928477941474,-4.3446394333499985,-7.390577733775674,-4.223643554183809
9,-4.780572933820924,-4.496883209026517,-7.504772961914095,-4.300355640055462
10,-5.052572502829639,-4.452974489666131,-7.501325291417187,-4.226202340559978
11,-5.106594590986103,-4.4613572206749454,-7.517891770159003,-4.243884062770601
12,-5.059915083340861,-4.530032773861905,-7.406682902600706,-4.325889329773273
13,-5.1095783012022125,-4.438088556088669,-6.725906758027722,-4.197276304272879
14,-5.1540133731203,-4.022323784096513,-5.425861429817297,-3.715941998251675
15,-4.862352234361635,-3.23426301724553,-3.630672374111562,-2.81933571519079
16,-4.04372719318502,-2.1520724373535276,-1.6357771027885095,-1.5789564706957502
17,-2.607252851154789,-0.9587100877300905,0.2753192812079853,-0.1593252348584241
18,-0.6822116774508729,0.16575660526278907,2.1577978144535317,1.3320912886831262
19,1.3509077201728776,1.242744341206543,3.870881070447596,2.7227016839596794
20,3.258064540399053,2.1817014660134957,5.4097714924540075,3.7230055558418615
21,4.81245023213402,2.931400725513184,6.6303783409080035,4.221860978541197
22,5.78067795806936,3.4668647627657165,7.425671916756725,4.274736042450963
23,6.204642766720998,3.792839348659801,7.801998325180568,4.256367768122028
24,6.275647925326318,3.9426336189572564,7.8604935049205285,4.2803738812075665
25,6.205965311155513,3.9759504933727032,7.824266874651884,4.181210767169949
26,6.1747251701634625,3.9699059234047427,7.814006875496597,3.7021322145319404
27,6.205920749699295,4.003923386725865,7.79714078996261,2.7479653395426284
28,6.149984481240456,4.141050000441755,7.591260816660796,1.576311808146737
29,6.009590106174321,4.394396504552379,7.202996586857492,0.6032696005083253
30,5.743934938705162,4.832014184605033,6.686287353728541,0.11085643721173748
31,5.347643933149324,5.346269659456521,6.144959584478608,-0.04556679453744729
32,4.921176841171937,5.786442544528306,5.6621802702083315,0.04376600425993774
33,4.58292829156206,6.049874598624044,5.195051037323889,0.04151695148948102
34,4.3755935805617705,6.12574785104464,4.728259259668294,-0.05193790115147248
35,4.311449261619112,6.067301380565194,4.25773270969033,0.07705272208170966
36,4.301558962566637,6.06966444135411,3.795298198129723,0.5534872017488479
37,4.260762019769709,6.130977453291033,3.369657225300021,1.4049784880374827
38,4.22097323112447,6.050110627212905,2.9918583555254505,2.507541071738436
39,4.22096482836432,5.753193873037925,2.695105094696903,3.673782840070537
40,4.182571237439507,5.225087036550478,2.498657627067783,4.639978505554802
41,4.004994469346289,4.534428168011577,2.3911351707279005,5.377590110305119
42,3.6808509927518456,3.7952938744654925,2.3404698794270624,5.7759557118935625
43,3.3044433100402415,3.08960451020642,2.3353320984474686,5.8897671171908295
44,2.9888584782039445,2.346994329704842,2.345910694037883,5.842690702558338
45,2.751402621238964,1.5977177242819598,2.3219380183906644,5.831713266448339
46,2.466714552438592,0.8533371656041662,2.216825448897002,5.871321263505605
47,2.03346989612876,0.11180631271863967,1.9634518410484734,5.823852356310576
48,1.4582235563504573,-0.6464966011987758,1.5405027075913735,5.623563244486952
49,0.7733415645554556,-1.4491503292848287,0.9864939597186272,5.238488717445262
50,-0.06450463487597291,-2.3116924286827345,0.3728299817702534,4.6675298193758215
51,-1.1392736867471736,-3.203323958890877,-0.24990405778060246,3.954556365333826
52,-2.4465052950567916,-4.148355620700903,-0.8313000841113052,3.17144352640791
53,-3.8088052511613344,-5.001791161464411,-1.3367519529360918,2.327229181698092
54,-5.303713739785411,-5.615393435105778,-1.7490746107320039,1.4976372362903798
55,-6.708690276144902,-5.931325545098435,-2.1131489714077842,0.6946080395800855
56,-7.79651099155289,-5.986695780416063,-2.418112940814557,-0.10281419557919519
57,-8.442156616856748,-5.959826723286093,-2.6332050934353655,-0.8991259235486939
58,-8.647552618732787,-5.9637227548598695,-2.7501857456082566,-1.584069046936364
59,-8.517790743018036,-5.94839617336624,-2.7941530337010754,-2.050129333909705
60,-8.501268604173477,-5.712371707246554,-2.8175400658828167,-2.2644999185110684
61,-8.651261574453727,-5.233495140088664,-2.845236963937281,-2.305647575797101
62,-8.481376657075046,-4.571882313379481,-2.9098846486436165,-2.2918085493750113
63,-7.803993251586046,-3.8716309636028705,-2.9623613078256033,-2.284037859649059
64,-6.596483674006433,-3.2774056913871403,-2.981301104606067,-2.3167429064230394
65,-5.1268790473842545,-2.797336434724901,-3.001286255487403,-2.365138436877246
66,-3.807522302076215,-2.425210676113831,-3.0616551467446,-2.4160236722803297
67,-2.8710265387891756,-2.1481671332133927,-3.2357640778404995,-2.4715085206315557
68,-2.0258945136987703,-1.9333296178230956,-3.4856489279714546,-2.518608724696478
69,-1.1035508955472053,-1.7354985665315155,-3.740065606687242,-2.560648355682889
70,-0.02798232840243553,-1.503317152504175,-3.894374408014155,-2.567530633351276
71,1.0934401212416796,-1.1931003077047606,-3.9275438352526972,-2.582403492744618
72,2.10163809595358,-0.7811976958467777,-3.902173861566486,-2.6339099928292886
73,3.092472892554862,-0.2826438572534575,-3.9055279165718813,-2.7558269294878976
74,4.012581223558357,0.3317017194903473,-3.927732572606371,-2.9671047954739582
75,4.753198533219924,0.9419108634089238,-3.855007236109388,-3.2452059907083592
76,5.203390621607991,1.4113106951033798,-3.640016276256112,-3.59165447824066
77,5.337529928305445,1.6674818727898846,-3.2640778907180867,-3.975070420205073
78,5.236425926116633,1.7189156157602523,-2.7602421064038425,-4.44881387563486
79,5.235388721440743,1.700998434837226,-2.1944377079041244,-4.911551147024914
80,5.353503883874855,1.6909005391915564,-1.6100145979923182,-5.251728674048028
81,5.229705758594328,1.6693131283650515,-0.9937689316513925,-5.423707763615974
82,4.701537978804538,1.5132721961225144,-0.3893572928803377,-5.456425137200791
83,3.7571155140286794,1.2425534538275407,0.22710135243158355,-5.425560893320071
84,2.5795361952564213,0.8968971007838209,0.7752183626084949,-5.427632896020131
85,1.4363194942420423,0.5872385588871059,1.1688830880683259,-5.446818952982174
86,0.35837028872781607,0.4043338907427509,1.3740581226762667,-5.374639079314894
87,-0.6689971077304584,0.3164919362518068,1.41865848766397,-5.154295246180546
88,-1.4848785799731645,0.2913775275490574,1.3804090699201061,-4.705019720156952
89,-1.9666664322289897,0.2842707067744197,1.3845486003235703,-3.9697362687493496
90,-2.0928867359962293,0.2780873664168163,1.4174458799825485,-2.9642335816077896
91,-2.0228537273670897,0.27055563653302506,1.3258966037095454,-1.7618401700361614
92,-2.003027520852084,0.2358017821062018,1.041719978848639,-0.447204562941675
93,-2.0380977332065506,0.16254140591975044,0.5371726808082476,0.8421414602360497
94,-1.8555655952834564,0.0682833855046144,-0.12219770373621658,2.0731107747173763
95,-1.4544141213111754,-0.014005538929249724,-0.8818693169118917,3.1063876790649743
96,-0.9516021175374876,-0.04802933185500776,-1.5817467630906497,3.8123523725416715
97,-0.5350848120841132,-0.029666317035800065,-2.119211876305912,4.165593329521822
98,-0.31268428283727245,-0.040111055493979184,-2.4152569862513564,4.251470290921049
99,-0.20767737282493018,-0.0629828872698096,-2.497127884591915,4.214219684986782
100,-0.08197564439297779,-0.006022221001911354,-2.447780185982254,4.2300292783876845
101,0.1082020177876825,0.22736985195794213,-2.4348203714613703,4.314233478582035
102,0.3013368827601481,0.639043126268583,-2.4837102836263845,4.35219655217336
103,0.4262124333604754,1.0935399347624013,-2.445352617899453,4.352279452878854
104,0.4763408039856699,1.4286197449312144,-2.2422586906611786,4.315227202964054
105,0.4502589268698173,1.5657837554121365,-1.813378900634856,4.207636165218199
106,0.5113902760365265,1.5465487893927063,-1.1503073227076674,4.234576052368765
107,0.5859413458442857,1.5619180197133793,-0.3055520822773292,4.309979165192518
108,0.4667485008748996,1.6120136294316423,0.613582770839028,4.153615104042187
109,-0.04644531815747355,1.5193535914007552,1.699785053000785,3.5648618835956287
110,-0.9784221112861011,1.149928038567265,2.751528447966241,2.462813917768359
111,-2.434368885773146,0.5115574997900969,3.5526496743358957,0.9764136377489111
112,-3.998189369171021,-0.30331404519277744,3.991359913257726,-0.8313891964836836
113,-5.183755322002288,-1.1242697400965664,4.0946740235555,-2.5104682719413907
114,-5.886157850439561,-1.7365280034041777,4.027344943165197,-3.841134579852667
115,-6.0397471051893294,-2.1526475901089612,4.020382819751284,-4.585706026198828
116,-6.021239317996067,-2.3414686012808357,4.058878005956095,-4.7758300410816
117,-6.031913064019491,-2.3356864568638485,3.8718059046643964,-4.608774689293963
118,-6.003885019065091,-2.3452814652468525,3.414274424576152,-4.632138245745083
119,-5.19679171589756,-2.403895208057585,2.7280429770893404,-4.830988814570821
120,-3.6225606525199776,-2.3296663968763465,1.9636835543988587,-4.524064981436965
121,-1.8054239526069247,-1.8703238862351539,1.2951393872569061,-3.480395053929671
122,-0.41811575730469225,-1.1471301585274718,0.7713365860050015,-1.9982803048563573
123,0.13567152628686585,-0.4295896511196582,0.3652086723194672,-0.6362225504951557
124,0.1388309766324728,0.01570056906186182,0.11023072401078492,0.11201011382161255
125,-0.03245392924802161,0.08841022891409851,-0.00557833763342435,0.1423175781239711
126,-0.025471270181213763,0.01783527254100012,-0.023844349930509896,0.0022155809379196395
127,0.0,-0.02674382548852372,-0.002746538817150479,-0.03750037757057821
128,-0.11920737751775223,-0.05508026216687295,-0.05272967510340801,-0.05313694999427962
129,-0.29215447802160255,-0.20149464800153216,-0.24091724615791438,-0.20117033068322648
130,-0.542988897501612,-0.48930653920601747,-0.64755882053061,-0.514301669299005
131,-0.9172406967756015,-0.9359162673212664,-1.312487101605181,-1.017127130891423
132,-1.5185103989549096,-1.5094773259091,-2.193455384581894,-1.9378321646971237
133,-2.427019093532338,-2.2857946579917154,-3.333625755817089,-3.0852902958498225
134,-3.6452570280606515,-3.109386314288975,-4.606585686967123,-4.119156015796155
135,-4.855726018996074,-3.777943793042704,-5.7306421239467955,-4.769458745483862
136,-5.729417637708256,-4.163336690882201,-6.479871514314003,-4.961582807391803
137,-6.144035976525311,-4.253032339836895,-6.794819945489627,-4.837271012273696
138,-6.163190478620113,-4.2090130864082544,-6.742907261140798,-4.848125249214297
139,-6.180299180776693,-4.210890994841042,-6.751601116015065,-4.971088460307849
140,-6.219811288652368,-4.21994766240395,-6.858882499271775,-4.681247960328736
141,-6.07551759736854,-3.9711378670751527,-6.702123146202491,-3.796384142463976
142,-5.481164270488686,-3.402354154791752,-5.9893673751547025,-2.3360528330478543
143,-4.450293764247319,-2.5306499025863447,-4.653467771533007,-0.606115156988454
144,-3.0807271379534296,-1.4730359321835131,-2.8504888114805667,1.1115956518798167
145,-1.5233510833723432,-0.37496492468770914,-0.9179151591798493,2.4464874014343927
146,0.09170738006371748,0.7270119033541922,0.8282593858254272,3.392766159458642
147,1.8084527304637068,1.8214183724901423,2.4508374306568705,3.877327709456594
148,3.5714295599753285,2.8161013660608454,3.835955057609694,3.9870220165040022
149,5.090930281218881,3.657414762651719,5.030742283567539,3.8983204864320675
150,6.140490616277221,4.266216191200255,5.993972467774419,3.8827017678480145
151,6.678247462710203,4.619115764705828,6.662819030455099,3.9576721079773867
152,6.801600213603987,4.76218880858611,7.022366939908933,3.82561202626491
153,6.7320648890196635,4.779089078789078,7.129509060961103,3.3895322354602344
154,6.703676902578226,4.751175727297103,7.082454331614096,2.583256442102515
155,6.741635440165833,4.746761337252388,7.073226885742504,1.5097669027886647
156,6.541300353567394,4.7628952594962595,7.116836925555645,0.5094801681761627
157,6.010668556156167,4.736385108422819,7.057100578273567,-0.14219866890841779
158,5.115879482384951,4.654281963699498,6.844737390774347,-0.4438779595718763
159,3.996556464312375,4.499837402386086,6.488361690806077,-0.4419708773198723
160,2.879524468388048,4.2635636603647775,6.054015112660213,-0.43889093217006275
161,1.9987175770284322,3.9429501809622116,5.6342728952561805,-0.4854165812094584
162,1.4579287571801145,3.5378611317861437,5.289137444304085,-0.3957498244323945
163,1.2469510499135095,3.047551600829119,4.962426742077317,0.05191361266177341
164,1.2525151555241685,2.514614587528202,4.684880121793071,0.9100600708255926
165,1.2401673065861547,1.9932212877824798,4.474159534191974,2.116297253883269
166,1.229304368961131,1.5363657327637381,4.33894950012622,3.4762712760888204
167,1.3174199756513514,1.1791047711461902,4.268891954270537,4.736592793726277
168,1.588098755503877,0.9275955833666413,4.2353746061453945,5.976574884435711
169,2.0149269357758257,0.7587444220801202,4.206361928261457,7.0017473417571265
170,2.5807507161187546,0.633253557720709,4.154859463577337,7.690288028144759
171,3.2406379950270487,0.5184605999380947,4.054759146899031,8.033209798671516
172,3.8955614868819946,0.4037437998434363,3.8781651000025854,8.105853867808682
173,4.602912804285259,0.2966757033507792,3.5998552704247464,8.047022581919755
174,5.1757558775095625,0.2084033802216819,3.205136170069907,8.060959045938517
175,5.520529114570408,0.13980746349885595,2.692251336593547,8.112958484600918
176,5.666534699336552,0.07647317546610596,2.065102039847922,7.916025688678265
177,5.680416327990391,-0.002889750812724634,1.3300214165061104,7.335899506352874
178,5.689973904557323,-0.11145693118332373,0.5064738861711973,6.324527684454043
179,5.698401227886628,-0.24392468817681506,-0.3603829400290648,4.99398667694891
180,5.660501757960908,-0.3802441954207636,-1.2040318933877876,3.57219408620757
181,5.455501103192043,-0.5068780220744287,-1.9629708946997793,2.2270179504436687
182,5.015884794792372,-0.6368938366412277,-2.607512272911152,0.9417795707394521
183,4.267727247313977,-0.8046563783018417,-3.1397129723152313,-0.2898975799247696
184,3.207961778747422,-1.043625387661145,-3.572419872354865,-1.5077488610864573
185,1.9364722644013632,-1.373502994253331,-3.9108611008172907,-2.6850787938318934
186,0.5521430588918773,-1.781237812515929,-4.148321403429532,-3.7208972090517713
187,-0.7888430784772078,-2.3643157027356194,-4.28110245616199,-4.517135423208138
188,-2.0811681258821597,-3.0171862433444026,-4.330639327505207,-5.0737083149184405
189,-3.4439370661319004,-3.57496520888706,-4.345431508677425,-5.500105064131544
190,-4.906443941058194,-3.9141583689765906,-4.380790006724134,-5.9066081768824095
191,-6.536961805697887,-3.9916115280313504,-4.479617493550956,-6.456509353211559
192,-8.040681817195004,-3.975881617650468,-4.6482262791744375,-7.06784914495462
193,-9.11815177974173,-3.989205914323527,-4.966221047247874,-7.579326238413953
194,-9.667955180334342,-3.9618417819840506,-5.364143139521396,-7.8805650500585935
195,-9.772133719729418,-3.620698971880212,-5.725493448554415,-7.944841286386011
196,-9.729970196450482,-2.898137708596969,-5.956633756441905,-7.94229857616788
197,-9.706672420636455,-1.8323010284684103,-6.027615094072555,-7.946579966906255
198,-9.676955462457578,-0.6102181477617769,-5.9782185159245955,-7.901391584166042
199,-9.363860277913805,0.6809219398367035,-5.992657625210858,-7.593429625641187
200,-8.73824954112625,1.8849487899142339,-6.048825586144377,-6.987562090996908
201,-7.803406203628186,2.796739903727912,-5.922814117902027,-6.124400633445586
202,-6.678207436055363,3.2984933276274018,-5.505783121108362,-5.150917222017491
203,-5.557334480424001,3.4358619962149066,-4.754959036118207,-4.251582689480566
204,-4.505519084185079,3.342796355030337,-3.730186517278945,-3.4662705602814055
205,-3.5865589803521285,3.3339693426710815,-2.560734008444705,-2.8566731377695755
206,-2.756414745190528,3.4262725870523885,-1.3713678313111526,-2.4050725858473294
207,-1.8940566293696117,3.326374804717642,-0.05774343127234238,-2.0484229090097257
208,-1.078406175424661,2.9121755853456066,1.2014836052862776,-1.7501317251245776
209,-0.46996991713664094,2.1330893337955628,2.18172000861605,-1.5113465132672363
210,-0.16708250234024327,1.0679995948355883,2.753340879321268,-1.328673718871253
211,-0.12497669362595192,-0.09748448529136872,2.943501136747728,-1.160203954387811
212,-0.1731749684796797,-1.1609160594567007,2.883772947065317,-0.9494767317722623
213,-0.17242294462039107,-2.23040233376755,2.866964934324797,-0.6786275756288894
214,-0.18610117526940376,-3.1450381619663195,2.929027547135652,-0.37109662498599016
215,-0.2928359584562853,-3.7832679136999623,2.8430991698379113,-0.035185743609540104
216,-0.4355929211987689,-4.110683268560496,2.5111810736311013,0.37112117155283747
217,-0.5588554668747777,-4.180041820634296,1.9489350320826593,0.9093427393243567
218,-0.614008574431103,-4.126053343218584,1.2713502481747463,1.6022347154048302
219,-0.5844416165717877,-4.1327337042122245,0.6359997653599873,2.4125333106107796
220,-0.6076416834961446,-4.169619689988403,0.1251843500556172,3.2858650786508092
221,-0.6512745432740874,-4.000004029358165,-0.4178453986297239,4.178911439060304
222,-0.5204399615320301,-3.549351089502409,-0.9246427265497577,5.205440965996274
223,-0.15689308597666418,-2.8143972634523213,-1.3103703925842027,6.2251294349413975
224,0.406660194748211,-1.8968432192664686,-1.5190896475449456,7.029628578234835
225,1.091037700116547,-0.9435249011962746,-1.5480910888158015,7.483461863011641
226,1.685563599345211,0.009897689964488837,-1.5472355187917433,7.562452649663921
227,2.047283152372201,0.8731852491799953,-1.5558357272005654,7.550910330275948
228,2.239257020418289,1.4872062777232924,-1.505771949704989,7.584490828286958
229,2.267416038312953,1.7956737366380011,-1.2738182533126348,7.5222608427447195
230,2.2677918675242754,1.832988887891145,-0.8755656671321952,6.981507795645141
231,2.2833507572119207,1.821320223239862,-0.39257967810586714,5.859072816171186
232,2.2486125976988003,1.8334031238463555,0.047554199270265204,4.197132802973314
233,1.9961266847295904,1.7794011764416637,0.35169317396032873,2.197036772744908
234,1.4204132087740249,1.4933977854947418,0.5766466450753289,0.14495764529276112
235,0.5575868708136736,0.8852014401427919,0.7225065276187769,-2.0194861763853607
236,-0.31459858982912164,0.12803443596346528,0.8108645374882497,-3.946276997973012
237,-0.9168371561994728,-0.5048156442852593,0.8583644875427259,-5.298635982904533
238,-1.2083572944181677,-0.8251881641247593,0.8792031736520364,-5.96704383226182
239,-1.1919875311863184,-0.8856290016452085,0.897140973506172,-6.077204612431028
240,-1.2011080500982658,-0.8850121593098413,0.9530048927774254,-5.995333304736127
241,-1.2754835869058336,-0.9070655045785853,1.099370367103762,-5.9874708006024235
242,-1.1510120643055681,-0.8497445899632425,1.3840972094274533,-5.985309467470198
243,-0.5998006213393599,-0.4509532834942316,1.8225946872052887,-5.6376372964483386
244,0.4310910339815897,0.4219641029355177,2.4378892602675477,-4.930855794942744
245,1.7000533667265183,1.5171810946589148,3.187952460773936,-3.959476399816832
246,2.7692930673021654,2.4368186872975746,3.894456122824469,-2.9199165985068936
247,3.3314339299364097,2.9007087203314303,4.394865904958818,-1.9948831337130621
248,3.5361177311619114,2.977895026763639,4.62895480597744,-1.2603791853129473
249,3.5022624852647573,2.9648970697695023,4.630453650681412,-0.756296364053334
250,3.4805931924194446,2.9644157243747604,4.622564042022578,-0.4918857464546939
251,3.5341612624263674,2.906646714691503,4.689377609676007,-0.3892479360254064
252,3.4335583150847664,2.4203441948525333,4.560631428300139,-0.34777650692001016
253,3.1583222677832903,1.6497835472876552,4.17907739007567,-0.29448038649455427
254,2.818201170788658,0.8806461906055733,3.69433742335863,-0.23429429688411915
255,2.5454643395987837,0.3978815652466955,3.2949215152056457,-0.2179527951374732
256,-0.024605603655630463,-0.08177711133570403,-0.05306016551358564,-0.06528312372003559
257,-0.014259206228914315,-0.3085900177854844,-0.2387972837390669,-0.24834993490884172
258,-0.02529489755389855,-0.7414591220691679,-0.6412318898772652,-0.631446911753555
259,-0.18192992613924747,-1.3808173413811544,-1.29464669926874,-1.2380111605914506
260,-0.6112214945489045,-2.1497420056667393,-2.1608075026420535,-2.1589947248027754
261,-1.3166749503260704,-3.1012041624401445,-3.1342429526492683,-3.182382646910087
262,-2.129283103147544,-4.0567189712651155,-4.221938760495087,-4.025075902684393
263,-2.9127976697472713,-4.80754167596246,-5.2363711281328165,-4.5067953831415375
264,-3.511490038342138,-5.231700602914098,-5.990757652821489,-4.623338437821887
265,-3.8822915731482746,-5.33933914466405,-6.399589008615515,-4.5282371507515675
266,-4.067670882678344,-5.252299304381041,-6.4659847808233994,-4.5409657309389235
267,-4.103783903936026,-5.2674899194422204,-6.46623582072171,-4.621038193713601
268,-4.107348753441024,-5.353849450126765,-6.495076846715845,-4.408013714879316
269,-4.108726843732491,-5.160927283924578,-6.422187804780136,-3.7741939295953735
270,-4.088368771123815,-4.527812396870695,-5.903142074077814,-2.702856369322379
271,-3.874052723595603,-3.3925344608055528,-4.853008655422591,-1.321518183038197
272,-3.3434803863316676,-1.8641113188795833,-3.3292225629926926,0.17253744363204904
273,-2.420865941299151,-0.1780446187626346,-1.5446837312576696,1.6366331011527162
274,-1.185438339421974,1.4592133601169786,0.26150776839252976,3.1901342301316338
275,0.1646182362266615,3.0456458407053946,2.082872156145091,4.659741846471906
276,1.5092553086296154,4.457689653510062,3.787110696731073,5.801151756590363
277,2.743367099919298,5.623042893511808,5.356935053165896,6.474616268385834
278,3.883423805142395,6.5460871103109755,6.62422218138183,6.717097115084844
279,4.9141542777625915,7.199270238866323,7.460148985615479,6.6767599554511765
280,5.72827172644844,7.584763483294044,7.858710730501505,6.6543236224790965
281,6.234148476528342,7.7497422171761645,7.933394408156927,6.701372292132823
282,6.484827221128419,7.766572075508307,7.860019958267908,6.6298037882840015
283,6.609423866122859,7.749628671485953,7.839660494654433,6.320537206504485
284,6.7111376872401545,7.752596167287435,7.887899299430688,5.755369445987
285,6.807885303107412,7.749865910277381,7.817621869424245,5.071564448230137
286,6.862612801285744,7.636282508674292,7.590442117662143,4.492327477880309
287,6.83621536902122,7.360001910501941,7.183530774641266,4.178129382209799
288,6.835704701957551,6.875298735073317,6.6298551569588495,4.07934957813021
289,6.940237490520255,6.170597465427186,5.97278426209101,4.106722442941448
290,6.937737462752569,5.2570023218370405,5.190825475328592,4.004757258760977
291,6.493192335776406,4.115036533543991,4.3918583687110555,3.498281786853948
292,5.313355623090769,2.7563831510655743,3.766868196227673,2.420356821258266
293,3.2612320757277393,1.2052920001935985,3.42594351110536,0.6997737332780886
294,0.37773588466052876,-0.5009336422053707,3.394703470643986,-1.6118210068437975
295,-3.186508687952318,-2.3130171202942664,3.372186699730418,-4.393845316663727
296,-7.349417083728104,-4.186724119939407,3.3227846215282857,-7.513880986078594
297,-11.957097231166642,-6.089574931419417,3.449648717623912,-10.760164760630325
298,-16.561099026476747,-7.985356038441202,4.04110523621967,-13.832318079197501
299,-21.240885718576344,-9.788739448887304,5.109704840101939,-16.752440896916557
300,-25.366042963506228,-11.556134574073555,6.468045440124595,-19.20009570781369
301,-28.337576636296188,-13.076763217764695,7.88425917095742,-20.90135049156706
302,-29.92592157344547,-14.143830072142903,9.046029556866715,-21.78426276977656
303,-30.269372355800932,-14.691767155490046,9.927096549791324,-21.930396443958056
304,-30.078577604589572,-14.774035770447368,10.42405205426755,-21.902800532491597
305,-30.107260002220958,-14.766564385437729,10.58738555143737,-21.94756081165814
306,-30.194214265828972,-14.78959328275489,10.511448177986674,-21.850230966000712
307,-29.120561710226525,-14.699797050489119,10.540278147414323,-20.887610843085103
308,-26.419446641023875,-14.091096728079332,10.643405718545019,-18.81634246833424
309,-22.031128642770128,-12.89263616781859,10.493817162736194,-15.675923174108762
310,-16.526163053021737,-11.203827413750627,9.881059507893848,-11.866935853156454
311,-10.724510135727062,-9.273611907588569,8.725982553486348,-7.8427110617576865
312,-4.871569965893851,-7.306253414851668,7.0805107274664145,-3.535732836655906
313,1.2007883561449981,-5.164841823027758,5.115409059044798,1.0140580361861133
314,7.472977342626217,-2.8515697815684895,3.0063129199541994,5.682357478426253
315,13.728849212631914,-0.38606033056636146,0.661171174093365,10.126602587900946
316,19.48846118242414,2.128144237949563,-1.7823273567452487,13.844852643487751
317,24.305864808117736,4.549269477201259,-4.234373462765556,16.46173648026656
318,28.084914260562957,6.725777355735675,-6.697842196320144,18.00084452154564
319,31.033412964620375,8.98310758997971,-9.25203594988456,18.8533619890713
320,33.866638732947116,11.134698498468392,-11.947536871073567,19.68486765600278
321,36.51796983219877,12.813090977065599,-14.692680039233334,20.857554557235062
322,38.59463209030554,13.846286919668255,-17.361004184361494,22.16924403071046
323,39.7860300508241,14.066285562081086,-19.53254510185661,23.216047471590258
324,40.091530889173825,13.985179969094027,-20.9131995277532,23.73790624450887
325,39.903583534303074,14.12823796930909,-21.516269165874622,23.75351030202839
326,39.87820575901668,14.66952253751655,-21.575270247944967,23.689433535022378
327,39.98889361221855,15.17521103776409,-21.5225774855396,23.719219217407986
328,39.526212852596096,15.336453702028773,-21.505152264968448,23.6576164732598
329,38.283755733340634,15.320201846765773,-21.43493047449737,23.27217649914791
330,35.977191758316955,15.467294466544155,-21.102653990064148,22.45950082864084
331,32.36983564647109,16.133220664655205,-20.62610122722126,20.207879326813213
332,27.447432621874867,16.969330094482487,-20.155662262381995,16.98380997522993
333,21.194919682325825,17.72946695884318,-19.797954458273885,13.872795995026431
334,14.896715663700007,18.352253311283015,-19.48147259730045,11.720142969988933
335,10.228094656292859,19.267494073695953,-18.86548713981517,11.103847314923163
336,7.907280890343129,21.268035723979857,-17.770812707936514,11.130768979388808
337,7.562781227183915,23.810972013287074,-16.088903082536625,11.292760482180721
338,7.818276432023273,26.009982514430096,-13.777713842087179,11.547296864786777
339,8.024640138930193,27.243861996460264,-10.954253905489663,13.195835642206118
340,8.189360094820987,27.35644424212976,-7.310945404536939,15.740764214651165
341,8.80231956639615,27.377729832120828,-3.5416307015884896,18.25764780069244
342,9.473501187956131,27.520764107133964,-0.537984713805666,19.825055548318783
343,9.941889884449825,27.119572051752524,1.1590732486076505,20.11941837065977
344,9.97425125290506,25.31231464175338,1.5692836952060671,19.918218275975377
345,9.927856126962602,22.083318326296148,1.2432343282007414,19.906275306887498
346,10.100170743775504,17.88990338668809,1.2990195806360965,20.150138242230092
347,9.905921451749402,13.498695325581918,1.6019946340029678,19.899080865712545
348,8.880836894664393,9.465992385697456,0.7610112488674523,18.681994563266798
349,6.795455145280122,5.340621259512021,-1.9578077521808646,16.247569794497284
350,3.6792339669225367,1.2392482600292851,-7.031333471266104,12.691330647285277
351,-0.23212243586759618,-2.8165366407788306,-14.369494222936535,8.369424041028616
352,-4.687905755734663,-6.835623926375074,-23.413532143998182,3.6095047109140936
353,-9.797536771158244,-10.874718601154402,-33.66153065120824,-1.7873582990095493
354,-15.276985274993471,-14.995269663057726,-45.08468995278663,-7.62628812626992
355,-20.79858404535451,-19.213102660173035,-56.79292486712753,-13.73217894340952
356,-26.123942560098822,-23.47983540919386,-69.02468312245642,-19.767339887525516
357,-31.3156291200683,-27.68819670258934,-80.40576829417833,-25.86149772796906
358,-35.761320590130765,-31.65281256847164,-89.10380432223901,-31.217316897199233
359,-38.854361544971574,-35.564144816498086,-94.11930533357109,-35.02292378254415
360,-40.3813354181536,-38.9803188226816,-95.7505807186228,-36.9651623121036
361,-40.53605201677597,-41.42021045536827,-95.038080720449,-37.30781240930197
362,-40.500176402609334,-42.69650667736003,-95.04423678157472,-37.125373742899114
363,-40.591596144258034,-42.91379174214165,-95.92154119523833,-37.10158551199455
364,-40.25682942847846,-42.87632247757731,-94.86775098086868,-37.02746914460787
365,-38.56447590049376,-42.878378385400076,-90.2686263583831,-35.821233852674354
366,-35.56977370818834,-42.69383192514778,-81.65283169688927,-33.40465449078523
367,-31.759262981597896,-41.54358457628913,-70.11134353765067,-30.05642950330651
368,-27.94615113035082,-39.357162032813434,-57.99757051807478,-26.339622643222814
369,-24.33390418685274,-36.30118876235725,-47.58264630673546,-22.802281379202757
370,-20.93065320063874,-32.800767883943706,-38.67918934837796,-19.817021136566723
371,-18.36089178415262,-29.26632239523795,-32.02107025125181,-17.780028811720637
372,-16.94239215480928,-25.587138158533705,-27.559045025165837,-16.821112966424632
373,-16.63662656253276,-22.043133144328802,-24.737609382790783,-16.744132595770505
374,-16.6904712617811,-18.828770739095575,-22.914334419595345,-16.735826279975875
375,-16.89786757491532,-16.06746524016677,-20.032291761509697,-16.83678505770925
376,-17.085500473487773,-13.803653377401927,-14.802313819252863,-17.13342098110272
377,-17.56571945076762,-12.023596519000638,-8.398107312871161,-17.72397921778686
378,-18.045938428047467,-10.683027142548006,-2.8729437205023003,-18.314537454470997
379,-18.339405580829595,-9.744661396776888,0.2220470538183219,-18.67543415466686
380,-18.355412880072254,-8.922007709162429,0.734256934885208,-18.695119429223
381,-18.19533988764564,-8.162172686159217,0.0046404432509494775,-18.49826668366162
382,-18.248697551787846,-7.5315569679361,-0.16769546786160414,-18.563884265515412
383,-18.248697551787846,-7.12374124692482,0.0,-18.563884265515412
384,-0.024464998487866367,-0.0941008069585012,-3.336263975897211,0.09605385652138611
385,0.018897736647389446,-0.3738529252733341,-13.950727045011497,0.14557841972495328
386,0.07614058476342837,-0.9395126768219098,-35.919819164563066,0.1527236998044703
387,-0.019147491495666635,-1.8117636779216149,-70.64700906638966,0.18914280657825633
388,-0.41521830188664155,-2.9253665185573423,-114.7699152318213,0.23609510217438062
389,-1.1329757106788512,-4.15644845633966,-171.09349494725208,0.1727809876740471
390,-2.088842783284044,-5.534909249444542,-228.13030652099434,-0.170040662083218
391,-3.154702128155242,-6.83213653708875,-272.79380598506657,-0.8222390057544327
392,-4.534043577286985,-7.806310429878942,-297.7966699125358,-1.6689047769408205
393,-6.097621821294917,-8.33817779793029,-303.73680989498797,-2.602068915770089
394,-7.467687288278173,-8.466558170103609,-299.58824895622894,-3.4117149839477117
395,-8.316708774340462,-8.364449126991168,-300.1613351151005,-4.029174328070313
396,-8.525042231372478,-8.370690815930585,-303.3055148507937,-4.402839693713363
397,-8.44928865253784,-8.462580284868515,-289.8081949861245,-4.531666513265463
398,-8.459129886593267,-8.245766135027027,-252.2351993628481,-4.476408836934747
399,-8.449822756135731,-7.5585184775413525,-188.5730956993535,-4.492050970169313
400,-7.798541965595353,-6.34956222378006,-105.33104290330704,-4.560179212748093
401,-6.3911264940931956,-4.760409821391515,-13.99652793055158,-4.4389621635626835
402,-4.387912991310067,-3.0627363954093783,78.29708841015767,-4.032844478833449
403,-2.1940661448713414,-1.46661628756891,172.2999600761654,-3.356587118345729
404,-0.1838415530211106,0.06485422806139174,263.05090556284534,-2.4974574251881623
405,1.6702696944847002,1.4993428186198892,347.2957664383628,-1.5772428056355097
406,3.46680187143778,2.894934475408087,422.70649089988103,-0.6840366137400342
407,5.171309118622067,4.342530525806343,488.24301240660145,0.2753796072605253
408,6.664655558433507,5.909236419071355,544.4014702943897,1.197144638829203
409,8.136738816697374,7.562978924891559,591.933895524807,2.009312261814733
410,9.506745437272166,9.276406571627449,638.0618909521272,2.699935511356862
411,10.604045197115745,10.871910718240976,679.8526121235577,3.2861084621555943
412,11.282841457974602,12.094922940524144,711.4966678687424,3.7569188421301876
413,11.512867702935914,12.813772476869195,729.2662574564715,4.139267700164618
414,11.381513569460736,13.077168395165975,732.2941222827233,4.42249427281951
415,11.37829248672922,13.037996798439005,732.429997974684,4.602980947685831
416,11.548760607481992,13.014259826774882,734.2454250191488,4.695568249726904
417,11.362112307790536,13.06559333261343,731.2090959811326,4.711520353403887
418,10.561598291501959,12.987614834285957,706.0250961251863,4.7215377951536635
419,9.131133253506341,12.641823604747247,652.3586656439358,4.742868818215598
420,7.197314945250281,12.0038485395851,570.42425103729,4.6928437623582395
421,5.305056647595139,11.114135208020514,468.16480628721337,4.5047588696158645
422,4.002447958900019,10.071036915116078,355.66766815048396,4.229677406307248
423,3.2610701118559176,8.975259105525113,232.71786789785332,3.9650584352551355
424,3.029752678910998,7.804677149413182,103.82712622675078,3.8039790046585034
425,3.082774213899391,6.7108072403474734,-26.272834445811306,3.7376859796967
426,3.170878636058374,5.80010944042894,-153.2228370457832,3.685678954770089
427,3.1453009397553497,5.174129383802079,-273.060739537819,3.588864244010257
428,3.136862710460539,4.826767529560147,-382.41652476457233,3.5078040502956433
429,3.136862710460539,4.680965741592329,-477.6457281585897,3.468581423412254
430,3.134271443540258,4.65563862053572,-561.4561108685862,3.415869274531394
431,3.091574412522883,4.681685844619665,-627.7962796013899,3.2294240936679337
432,3.1893929282281848,4.6699908567196875,-671.4919233781926,2.778877261644555
433,3.2696233013437572,4.521318181730219,-692.635627101722,2.0097289423144824
434,3.0540576773859884,4.147618011687614,-696.7563431105418,0.8928685648739381
435,2.395316936553247,3.438694151243039,-693.2211303863414,-0.4938842589253351
436,1.205070151270728,2.3850282126993636,-692.3086712928342,-1.8288833464374321
437,-0.2407399405044583,1.052764430825635,-694.216961478014,-2.8118561454161424
438,-1.4511207851212788,-0.4459451837583477,-688.8400665595185,-3.2998327456089216
439,-2.1014513854222896,-1.9724552785315828,-675.1911032330801,-3.3320490651374826
440,-2.3643739679856663,-3.383523659297482,-653.8298890270388,-3.3367281591625724
441,-2.3497900398221083,-4.578024171302298,-628.1843979469687,-3.38740753732009
442,-2.266323644715774,-5.503209737745964,-602.5350199243549,-3.2630207280533896
443,-2.275889239846416,-6.153085309401455,-578.2526762678588,-2.587545468363701
444,-2.287796805095108,-6.566326459158153,-552.8997712365749,-1.2588534321179115
445,-2.287796805095108,-6.818327379126601,-526.5975123256449,0.3151188232810701
446,-2.3300513942180805,-7.011218265083475,-498.8831022842081,1.5625954924132353
447,-2.3140238545262752,-7.260947835335244,-469.2644033185807,2.127071023954555
448,-2.1232312761013965,-7.679057133653538,-437.22292378172915,2.160474977399676
449,-2.1405897189963956,-8.356673279497082,-402.2642524003379,2.2027620481642165
450,-2.8911506880912077,-9.300587798548445,-364.0265296876694,2.3141629006134714
451,-4.647665316724668,-10.700144754326942,-322.4245388561358,2.080074365179033
452,-7.716412510586926,-12.266504039661946,-277.71701087374754,0.9365327614924461
453,-11.500842421259183,-13.580343023080845,-230.42950756246088,-1.1522790289156362
454,-14.802691977910099,-14.35983515626651,-181.2301018007479,-4.1804514642727355
455,-16.89424683730696,-14.587348956311903,-130.86377010885158,-7.233056817845711
456,-17.766638845928913,-14.431317418043939,-80.12033547247115,-9.38046708007319
457,-17.626281992589366,-14.424019960290952,-29.776590402388173,-10.572671860697989
458,-17.571323911856076,-14.578812655110742,19.480972679370172,-10.792715466070238
459,-17.82128965100629,-14.381711152570572,67.10318857965942,-10.70185746110745
460,-17.493492304070813,-13.664052286601526,112.65676495471891,-10.725992653764614
461,-15.959061911727392,-12.400139988040706,155.75727706728796,-10.64688060020178
462,-13.119227299972819,-10.774163393271227,196.03943607932885,-9.677824018449732
463,-9.426606823427262,-9.093958021535919,233.20072058147682,-7.739402808159332
464,-5.728267952236081,-7.58920806132412,267.04982491051896,-5.071874499266193
465,-2.718843494531785,-6.091274997360753,297.48364231407066,-2.2210691146920536
466,-0.1434726830678103,-4.667229172056079,324.4006929949592,0.2858115561264115
467,1.958271996032773,-3.3168363732180812,347.3988164616102,2.4669586379577733
468,3.630708016277456,-2.0149192473420765,367.4119827121282,4.310856507724911
469,4.829787786019935,-0.7298005780213593,383.1631633013774,5.933850958600025
470,5.673677753420897,0.5513984001590903,393.5086354530639,7.249420772043286
471,6.235968737640527,1.8246098490025777,398.51411448486135,8.15178002864189
472,6.595784403092911,3.1500747785278334,399.31242543214853,8.618981119648062
473,6.808560621094908,4.344947580339597,398.91654562359287,8.719776775801224
474,6.875378910013816,5.21102733669602,398.84977912549175,8.655650164201667
475,6.865840114925452,5.661292512912792,398.5234086525547,8.67885641968208
476,6.891239061476732,5.751564894887282,395.19751441911546,8.708283887639258
477,6.936312144738789,5.6984465699361255,388.61990871639347,8.37962434713345
478,6.566108619862163,5.643330546547336,379.0981314154327,7.6229724700493735
479,5.842112647735185,5.635374153129583,367.58419285898094,6.5318556934585335
480,5.027328946141522,5.569369313730218,354.8901883213179,5.373302927954419
481,4.431453065161999,5.503364474330852,340.286510339081,4.446667513221134
482,4.286518745872046,5.481492232168185,323.9909406000606,3.8291258963926422
483,4.280565840893073,5.443849552745849,306.45771624939835,3.370868288771918
484,4.269068711151437,5.4115414975479394,288.15557994310956,2.992210153123135
485,4.395377767268922,5.511744781991765,269.38416241126725,2.605770983570245
486,5.018065609082521,5.787644171217607,250.19793481866287,2.170499269607096
487,6.338352123570446,6.133367257166472,230.4813399857442,1.6706918423708137
488,7.980654895681807,6.414466173080467,210.07146466034322,1.0776200304905263
489,9.352549284232142,6.516218376280991,188.84830979131357,0.34695738672513105
490,10.046992660429678,6.478729584242521,166.7657671358816,-0.5259045998487177
491,10.214379701873943,6.486392204123183,143.85107436142903,-1.4586117367294
492,10.088378392820509,6.489034142220752,120.225402062525,-2.3160407628236097
493,10.179171736515013,6.268935629118653,96.14360212258505,-3.001450997689366
494,10.285361929043397,5.763184580477506,71.98727786326644,-3.5220795472969866
495,9.627071829426047,5.002958329610742,48.18390063198975,-3.972049346480123
496,7.883067405444458,4.142038946573877,25.117987154587052,-4.450549946934398
497,5.053923563989859,3.2977942946757857,3.101203072387981,-5.00534896498576
498,1.468214987823569,2.5948914977379505,-17.613382313225568,-5.6194231502102925
499,-2.3334346608038503,2.1048911832302544,-36.83124145762505,-6.461783121929937
500,-6.437088128488388,1.8574058255734698,-54.44843677080856,-7.401687476659286
501,-10.42193422596575,1.8113445530807162,-70.46475703556344,-8.215546798774671
502,-13.44636530485074,1.8197502054230787,-84.60173654449581,-8.724868702307596
503,-15.070122649477764,1.854891852720989,-98.32012925843998,-8.854349566717126
504,-15.348980634728537,1.8909653192729954,-110.46501539476061,-8.817479000210021
505,-15.259430569837278,1.9808391185078154,-119.40254475482946,-8.845794286810563
506,-15.283993168200972,2.070712917742635,-124.29784843399305,-8.829920494259174
507,-15.213259059532296,2.125635795052803,-125.61033828263938,-8.381663397228218
508,-13.57700112745531,2.1286315883606304,-124.92339909948153,-7.190694775732366
509,-10.81258232618407,2.098673655282357,-124.21113817303079,-5.570995811423398
510,-7.938352761040239,2.108659632975115,-124.59094794271077,-4.112644661723744
511,-6.029136644479946,2.108659632975115,-124.59094794271077,-3.2943905730923797
512,-0.01323858013788946,-0.04760130875995677,-0.07299281777664299,-0.024225931048213217
513,0.029448067066131574,-0.21754071610830222,-0.34284925262947474,-0.1438576856523711
514,0.06218313993037035,-0.5997992749787413,-0.7467019910544604,-0.4084372754111577
515,-0.09977382093422127,-1.236863070096287,-1.1369246043228067,-0.9318759841696116
516,-0.44457106215495107,-2.06712017417742,-1.3776662490477243,-1.5803985854113642
517,-0.8471918197640929,-3.0620584632323324,-1.4034391414057863,-2.148193803877887
518,-1.152881521365595,-3.9996126028001036,-1.4322790048404737,-2.487135579607261
519,-1.2409186352384256,-4.678514616409911,-1.4754728718893286,-2.578555107335708
520,-1.2194986073641214,-5.0255509689129525,-1.3629082027694812,-2.4877503833230885
521,-1.2305059957903832,-5.077478778170395,-0.8696391184320971,-2.526936874951984
522,-1.1983347517159364,-5.0660118236566625,-0.017586637229419277,-2.6372852712529102
523,-0.8713588430549838,-5.073840481139112,1.2237434549208668,-2.46811445656901
524,-0.343507071664892,-5.0255544667299406,2.4907054769258394,-1.8013575974649587
525,0.18917789600615129,-4.689735396974234,3.402600901833906,-0.5716603880309175
526,0.5281677497083266,-4.030568224503276,3.938765406151379,0.8306677192836092
527,0.5556286240879035,-3.096656249166086,4.08872307591488,1.8990520398442052
528,0.5548086982234964,-2.029298493770759,3.9792538225025766,2.3500511830059687
529,0.6320534808530099,-0.9779257599807574,3.972542817754209,2.366138833087182
530,0.5507552068495648,0.06414670571567871,4.076575041946207,2.380253615523504
531,-0.03749572346279162,1.0305739580901645,3.927315337334643,2.4502027875794554
532,-1.1448807434370312,1.8988714992317615,3.4200307290806244,2.28245579273064
533,-2.5159819016219727,2.6659095252053073,2.555732875714504,1.513258957020624
534,-3.9161578965906094,3.3262335262063756,1.5013967989750563,0.14872873068496373
535,-4.980956983518242,3.8683615109076706,0.5077685098058378,-1.6885820146068218
536,-5.681870966831236,4.285438414759989,-0.2707366395660549,-3.551626393835916
537,-6.0683203292294134,4.588187738557681,-0.9975522846084861,-4.920420403740958
538,-6.1773911106629855,4.807105606800817,-1.708996129808337,-5.78954673875575
539,-6.094931048591314,4.976454833633585,-2.472548989549279,-6.121333295878908
540,-6.093223162804246,5.108655823331505,-3.293860057013506,-6.060201810857156
541,-6.210535220380035,5.291865475075041,-4.466460577952948,-6.058471476594261
542,-6.080840204209557,5.518495008269712,-5.813789584397478,-6.155746153994479
543,-5.444354702096418,5.7365571847595795,-7.000282357742999,-6.00389389647233
544,-4.1900152321099755,5.888482875048846,-7.752708661941697,-5.354323050933513
545,-2.5064109452956616,5.945315645711461,-7.930403266783812,-4.169320850610335
546,-0.763793528724274,5.902848442166081,-7.9470457369957055,-2.5736506770957823
547,0.7672493708833734,5.9177820614948935,-7.959460298660187,-0.8079007265512822
548,2.1545949114560283,5.984434839587923,-7.814074216747334,0.9285866128027148
549,3.425907105652729,5.911268484765342,-6.93785493482062,2.755192939769946
550,4.502375082017954,5.5637159038016435,-5.261446594614024,4.573643244877136
551,5.24135949584959,4.862001037086817,-2.9491838792907896,6.338935490694313
552,5.629277813962064,3.8484581595039598,-0.45670894807803186,8.052121753956621
553,5.8562047388976435,2.6896446553728497,2.111392425230413,9.742239779329473
554,6.177742865147074,1.5925471672056972,4.561367758570957,11.383585053818113
555,6.741386992968513,0.6157430208652368,6.40736400770052,13.077313470770013
556,7.530164299818108,-0.12757341481707718,7.422845006930834,14.600464568578417
557,8.700391831661948,-0.6101076665987237,7.64419238452368,15.705343021584767
558,10.070280437185312,-0.8748526623170946,7.5257310795879,16.287237650493466
559,11.301631130736343,-1.0089138146715408,7.584009586672928,16.38844501712594
560,12.11164381914816,-1.0967511399811407,7.615721207704198,16.348536207879633
561,12.410343577201179,-1.1851554069391115,6.854953360119005,16.37028921013492
562,12.284128369689032,-1.2867401761626844,4.81218303536679,16.340608912398444
563,12.280373043352402,-1.4110301191207408,2.03887995600631,15.807734186592317
564,12.465997052388131,-1.5793359729177099,-0.44877000413030965,14.57154931437424
565,12.283846940218396,-1.8790676753074078,-1.8239232938579728,12.503292228237049
566,11.351170591409069,-2.368469356496311,-2.046032592726918,9.633388122213304
567,9.498643149251208,-2.924305915819226,-1.9650949876648547,6.121506943424277
568,6.893791152121879,-3.3768933939566694,-1.9158081181712348,2.046963602964779
569,4.025739686472674,-3.6198103194824984,-1.7482678150950692,-2.2633269235276385
570,0.9266074426624256,-3.620161738384364,-0.9215070623155416,-6.906704780370273
571,-2.1879767127415866,-3.6450753242441625,0.2163159671132571,-11.289375876791778
572,-4.704015274065595,-3.710803597502075,1.2325273895212916,-14.662093094495525
573,-6.225796044723029,-3.591561102230263,1.7569964334206345,-16.60714329172658
574,-6.729666520846178,-3.030620572863882,1.671689659399827,-17.218884827770815
575,-6.504811724399702,-2.0105798859796646,1.6687961531968236,-16.95881213105359
576,-6.460506663604351,-0.4874877720771541,1.760534632544835,-16.875830701036183
577,-6.693556350519073,1.0890788266403757,1.5942673182040838,-17.121918619802695
578,-6.391308613097018,2.235261652227454,0.8866188883188523,-16.82360276492842
579,-5.311879152951058,2.892168026957952,-0.3753856035933628,-15.705489423361781
580,-3.344840761512527,3.0326143422441345,-1.9775824659200651,-13.801284061484047
581,-0.9304396082661897,2.9735845290870553,-3.838172483480628,-11.507058311708652
582,1.108103829618727,2.979522360831441,-5.515150544821468,-9.401857171828095
583,2.197612455868855,2.9611730051213727,-6.861368047871419,-7.86343734814545
584,2.647970243687003,2.4798559736433425,-7.633200722537751,-6.564459703698329
585,2.5828203171897552,1.4769946983575752,-7.812348674047659,-5.519869119006438
586,2.551655158264444,0.059520101661996005,-7.729251393972986,-4.694690473372294
587,2.646783728301139,-1.4625979584848974,-7.748494629462517,-4.068843957540629
588,2.5051361397659493,-2.875705269686988,-7.765550996902205,-3.59922091345476
589,1.853312474717577,-4.036011371421109,-7.1933660060651485,-3.212772220523287
590,0.5623858067521512,-4.843492423850746,-5.8649061832782445,-2.8435964739680504
591,-1.3878137588910613,-5.248809340043453,-3.81125112413292,-2.4616688385438557
592,-3.820985985400202,-5.320710772021728,-1.3229648741285818,-2.049298125468899
593,-6.394404088063975,-5.281813512622878,1.159075544989213,-1.555214517476397
594,-9.197082196332323,-5.2830662650303095,3.6955206050257003,-0.8913829748812001
595,-11.65793205268176,-5.272486495987964,6.0080745787688095,0.016850114170446018
596,-13.354500311048751,-4.998160617429008,7.690151350086879,1.1835903698083752
597,-14.195258540372757,-4.423961175423117,8.579164621511307,2.5616694259037103
598,-14.302265044319002,-3.5975157724366054,8.73019407575013,4.041367546825969
599,-14.311423987350041,-2.66322641922306,8.707581300118811,5.662346127352076
600,-14.342039190547641,-1.7790541674931017,8.718692344172327,7.204890315746059
601,-14.153199398998616,-0.9646268709842365,8.584838530694668,8.392053030300174
602,-13.183630218535571,-0.22646432343759282,7.738918421989487,9.067972210498562
603,-11.366336207295994,0.4676136789538697,6.18432464799432,9.271198053456569
604,-8.851381660931935,1.0558513437721302,3.9134313130428007,9.155595473896938
605,-6.066023598925932,1.46871138892741,1.4465299930390827,9.16865570788634
606,-3.4814746159327643,1.681215940676971,-0.4984965936571025,9.291631914187606
607,-1.094194537064775,1.7076502279785262,-1.7592064027652319,9.102486563019841
608,0.9406875634841869,1.7072054168216195,-2.247158108307852,8.452297423117324
609,2.6238329540635847,1.7246127043474226,-2.1422021775810856,7.38817583108678
610,3.892104642252616,1.6834051594913415,-2.1311995868986773,6.127953474369102
611,4.694680281096126,1.4282674971834295,-2.279000677256844,4.942702867253963
612,5.044774426255012,0.843581250588577,-2.043872059283516,3.9748586677146567
613,5.036462029663971,-0.038271429718251565,-1.1699716928253152,2.980587463523883
614,5.01750360154215,-0.9342773054890361,0.6254041190598726,1.9810556882087984
615,5.1159820547893045,-1.557477350971582,2.8271479995454825,0.8324840496808827
616,4.935652808167187,-1.8636520530784,4.642920657051073,-0.43212404328318266
617,4.40040175828505,-1.8462682626962659,5.545407248740194,-1.579495917113828
618,3.721243547937918,-1.8617952514856935,5.751966490573247,-2.3777193877937415
619,3.1622952589274544,-1.940846201754221,5.730135163458774,-2.731641338969657
620,2.931253258597461,-1.797599415919605,5.729187210136732,-2.7014242215561803
621,3.040165933374891,-1.1670910726355967,5.5727195313368,-2.6755425258186225
622,3.063500173899491,-0.008983106701944465,4.683173953852423,-2.7527145085863247
623,2.955625562981977,1.5004498483263284,3.184098776495614,-2.634916417196267
624,3.2010809773211477,3.1917160907754436,1.4478665680251934,-2.1287086631675987
625,3.75751002085057,4.637829883084199,-0.008164671676198276,-1.163802604133518
626,4.426474195115902,5.72665090784367,-1.150649137885797,-0.037283614723547326
627,4.950663695170269,6.301226166663895,-2.2336693141704536,0.8428743827902452
628,5.152224537031079,6.4268580605295025,-3.170057060837523,1.2311470996006544
629,5.022512670499153,6.316830427738597,-3.798806041615637,1.3078483606278768
630,5.035247742089557,6.327398277094318,-4.041698438708845,1.2383035014509622
631,5.174502718267269,6.418901222733375,-3.912945976737504,1.2704669379132383
632,5.036203809772393,6.1757537287659865,-3.9810802404215817,1.2584818938582605
633,4.341289492064191,5.479604047792019,-4.210874056445174,0.9976024557180985
634,3.034987086365601,4.181358389476346,-3.7484610879245244,0.5910238329511958
635,1.5398275305623461,2.5447150487841643,-2.6207571782756145,0.19364699599089466
636,0.4029257827791298,1.1101009582095707,-1.2384211862466517,-0.044359431715714985
637,-0.057814805105658534,0.25063908373764765,-0.13902821984889946,-0.0639993316912657
638,-0.10749811394523714,-0.09801755322186295,0.2853601689452878,0.01611075158841707
639,-0.0008570983752905492,-0.08075687908682853,0.0646631826082556,0.0073206191858426976
640,0.034624433549110864,-0.07827811173188728,0.02917232532756625,-0.010574860667678349
641,-0.012850536860321699,-0.3106249350969222,-0.021447906918635296,-0.12548614819943563
642,-0.26849732405217214,-0.7697782342755132,-0.28764901869633464,-0.40476816530308735
643,-0.8093234749171525,-1.471290522610789,-0.8426716495773993,-0.8557720906811922
644,-1.5697332592401712,-2.346914640476034,-1.8917676785739501,-1.399219928900234
645,-2.3518042931447494,-3.431762098694556,-3.1629008091390207,-1.9197956271044623
646,-3.0742104686949023,-4.508660771461383,-4.254387076717424,-2.3405110317490125
647,-3.64732818188524,-5.338508459060778,-4.900413635644382,-2.7428746956018193
648,-4.040380474524318,-5.793209743089636,-5.084383869834948,-3.1296581222015143
649,-4.261641284003675,-5.879289527464938,-4.908184313723778,-3.455779679526716
650,-4.32760330464639,-5.8524189098369,-4.979179843541764,-3.6630468305034785
651,-4.294811589341926,-5.85369920175394,-5.204214328011049,-3.7125061525439293
652,-4.285527530400657,-5.813491947407945,-4.883676261721444,-3.7040902340774906
653,-4.330836700896192,-5.444053069730709,-3.67274461406015,-3.7256339861627663
654,-4.237757762717672,-4.699191407251032,-1.5763526105303556,-3.710232789836646
655,-3.874624186684407,-3.615147971732088,0.9137342932652694,-3.4430030623485903
656,-3.181905120236018,-2.3321447221118037,2.9630937626380214,-2.8744334962471307
657,-2.266923811619494,-1.0114216939479646,4.010248292158138,-2.0793098323305763
658,-1.3368238218056319,0.34016054157021064,4.427999781815557,-1.2241402426041645
659,-0.519375993854986,1.6361359070892805,4.476117540093991,-0.44583469131640807
660,0.22299692992766706,2.7985545178117994,4.4125641483661155,0.3020074019938554
661,0.9439267039879203,3.7803883265957867,4.42397544511756,1.0978162481038707
662,1.6106553667420638,4.558458547441762,4.626347810958525,1.956778293673601
663,2.1246403884734475,5.1351505688654875,5.003977858097472,2.853848635696011
664,2.4836688396560533,5.535390500476191,5.469401283620953,3.7791607293660423
665,2.851275456102316,5.868379140437744,5.871734870315588,4.765167093114967
666,3.4128478766344132,6.161515951719273,6.087097913675573,5.861202928706102
667,4.162727147883685,6.397130003717758,6.082216184292752,6.889726577310668
668,5.001703837828323,6.543671715674985,6.048192929237916,7.639977389458627
669,5.71422834528972,6.585414858042114,6.068665225634337,8.012050026596706
670,6.17064162624361,6.561673652789783,6.0646651670861695,8.032953625508494
671,6.387248861393443,6.5731661242844,5.917897662083251,8.034974198852169
672,6.44816318334652,6.600958242081069,5.5672882186622346,8.090423807529389
673,6.415030976289756,6.486319516574245,5.017081721816473,7.9920227042342304
674,6.405793692386969,6.136797620925304,4.3592968548820945,7.422159985426335
675,6.4499814669361575,5.513074270927914,3.72844866835618,6.324012707079703
676,6.424897689858245,4.670315575123271,3.175683305747405,4.856470721030017
677,6.232574643485864,3.737095754387879,2.6785141286752907,3.1575147204306515
678,5.7899805226089525,2.8218503440137677,2.1607477022895654,1.6437520684805107
679,5.137825129900491,1.955610973209132,1.3590115377452594,0.48596869389936065
680,4.463672101789629,1.191727491762064,0.38641379634136386,-0.15865451420685095
681,3.9749076213896553,0.5600650705029518,-0.5022631809739516,-0.341996733803107
682,3.6950369020181246,0.07921793940133005,-1.0084694235942306,-0.23642643422630966
683,3.5600005212962755,-0.29631850076503097,-1.1849683321137694,-0.2071728918098066
684,3.4225989255853952,-0.5752810687331,-1.1420376561258645,-0.30121399509286695
685,3.2232620645106973,-0.7610215696561737,-1.2018192624561106,-0.21726396236685264
686,3.0232902670241817,-0.8609788255175075,-1.4873439385550524,0.21551268608415866
687,2.8875053853019743,-0.876716085193689,-1.7659051775123817,0.9129840153821884
688,2.83235105423513,-0.8877137317275077,-1.8997695689989513,1.6216424323449374
689,2.8123310662919123,-0.901752494892896,-1.9699190310537442,2.0798431299060813
690,2.812706493848077,-0.8653140952483347,-2.0832221211540682,2.18177648874602
691,2.8141227131541235,-0.6781322507234673,-2.1886132751360545,2.0977282868691742
692,2.7932379034461263,-0.3412797343092086,-2.3507290022267178,2.127015500838225
693,2.690671630968665,0.07160536549636586,-2.4220579784985015,2.233108675670847
694,2.441802661645622,0.43614535219715045,-2.472659538714489,2.076746891465911
695,2.0555278711808374,0.6554829498267453,-2.4685815515694056,1.4917028127440937
696,1.5863723023089937,0.7646694149910694,-2.3887954583860664,0.4827260620818098
697,1.0850093161130467,0.811304418728928,-2.0779172099050793,-0.754969667815652
698,0.5205716657640893,0.8391194973420731,-1.599790623104523,-1.9198789539100756
699,-0.11654861788902707,0.8678582478742218,-1.0352768768737595,-2.7845611758905164
700,-0.7719753473921481,0.8939302193826568,-0.5647263676866862,-3.433282880439509
701,-1.3467901008153471,0.8990230612264865,-0.3095494676477343,-3.8291904764280504
702,-1.812749779567457,0.8998736398489731,-0.1737872825378726,-3.9910900801436275
703,-2.2835840557830203,0.9273893642957074,-0.14376270986131023,-4.005290293266495
704,-2.924247337159741,0.9325606089303269,-0.14195485685641038,-4.010638065226846
705,-3.792260582185023,0.7982007415388102,-0.15097707356175238,-4.1405554431947165
706,-4.786770015837065,0.43260085158325223,-0.18271198162546498,-4.479692471920391
707,-5.743695678825803,-0.19229877971620263,-0.29936379362393306,-5.065093349762437
708,-6.5674514160544195,-1.0052312635709952,-0.49702029960898664,-5.921650475048763
709,-7.270575142627284,-1.9222802643359294,-0.7880331805548989,-6.983200256429159
710,-7.910614190986426,-2.8251486744098355,-1.1916413058816149,-8.249287276958952
711,-8.515417062742092,-3.5643118782703183,-1.7463834943326824,-9.456947671751916
712,-9.142038765536462,-4.026131080820572,-2.5394307819152178,-10.342277156333807
713,-9.713199111092838,-4.209321496285987,-3.545096005173096,-10.792900856137791
714,-10.134302683805561,-4.195273347396543,-4.687474603780694,-10.883863159063214
715,-10.359550173100757,-4.1743004164143285,-5.894423483533451,-10.790321057233486
716,-10.389333902116897,-4.197170925091268,-6.9702063770621425,-10.778353091032837
717,-10.391734288350083,-4.157903257542061,-7.730456726064533,-10.847979685952527
718,-10.418244958638528,-3.9778435923769315,-8.120873042077005,-10.764996724503215
719,-10.383581665406693,-3.6638918145216994,-8.223647157223079,-10.452721301299293
720,-10.049669558373038,-3.2353549135788793,-8.158134800136981,-9.841027318313742
721,-9.292742482810722,-2.8243575072540463,-8.161872261486671,-8.94163186235297
722,-8.128908838184396,-2.551330816643715,-8.245654350572181,-7.864001526339091
723,-6.7415251395763205,-2.4005016415232165,-8.188163611812362,-6.7459104450457374
724,-5.345138360584946,-2.3677210268400724,-7.779974218087519,-5.598522735608474
725,-4.16162872925254,-2.3937802967989414,-6.850350971040022,-4.479858855051255
726,-3.393463218514377,-2.4034219743507657,-5.365168347929256,-3.3544689407483603
727,-3.0359755046464425,-2.386990233213952,-3.4857019612063667,-2.183175787713403
728,-2.989632354289526,-2.413506437855636,-1.5327476575529138,-0.9938908848991672
729,-3.1006449287576605,-2.4921144115545166,0.5028041975128719,0.14101576576316172
730,-3.082470738410768,-2.6716471159242756,2.2784930021748724,1.181986815841083
731,-2.888570936366515,-2.9057715266157866,3.523995638028974,2.155121643248842
732,-2.6623423820854004,-3.112472383100272,4.163004718931472,3.1067730030546015
733,-2.4074174292771735,-3.23353593845246,4.312728800746546,4.0435442108726605
734,-2.4084106066064725,-3.259727869170254,4.219663780975256,4.943889398623363
735,-2.5648920158695248,-3.2554923530883495,4.133082165959014,5.833167312691146
736,-2.444585134932967,-3.2674631480233014,4.176738412506547,6.825071339962093
737,-1.6100696144603315,-3.2586801264559933,4.167864749091882,8.07030207520002
738,0.033104644243325154,-3.0994421967188988,4.158991085677217,9.661508154581893
739,2.3792134944611876,-2.7218791681660273,4.183844831917568,11.584041203160716
740,5.095640751723864,-2.0978945033421383,4.137618024045689,13.693317897027795
741,7.810373021251736,-1.2640544437235781,4.062178795422873,16.045491548690375
742,10.861345627117842,-0.30469810798718655,4.147472906935801,18.393779425052443
743,13.77607176084274,0.777798414069305,4.580814396845731,20.310302250616562
744,15.99748655005883,1.953035494583007,5.417156383920675,21.500662492559176
745,17.208973911661147,3.0050701770449413,6.640328983179817,21.949515903833642
746,17.446998192095993,3.740965855973955,7.997192217274365,21.809056427253072
747,17.32920871534033,4.093805672033503,9.09295975626896,21.8455689614848
748,17.35412591564687,4.11475672150317,9.80564642660908,22.07657789718615
749,17.326355661292393,4.105242097362917,10.110123179376775,21.774186308911457
750,16.421351616879402,4.133662920395753,10.082021738736206,20.40028809810078
751,14.506416618665066,4.058814355416254,10.072447283331948,17.79615553538807
752,11.760287227254015,3.603649179096514,10.129116291976885,14.23119325767558
753,8.663396944943512,2.9006154413994456,10.016791922301707,10.283122023315952
754,5.749364159066788,2.211371956364162,9.56394616984847,6.458368158215812
755,2.8752634040576774,1.7904854080894277,8.78787843356982,2.564821950608053
756,0.31150883463016255,1.7519627784142506,7.8440149150901926,-1.2080433443221297
757,-1.5296634814902808,1.7659034724236,6.971978803151719,-4.711449097824995
758,-2.4761409560571535,1.7116562374157442,6.320984827989467,-7.844202543057681
759,-2.6485324291746912,1.8382992418398862,5.7083058956642665,-10.64945765975752
760,-2.5333964003560565,2.2750054696533457,5.01893709885214,-12.894226494954868
761,-2.5770859536594606,2.841457826905832,3.828523072907563,-14.379178211340808
762,-2.476152675801319,3.317369285776934,2.321086530560084,-15.084980825522102
763,-1.8682509346702365,3.5290167090423807,0.9400392559086062,-15.206014059533459
764,-1.0195585162076917,3.4625313215245397,0.06917182322059962,-15.078553401273552
765,-0.25710047223266885,3.3771891815429127,-0.18972214450745953,-15.008843580899395
766,0.13644725231514385,3.4142595042397774,-0.06296717825793668,-15.058655967339433
767,0.09731620149156772,3.4142595042397774,0.06380967673945295,-15.058655967339433
768,0.08576552840518822,-0.10990815313318625,-0.08181422095228834,0.01864603330947405
769,0.23592788426236994,-0.4377346608253175,-0.3603942367118006,0.09765819577228052
770,0.5148659950116643,-1.0962367441325407,-0.7051224599485371,0.28534053049279323
771,1.0101010994347677,-2.114875795009467,-0.9838361413553928,0.6263372075933861
772,1.8033457213498867,-3.4381074798300366,-1.100189669655309,1.1410990382910224
773,2.9679635515029212,-4.937927947136186,-1.0208270981181067,1.7946092629646389
774,4.347941276401157,-6.704640135071823,-1.076375752038861,2.4756327741822144
775,5.574300157622301,-8.434196275065457,-1.2342945861945096,3.1347220170620984
776,6.3605017995770945,-9.77033793076246,-0.9661582325418017,3.668465417239484
777,6.665029563141743,-10.51563054484343,-0.03695837046746503,4.016312720587882
778,6.592484504943941,-10.680484306171357,1.2877562341137043,4.187611710623196
779,6.633273595993224,-10.585625455376505,2.5083174164702022,4.227940141349444
780,6.773530205112905,-10.61630350863081,3.1805998614169892,4.203675573555909
781,6.588346978288688,-10.661666115553139,3.125552864211782,4.1955370176918345
782,5.6561949085846575,-10.111986870810354,3.1470926153982077,4.215228242855909
783,3.811801778383262,-8.73550603489963,3.264350552085938,4.152954070985688
784,1.1801809388704965,-6.49756186333069,3.0289781284863815,3.945711758334543
785,-1.7804738929077322,-3.6437154455279965,2.06195201951962,3.5208246287302836
786,-4.899979345800812,-0.5635129503070163,-0.046083600103146716,2.8670281800278823
787,-7.945112025704372,2.5395637979415033,-2.709376451917498,2.060389570417368
788,-10.313074317999034,5.568358894647566,-4.968937699547338,1.1939044146698192
789,-11.685791936880738,8.362116411226337,-6.147589840023653,0.29960608947981265
790,-12.124413473835832,10.744465157454217,-6.460389050628796,-0.6466556840863478
791,-11.902227676060436,12.474776901919157,-6.3282306498787895,-1.7155754508343843
792,-11.93362111760782,13.467871085985399,-6.31543308764246,-2.9374588719284067
793,-12.195449393395451,13.8399849960249,-6.321934344557642,-4.237112125330004
794,-11.830371138048429,13.805232240497457,-5.557149214603042,-5.698632653521987
795,-10.41133910924209,13.782251564953167,-3.971911680265165,-7.094171584775745
796,-7.876506827191536,13.850869002143973,-1.7984617415299056,-8.164633166039966
797,-4.447771582133529,13.754249264605678,0.4648875000287074,-8.765663440376452
798,-0.7069574110962169,13.24072208481873,2.323922011716611,-8.916811642519193
799,2.3496954978587272,12.266119394447148,3.9263903292088216,-8.83442110526097
800,4.533598791113947,10.945618997297915,5.316708568250351,-8.802273769753546
801,5.562793580982081,9.533347439944027,6.314371938560083,-8.839806554094045
802,5.620445945002128,8.26659962972002,6.849541305505549,-8.630047193460477
803,5.549412061706681,7.108703124616763,6.959121188791883,-8.150648069646381
804,5.625431898534794,6.107072495138886,6.900762928216244,-7.465807773130708
805,5.418548378888927,5.305360330294008,6.923006696653075,-6.748383549748451
806,4.419476114069258,4.7403610442646755,6.937358570397318,-6.152164475555254
807,2.64912633810322,4.421426104016526,6.516618196191561,-5.640246535243374
808,0.5666179101697161,4.29727212907704,5.515745922334556,-5.046043023038322
809,-1.1042131018457635,4.2698958292028975,3.9495916862241183,-4.303371392806346
810,-1.906370278370601,4.246830155960476,2.051591380052964,-3.4102651288696673
811,-2.1812537051645142,4.226976567411534,0.16300116693442673,-2.4153767917708513
812,-2.1133626223776076,4.20128584567331,-1.5521418477823967,-1.343108982349766
813,-2.1030381026533957,4.093410211440843,-3.0549685344214828,-0.17731025471047546
814,-2.1564318024893887,3.8197774313777746,-4.181527833335799,1.0701417128658282
815,-2.034686427166737,3.3087006349942314,-4.863707387065208,2.3092551337888745
816,-1.6403809471275017,2.5482437053467124,-5.152122727496861,3.4245187518238653
817,-0.9902633800016789,1.587156154801637,-5.171159543035197,4.371557736539262
818,-0.14959635838373075,0.48787505389001934,-5.136272610543569,5.199966899082001
819,0.7356945662423566,-0.7281158148502557,-5.145558583778517,5.968351516469538
820,1.48892241385732,-1.9910190726974495,-5.138645957339633,6.703397604373751
821,2.1153779101789905,-3.246407694276095,-4.943331808551083,7.307337993342012
822,2.4927756784014723,-4.463027958984352,-4.466921923924931,7.69051179491983
823,2.701952369879661,-5.631282755761726,-3.6323121001355676,7.85169561495251
824,2.903134857376559,-6.740666139064441,-2.446772637574129,7.863003155780964
825,3.1601524958529925,-7.830132257638587,-1.0105991993985877,7.83512082252047
826,3.40422498198009,-8.836985718828332,0.5704732692311234,7.853412014043665
827,3.5991994278185495,-9.621848240106335,2.1125653079045303,7.868540002057426
828,3.799525184524006,-10.095089359398955,3.4744113761118935,7.744448779121299
829,4.050235048314481,-10.271578765503698,4.613053617782666,7.402026319374203
830,4.323549371672744,-10.242178138254832,5.5954482332815205,6.811232018810282
831,4.525151920845703,-10.225100666794043,6.381445893509921,5.955881531948807
832,4.614454768357093,-10.267688158716716,6.914663798535667,5.006147160377923
833,4.609926762790935,-10.221636414105687,7.1800791492082565,4.220331136489153
834,4.673253745593187,-9.962442771711004,7.191511321459358,3.713328895433788
835,4.821595533766822,-9.42594105264351,7.222071981376882,3.482057135790048
836,4.9842319161534085,-8.600061268642936,7.273021300532987,3.3942675977951753
837,5.102632025356645,-7.534008002660381,7.143499438064029,3.3320492963820394
838,5.1255834458848595,-6.296791715880476,6.59849886357561,3.169306504713038
839,5.156707225607837,-4.873991545443304,5.65414269440305,3.099350677238614
840,5.196619065254472,-3.359938230949235,4.466265353133496,3.1255581601474822
841,5.136470095562079,-1.849887339170542,3.243740194842829,3.0156136963205973
842,4.762507737304306,-0.43033787313255856,2.097201465843822,2.538337714736322
843,4.044715971119718,0.81936671880402,0.8447588169795628,1.5538372573069799
844,3.0751734726672275,1.9580856906487103,-0.4721861761123436,0.06783710791646957
845,1.981580256252272,2.9002533870861145,-1.7767425698111934,-1.796917529496556
846,0.8141862375680515,3.5529698522486104,-2.9786400896287617,-3.7584925197844345
847,-0.5556522558421105,3.8898976990465535,-4.006611768447067,-5.961044805792739
848,-2.1230579992156517,3.959372282703284,-4.86603588059065,-8.056364357324668
849,-3.773855839078656,3.9203560854365334,-5.521217118875871,-9.628271483079335
850,-5.383037199110576,3.9195430879805992,-5.941026540219678,-10.469974560417214
851,-7.195810501878596,3.9257472400948,-6.142172462019493,-10.651265926636441
852,-9.015396934963949,3.7270665309739637,-6.190591928765448,-10.520982357508542
853,-10.500683343387593,3.3008040198685737,-6.147611234225115,-10.520444621499252
854,-11.382519796273712,2.6826640725101027,-6.169220456910599,-10.58567339899157
855,-11.568993660718863,2.000415191439454,-6.223116707405439,-10.18943391796764
856,-11.537979763988593,1.4529925652002054,-6.142675069366559,-9.219707928706308
857,-11.570563290381864,1.132939470739775,-5.837514385909071,-7.700204039992927
858,-11.475300706997253,0.9887776859015385,-5.31273661786615,-5.831162279088838
859,-10.561157904977435,0.9486352838322766,-4.671771901465058,-3.8618485499750683
860,-8.708132534690048,0.9498577219076061,-4.058040786665607,-1.8612554519194175
861,-6.140179431524249,0.9083907745310069,-3.558698525345434,0.2542867693156954
862,-3.3924287842956593,0.8259169886812445,-3.0919385439767413,2.374342887152279
863,-0.9915235692161416,0.7825644039191489,-2.58317018710747,4.4328640872702465
864,1.3070152624418307,0.7870614519432669,-2.085880198760214,6.5834274275153515
865,3.30897758262071,0.7500594876486633,-1.6957898117221066,8.564018915559238
866,4.777241514371484,0.5841083394262045,-1.4723024549390062,10.047956388659099
867,5.577381514768282,0.20009224662545647,-1.401628823509417,10.854432838545867
868,5.776980341986299,-0.4473016655405072,-1.4523217202949157,10.973159874459501
869,5.608499048156778,-1.266861374310814,-1.4842873990057115,10.978783023076122
870,5.597880760188616,-2.1276775592667994,-1.4296336364098776,11.030342396699634
871,5.748620206025604,-3.0355194408862967,-1.3685986979796534,10.84537409679084
872,5.549431967938249,-3.8595292269554187,-1.3072683582432103,9.834840948989054
873,4.876160894651547,-4.454298271662015,-1.2371976343108748,7.952339862733179
874,3.7680893418837313,-4.764568681118543,-1.288870688237231,5.425495477662176
875,2.434646247600731,-4.815042826639302,-1.3812648619745425,2.701865680187001
876,1.1283133522600686,-4.807454130122357,-1.279908649054394,0.15146908925300095
877,-0.13026223269645898,-4.811584128182748,-0.8251170421662732,-2.3740334350648835
878,-1.3797950097175211,-4.763509166760064,0.09811583818389868,-4.851174979754507
879,-2.3631558080378525,-4.464484420449074,1.4333646867069416,-7.130738227671207
880,-2.910015576994082,-3.895509291600699,3.150783923816907,-8.897976097979768
881,-3.0206476206385626,-3.10070815432202,4.983627265336679,-9.960123268282729
882,-2.9504539841266695,-2.183124071396263,6.62166553153563,-10.363015397525805
883,-2.9485302695617044,-1.228367324796693,7.718085514651146,-10.312309458360769
884,-2.9496446897182764,-0.1751065060405733,8.180640079316035,-10.289776140989428
885,-2.65239805716959,0.914244590307587,8.124941382109652,-10.362455402137936
886,-2.085054456416659,2.092899981798252,8.108323647631323,-10.228366670808919
887,-1.4155427263380826,3.190894938924568,8.22133165089885,-9.679424118217558
888,-0.8145432325405121,4.0112537712900185,8.062928936675366,-8.706098026709908
889,-0.46360271851221907,4.457623127784032,7.355489158226636,-7.4200003443462625
890,-0.28184304513366687,4.574497394490896,5.623244552190536,-6.044499105156366
891,-0.15024055864686253,4.514803730714684,3.3158469668594313,-4.815777128942164
892,-0.0549942641369465,4.455630700069246,1.2636895101478482,-3.541514720126374
893,-0.008662502792129847,4.4855520274108915,0.10968082893139847,-2.4340635854916077
894,0.002037815297407893,4.486571564047955,-0.2589806116143022,-1.6537698489324921
895,0.009755184738058188,4.486571564047955,-0.09480818961274406,-1.2446852607618923
896,0.03194685691935667,-0.06975095807424098,0.013860594082369115,0.061469154694454325
897,0.048768394037389806,-0.3103029763513828,-0.05072117223209793,0.22854136563806082
898,0.18280493843598988,-0.7985589347874837,-0.33918285280346755,0.6437024724240942
899,0.6637440478318927,-1.5679490731238541,-0.9935952804565846,1.4621515362400883
900,1.7280655060815213,-2.5656233037168503,-1.8343824418869956,2.7318223952721463
901,3.382464980035836,-3.535721845473747,-2.5697103550740517,4.68922418528043
902,5.697464529228858,-4.237750606779356,-2.9861775680075198,6.875062401751132
903,8.083181694526042,-4.579283754389537,-3.0504829752860454,8.67373262291201
904,9.916249115989425,-4.592979980385027,-3.021545031618438,9.701336923849453
905,10.905437895524704,-4.593302575149271,-3.011955858581321,9.907583706848456
906,11.134537458915593,-4.641457593565632,-2.940379564591731,9.851301447082761
907,10.960478642894708,-4.542807357554481,-2.666857075711281,9.864922782575377
908,10.962783797279805,-4.032026494793244,-2.2758529271007424,9.769182456269668
909,11.09146104072558,-3.0568175067856607,-1.8748983688392855,8.877425680204823
910,10.680551017766504,-1.7024973299091903,-1.5367101036475468,7.0925735694252925
911,9.50429670195563,-0.19440844453978096,-1.213678878583954,4.541067545358374
912,7.465946021022938,1.308575994528987,-0.6665613470499392,1.6003135168954894
913,4.75336318899418,2.854871269650409,0.12869144977211733,-1.306985434020942
914,1.7801908345485697,4.166295937003991,1.3473002227183115,-4.148570845463063
915,-1.1390825022223607,5.0397127211501935,2.7168408866102594,-6.725598069468589
916,-4.067234575426725,5.432680356500684,3.8618595574720214,-9.101129020613467
917,-6.949903435932875,5.4435019863647955,4.535105090986234,-11.070781086167617
918,-9.854161258395138,5.418450712647572,4.724656796467428,-12.44524223327344
919,-12.701699066674744,5.449649758160603,4.597780589902121,-13.16971076456191
920,-15.442636725123235,5.360747998813244,4.561029005309427,-13.316688081297126
921,-17.681125192856523,4.960477197020095,4.665616661784036,-13.274642390679492
922,-19.131389653922017,4.275352687190464,4.546938751056374,-13.251024457605162
923,-19.801830028198022,3.4444754248332687,4.1396469344426645,-13.192316076280509
924,-19.892868792742473,2.6490882319521094,3.404337530689922,-12.697247510181336
925,-19.83911599052973,2.0888979530117475,2.372368377502051,-11.760301295580605
926,-19.845213093832275,1.7119537780353131,1.14364663385744,-10.502240012167134
927,-19.805383291678172,1.5404093803454435,-0.20137141090761568,-9.184922076716159
928,-19.311747375157882,1.5193305586453931,-1.7135262850121928,-8.044979191246451
929,-18.245788103188932,1.5354524673767118,-3.0467487789546976,-7.016529762727327
930,-16.55031664034244,1.5386519308362026,-3.9420055219254357,-6.097917755429296
931,-14.352515074204716,1.548133536417026,-4.3430846864332775,-5.246068128617008
932,-11.908484060504035,1.6568996489772725,-4.360953970101374,-4.441490649263415
933,-9.300961797391189,1.8263306643158668,-4.327854068156006,-3.6873585121490353
934,-6.63193228565423,1.9933378574742906,-4.355669838125971,-2.9656881119590985
935,-3.8898817080851686,2.096079040615257,-4.300583934616776,-2.2148892746599746
936,-1.0018863370671105,2.100799115871389,-3.9230145911265177,-1.35888867107053
937,1.9307415499453693,2.104486762516975,-3.1593820548310645,-0.3627206707865695
938,4.836195329729161,2.117862769669121,-2.082398265472282,0.7401710520276384
939,7.325213494910349,2.093783916466467,-0.6004919846849892,1.853843265142379
940,9.054957214793449,1.9412495677910282,0.9274174235112488,3.036656570049944
941,9.95462008023811,1.622329384457066,2.207002382190459,4.129226195914003
942,10.2080496517989,1.136986314087607,2.962900863168951,4.94888093103591
943,10.093939213233162,0.5366243806094309,3.1346435280256344,5.400917721472849
944,10.055746877538574,-0.10834411253080817,3.1197708984267334,5.494875858209171
945,10.15272061946753,-0.793850743245607,3.1410360369128614,5.467303820258116
946,10.045245651259352,-1.4891277708870456,2.9540111557923434,5.475190273676941
947,9.611082116975686,-2.1711884767510075,2.2258916247903193,5.439570565693654
948,8.805055489640102,-2.85661846366413,1.2519428822770045,5.066614902771563
949,7.731491657857441,-3.4550246101770266,0.4060960685473108,4.279522738649599
950,6.647309800816911,-3.872894218669988,-0.0035986680497143812,3.313823011540608
951,5.802348667322998,-4.0789859635448265,0.14739898614991379,2.521963091972214
952,5.145937600515474,-4.117381166353155,0.09686388987417843,2.143321774809831
953,4.667915205216337,-4.084775410459521,-0.08964158870672095,2.076344166827326
954,4.24698724265067,-4.0657326542546,0.13425209368741708,2.14208286035274
955,3.821810610969055,-4.078907947100508,1.4187328377869843,2.1656485907589635
956,3.430092037546427,-4.055915123226354,3.511309434919231,2.136185293628877
957,3.119838198060943,-3.987678429866044,5.649703551675625,2.199669904316973
958,2.860435036514061,-3.840303392546028,7.042298999767543,2.340028320859525
959,2.555943009154028,-3.580173281366011,7.359588559335748,2.5264185295322594
960,2.1466217536553285,-3.1859561448961013,7.140624212544505,2.740910251865048
961,1.584566529191106,-2.6497750418243213,7.121273886464214,2.9240966566482998
962,1.005929667993529,-2.014146305885468,7.357147535897351,3.0438266922410246
963,0.5598980995590713,-1.2011753209007534,7.0960734490553135,3.1225604556998148
964,0.3171654600465888,-0.35688114355290745,5.982701859254877,3.1469147410136973
965,0.2735067748000493,0.32570427709769734,3.8507816928242296,3.1271679552671197
966,0.28099313504233153,0.7231527891463564,0.8884270280354125,3.137515092751849
967,0.2805721652426397,0.8357401891002502,-2.3423967924111597,3.1695798402526107
968,0.3190504648094497,0.7533802970064956,-5.580046781813866,3.112081782502306
969,0.5414343665867023,0.7480829336113796,-8.562470139567363,2.8911098604641468
970,0.9472195443711586,0.8285105097547231,-10.703592749772936,2.49711926595225
971,1.5266613738255952,0.7396913620738379,-11.813052052248457,2.0076461557364107
972,2.297543384595073,0.33902827111261147,-12.043570872796627,1.5387480527671142
973,3.2722707683469814,-0.33908686277892924,-11.882618840978557,1.1645228123712292
974,4.723347307066341,-1.0603823289970982,-11.868440169515539,0.800568027369856
975,6.3430287040503055,-1.560962337056955,-11.93973133408544,0.4604942287205999
976,7.681597181503514,-1.7175627469647117,-11.430040562980988,0.1913831304855413
977,8.443562629177777,-1.681515945386237,-10.207407653490428,0.03676592604639207
978,8.613981312625832,-1.6828884844333882,-8.315160003605673,0.008707900344929478
979,8.494640484888464,-1.7442811982334583,-6.04817307439578,0.017745349598416574
980,8.531642188055928,-1.6532851055393947,-3.79003076394911,-0.0015017010338711084
981,8.599277018802995,-1.260336668201651,-1.6783600942815817,-0.0006976617189777268
982,8.111414416397444,-0.5477619748668519,0.3490329496668141,0.20720417956196238
983,6.879856777936643,0.43120177348256694,2.2511384554013487,0.6652102398175326
984,4.929529398669896,1.5115012260557532,3.986698730254323,1.2307702006895023
985,2.5965930442036584,2.4016075327782405,5.357750858369182,1.6947186362816093
986,0.3687562928140129,3.0331000363646248,6.2204281026670705,1.9115717448250626
987,-1.5282080402356877,3.329308455179927,6.58485478806555,1.8964846303016876
988,-3.2506181810208252,3.336836251354057,6.5986592015717696,1.9125128299763101
989,-4.833549444238117,3.329935036366046,6.550952622833561,1.9639018840994051
990,-6.436312414938474,3.368027265812112,6.5564406541328335,1.854420676588255
991,-7.885011453504076,3.2832627682957436,6.5220666437499295,1.4138415545680243
992,-8.924527630294095,2.884470840208223,6.324213924223966,0.6506488711033993
993,-9.436702202030395,2.176127070875425,5.989346867507965,-0.2948740028881868
994,-9.498632941617275,1.2793204119745447,5.585564863816218,-1.1919345228960088
995,-9.472390433521493,0.38953294178293696,5.215622183248373,-1.873841621872904
996,-9.475121557597882,-0.25886336742165406,4.947916755941491,-2.3924420646764695
997,-9.382151999804513,-0.6851281840369327,4.725256870846352,-2.6978290310854813
998,-8.977600150649385,-0.8727515763882376,4.555245291090835,-2.8209263509531333
999,-8.37698293587794,-0.8835430746208234,4.425850767052519,-2.8297493193470826
1000,-7.7530379693924125,-0.8749550791502063,4.316087971139192,-2.8064121764440535
1001,-7.241414679963032,-0.8975854150215765,4.190761617204497,-2.826408037218198
1002,-6.840735798816719,-0.8301570909448571,3.9974242587077877,-2.813817533850867
1003,-6.340431721357893,-0.6259514206017851,3.678779942463314,-2.726086369455207
1004,-5.787003192888844,-0.3712272916510358,3.1956196729054587,-2.6017345400625707
1005,-5.176577721851704,-0.1650440875734562,2.543995771293573,-2.4891210904367607
1006,-4.623656935631251,-0.09659618161408651,1.7756861906972994,-2.4513672231429102
1007,-4.214087079446902,-0.11513743147318235,0.9811609578954903,-2.4480368371003904
1008,-3.974058412301259,-0.09959531639736688,0.2658140083695026,-2.3894186372725454
1009,-3.9051384489441836,-0.11726190273348572,-0.2643578630063701,-2.3902000831523234
1010,-3.9284247166091033,-0.33810083648081024,-0.5581082595169876,-2.7442427155048508
1011,-3.8663546417310837,-0.8144475524578088,-0.6961852251783289,-3.5423357472724053
1012,-3.931518728392099,-1.589534072516784,-0.7660922179056053,-5.115856991833263
1013,-4.255236308345837,-2.4322427054709963,-0.8404006162876139,-7.0477470063166034
1014,-4.707167861708934,-3.0677977175497393,-0.9363063712344211,-8.685107198816377
1015,-5.111562228840185,-3.4084570028534085,-1.0200761972803225,-9.651797935605176
1016,-5.272648282796986,-3.441679488024469,-1.0531324433157387,-9.891245678543259
1017,-5.340112949672173,-3.4779321471484588,-1.051813888036789,-9.874122932039038
1018,-5.309157582883547,-3.538708779633713,-1.0311193091558377,-9.85724971323585
1019,-5.179899095886922,-3.387318982829225,-1.085150033953784,-9.803244179891275
1020,-4.571735935279305,-2.6650393869635987,-1.079085682188181,-8.75649249280793
1021,-3.681740841940026,-1.5854949626389678,-0.9655223595105646,-6.999114845915154
1022,-2.842924281098335,-0.553342633020252,-0.7802156688406188,-5.178414482576841
1023,-2.3619763298418635,0.05113375600495851,-0.5937783485966168,-3.974260614614588
1024,-0.19982084045311593,0.00030256638519886384,-0.014944189100881477,-0.11309996541170814
1025,-0.7752976202611696,0.028408559236151622,-0.0032531038857653368,-0.5128856349646138
1026,-1.7045173595984249,-0.05854174686793674,-0.013169232090879463,-1.2407392657732403
1027,-2.818665909440453,-0.048173524147378396,-0.052121933085811804,-2.2399116304471653
1028,-3.9791812217473064,0.11412487935543263,-0.04294357052520886,-3.429611154577443
1029,-5.244588396280596,0.37797120488116615,0.13670752492832233,-4.816024760484926
1030,-6.744166416401999,0.6407585480587037,0.5550431234266096,-6.4591641026012505
1031,-8.587589160404058,0.7891437682099489,1.3534412239295728,-8.52389607701577
1032,-10.38369234686519,0.7921511136286178,2.3136056517316463,-10.786141425339405
1033,-11.683692606650775,0.8179232385401878,3.112231104263251,-12.724666676999494
1034,-12.313827367710713,0.773302734516279,3.575668196892268,-13.957134746735829
1035,-12.413460425964272,0.4593010649553718,3.6303527691054196,-14.433029118147623
1036,-12.28038002914886,0.010088688893991858,3.680580127265296,-14.332343705132658
1037,-12.298790132762422,-0.39964069186621287,3.789683736228598,-14.344085617851679
1038,-12.380255636078967,-0.5809808775329638,3.6231005240761633,-14.495487093408274
1039,-12.147708388608962,-0.6104686490581956,2.574772692521888,-14.253116047983156
1040,-11.48644534213518,-0.6091895451168962,0.41305114249972896,-13.22958616338961
1041,-10.293247050478788,-0.5354697493455287,-2.815688986626878,-11.324486117972336
1042,-8.52209476598639,0.005917915369220594,-6.795793110106818,-8.674663078757842
1043,-6.215955960048339,0.9641111361352189,-11.201592127630004,-5.569142432872267
1044,-3.4311211743014427,2.120802678802624,-16.189015763196238,-2.1544620331135382
1045,-0.10388949233966271,3.190746139228349,-21.658952005854626,1.9833890030036203
1046,3.6470574243753853,4.004323535127402,-27.398039438927825,6.833745349984905
1047,7.842332530133479,4.743503456061653,-33.10574369687048,12.31197555774165
1048,12.57317152508612,5.536673595437711,-38.46264984384497,18.159475237719327
1049,17.782660466877548,6.473002120885165,-43.2418165937789,24.359884923101067
1050,23.055999777458265,7.394534855404713,-47.3771819616596,30.23960439981562
1051,28.423373096920773,8.110285452645863,-50.961743092779756,34.82687830505568
1052,33.113500615069405,8.511467399002353,-54.23113608449772,37.54499151572417
1053,36.4272321636824,8.610424221379418,-57.54061774389087,38.49420468978362
1054,38.14736967328835,8.512119799474585,-61.265508496374125,38.22976926245229
1055,38.526235047992735,8.527447904810154,-65.61810672308225,38.196451896809734
1056,38.209783713399865,8.655910493667289,-70.52215163296597,38.54742723653924
1057,38.28913764531036,8.509972283561408,-75.69569908194751,38.13877016857878
1058,38.57678153877828,7.763154811260403,-80.87189753776535,36.13393724583695
1059,37.617196259104055,6.147925874335636,-85.92255907312848,32.24697624392871
1060,34.710725974531776,3.623587042751772,-90.80278546608318,26.793832607624744
1061,29.592241246443447,0.41004573807222666,-95.28745594445229,20.61199582892265
1062,22.77409439018972,-3.137902518098792,-100.23406771067441,14.547120348148162
1063,15.291399752630094,-6.762645848196485,-105.13197240864382,8.463867248552907
1064,7.8830268135882555,-10.31749225437023,-109.1033904203003,2.684520992055414
1065,0.4693444563150435,-13.399949225312623,-111.51766638540614,-2.674560330740373
1066,-6.661430403655996,-15.602550847832152,-112.03003927330789,-7.59240898916747
1067,-13.231700694609145,-16.79383818435522,-111.85545359542874,-12.062776329776447
1068,-19.142273133581604,-17.156002910140653,-112.47376453758042,-15.987423238544604
1069,-23.79890906317025,-17.020098361951607,-112.58698790054576,-19.196777791973712
1070,-26.78371195851937,-16.980456212534364,-108.32444282504896,-21.592468397149013
1071,-28.169768577404113,-17.111893668044143,-97.19025483001995,-23.244021645293724
1072,-28.447185527636336,-16.958785081930074,-78.09800388133293,-24.335417331634204
1073,-28.2144783945664,-16.309436235980645,-52.035929657073225,-25.02194549945545
1074,-28.145711679444105,-15.117232673700958,-21.320264705943288,-25.466904160626036
1075,-28.292932526161234,-13.557277339000454,12.847264439856872,-25.73504916204813
1076,-28.16536979648347,-12.0015738883198,49.8101090981623,-25.874327749829785
1077,-27.67726459375878,-10.789338336596895,87.95166441704637,-25.94348121251453
1078,-26.71145251218712,-9.833576977075024,125.778500847242,-25.965582495810228
1079,-25.293842077059747,-9.149367883345331,161.66400944555775,-25.941160231250656
1080,-23.6938666098119,-8.659026303353778,194.86265602383332,-26.01547599442094
1081,-22.262303630340725,-8.315939377382598,224.651145206661,-26.08224379698966
1082,-21.020470855856225,-8.097416303971553,247.91680469383925,-25.812096577368287
1083,-20.000733218039485,-7.943288604541405,262.5538952817195,-24.933868424775834
1084,-19.01250785063163,-7.717885130446445,268.88776947041185,-23.34510742569602
1085,-17.90728289962678,-7.261366503333721,268.9992537215009,-21.198180608803202
1086,-16.708185030437672,-6.4836081871987705,268.6646452452295,-18.817079312891398
1087,-15.48891598332708,-5.38651756216827,269.30320530525495,-16.445097416143653
1088,-14.203450780771957,-4.013610131305993,267.9293552262131,-14.074149393279864
1089,-12.72773404990929,-2.407239198290676,260.7311907007534,-11.823407512938134
1090,-11.020808940166582,-0.6017771329169648,247.28048185466375,-9.802425622910834
1091,-9.160029030377672,1.3639468744437642,228.90203447925614,-8.094730645448447
1092,-7.231226938938931,3.4339337673879213,208.45152990477482,-6.655496884902248
1093,-5.224243801407554,5.5351411746798975,188.38360722842768,-5.272566151271409
1094,-3.038391231020899,7.588805558219585,167.44999802235918,-3.6661987875286703
1095,-0.5778147126651562,9.525935289313018,147.01949688974358,-1.6545319958470817
1096,2.165675735262694,11.297183844345659,126.16883356474918,0.7602436963481902
1097,5.113830853112522,12.866834857889941,107.57159437683956,3.440995591676948
1098,8.077396316641458,14.197308487021054,94.13680710258936,6.228828115682533
1099,11.206688425576715,15.297370179667933,87.09276727969157,8.966036407736173
1100,14.069748801946748,16.106815130457086,85.6402528929323,11.796841627751501
1101,16.184882154972083,16.597346368219103,86.69817633162218,14.35965786741943
1102,17.324220032652406,16.80932439418509,86.72858433546921,16.235373156491153
1103,17.590655019895173,16.819628650301116,86.11828575506226,17.227405310449303
1104,17.337967457059705,16.81411686933434,89.56184021357338,17.364491931227825
1105,17.4359867028453,16.840385335888357,99.36621425894222,17.3844388265631
1106,17.70594858947368,16.805457330647766,117.92406682990855,17.451666318465286
1107,17.04095984820912,16.522697780710843,146.5160646535284,17.211774764415985
1108,14.906765070229904,15.927489838558643,183.2089000806955,15.913334264024645
1109,11.201157179724802,15.04498043463552,234.2078448575018,13.486151531026303
1110,6.388927039910977,13.995239186789254,289.90061076448166,10.188864391193798
1111,1.3366946777413915,12.905990348139666,335.70608316188867,6.529422782998955
1112,-3.8112121574871924,11.759732041105094,362.37144813128083,2.911500905262758
1113,-8.81376475065783,10.587023555651415,368.356492905733,-0.8340472255298943
1114,-12.726303113415655,9.43739435385493,365.66693547834404,-4.860164036753703
1115,-15.002317471556964,8.399480117511875,367.10269008922944,-8.577855198407223
1116,-15.716729427296443,7.55275504271812,367.56677721072424,-11.314615727295255
1117,-15.355810040094099,6.904789131155789,344.16488325026444,-12.761104237796452
1118,-15.364978387264195,6.377476669692719,288.5093172859476,-12.973639408097442
1119,-15.78219278402483,5.872734154539431,200.09964421143516,-12.976243850880353
1120,-15.273400885197889,5.359043563902983,88.92661931174212,-13.05911426335006
1121,-13.13090972068025,4.873168815338818,-30.405018418788664,-12.776243456832296
1122,-9.13209098876063,4.435175330204406,-152.38349977743064,-11.024718974662878
1123,-3.668229403487545,3.980190112189233,-275.0136075223399,-7.606410679296178
1124,2.416824818600706,3.374173794666456,-392.29062304435007,-2.781254197561691
1125,8.339932776460673,2.5417927362533095,-498.5071787142765,2.7140273472958314
1126,14.336016274865013,1.2781857151317624,-595.930013447936,8.125167164895572
1127,19.995363964309515,-0.14266829379209545,-675.5328002418369,13.575027662156163
1128,25.12218428091297,-1.3295700599871219,-729.2454241847552,18.831489120115275
1129,29.62327312138048,-2.030061468700748,-755.7915884565846,23.732992157539655
1130,33.88503736946463,-2.2324836261956187,-760.2547614414971,28.62420837691962
1131,37.578981482292335,-2.090714467632925,-758.0717242528417,32.97543947966969
1132,40.23362860223018,-2.0845877297983506,-757.5928451320976,36.13678357249192
1133,41.6246740296543,-2.2455871117494803,-755.9890853560651,37.807539611499905
1134,41.88965877941902,-2.0284912098080747,-739.0784031491452,38.201485483154556
1135,41.702310052918634,-1.3164745461715124,-706.3454140817373,37.83879876173602
1136,41.776545348355555,-0.32287376997543815,-661.228121360895,37.84234212467364
1137,41.84345175577931,0.5752415452680896,-611.6873466980335,38.18210375964824
1138,40.81863955761749,1.049908634536895,-565.2303994036963,37.7213283882684
1139,38.321494297550224,0.9546736416989327,-520.2859966511537,35.99204149214502
1140,34.25963957620144,1.0048767616568597,-477.7522462733941,32.72275849987402
1141,28.90855768078545,1.1542862174576407,-437.9740790958382,28.05641338443597
1142,22.99811662514344,1.0478342263499054,-400.65557079024296,22.720992429270183
1143,15.488621074432672,-0.27734807356583135,-365.33780967808207,16.118348823759575
1144,7.433251841991535,-2.564170955348537,-331.5165918669133,8.984900820203446
1145,0.7947538005528044,-4.974430777060844,-298.66990626383546,3.097960074119769
1146,-3.1274724327535477,-6.606442041944447,-266.2714722498647,-0.39492116280849077
1147,-4.268943000685991,-7.033929345956956,-235.3531192879991,-1.4216073600564167
1148,-3.736163838698603,-6.844919325308737,-199.27028725304658,-0.9496264551738685
1149,-3.1351818032617214,-6.597233072156099,-162.23454926175626,-0.4106025461583943
1150,-3.4367547253023325,-6.713700745270825,-131.7460723563352,-0.6798778166431236
1151,-3.4367547253023325,-6.713700745270825,-113.31440632150937,-0.6798778166431236
1152,0.025626557973081728,-0.021892550871948843,1.3017576788710552,-0.004610385065416641
1153,-0.03116267306653331,-0.15063114862278257,5.281342305309475,0.006724352764591647
1154,-0.08572393823476304,-0.4232465006813363,13.232266162497158,-0.008065291807502928
1155,0.06135247703730751,-0.7579263073699539,24.80815510727801,-0.03631902502670202
1156,0.5887274545377466,-1.0357716856639132,40.78425014785191,-0.014965991272425483
1157,1.5229797434315249,-1.182143983227772,57.54370746610798,0.14062768094631128
1158,2.711468749555033,-1.1853993945120673,70.84936655790312,0.499102289716554
1159,4.049855529578462,-1.1831140368962543,78.34232126452744,1.0814574026871717
1160,5.228963532757109,-1.2010977179973215,80.26488745965642,1.814353246128734
1161,6.111960210745534,-1.1503383836139849,78.63607058862712,2.701070340238618
1162,6.59821982940812,-0.9729382216828606,78.82472316193385,3.5888007046590777
1163,6.684513859262595,-0.5818283646439085,80.49698046045499,4.2766554547882905
1164,6.663815517077184,-0.08146621185075405,77.67716623966527,4.657038866072046
1165,6.6988287950738545,0.34920400665793655,67.67632211020528,4.719994652680093
1166,6.667671363940636,0.5817701480840821,49.52120271712021,4.693655580074627
1167,6.099529627740887,0.635509651869731,25.185818442185514,4.768595176280731
1168,4.7560545561384275,0.6497119391163034,-1.276629249316878,4.75656870971917
1169,2.5940406887582315,0.6753133511353243,-26.43866437627777,4.186703455347885
1170,-0.14533969171738548,0.6126208865833445,-51.04784888413724,2.8499819840278624
1171,-3.0311182508271557,0.22024855346621802,-73.38081773286213,0.7683344952154773
1172,-6.199949842798301,-0.5236700543851041,-94.15260147249923,-1.7142316505739355
1173,-9.138712069161208,-1.5780975003711553,-111.42756982626157,-4.3590835084465365
1174,-11.336650363892304,-2.613200371072116,-123.30923465080888,-6.74051477052709
1175,-12.535906076661629,-3.310825734097552,-129.3143095617845,-8.503521396723785
1176,-12.814995360607494,-3.6649775959361492,-130.40867362021066,-9.44223976132437
1177,-12.643479990961662,-3.712959878508355,-129.82594878248628,-9.678030841168669
1178,-12.590000325875911,-3.699475502485725,-129.78169860781944,-9.490659075217337
1179,-12.68021088236374,-3.708125225094551,-129.62043075701487,-9.486435567055539
1180,-12.23960781483581,-3.6528195589958936,-125.82433916344793,-9.661614818318577
1181,-11.129110150257828,-3.311811468148186,-117.95898300913255,-9.450647105482165
1182,-9.381990603130513,-2.6549972165165387,-106.55324256890673,-8.653900583324287
1183,-7.280713588053734,-1.7339720559217846,-93.30241368063247,-7.215654013242652
1184,-5.159857917735351,-0.696307984853211,-79.9798687292083,-5.289407390918974
1185,-3.0990418875983425,0.30445085596161864,-66.45717705784277,-3.168229184209368
1186,-1.0406294032490724,1.2862029132076453,-52.792590391511595,-1.1504843542626362
1187,0.9726289283489991,2.1834861865494575,-39.43553843861764,1.0128344885872251
1188,2.6481243087619912,2.974306189428905,-26.764932048900768,2.941974256713106
1189,3.7348131431230875,3.6408341374989006,-15.12211140212226,4.30641435739613
1190,4.2099273993769675,4.209832346141545,-4.746669537753207,4.994536532956052
1191,4.234664302870396,4.648463500066684,4.264417539736239,5.100986282012217
1192,4.220010462709592,4.931659790931026,11.947590007365683,5.062504690027636
1193,4.2390336443739045,5.06854446694195,18.416929281075323,5.076330068094443
1194,4.137227073199849,5.0872723915576605,23.8088069865236,4.995721526037386
1195,3.703997357850868,5.0883120291782395,28.24377243713337,4.402593546920504
1196,2.861274451439349,5.093137824568388,31.806155236283963,3.2999977767146493
1197,1.700075072177367,5.061798640887954,34.567857535618614,1.8633148588407058
1198,0.5942367186941091,4.90795578942329,36.64296112163349,0.2913037711666169
1199,-0.12511863352923452,4.64720987867902,38.218867327508235,-1.0552426533260115
1200,-0.495120835724581,4.341927991862374,39.53557340583693,-2.0781957748539552
1201,-0.4968105038676458,4.0845151004157545,40.815568771700576,-2.6723090535156646
1202,-0.4893747652931755,3.9371203251816542,42.199472900555975,-2.8616814009821385
1203,-0.5588834363814557,3.8438232587691332,43.75308280138432,-2.7954945105344065
1204,-0.4334229331241135,3.758697081129439,45.509364067835136,-2.7636804860513715
1205,0.1576501651750567,3.6163858987569517,47.475534928518414,-2.8199614122914802
1206,1.2425832210881822,3.370463158958811,49.56982371785007,-2.747869451764418
1207,2.6329482340493717,3.0095893866579666,51.865376543642114,-2.4962485161984134
1208,3.9605210228970487,2.5497032378461255,54.05677733270379,-2.114325313373051
1209,4.858349058916978,2.013049409916834,55.73918750180765,-1.7275652340301861
1210,5.380725510783284,1.4184054804388728,56.70279656192146,-1.4319965633221345
1211,5.556543123607722,0.7875322687423718,57.01211721008444,-1.2824694600409479
1212,5.529943447423489,0.1473906397442109,56.86105398198559,-1.1855730872865602
1213,5.537397337528989,-0.48148518561567594,56.886104249013016,-1.1344959440283804
1214,5.562445204261335,-1.096982299194111,57.067385419567145,-1.1004202896423043
1215,5.485917053458594,-1.7056122075538616,56.808658271273735,-1.075325952102858
1216,5.21836601911761,-2.3655850784123325,55.79734650995698,-1.0408057612850972
1217,4.782799712100765,-3.0373903342260906,53.966894267561045,-0.961051216909617
1218,4.119953467863548,-3.599920480358887,51.52213787532985,-0.9501896823908502
1219,3.4118197033748094,-3.9581680389813396,48.80372238196457,-0.9912279935182664
1220,2.867960655793242,-4.098779228762042,45.98432258452155,-0.9423383769945328
1221,2.5118211211438517,-4.073113705931536,42.652342955378856,-0.610409407211897
1222,2.4059345205364404,-4.065805752847148,38.75716242400404,0.1396488774473218
1223,2.4663830304201895,-4.108272996096051,34.25836320036174,1.3496653934757443
1224,2.4801089228952593,-4.058358550638534,29.1888279655637,2.9285003572035837
1225,2.423276987908164,-3.7998140002770007,23.65677800928388,4.733382795144175
1226,2.5261672702306104,-3.284489920500122,17.869670033307035,6.736907844116313
1227,2.92641802989772,-2.543485688616546,12.155956262176193,8.873336405859954
1228,3.526205821055444,-1.7095694048756787,6.901680424058133,11.175039549513542
1229,4.104042547409832,-0.8401324114520593,2.397280686619746,13.26748901337924
1230,4.453493800631883,-0.028484598579018555,-1.2860964184210786,14.770478777257795
1231,4.479760243475189,0.5624682890723905,-4.305920408694653,15.531760620521139
1232,4.50019953038363,0.8729312404125383,-6.904901231983207,15.605339318141011
1233,4.554459063168764,0.9369590797983735,-9.43948001312636,15.614993973261848
1234,4.437159361864333,0.8900340800338712,-11.743103158301421,15.687459767882038
1235,3.8476053697510046,0.9018602120637639,-13.480766160067448,15.489373970902415
1236,2.784609390732857,0.929716785517639,-14.439684331059505,14.445923707174513
1237,1.4009645537954603,0.7334583262845397,-14.815374048134577,12.46695028472032
1238,-0.0866637233322467,0.22753688036421793,-14.945782819305784,9.732284787403545
1239,-1.5309009842501982,-0.5865650911999173,-15.118934871467676,6.6976015983653525
1240,-3.050154788373651,-1.5876962255603733,-15.34020515586107,3.831661429544323
1241,-4.5567600465667475,-2.6130807392395745,-15.406184615635794,1.0796811717216426
1242,-5.889336424639052,-3.5791937812243724,-15.57900802536184,-1.3923013894488812
1243,-7.241515277905675,-4.695080515764601,-16.147150428228162,-3.601909961812476
1244,-8.527938337540109,-5.813140202831838,-17.296715948040905,-5.612014250180898
1245,-9.57550408661165,-6.715664920748524,-18.89692881720388,-7.602503578792316
1246,-10.22625269069219,-7.245452906165411,-20.973965802336203,-9.361217105115276
1247,-10.40970946501645,-7.361558632716534,-23.327227093505325,-10.615082007971635
1248,-10.33344347820972,-7.336274599082075,-25.49027345915965,-11.251730514168532
1249,-10.360141274755522,-7.353666323269714,-27.014077682920455,-11.367692250616715
1250,-10.424971873316455,-7.307486518065605,-27.701543374428464,-11.278124059054578
1251,-9.90229141534391,-6.792704629263507,-27.65569847274085,-11.284104726776764
1252,-8.510996867749906,-5.734198021755868,-27.666935854945184,-11.305623991524328
1253,-6.23241599035644,-4.2212528209504185,-27.804224490637093,-10.965236093092523
1254,-3.4101596534575984,-2.5120461822403293,-27.481328139184416,-10.20367136836087
1255,-0.5592611014937606,-0.8629855076581057,-26.310801206957485,-9.04442274545069
1256,2.2157425514745235,0.7584677186856367,-24.447765044483056,-7.619201277573077
1257,4.89900913427038,2.3752176270078746,-22.364535999380017,-6.104166016878811
1258,7.11735787703315,3.9571451045763917,-20.62620688766261,-4.593426254536229
1259,8.574313999462454,5.5381262575049846,-19.493064926855865,-3.034094726344036
1260,9.202359714584329,7.0369038622088365,-18.450809466446515,-1.6993652465570588
1261,9.180609025039036,8.236021547016648,-17.41832065326114,-0.7938108070905181
1262,9.117370894819896,8.988052975820967,-16.33581836679281,-0.35303042558641484
1263,9.212264345234269,9.296961170727025,-15.193581212498925,-0.261976954199142
1264,9.086084035108096,9.264902862361993,-13.967987564756857,-0.347024730931359
1265,8.36342845719838,9.265563817489344,-12.626118600071136,-0.365872156473219
1266,7.011012879538379,9.338009396291564,-11.196943494309696,-0.3097255463497516
1267,5.230869211204299,9.21147770909982,-9.799612980288373,-0.38509336588745524
1268,3.353860670300586,8.659437763297525,-8.555227858797986,-0.6021648509041241
1269,1.581622581436863,7.652358163235174,-7.469484276495573,-0.951777369364226
1270,-0.2588819651167812,6.313865220515908,-6.422238638589345,-1.3544498220763295
1271,-2.370974786523866,4.818345937638292,-5.280227498018868,-1.853403334667174
1272,-4.441036186077189,3.2461890438948267,-4.037017704450424,-2.355132151144432
1273,-6.023774214490624,1.7210206471200133,-2.662889771283759,-2.816325398379606
1274,-6.873279719373138,0.5824050870907151,-1.4071997347433416,-3.1108844143980954
1275,-7.073478354842464,-0.011330439652498442,-0.4979149450958012,-3.208899588579196
1276,-6.944647955967912,-0.12892848473962726,-0.017157715271559182,-3.1733498732618455
1277,-6.832742188511058,-0.020669606808002533,0.10143272030803753,-3.1231720614233454
1278,-6.8954890534856395,0.04035423896882648,0.028937999533118264,-3.146550618420654
1279,-6.8954890534856395,0.0,-0.036591218165769886,-3.146550618420654
1280,-0.20513139613304265,-0.07666167245064665,-0.1191141761294292,-0.14587907439504721
1281,-0.593450115097177,-0.2908700226658197,-0.5647303267780931,-0.5128439023506701
1282,-1.1710858707199896,-0.6995643199901703,-1.4310151460379523,-1.187427733721651
1283,-1.8899658552665524,-1.312280224206718,-2.7929138067945773,-2.1711722734170014
1284,-2.7426942215100873,-2.0769909450338204,-4.267117517473867,-3.4536871009300247
1285,-4.037497219417603,-3.1059786668246256,-5.426722003534192,-5.10231539342025
1286,-5.645326025414429,-4.204085530172434,-6.048052417452124,-6.7767242721826495
1287,-7.145019986695936,-5.106265058581003,-6.189782724968253,-8.07757146764107
1288,-8.132801754631775,-5.63383825813403,-6.060057788390239,-8.77429727241211
1289,-8.482121523495731,-5.7632547915465535,-6.038210717192352,-8.855204504788329
1290,-8.324459258914636,-5.690221408514341,-6.152876363968876,-8.845796766638633
1291,-8.345483209791583,-5.694770566271495,-6.059319741627881,-8.900860325495676
1292,-8.548092839032687,-5.736844431287952,-5.611179220766423,-8.739510913323013
1293,-8.279983032180473,-5.428702851108829,-4.698883249209707,-7.881686307014061
1294,-7.177810523311364,-4.63845850962175,-3.366856573968649,-6.314866286759149
1295,-5.1547131484265005,-3.3451392997928218,-1.8321309277157845,-4.282771498244175
1296,-2.4384837129063963,-1.6946098952028303,-0.34670483410370767,-2.2017539882903865
1297,0.5370349494973548,0.0708935131380306,1.1044057267363065,-0.3802488786589241
1298,3.4213855912669393,1.8020856353144203,2.4862691521103994,1.3820653288182383
1299,6.428733926871833,3.493743009726793,4.117591946717517,3.085879221127065
1300,9.368348934304478,4.883775694041986,5.824225188546122,4.748870919158067
1301,12.324646217975776,5.791875955919866,7.242032875357109,6.353039248847282
1302,14.915915846925557,6.204924555209025,8.081972148412028,7.927424784624224
1303,16.7599478696162,6.251639073738618,8.280028425912386,9.480460291932882
1304,17.714529945105852,6.206554426293291,8.240482932567868,10.805909952677583
1305,17.869544564881632,6.195513151252548,8.185542197901727,11.705908913350521
1306,17.83186854929461,6.16959383404349,8.08445857664251,12.123005171637512
1307,17.844002150667908,5.964476956882132,7.583707900872552,12.14616473280044
1308,17.735234363972566,5.606131604065552,6.827811110483819,12.114862322901256
1309,16.864717073115948,5.164551556430154,6.029683893692819,12.141691786357569
1310,15.068320680557546,4.746584197527634,5.415799398777661,12.064757543092044
1311,12.384466600337245,4.4214844435003595,5.100234369765565,11.674072423242087
1312,9.151524895327476,4.128225697901242,4.772383398492102,11.000122764198279
1313,5.793075982653149,3.8678494066492166,4.434455619633825,10.181878798269382
1314,2.308806203027258,3.635722196784844,4.140642608309211,9.396747943826266
1315,-1.1701405177708732,3.43275802147297,4.000626642219493,8.710224120789611
1316,-4.558158529116647,3.246879837684979,3.911125851805088,7.918746503419582
1317,-8.045610856288352,3.042552651309785,3.8555149280135064,6.935524727868322
1318,-11.201286467868037,2.777192393950759,3.7177230532582137,5.706874123874364
1319,-13.499627099455966,2.4371009504233134,3.437836059290408,4.224157483556863
1320,-14.708280878853262,2.057610130304303,3.342633152475254,2.5236200039257204
1321,-15.005842100061546,1.7043008198729297,3.332187367370505,0.5956375091959935
1322,-14.759717319777899,1.4334024356184176,3.089037482937847,-1.352592498584523
1323,-14.76859202442448,1.2633777758562423,2.275473706841718,-2.9413682033923574
1324,-14.99509441405079,1.1714947775367335,0.9035371020452161,-3.91334416417193
1325,-14.702599393381856,1.1129773303117763,-0.8691356919813416,-4.2740239331818906
1326,-13.632100161352398,1.0482316424156732,-2.5920639185678596,-4.226538005992356
1327,-11.687105419289182,0.9572095168288176,-3.9671215432018383,-4.209149159041729
1328,-9.061582298660117,0.8391256680282319,-5.110819966822814,-4.232058330259801
1329,-6.215983234646123,0.7090504483495053,-6.0209018443434275,-4.082535001338562
1330,-3.6413543878379855,0.5892816310793337,-6.989605601247634,-3.7535433259094635
1331,-1.2959485717433128,0.49057218391322993,-7.984021420066888,-3.387762354468074
1332,0.6190126601823807,0.395535436438484,-8.832057019580304,-3.127440242574934
1333,1.9657790019741714,0.2639427966279125,-9.368210019278981,-3.1001039753970026
1334,2.7723726434253297,0.05921383572477183,-9.50395542605741,-3.109359725703838
1335,3.162294681431713,-0.22591195774230688,-9.476106068394802,-3.03212144936398
1336,3.2851370896880394,-0.5620436584521604,-9.513080310461193,-3.1575533936075937
1337,3.2877841274371775,-0.8987900565294237,-9.49673298043719,-3.7456237591609507
1338,3.313122097264773,-1.1953488742242635,-8.90477016643829,-4.637819412895081
1339,3.3881703876897844,-1.4449723780495733,-7.53191814619134,-5.500862330881408
1340,3.410768710360939,-1.6757836005229412,-5.348147724210108,-6.016467324718801
1341,3.426806409352005,-1.930211244445485,-2.553006378120921,-6.065168322515962
1342,3.4330095362916393,-2.2382014847706206,0.05057313133084296,-6.015246592436577
1343,3.4308720678546565,-2.6014829323082225,1.916791099994474,-6.020257942540808
1344,3.430872067854656,-3.0001507967904963,2.84988593108241,-6.00221098156169
1345,3.4280229849765185,-3.410994130682518,2.9896100479412757,-5.701957067376898
1346,3.4290989564325236,-3.818351474235108,2.8613736108357557,-5.230111467506867
1347,3.423982522883849,-4.205525315230311,2.797725911581933,-4.751875169715956
1348,3.3843601184999494,-4.603975610934525,2.7727736199097914,-4.459115197371397
1349,3.296399556572335,-4.969254166778097,2.5302308877245214,-4.391529709867837
1350,3.0771375767794207,-5.2429300612337615,2.1776460927295656,-4.386624149340954
1351,2.711220954663884,-5.395294689120011,1.7946326196814957,-4.299214006190028
1352,2.3009625942497465,-5.438512963083036,1.4457557378786372,-4.136244449705206
1353,1.9856441437987475,-5.406235704263648,1.027060303842531,-4.081476584644359
1354,1.8220519888002358,-5.404421796453723,0.4897810235443036,-4.058876440928409
1355,1.8146817353356346,-5.442532759981011,-0.0009476776744116594,-3.9306799601813087
1356,1.8428013000202965,-5.413044636681607,-0.3107583603669651,-3.5380038405149947
1357,1.8137378178775487,-5.241864685546016,-0.39972441628878824,-2.8324465070692515
1358,1.8274400886544377,-4.848961329884625,-0.31399823710102304,-1.831504285513516
1359,2.0066436740888585,-4.175892561359989,-0.34616198810817256,-0.6271434242188985
1360,2.3744592241803515,-3.212368741448723,-0.4676526195416839,0.6715644944434715
1361,2.8320999440210097,-1.9994319139514765,-0.31508152730044103,2.0378937389585405
1362,3.351362289826407,-0.5649710113859502,0.33911044073153873,3.29703901190953
1363,3.8035550766970063,0.943558270787198,1.8978212383161042,4.445466073426333
1364,4.137241252670835,2.5038629475004943,4.172860052148582,5.379868991388374
1365,4.337795974755242,3.8758819668424453,6.410220230055806,6.025675212164725
1366,4.394948643533829,4.845971897997013,7.904734597321919,6.368262493575184
1367,4.390325020051326,5.341486585929645,8.55880978348967,6.443232302294291
1368,4.401128921495312,5.439292059273723,8.477568420281116,6.4099565042643425
1369,4.411270487167623,5.350409427332356,8.447178059387895,6.3989621063626005
1370,4.165375333068356,5.370171046010174,8.599853125112324,6.400921595817912
1371,3.4714029058694416,5.439675551948163,8.333888401643385,6.205976426689829
1372,2.2281551984980523,5.171636985506872,7.2776432690965205,5.753319217244832
1373,0.5497018969079794,4.396194046659774,5.45609338172098,5.020354375794929
1374,-1.26335456211687,3.0687995243482225,3.231921729780949,4.077785420439369
1375,-3.1428601141044044,1.376559804690859,0.957241903483504,3.0561378302835758
1376,-5.0144533597977405,-0.5103711373188251,-0.8147427378932404,2.0347384868304355
1377,-6.620112512921877,-2.334849514219117,-2.118585280883112,0.9649291802515018
1378,-7.738344774194782,-3.854158772582711,-2.795240574696787,-0.011287552290564912
1379,-8.277203621903753,-4.817305116661158,-2.9460925137869003,-0.7459768659719437
1380,-8.28171977395972,-5.2058973615898925,-2.861705678755318,-1.1378073239864979
1381,-8.265871937780782,-5.148070316231751,-2.790917524515297,-1.240636325250005
1382,-8.363755552649026,-5.142991960429224,-2.792620048295639,-1.1933443720683405
1383,-8.202320006971332,-5.249399097859409,-2.675936818509055,-1.208116408065087
1384,-7.375729508461519,-5.082866928847019,-2.5344412232948312,-1.356145866882315
1385,-5.846248861043708,-4.35564811775884,-2.4231593274585,-1.476216388386513
1386,-3.9015450116052044,-3.0211652402827944,-2.40514972638626,-1.56353188406069
1387,-2.0167112530130207,-1.2398824128621322,-2.399025083925639,-1.5643152206931645
1388,-0.527566240555715,0.6281796090562209,-2.338623656697328,-1.548184910960531
1389,0.6029013701531692,2.411337557724012,-2.3821477981425465,-1.5672361671462114
1390,1.295793517620183,4.029419344037843,-2.748775014478838,-1.6568554270939015
1391,1.6163884669073565,5.179992998610806,-3.4981727421520765,-1.874501869769368
1392,1.6629817973291914,5.769736527724031,-4.580346335411019,-2.1764170933153433
1393,1.6234363852873586,5.888300471839018,-5.650052585561693,-2.45558880271466
1394,1.6338856554125598,5.808573313103933,-6.3675299377069186,-2.624855365626105
1395,1.5875914277371979,5.789919923154516,-6.699228707485841,-2.6813372974704843
1396,1.3968930594942517,5.8098658963452365,-6.748929461500567,-2.6574311439213525
1397,1.1527032846749758,5.5655304549011,-6.7148305487587985,-2.694114608899946
1398,0.9358982173210972,5.049199359159248,-6.687150757152552,-2.782232211845042
1399,0.8845497536963076,4.332865029878195,-6.657545690364915,-2.4230483056198966
1400,0.9188797145116088,3.5798692647956964,-6.543104944959857,-1.6486614483156847
1401,0.9047836926113073,2.944510381104456,-6.405745945043255,-0.7375781770157548
1402,0.7266277264391994,2.4380369073854746,-6.236161227118624,-0.03860604171553941
1403,0.48872862929006616,1.8733836404243402,-5.998917480730304,0.22013936532062364
1404,0.263758234123577,1.228904927860626,-5.225803081021872,0.12222738020266656
1405,0.1330225861872788,0.6145425966812007,-3.9809129015283338,0.009422138811928098
1406,0.11632400164545016,0.16695334614165155,-2.705988389849963,0.06101585192954917
1407,0.11710638522976481,-0.041495490497198015,-1.8325479623372702,0.06101585192954917
1408,-0.06570464473113526,-0.07396096491120566,-0.1802571227187591,-0.06123325045905327
1409,-0.15195135491101672,-0.3116525095225236,-0.6843206773865304,-0.1783468032642678
1410,-0.27425369113958653,-0.7725566176275634,-1.71849168095103,-0.3734230183863425
1411,-0.46911758444014373,-1.4338068938925412,-3.275344311966759,-0.6712638463108428
1412,-0.8231401562026583,-2.177326533662389,-4.890591545679646,-1.1113386902736637
1413,-1.424858266228521,-3.0270616194303845,-6.1075385570837,-1.7283728013412283
1414,-2.2385575614418385,-3.839394144671926,-6.710271672525095,-2.477722189081895
1415,-3.2425561986859033,-4.46571803487818,-6.72940404568537,-3.413552484866101
1416,-4.281879529305092,-4.824688219315481,-6.73690127668188,-4.409611723932501
1417,-5.13627975900414,-4.924599827623311,-6.808766211691181,-5.254654228449472
1418,-5.678665135720966,-4.849388206535741,-6.579299204775715,-5.801815706461814
1419,-5.905237083509702,-4.867782376243321,-5.713636413342522,-6.021306266768609
1420,-5.875855934919711,-4.947497933364091,-4.308109235255955,-5.956805528125728
1421,-5.867468923302078,-4.767814171344881,-2.665379110768793,-5.975660930955481
1422,-5.932085211050652,-4.207150678236535,-1.1587120522077432,-6.081261192039381
1423,-5.849081504708331,-3.2704193428360986,0.04361153839686249,-5.918457004157911
1424,-5.422292140450981,-2.1306468079710874,1.309772450052836,-5.272611926724494
1425,-4.560709121296122,-1.0423210000015475,2.735887192981038,-4.117369296132849
1426,-3.331691512735193,-0.1614688090326274,4.386447539389663,-2.641006168709761
1427,-1.9814770293215795,0.6267619642842581,5.955144567334424,-1.1881269592346664
1428,-0.769420470799059,1.3299300328700665,7.10321697044246,-0.04072140753560294
1429,0.34036680213329124,1.991624802147856,7.673652481764229,0.936488478458924
1430,1.3813907823661986,2.6430583787679836,7.708025149703779,1.7686908952176787
1431,2.459683485232975,3.2912595706557446,7.701859477068317,2.566666076449585
1432,3.566482867182271,3.928200724628709,7.750917038209627,3.397867169629672
1433,4.5720750545844835,4.512284778751267,7.643570398236632,4.247975951812379
1434,5.413631502516823,4.962081128014827,6.821632806100317,5.069751745381738
1435,6.023443798816221,5.231532800660217,5.482760166926298,5.846195574863908
1436,6.40783977445419,5.3359630904761595,4.117077307735625,6.609116790642359
1437,6.616070621586108,5.333237579835101,3.230557216430102,7.2803640032127745
1438,6.702111581978631,5.327077055097414,3.0318102468564985,7.753956871791638
1439,6.671753240068403,5.320737538016184,3.1704156678441504,7.984082644036393
1440,6.675187589659935,5.295665965330228,3.1762500055998424,8.02587651701052
1441,6.767189740013099,5.243729462584094,3.022015367196033,8.003446859376403
1442,6.891771662011719,5.19179295983796,3.3029837466125214,8.026662318248912
1443,6.942077582296812,5.169571415101117,3.9901769713735105,8.123982862077712
1444,6.9075398164563575,5.139287910852193,4.84018577297839,8.201178183364224
1445,7.061614485634263,5.159455307183309,5.524265563924652,8.232399489847777
1446,7.444500653207556,5.206030445055613,5.799006676477076,8.200665193692066
1447,7.98240491368023,5.291687307527769,5.656133417770414,8.127534968886184
1448,8.419836124340465,5.377344169999927,5.61927703784337,8.026973952387868
1449,8.598193705982723,5.419800958162596,5.695748254718169,8.03686755975182
1450,8.521153687322593,5.427458356919825,5.659436552415936,8.097077320134355
1451,8.521408555827271,5.43941197664186,5.371781683448854,8.026433653096742
1452,8.586097034371605,5.446858659743309,4.654232985126562,7.653960872612379
1453,8.344344501404215,5.279635408614877,3.3899293512243633,6.866613256185953
1454,7.6584214076701915,4.853137854882713,1.6610377082855172,5.691596099775371
1455,6.533846094764729,4.164774118518091,-0.43419234502703363,4.29064075370453
1456,5.130490314252124,3.3142645377044757,-2.521987232594804,2.8707240161189347
1457,3.6156410977040654,2.4436929785117414,-4.107065235953747,1.4553880664290797
1458,1.9938417409308182,1.623005063750151,-4.970137782266357,0.12660442428607038
1459,0.1353043205043295,0.821776565963592,-5.211403186485957,-1.0731605412863865
1460,-1.8430601075732989,0.13281957882576875,-5.1169702327464615,-2.0646489002475525
1461,-3.6975926493053985,-0.3589313028337536,-5.0481099216224585,-2.754082076118273
1462,-5.205378285084345,-0.6330836901548844,-5.090415270945354,-3.1074412076698357
1463,-6.347134623904052,-0.754800727008365,-5.037352586583096,-3.1966717189252067
1464,-7.1550612565406135,-0.7631301674512518,-4.91839900147449,-3.1857105160468957
1465,-7.6845632759094435,-0.7427094653018053,-4.796966617955699,-3.2330195650881293
1466,-7.9922983639415985,-0.806835000831943,-4.718112946094736,-3.4321907388486315
1467,-8.083011616636824,-1.0364593732301648,-4.673728862552431,-3.8217071975514445
1468,-8.07850094808074,-1.5679527051141022,-4.59386499063955,-4.423654816839377
1469,-8.182579597777865,-2.4344507314488895,-4.3590816253489075,-5.230899581347055
1470,-8.420808511325479,-3.5543069938352523,-4.006138010149005,-6.165983068284399
1471,-8.66805759735983,-4.789440241819891,-3.572703691017737,-7.236955796784578
1472,-8.852373762665785,-6.121731529708717,-3.0714558327848445,-8.23717706020624
1473,-8.91412493566666,-7.5476774589321005,-2.478027477916137,-8.970101146251197
1474,-8.859594058246287,-8.831782356401465,-1.789845213751693,-9.357501684120987
1475,-8.906463726996712,-9.743876074266712,-0.975081067919526,-9.437241056749027
1476,-8.953144463633508,-10.193557900480288,-0.17263645148834264,-9.387296547278542
1477,-8.75572027304256,-10.226273384334517,0.44483351414788497,-9.399304064348454
1478,-8.22085010832575,-10.22032106092833,0.7898441608153648,-9.414077236720015
1479,-7.384335379747537,-10.262326586384388,0.8902570005534396,-9.15340900114134
1480,-6.361628381262919,-10.14827451399293,0.8197866837902859,-8.54459599601987
1481,-5.261726212954239,-9.577577466169416,0.8324137844003036,-7.5871204273111035
1482,-4.12132726881582,-8.52356590929132,0.9380526008353021,-6.390072896882928
1483,-2.888189683972561,-7.105270466092842,0.9049516368593102,-5.138118265014899
1484,-1.729443890383735,-5.560297129332942,0.27167080652119413,-3.8728992261034394
1485,-0.7611556660251786,-4.087267291817208,-0.855562301048828,-2.5594996661362948
1486,0.03798665919669614,-2.6050932378259204,-2.064352998302162,-1.424309804056999
1487,0.7665030246619576,-1.1200566679380406,-2.9003626944245116,-0.6426410503635258
1488,1.4334586637140394,0.2511293635664445,-3.0932320597625105,-0.26233461458517504
1489,1.9517194523903907,1.3086253535504238,-3.0754440974347315,-0.2412084607682859
1490,2.243054045410076,1.9339828443252356,-3.018732948516183,-0.24048374392288135
1491,2.3297972172649706,2.1570999662235844,-2.9144904755257457,-0.18330720739377793
1492,2.320339704675167,2.1351373095268524,-2.3480935524681548,-0.24574042284003178
1493,2.32400410052903,2.0670496182919065,-1.5352426268431763,-0.9355153469306632
