,TP9,AF7,AF8,TP10
0,-0.0342939992618363,-0.14824426700704602,-0.11232122303357084,0.02107323189362298
1,0.0034008808762226728,-0.5969825683753266,-0.4871209897583857,-0.0019510479712693818
2,0.12159792119594218,-1.5026965655832139,-1.276120073766742,-0.24165733639660048
3,0.05310804657044271,-2.904422176849489,-2.535772922879855,-0.905570297439065
4,-0.5118576812539032,-4.659376072245877,-4.147123651072475,-2.0839936108707775
5,-1.6745370465344656,-6.861693748917165,-6.213712952614153,-3.6257339994630833
6,-3.2100834697271043,-9.06907057777508,-8.310704062849474,-5.429064333705867
7,-5.099220915509772,-10.785978837410754,-9.954867105427216,-7.08284778816922
8,-6.8672653170557405,-11.740983844522459,-10.876816372635982,-8.261607397057093
9,-8.227231234362952,-11.932342013048052,-11.119998314128864,-8.87228880432325
10,-9.054205526977547,-11.862072126185781,-10.910978220371796,-8.973983000514494
11,-9.307211229538892,-11.890516487612823,-10.914606663950234,-8.968577248426396
12,-9.1829656627027,-11.84370313669958,-11.131822858515372,-8.96833016692543
13,-9.15529933738845,-11.012693776345793,-10.88778044669502,-8.866395446238263
14,-9.282918538786209,-9.218946717540925,-9.89744135140793,-8.272254840703573
15,-8.934897835438065,-6.529368385557989,-8.047444530822807,-7.117946087341603
16,-7.854625783538353,-3.313797037862866,-5.535536064934225,-5.462908343369243
17,-6.01840099641991,-0.03387101208409593,-2.7798205367287543,-3.561693736996383
18,-3.7992770891077066,3.2042857650606273,-0.151756080719452,-1.707290308931966
19,-1.7485360222924289,6.2352420637915476,2.483089711621944,0.1298478023638503
20,-0.1375593081892552,8.997216597350358,4.9731122206949205,1.8776903271122678
21,1.2522759529538232,11.237516835489,7.237255211562802,3.6057055445457085
22,2.601056121119629,12.7445952100956,9.215139147711335,5.320771072823905
23,3.9644136895675723,13.499941498405837,10.876267663897982,6.924448198942761
24,5.228912260003799,13.685617843195772,12.214453501790608,8.176293060536247
25,6.352120672102954,13.582576003031404,13.303936554968246,8.929080311538115
26,7.470571400854756,13.530423915256613,14.118615927801475,9.233551713365683
27,8.9266541280011,13.594825567215233,14.63573159367817,9.27311481999825
28,10.536956202723193,13.539170387114025,14.879765108082818,9.226569919396548
29,11.882829659826939,13.341738291669554,14.898661878066797,9.209219391100394
30,12.641549221578998,13.011433068770474,14.905781662779129,9.223728855222328
31,12.813247124992987,12.599798173260647,14.94054024690933,9.222785336583128
32,12.633951170186513,12.172075273316128,14.880904303184117,9.20395601982069
33,12.663538131187495,11.750803909796701,14.490391604881564,9.091252008564753
34,12.814281321787805,11.235788585182673,13.68673600169188,8.789722320334064
35,12.563615002998551,10.603904718992329,12.494770077725349,8.284011082903618
36,11.77273204196627,9.823492047421949,11.057888513981652,7.679464790261874
37,10.450815003937006,8.881242159909068,9.542101889041582,7.079669604012712
38,8.746905270086582,7.787200904010207,7.940713365025161,6.588709579499493
39,6.885701643425778,6.572395790136112,6.3376874896074815,6.242333294111805
40,5.0798199154248795,5.276978187116429,4.795112313498035,6.0042826551626804
41,3.29988814020939,3.9354311687294037,3.368758415491447,5.845757588134846
42,1.837980627295478,2.572410774519002,2.104572919573827,5.753235493195568
43,0.8104187763811457,1.2100511641252465,1.0320963831403327,5.711984129630974
44,0.18989761426499516,-0.1264041427536623,0.1614393005108914,5.665574416121443
45,-0.15262725893818613,-1.4094346936293074,-0.5163654338790786,5.569608030856463
46,-0.3280431867035249,-2.610747777015009,-1.0313336595761213,5.414045345377286
47,-0.38323096836692505,-3.7042227733827615,-1.4300936022971502,5.1873572067012015
48,-0.3619797427590482,-4.671249810134895,-1.761721005392632,4.873855016087233
49,-0.345310320718382,-5.501873996215013,-2.068549346852579,4.414874427069089
50,-0.35288132482809115,-6.191057462051996,-2.3853739668984106,3.7630982079682713
51,-0.3545384598503196,-6.734721537457169,-2.7361806288913133,2.9296161214593144
52,-0.3762039804068932,-7.155820765728214,-3.129527469934199,2.0248148480264403
53,-0.34402691755492354,-7.450858681167189,-3.5602339125524303,1.164367812175544
54,-0.27867250010949884,-7.624423873262682,-4.015534685894627,0.3270912906399634
55,-0.3553603072880413,-7.700223607921274,-4.481209771957115,-0.5717526191316822
56,-0.6942215099525252,-7.704879147458431,-4.947131363056695,-1.5382569203050989
57,-1.2696937988135795,-7.707099299375081,-5.411526329530225,-2.488286223126928
58,-1.9887908557555953,-7.717696675416425,-5.88179373847794,-3.370759881902302
59,-2.779353234860416,-7.6998672774005,-6.356687397187907,-4.257347681378269
60,-3.712026668052224,-7.579377156953842,-6.913903872927153,-5.271157777812467
61,-4.724703186205141,-7.328060332889006,-7.476870297507774,-6.450764036512258
62,-5.606013647488127,-6.947827197167423,-7.925693073115034,-7.698905236746969
63,-6.118798778800376,-6.47544604242526,-8.181689155440957,-8.740602931510336
64,-6.214468234852766,-5.95425338421875,-8.229776503096529,-9.395312370221022
65,-6.1577015144912455,-5.371015856942617,-8.227959885755771,-9.670887666578745
66,-6.1799872303644054,-4.73235112296158,-8.234850567052423,-9.668401019334167
67,-6.162791772896046,-4.031363961009196,-8.194035195163655,-9.680579019738525
68,-5.776261054462811,-3.2624611953196623,-7.9166080742520455,-9.713248554539717
69,-4.984713766277533,-2.437215479023406,-7.359851914450907,-9.6103975762491
70,-3.9059052876902016,-1.5333189439295054,-6.548317187128436,-9.194700717457355
71,-2.899694511573041,-0.5840522998171629,-5.589572476403768,-8.470359652317802
72,-2.2827670496522323,0.24462442232522402,-4.607981560859574,-7.405869938068784
73,-2.043358437839621,0.8076063220255993,-3.6052558010917553,-6.312015787651134
74,-2.0531236821763006,1.0628087122804035,-2.651302306667574,-5.515179369096163
75,-2.0277229978245375,1.0628665849715708,-1.7844198823855737,-5.036002579319548
76,-2.0017482915442733,1.0493987696543075,-1.0302480542799894,-4.9161172503680906
77,-2.126157168690651,1.0840667146093024,-0.3641001590933807,-4.986097874676139
78,-2.5085647892729495,1.0214190552779867,0.16707592662855497,-5.025466149263278
79,-3.276048301596485,0.6981523115466556,0.5151360941033466,-4.949152454511209
80,-4.215138664630896,0.10872874164427104,0.6887632211306541,-4.879727402401504
81,-4.9915274868784785,-0.7436844398823684,0.7197562041882554,-4.904022086268232
82,-5.38715814277824,-1.6443024385560099,0.6990693274760795,-4.960713064712687
83,-5.502364418069902,-2.32874145365735,0.7087167854988455,-4.866266173018082
84,-5.4898887251664155,-2.7557782105751523,0.7797395847913802,-4.479897521723591
85,-5.50444974516164,-2.905769474697452,0.8487794105965402,-3.813361367349325
86,-5.49516146987485,-2.850538085423536,0.8683848621620882,-2.961578423292951
87,-5.010750731855009,-2.8568345699704345,0.8761236146071896,-2.009089514125953
88,-3.8151215021958134,-2.9306869580080264,0.9577279290456835,-0.9749375198605725
89,-1.9095789934406282,-2.830083057005357,1.2191216791225128,0.2568765094689458
90,0.363573868143957,-2.407574338116887,1.6664113872712494,1.5932421973212283
91,2.5137855107895444,-1.6280091027581896,2.3025629804640864,2.8842010675545353
92,4.5359382622923565,-0.5809126557078437,3.011719580533942,4.1658189277821425
93,6.27529475558684,0.5600450858509294,3.615579843242496,5.454069601835668
94,7.597209931374405,1.6461345059959138,4.028291242651779,6.594980938415358
95,8.407617464709025,2.750028331147336,4.208561698161307,7.398377806286087
96,8.706441728944277,3.831119524451118,4.17990245569862,7.766985238409584
97,8.621687140676222,4.738870921824159,4.195739500394882,7.753592947445966
98,8.575641465391513,5.345480743169135,4.264660217980959,7.7250516674870555
99,8.69963457910127,5.627244252896652,4.16105599373869,7.795139647637735
100,8.606679390911728,5.6517969391628675,3.687173145151031,7.700908186161875
101,8.040551489356139,5.634252832806409,2.788790848461513,7.1938010081351935
102,6.931297156741464,5.6426824745440785,1.5617961596869128,6.259924810007714
103,5.4527544003993444,5.598631112887624,0.23269340140282752,5.078448525142403
104,3.8822792018416363,5.355587753899209,-0.9735155879881238,3.922545559422771
105,2.3502518083603743,4.909079484934298,-2.076754700995007,2.9513176610647593
106,0.6237290173180443,4.299193973811974,-2.9849895222585476,2.0021196544485855
107,-1.3398200200785388,3.609783232149419,-3.7402884717252984,1.0458683960777793
108,-3.4751419045764327,2.9117587273675767,-4.321645350941773,0.1132833397077507
109,-5.515122827613628,2.155943252474907,-4.70663339314767,-0.6321409652050921
110,-7.081643678144459,1.3789742829395777,-4.900723260427315,-1.0776567573257516
111,-8.010642866905764,0.604226542924353,-4.9326134396597885,-1.2488273049570606
112,-8.383332745650588,-0.1457356039062616,-4.928615328422257,-1.2527781386180126
113,-8.372082556498453,-0.8446428443526357,-4.933476819961217,-1.2440917157017901
114,-8.354869843484321,-1.4600686924857103,-4.90352822715144,-1.2283853543801402
115,-8.388370640180133,-1.968330724550787,-4.708253467545328,-1.1962079867720556
116,-8.284031974413455,-2.3702764446734577,-4.337876850188548,-1.1158814494635967
117,-7.867203227224126,-2.6890211850403842,-3.828150563973087,-1.0455715500545162
118,-7.092362693511816,-2.947927601784237,-3.260796507234687,-0.9936442814013675
119,-5.982696503650173,-3.217781202606625,-2.719026780323569,-0.9373723497391904
120,-4.723498305224672,-3.4825112851499123,-2.206931963962907,-0.8721356738035515
121,-3.5496406528700843,-3.695198851222165,-1.701645456165123,-0.6907319189602673
122,-2.306813581330808,-3.8216561872068295,-1.1521188060048915,-0.45234840430444617
123,-1.23498572674969,-3.860457678517548,-0.6260268560419906,-0.22036524951359143
124,-0.4693456562226288,-3.844076344478659,-0.2184666947865314,-0.06202870492960399
125,-0.038713669389747074,-3.823902229089934,0.005692525307364207,0.017314885647107307
126,0.09285759518512458,-3.8338524029642755,0.05111205110629104,0.02193829144808271
127,0.03248202493261591,-3.8338524029642755,0.0049364867748075,-0.006635618721914791
128,-0.005242103073869128,-0.12082198432955565,-0.1501105162352636,0.0027100482037121787
129,-0.027604977094848465,-0.47403880399295084,-0.6591417284937595,0.021544479055930814
130,0.03670274935910128,-1.187433980311748,-1.6454672249928646,-0.0011316317764431816
131,0.08211339577366919,-2.3156706432190637,-3.4141382229076385,-0.146803772391831
132,-0.09383347785096613,-3.8360479540928645,-5.508353981834762,-0.4699883110771196
133,-0.635709624729451,-5.689439191390351,-7.298404704579897,-0.956735117538811
134,-1.5878700420052068,-7.766653022630791,-8.356826185919225,-1.5698996128020424
135,-2.9815025475622727,-9.911829459924691,-8.581325721747348,-2.3605746764961717
136,-4.903584005873771,-12.006282779603435,-8.540052117984004,-3.515333717744263
137,-7.4822419897062815,-13.974907978470187,-8.55940860970152,-5.214141083790973
138,-10.825694796909081,-15.570408546972622,-8.444182114330665,-7.488661932624221
139,-14.666367976848091,-16.612428206751048,-7.442682316070389,-10.196957864216898
140,-18.551487443378768,-17.088806334918456,-5.42010221149637,-13.053004692836073
141,-22.700497556295193,-17.105795446444294,-2.491571264702338,-16.382477541320497
142,-26.582568474476595,-17.097416160584146,0.9239645787075572,-19.712198484303325
143,-29.560743881101217,-17.156638094040456,4.3159645090509695,-22.381741274757903
144,-31.250138019888098,-17.035559025583385,7.563529406759912,-23.943345828379837
145,-31.62327588572132,-16.384355722871437,10.491634095425825,-24.335285350080202
146,-31.45231506818185,-15.1246701426094,12.936320101653878,-24.093990229366323
147,-31.524427492189407,-13.327602206627763,14.706099926320096,-24.17252277581975
148,-31.58014842096747,-11.196313125800543,15.750731379508121,-24.380742981237557
149,-30.14618166488615,-8.896553246116902,16.17690884302371,-23.2924816491273
150,-26.56718245502292,-6.251504423524042,16.140186649400537,-20.225629267708204
151,-20.68643454974891,-3.2614495526997627,16.15720073131547,-14.973937404016707
152,-13.05691734194167,0.0892345647645969,16.259143346999203,-8.045750964128448
153,-4.517301899856723,3.7733113370014237,16.074685872608498,-0.34085994474693004
154,4.714588576351787,7.72476067566928,15.2454250700757,7.628750462287505
155,14.611405288438014,11.858996834127453,13.679871417950183,15.901281697926908
156,24.82476167024693,16.083023040661942,11.477753822472037,23.992885912586317
157,34.633556777145564,20.289458836380714,8.89942245450532,31.871818403539592
158,44.300662127130096,24.27454422590992,6.149463336508081,38.931058909538784
159,52.66109124822539,28.215796979824344,3.0162428330938624,44.25157203361431
160,58.60148152953826,31.657695899776915,-0.37663223498329446,47.37290325401834
161,61.73831512164246,34.119019232338836,-3.863781905956108,48.51816217541297
162,62.50626070551762,35.41211649054643,-7.1951569132315045,48.29292358970881
163,61.90525315262492,35.725010839007446,-10.073649674416126,48.238642019628436
164,61.84499195284273,35.44066737422905,-12.302127926656919,48.56788838672508
165,62.38199576868857,35.43683264870913,-13.763511696118876,48.124960867887246
166,61.47571424857695,35.714313053549795,-14.524738487578997,46.07149919053018
167,58.41820866060269,35.392633333637065,-14.787454960221115,42.17911799778502
168,52.97770954818699,34.12702249425247,-14.77864894164177,36.81875976785326
169,45.86034220047219,31.7728545235924,-14.749170612618359,30.8881349065895
170,38.360968349746955,28.569650044611638,-14.775588477059623,25.22391636000708
171,31.388652069251755,25.023399551281265,-14.762858460294852,19.53941811113048
172,24.47187631973722,21.55888879976215,-14.523850880560726,14.033847014900031
173,17.714625238287233,17.954198761166076,-13.97840508764685,8.706197379204015
174,11.183775205814015,14.334893258528329,-13.099598866627415,3.6256392111910625
175,5.1511692353151615,10.738150999964123,-11.941227954457311,-1.0430240497212273
176,-0.11078056073470033,7.202238201606985,-10.59168873033148,-5.162711801556584
177,-4.5808498972843505,3.770980171036897,-9.054151737862721,-8.742177990070134
178,-8.470216566059067,0.4907668182181846,-7.375741547378748,-11.888932362726392
179,-11.963045260051986,-2.5933081544383265,-5.638705425236123,-14.629052573298067
180,-15.05411730115619,-5.440439169117979,-3.9598236496932366,-16.963432331271143
181,-17.673690389931565,-8.013338087359118,-2.4553401709689573,-18.735837341014395
182,-19.898960465040044,-10.271066357920047,-1.187523759699538,-19.84281970620321
183,-21.9452572383196,-12.205655621582974,-0.13826534655238423,-20.35976605528662
184,-23.933801451838363,-13.847706371280488,0.7459911811111627,-20.488754807096576
185,-25.748420959929817,-15.092810797476734,1.6658367986437117,-20.43924575302694
186,-27.189788695490563,-15.871727239309795,2.5558393460719375,-20.40926024479659
187,-28.244666429217688,-16.218368632764513,3.258657618187882,-20.42546896833469
188,-29.123048843359953,-16.249777841404985,3.6638529435446974,-20.392843155008855
189,-30.062128444665483,-16.233028235043818,3.8042912358501595,-20.32979414506699
190,-30.988889188994925,-16.198709282306247,3.6703975617960745,-20.266745135125127
191,-31.686884894806305,-16.131675021417838,3.6180022740941093,-20.23168665198245
192,-32.0230092351947,-15.982478438362614,3.7916828856001303,-20.226717887115896
193,-32.031816309580144,-15.833281855307385,4.025084077300788,-20.232735890999965
194,-32.032965399462235,-15.75388947732817,4.274407778238231,-20.227281577862634
195,-32.07385698095516,-15.73905700230572,4.4251501530217565,-20.30201538631925
196,-31.959362195213743,-15.743667696041406,4.329453028773902,-20.437495250065663
197,-31.499678459705592,-15.740955820185883,4.233487413679555,-20.58393211734118
198,-30.763021443663334,-15.920978815311493,4.591354259879931,-20.68590190599872
199,-29.864260996450767,-16.41688724859699,5.4897037637668475,-20.70595329505897
200,-28.851238281950337,-17.09816352585946,6.929534963795509,-20.686187714287207
201,-27.65996127409058,-17.715947782687728,8.443535740129688,-20.716455759507475
202,-26.09449779761259,-18.064941173692972,9.512885802326652,-20.72570141296768
203,-24.295846583869707,-18.101770607896505,9.958126211277545,-20.58194498582621
204,-22.476405624374863,-18.124866924706822,9.963992067586243,-20.18254563323406
205,-20.669016645202554,-18.169367961462182,9.966884732523404,-19.417295124730263
206,-18.70649690147459,-18.065870150570436,10.041448710575402,-18.23085691475284
207,-16.46896263075343,-17.482674285565423,9.886705820791756,-16.68646682640276
208,-14.073412265559389,-16.337425980309945,9.147876798041892,-14.898855514648961
209,-11.751974572573998,-14.714479057632364,7.791695896377276,-12.93452944288852
210,-9.581015210233572,-12.854896279500583,5.999712212114627,-10.821788586810746
211,-7.4229122723956165,-11.002923711678896,4.1228440044746595,-8.4571016470356
212,-5.156887895988914,-9.118152310330073,2.478799334662164,-5.78526987999361
213,-2.8943427146955307,-7.2907781035459225,0.8925460079107539,-2.921537398074494
214,-0.8865082833625597,-5.553091706944244,-0.4180573397547409,-0.06988030617970187
215,0.7740388815054602,-3.9042974072475407,-1.302859061391059,2.6575341725232646
216,2.2748469750570894,-2.31269313094115,-1.7340771157472818,5.287816262524298
217,3.8632702821515945,-0.7360405506179578,-1.797845119734497,7.855351903707051
218,5.561805677598638,0.850417468520064,-1.76732725336797,10.272099034000988
219,7.175774267188893,2.44125921533711,-1.757691560870753,12.342709546027319
220,8.567116845689318,3.9946292689851655,-1.7158486435633578,14.088993151777848
221,9.824716458172858,5.512018063838907,-1.4354513583473116,15.425846192838536
222,11.115461057776832,6.947088435740059,-0.93430333718921,16.31525919717052
223,12.432272762542576,8.111730399620933,-0.21868150584610396,16.779409609014
224,13.581276294304969,8.861758257252083,0.4952025572326291,16.89172875496661
225,14.432108251292751,9.186243564972424,0.9929608857006347,16.836571202076637
226,15.097589018754057,9.179559620152656,1.2737873901099275,16.790880167566627
227,15.837432923941297,9.167926014991071,1.3132189325403152,16.81338438573648
228,16.644437618477074,9.216431975954475,1.3174506505189212,16.69584425435502
229,17.32540834893005,9.124985313616207,1.3393396561866129,16.419842064592867
230,17.698604108047377,8.68243530944857,1.2758928011607185,16.00730244694711
231,17.743516637935226,7.872185607852478,0.9018274128028712,15.554800077232834
232,17.714393394758986,6.801176865866779,0.17167606525858867,15.135672743052352
233,17.74021835358704,5.690270536422558,-0.8285580982685639,14.681410948212966
234,17.679979853408515,4.610080933810816,-2.032294580186527,14.087522491408023
235,17.32641837397153,3.6020198827319545,-3.130402373794645,13.313608956766815
236,16.763303087971885,2.85662257454384,-3.9737891010849835,12.488787545046288
237,16.18491984600384,2.454166584824094,-4.428978640723747,11.812812706480505
238,15.725864748381817,2.3705277689720297,-4.515909741521201,11.358598848052646
239,15.321813039257352,2.4095143520820987,-4.489232243177644,11.011193387434684
240,14.701035503607855,2.4154421308718015,-4.482386137169857,10.601907025388531
241,13.814138945015129,2.421985821082819,-4.437335247982263,10.061887657307516
242,12.84962911085019,2.670514473773172,-4.1007744858108115,9.413264089871598
243,11.988945871824791,3.2029483048480825,-3.4814563128635596,8.635811755419637
244,11.207749019831947,3.996865340315005,-2.68887162560439,7.6116474937219225
245,10.358496082732605,4.913819804449513,-1.8321149218185295,6.241387399789009
246,9.404006822513491,5.888585168657832,-1.1191564351588894,4.652652054490651
247,8.477233348590769,6.786408074274666,-0.6393327647726723,2.735537103849314
248,7.692419279622316,7.454209763098406,-0.3756774457003515,0.8542881709635345
249,6.974727698046368,7.808214714998254,-0.2524417400963796,-0.6033926300347856
250,6.144923482987665,7.86489112666535,-0.18228121673192166,-1.4423777502904567
251,5.199112397384361,7.898097358387261,-0.09754558507183947,-1.6955169140993613
252,4.066883386263557,7.841603661464383,0.006877923637244841,-1.5877560465117215
253,2.9889054181651025,7.710029135934274,0.025987137215014795,-1.451436052392379
254,2.193710072000235,7.450996858964908,-0.0047282192200478745,-1.5187582080715678
255,1.7526813725458874,7.191964581995542,-0.002900122592091069,-1.5187582080715678
256,-0.01846967962411989,-0.09633681457714877,-0.11448251968487416,-0.0037695521779235464
257,0.04367665036326743,-0.4066235974365705,-0.47013911959819876,0.004736223659869615
258,0.09044919054234918,-1.054751461510294,-1.1951450573633888,-0.07816070303154243
259,-0.14140910093528092,-2.0837447028002853,-2.321622427855133,-0.43677892640992466
260,-0.9488817586970786,-3.3965837894022526,-3.737277472655868,-1.2328976967507463
261,-2.4199193205303633,-5.0363065061419325,-5.4705080514470055,-2.4728783536145134
262,-4.27130085912093,-6.661432105566086,-7.260269446693138,-3.9701181736887072
263,-6.339785523027206,-7.9072821363921575,-8.728887244872226,-5.54600646389191
264,-8.173566307478625,-8.587887588060779,-9.62996771755202,-7.172503124719988
265,-9.483760718059932,-8.753616033655433,-9.954242997839803,-8.629317548015633
266,-10.194333272837182,-8.617681231547662,-9.838648534792814,-9.702259288674709
267,-10.383646292997364,-8.608697997729822,-9.856384789752903,-10.274556316812506
268,-10.27512994918133,-8.727579265007625,-10.01799062663764,-10.334699233040718
269,-10.25422549499601,-8.53207220182221,-9.799263185134812,-10.329754729208382
270,-10.354691450397016,-7.871989334113391,-8.864196463735805,-10.40240149848344
271,-10.062365553804606,-6.707113132286718,-7.109329470648224,-10.274605820714667
272,-9.134489885643223,-5.1846526011524805,-4.710531876875645,-9.447628354291776
273,-7.416436263283006,-3.552928509392816,-2.0750048956285694,-7.767103030937341
274,-5.032829284391224,-1.9709081476836245,0.3980611694686832,-5.329921616979133
275,-2.331123648707322,-0.30987304950942557,2.7798855843757653,-2.5220853263695755
276,0.43411823020049245,1.3909352335459984,4.9091978241523515,0.49029609847949973
277,3.2722391769386565,3.087307819678018,6.763333603916899,3.6286260078938524
278,6.066965232575491,4.677818139829317,8.489823245231191,6.282043781142161
279,8.571973274089391,6.0379946187786295,10.325091367558036,8.069356521179298
280,10.424019859832356,7.097613225290071,12.064750094592734,8.86221099254475
281,11.434569658255022,7.889357364503483,13.38601658918787,8.956258824203136
282,11.734633084507928,8.54257549080074,14.10776054364498,8.936436465162265
283,11.64623833351604,9.199265915657957,14.221709364202042,9.152228336837293
284,11.642955062541049,10.106830391430298,14.050407701278631,9.439915292613469
285,11.722966505263727,11.124666736716947,14.069762887363456,9.634325161559962
286,11.60022403983287,11.984495097773799,14.346413975883182,9.6353788523446
287,11.073417429070895,12.494859549318832,14.630674720555644,9.42554793192244
288,10.142033263433857,12.585128832533247,14.973433248983254,9.139406829292215
289,8.861470946631538,12.590802675439953,14.892948971102168,8.99517103669629
290,7.247477046855247,12.644492571723697,14.597579510214784,9.084164697690314
291,5.212913708163105,12.55086368490034,14.837930400169519,9.085434896953462
292,2.5164550369700818,11.813197316735891,16.37507808957227,8.432264451981792
293,-0.7153404880587828,10.27450140428661,19.663488726894524,6.768603755350197
294,-4.282754785034378,7.994646227208248,24.766410367133204,4.054770988551527
295,-8.025463836512092,5.264754279133647,31.183494925557554,0.44165720039528833
296,-12.291580880967103,2.4344339397902774,37.967878605040404,-3.623622250957733
297,-16.466435221961518,-0.4231438369132583,45.610421842150124,-8.125965320691314
298,-19.711041000315575,-3.3083134287667404,52.77580610420527,-12.544732648682354
299,-21.49698062851842,-6.006893274566295,58.12275423545083,-15.981503002432635
300,-21.798006410644273,-8.125904120913013,61.01489224066965,-17.956139406892778
301,-21.700159601190666,-9.42090595164207,61.61328347802575,-18.603602895350704
302,-21.7750003871865,-9.922327614555208,61.26625319873793,-18.34459597100352
303,-21.600303125453802,-9.812567118796498,61.37270653306218,-18.38298216334293
304,-19.86316531940835,-9.838666106682863,61.50553580173136,-18.719588609922344
305,-16.223869324142406,-10.036390074692212,59.32745058071578,-18.292609883378002
306,-10.785982313270562,-9.761109058405292,53.830575118691804,-16.364423729412604
307,-4.137147323789819,-8.494697801748698,44.56994914180625,-12.612107165810633
308,3.0430532117489935,-6.097961794372665,31.971857293350094,-7.258359878911983
309,10.737369211889018,-2.813918724549887,16.779168591543762,-1.0482886136473688
310,18.36636009699022,0.7703077101417628,-1.2444572520706103,5.191811492097399
311,25.652373514268493,4.2460383592732445,-22.827059191336154,11.507769871785278
312,31.639569034059427,7.676339527370192,-48.21902118056714,17.4282154710625
313,35.61910629197575,10.469390779072171,-77.54038619233489,22.73236495040148
314,37.549098854598974,12.248929022724715,-110.5621140920795,27.47373255543607
315,37.97677693150579,12.994874047927345,-146.6769203870903,31.451348229744454
316,37.67114873526878,12.962445759803867,-184.9296367716995,34.30507520558038
317,37.5313207538793,12.92287948594075,-223.84374704069927,35.88843064490918
318,37.728622148071246,13.031508566387425,-262.65947788124566,36.40951946045627
319,37.59498279257751,12.819986622480906,-301.5456366082298,36.27123831549901
320,37.026173592961975,11.862647716306997,-335.15827691351325,36.25453638948501
321,35.91379198543646,10.1597647482776,-358.46153317884347,36.40113253045797
322,34.34986094968585,7.96017628940007,-369.83575339954274,36.175860391774684
323,32.6041126539428,5.6787902994684165,-370.34946559808026,35.25312348172225
324,30.866197260151722,3.6241578736354207,-370.6777896755807,33.53873609304395
325,28.842475616695346,1.5804197783081262,-372.5673484822503,31.034069572864954
326,26.26409296053679,-0.31951715156022065,-369.07128445228614,27.82096895923966
327,22.852877435741732,-2.1299821273193746,-349.8626113943924,24.031900894198643
328,18.700131354900716,-3.6520920070723166,-311.8447974861583,19.603374264484636
329,14.237421023669947,-4.699692824485351,-256.8653619436457,15.003132754284763
330,9.87359088047778,-5.227150611564376,-191.62640739894093,10.551790011399302
331,5.715585866951747,-5.341984980626805,-123.12096709550202,6.318810293313801
332,1.649760566002033,-5.2262085731402,-49.59744241454746,2.245772102381597
333,-2.3683721731476846,-5.243707289500542,25.268577613412923,-1.6204994321146635
334,-6.1858551661488415,-5.351010965021135,98.82865424396692,-5.079682677351574
335,-9.636572934970221,-5.156393465066745,168.64719753448855,-7.989467339824753
336,-12.781584242924847,-4.546811834931247,232.59012319974548,-10.453146934134567
337,-15.839124419250375,-3.5124024288715447,288.57767693183035,-12.720493657599551
338,-18.973675897305924,-2.299901916998331,337.75324186573914,-14.903584097903849
339,-21.98623926345302,-1.3174827954005084,376.4243894332799,-17.010717412669052
340,-24.356617926032037,-0.8130317226272362,401.62921085587436,-18.733932099619615
341,-25.75811557749787,-0.6141388689399215,413.60521550997646,-19.83563491146763
342,-26.270100160374,-0.6483469570852227,415.3291743476402,-20.322953153160682
343,-26.231212310294964,-0.646943028685688,414.4681725673751,-20.396770115726508
344,-26.19477500908431,-0.5877816609461661,414.1787560809916,-20.31779656010637
345,-26.212582527254973,-0.6693145793510267,413.00723002905534,-20.27327675517435
346,-26.06833663698206,-1.0741599694898731,405.37048556664206,-20.30438875806545
347,-25.688331743014007,-1.8614643628136267,391.82136121014054,-20.28112321992689
348,-25.180494127742573,-2.9708288794544293,374.3520524661478,-20.157796141959437
349,-24.654979001515727,-4.22531466094105,356.32644629231345,-19.875571673542918
350,-24.255738221795816,-5.435918877263861,340.24799121363253,-19.513489500362045
351,-24.055667605585025,-6.59504335124928,324.2563359869525,-19.198513828710603
352,-23.837881301153214,-7.6810550111337,308.74406932127914,-19.01558236979564
353,-23.780681300822796,-8.578625125256034,293.40604778392367,-18.992937300883778
354,-23.767883662146822,-9.190708310734516,277.8002844050226,-19.01716061550424
355,-23.518095638843004,-9.497468507274746,261.4949907163681,-18.984370833409436
356,-22.910644312743994,-9.55549603941114,244.20262374286392,-18.997420372913865
357,-22.0529063912551,-9.51910209998401,226.46380797512506,-19.233843608138603
358,-21.125693914326746,-9.506415072921117,205.6985679351447,-19.757724398955137
359,-20.234433584052706,-9.50946356832341,184.89244347215342,-20.49973245807174
360,-19.36825293214286,-9.3748836990853,168.32125089044234,-21.288660187295363
361,-18.36169926435966,-9.081077976331779,158.734467886137,-22.07879724061344
362,-17.306014935953453,-8.625894762148656,156.67210174949088,-22.923412817116514
363,-16.34382023821586,-8.048188931886129,157.20631002998516,-23.724579357745515
364,-15.445940365748744,-7.396909658853092,156.55976445052124,-24.339785285799024
365,-14.401420530756454,-6.66710737490072,156.13467926269803,-24.65890079127266
366,-13.05641308600263,-5.874546710818705,168.76935928518125,-24.646482245748345
367,-11.490112330160065,-5.053510906326583,191.76607795310323,-24.65504462465365
368,-9.895179792681542,-4.228433261393289,216.71293193633525,-24.76797347975139
369,-8.311919647250033,-3.409928980997693,234.1950911711606,-24.651721236457895
370,-6.572925536921112,-2.595761539862423,237.60427989088046,-23.88730070899473
371,-4.5506084768957376,-1.7849099525642291,237.42708491527804,-22.304985877937504
372,-2.3851925601022446,-0.9905303819871687,239.10639382867217,-20.01873915315063
373,-0.3835545967612243,-0.22966097343583777,236.49554329296737,-17.345814039575213
374,1.252263861329246,0.4642901971033863,217.4345842340872,-14.60055255121836
375,2.826505089784887,1.2900644985820497,160.3361443380162,-11.39196740695206
376,4.335372211868301,2.1710546507504893,78.57089368063473,-7.6053564409202705
377,5.592290044389443,2.9267751130164714,1.6024971655735678,-3.9397034000471014
378,6.36786317169654,3.402231770909553,-45.08791034592305,-1.2254959014638276
379,6.598022620985869,3.5573385698820608,-60.077248905134645,0.11562847850627284
380,6.488007066230972,3.497635972624955,-54.15068038382821,0.2982141660449007
381,6.37448265290249,3.418739263197295,-46.325308701200846,0.00862042729745019
382,6.432526679814151,3.456237128532664,-50.005932937857644,-0.08094796891171677
383,6.432526679814151,3.456237128532664,-50.005932937857644,0.0
384,0.10087117599599146,-0.10958009883919345,3.206377362602142,-0.005778075389623846
385,0.4764175110005636,-0.4611927108569024,13.494115360824939,-0.015472819327649861
386,0.9428687424337509,-1.1970098339364563,34.79017308556625,0.031335624557544905
387,1.3212102710309586,-2.369731505904121,66.76187533027537,0.05761151660244124
388,1.4563029001692398,-3.909563091419206,113.58153248469004,-0.0903253130193728
389,1.4460883155593902,-5.717670524657862,164.64503275006285,-0.5177846786262901
390,1.4432737426656808,-7.748897799004469,206.37929721657463,-1.1985951384452396
391,1.4565719579835081,-9.620653898042457,230.4898495572818,-2.0145605626687697
392,1.086255871763766,-10.97185254088585,236.68588856510212,-2.8498728661910673
393,0.0941197710286118,-11.6566819742288,232.1686416838295,-3.8594581700853716
394,-1.5908379634279004,-11.719510257319065,232.8093856630396,-5.037074680345974
395,-3.6598945600309194,-11.721869505941127,236.9112853009668,-6.120283923945484
396,-5.939114170937664,-11.788500656587924,225.23888870218744,-6.843049741177047
397,-8.004937878201194,-11.613956721730084,190.01396156839627,-7.108663407028272
398,-9.480787734101945,-10.686577174872815,129.24600585523805,-7.005069856096532
399,-10.261306879275125,-8.922578532097692,50.0060362693398,-7.015762626850847
400,-10.47483856535781,-6.473105362894092,-35.021031788764674,-7.147841943360777
401,-10.308497254586161,-3.6997291439565343,-116.7510536692636,-6.952997803480877
402,-10.300916008542544,-0.937674911795352,-195.6096466707619,-6.216651375027629
403,-10.490736501052403,1.9253676323878894,-271.74158460464656,-4.954108965879428
404,-10.307293307951465,4.715211360057947,-336.4313002606729,-3.3783710460667127
405,-9.458292122732566,7.302097550249319,-381.3975254203289,-1.7791118335438756
406,-7.764934699187464,9.549864974657654,-404.2019927288073,-0.35969673728895774
407,-5.409085974918235,11.467691397345385,-408.46315441872315,1.0064929196397767
408,-2.915553877262463,12.927876991008382,-405.96829514163096,2.1348429945957217
409,-0.8051396679579161,13.852720750112397,-405.5859331324444,2.889228019848553
410,0.9902145323581402,14.281869573041313,-405.4545681522892,3.298725317521332
411,2.524179730989027,14.350253749966159,-392.7379635305439,3.555065624464605
412,3.9699904043297,14.292443685956165,-365.8368073886848,3.8398330049771983
413,5.33389420294615,14.284852553442999,-326.4025423531379,4.18806594230756
414,6.480612524657209,14.299628340455603,-280.3795723589989,4.542239021260562
415,7.3588664942268975,14.104442631106329,-234.38918375934267,4.903158137465397
416,8.103690387966463,13.647133810919005,-188.8717676815062,5.372759776781124
417,8.873331507643035,12.911524020668962,-144.1739738903953,6.033626224088395
418,9.623071614173888,11.958731143090613,-101.85165466116214,6.826166057848084
419,10.157496770510878,10.895393063353,-62.770168926260055,7.59540453263102
420,10.39995342488673,9.777703398644949,-27.473613319682965,8.256936842561137
421,10.463101552643389,8.67386443589635,3.808510517414595,8.860481353216462
422,10.529771881998673,7.6860921033101475,31.124756079452855,9.54768076849214
423,10.672740231024031,6.884983891193231,54.73313182537038,10.253980044530907
424,10.824664322296728,6.29598978867923,75.02588177790619,10.81495797927016
425,10.890039969880034,5.897907180459228,92.469087596122,11.112251407185243
426,10.875068161957946,5.6341869126275945,107.55645314138235,11.151276351205441
427,10.887055090037697,5.427846986862503,120.75290242716952,11.112914110528866
428,10.927551890477714,5.200917225691794,132.40477996422874,11.151657392471012
429,10.848526995034696,4.89367714492998,142.67031496137005,11.146240426621706
430,10.513929553792847,4.470594478527743,151.56588623951518,10.842233195626651
431,9.92985140239164,3.9151488935749112,159.12041678167054,10.165028286410502
432,9.186677823608242,3.2208936323300943,165.5145647361603,9.112734014869783
433,8.321048293674,2.380502996057216,170.95529329235154,7.708549287153857
434,7.239512780029696,1.3833570454046125,176.3807964001828,5.949141311695083
435,5.791620778933975,0.2269884495326323,181.40882345584524,3.765333231361537
436,4.028009574615079,-1.0725187983131612,185.2601297563177,1.251778236690147
437,2.228209581823722,-2.481681745085335,187.42856403356453,-1.4440786783421513
438,0.6148300956891184,-3.9519419725768086,187.83542566692356,-3.95160011949237
439,-0.798980119974536,-5.419394639254042,187.78202013688465,-5.8531618716469715
440,-2.082710967430486,-6.812686285335559,187.9374087588983,-6.967592188050811
441,-3.1799429806800754,-8.068333781334452,187.67614765948798,-7.379677162920368
442,-3.9238627417977017,-9.14645721117451,185.09063810146887,-7.338979743206396
443,-4.277004784478326,-10.024354148490223,179.56836427584204,-7.268957801082617
444,-4.481235103715071,-10.825374696926353,171.19439521592287,-7.273450953070507
445,-4.892649121796009,-11.522492319001326,160.8673330953476,-7.1948546819898285
446,-5.658450593158631,-12.041324522638718,149.67314150298554,-7.040003618158167
447,-6.667621179112855,-12.33374655824749,137.55220627347165,-6.8809955925435835
448,-7.741156258792771,-12.40886250446179,124.72631490120799,-6.7782989794990645
449,-8.628300954357359,-12.356792298596053,111.44083574525183,-6.759398062141642
450,-9.212334483037028,-12.379205796330421,97.88018255676268,-6.76449042807409
451,-9.50250125360794,-12.429332697207666,84.25194796157022,-6.6736231202496015
452,-9.541916807971598,-12.226446998699924,70.80983287097361,-6.601139207239791
453,-9.525399837600247,-11.64973293570855,57.83115566391688,-6.539644487297542
454,-9.539750091180057,-10.681741539016565,45.55893729073536,-6.531164969123875
455,-9.521529415635422,-9.446927396977406,34.145775764601005,-6.582774729532353
456,-9.219397116010025,-8.142275678934276,23.619208617946438,-6.582564787048071
457,-8.439358636042952,-6.877830179344078,13.872408951071112,-6.361770493190973
458,-7.083728015797073,-5.598043342296688,4.716339641993488,-5.841085735577133
459,-5.300058650674437,-4.350119815676543,-4.0152518305380145,-5.067868225620819
460,-3.3901564607754775,-3.167118992854456,-12.407006384120319,-4.198109836365697
461,-1.5321290165103876,-2.078358600189653,-20.482387924430537,-3.362824969023841
462,0.39252649234284065,-1.0970804561564478,-28.232384335158205,-2.5306873679076087
463,2.207812069247208,-0.22109575592556646,-35.60938744750285,-1.6407885566836826
464,3.6457052965748677,0.5507670290772826,-42.50386761576083,-0.7292706089605642
465,4.488823857145935,1.203739236251613,-48.75696372003986,0.07585915157231232
466,4.722398903350431,1.7196773204517508,-54.24834496935835,0.7191171033757631
467,4.566261992270333,2.111178069627834,-58.983460262694905,1.299967671872039
468,4.513565093165773,2.4347527634633264,-63.02097563258171,1.9477461990542635
469,4.647030668957002,2.766407316647758,-66.58406835834658,2.6495849613167595
470,4.502671457437761,3.1658094119781994,-69.50300566986104,3.273021295201515
471,4.009733684745688,3.6358120968329275,-71.51731458072027,3.6703135485588603
472,3.2801314907894845,4.234137979237966,-72.5621549875922,3.8267763554601144
473,2.5922943973070836,4.847807169053759,-72.844576786827,3.8502500939695308
474,2.184867805637473,5.3366544574512425,-72.71084436950518,3.8507950800498527
475,2.1130148277426493,5.616681911129858,-72.66811868047736,3.8599921026450374
476,2.12745224628066,5.6841089333568355,-72.77256081775569,3.8714132861700765
477,2.086118475459196,5.639931375494989,-72.64572088391427,3.881710825468457
478,2.0295222368877486,5.657519916075211,-72.19036443336971,3.862571503313611
479,2.0344247642856037,5.691765482084774,-71.45375388077771,3.8634360956720846
480,1.9631856071987266,5.491940870526161,-70.63491615943829,3.8410793824261837
481,1.6151755887951478,4.961543979586637,-69.98780826223751,3.7239600476440846
482,0.9428347495655776,4.110722848897806,-69.61954324401582,3.484133625662115
483,0.049516388186533145,3.080683907896235,-69.24250904534179,3.1317683552847697
484,-0.9440379067754652,2.0249888698197718,-68.61281662752715,2.6519561622172385
485,-1.9564554419927347,1.1536827288374516,-67.41156111516364,2.0038033433334452
486,-3.208101666059795,0.5417719964205615,-65.36295213589268,1.1893047608632419
487,-4.5746271070665125,0.240647788481708,-62.29613361627021,0.18495444367854888
488,-5.716120646535991,0.19726847314428086,-58.172639277929804,-0.7630325494227572
489,-6.363872626400244,0.21636655092582097,-53.09046339509731,-1.4178194337497572
490,-6.482675774406006,0.22666353416504387,-47.2816279272427,-1.7114167716657342
491,-6.414717839497817,0.2719522723333704,-41.0725813456292,-1.74498920335577
492,-6.439216779237152,0.461520508250008,-34.79010378130774,-1.694432943570643
493,-6.413593708733619,0.7364046027250688,-28.673291818147167,-1.703592335481959
494,-5.911516945457019,1.0094652307291967,-22.848799186223907,-1.7092119549649536
495,-4.911218755946406,1.1888072341675737,-17.377347865141154,-1.5757680643823209
496,-3.5647897183569888,1.2409197597604797,-12.33608859786149,-1.348158171326034
497,-2.1165648944990325,1.2661325742570073,-7.85455601228778,-1.010774801478537
498,-0.645686915405,1.285181700599483,-4.066609182288884,-0.6617187456310589
499,0.924734573672811,1.3435597502106105,-1.03736515561424,-0.4117878982803273
500,2.4037992496111427,1.4614564522876354,1.280321189535,-0.28346609622527413
501,3.470535464783076,1.6052611614602184,3.042879189834348,-0.23190464426631013
502,3.9643983469347606,1.7245964193985088,4.397373955339071,-0.22071077248509624
503,3.9487809948276253,1.786614937813406,5.769486074171628,-0.25276788371453895
504,3.935012801409191,1.7870896185345784,7.126506983249807,-0.28687947310853057
505,4.053415845920614,1.7851417611407263,8.246429940760414,-0.3640489001915558
506,3.867235692676291,1.7968097072579,8.93154770185524,-0.441218327274581
507,3.0186601174749352,1.7937216328453347,9.14894821836065,-0.4883774216030964
508,1.768698702243312,1.6700809760262054,9.06337985732334,-0.4909497358391972
509,0.5884400644955374,1.4484011067864964,8.95121073428044,-0.46522659347818884
510,-0.0868743209602511,1.209523868929312,9.005340983901228,-0.47380097426519163
511,-0.1317783992400031,1.043135467261029,9.005340983901228,-0.47380097426519163
512,-0.17133793104702516,-0.11702946592977886,-0.2310931232344675,-0.11190542196519115
513,-0.41416546126309245,-0.4665443046837865,-0.8708476768017875,-0.3627687799889528
514,-0.7678474113874705,-1.18685128759043,-2.094010292741982,-0.8541849588915302
515,-1.3266216022966417,-2.3366509408315346,-3.879377479326565,-1.695350480815982
516,-2.280847172047502,-3.8222752891378695,-6.075280431289006,-2.923289667007521
517,-3.7606392778325923,-5.792800506010661,-8.599755672887609,-4.755186751676444
518,-5.623054079051361,-7.844257276106958,-10.941346914864686,-6.784449203020513
519,-7.5971565425667755,-9.483526513904321,-12.631289528509654,-8.44881969186069
520,-9.209514593446478,-10.416617111628637,-13.481382983493665,-9.387649811691787
521,-10.201584223495344,-10.666495567763713,-13.547784119043973,-9.589227546170438
522,-10.62666081508673,-10.455178568299214,-13.56070228974969,-9.452761493722855
523,-10.626137394383528,-10.464956186613717,-13.662959548499046,-9.495148488025205
524,-10.679168920669479,-10.688679400076431,-13.424375510025925,-9.550801630652863
525,-10.755765200352737,-10.416289065658946,-12.170194504995552,-8.919417045189528
526,-10.56830882515277,-9.33521252754868,-9.805576867701914,-7.434370233256297
527,-9.694674532468797,-7.3201618870447165,-6.59261377809013,-5.160520198151093
528,-7.973271067978569,-4.58398268984114,-3.084919936610389,-2.401256320527004
529,-5.414945334309141,-1.5875839611051088,0.24405131756543574,0.4634904780724338
530,-2.3192649672733405,1.253463731083791,3.5964583446645517,3.2438672092005456
531,0.8526689793935716,4.013935316976653,6.821527027995548,6.0376412659778
532,3.9373916020084487,6.690416575982158,9.984033761339866,8.526777768269978
533,6.7774519559469315,8.972665315025523,12.686415180165874,10.357638719944442
534,9.184191186954857,10.562294169093251,14.54701203382892,11.397434586704163
535,10.965049291540454,11.368086903566457,15.459805154079476,11.77312137538418
536,12.02937163751306,11.516747765206379,15.58047644552446,11.712011774904648
537,12.424315037206627,11.442751075231424,15.529617451176366,11.702755615083952
538,12.360595631710614,11.410067941297148,15.541808567756394,11.785923175558223
539,12.256127219606352,11.369477572697066,15.43538680888532,11.63237117905877
540,12.33066181269488,10.949444433954236,14.670992824245197,11.020463071090214
541,12.298756517460692,10.198917977194897,13.174551765018144,9.924474856953603
542,12.022075369331205,9.262634277093383,11.009466237405901,8.476690668503112
543,11.50050518481663,8.37724738934843,8.389333068570664,6.96613333698405
544,10.89537015231226,7.72594440539773,6.019241150505735,5.654026341974165
545,10.411051594920737,7.228063136486174,4.2473181176458645,4.405096957205454
546,10.07559195535179,6.856933124556757,3.352953510577979,3.1888032473905747
547,9.632899004019077,6.584495152961384,3.233791870635271,1.8476554153755345
548,8.903591978950779,6.376190678414302,3.30583684923759,0.3487700411181635
549,7.939957618464031,6.214213477381383,3.32383816680385,-1.1908606543763345
550,6.973815121643743,6.096587490366441,3.430196673112965,-2.4493366914728854
551,6.136163518049267,6.0250024138643985,3.9872008075994496,-3.213356222808794
552,5.314265254764394,5.987358964687826,4.9515595127246,-3.5117410648317047
553,4.326523870875462,5.943722172708077,6.0113316731499395,-3.5269216992369787
554,3.183849516389849,5.8336329135032905,6.78382546393338,-3.4969944386756104
555,2.0898041497131814,5.601288619660015,7.074510579046416,-3.472999560419086
556,1.1911651086221395,5.219475447394404,7.088231476427975,-3.4410860878317924
557,0.41833180934986414,4.699673442190302,7.111063009518645,-3.35486047636439
558,-0.3748662258206371,4.079078751467933,7.175697285503606,-3.2495980013569716
559,-1.209983043497349,3.3924023126671297,7.0503975800353205,-3.0531765848638788
560,-1.9215738171500085,2.657237069043162,6.409143515657575,-2.6292711754087152
561,-2.347474035723645,1.8857108324662826,5.191260775032631,-1.8761601672131194
562,-2.484342917102958,1.1132774802138319,3.5398589962240523,-0.7754962021724858
563,-2.450049190314974,0.3527536061290405,1.7717740278901437,0.5024384017240325
564,-2.459567296197915,-0.2851365890738008,0.1863454527831081,1.828634156607037
565,-2.502464230951747,-0.7267013483322726,-1.2281344669119205,3.373332066560229
566,-2.4161144775772767,-0.9418919433448867,-2.6045145021591947,4.93998673446392
567,-2.1492945765670335,-1.0172983606490336,-3.8478768643899093,6.210809647934033
568,-1.6973173806145847,-1.0337130653154503,-4.795974545919848,6.946645027636301
569,-1.2033128117506262,-1.0874042088710738,-5.343853735672835,7.09397062061979
570,-0.8445195346459702,-1.1366546282473509,-5.479432815454095,7.065465584892559
571,-0.7097605982082211,-1.1451879586874567,-5.41026568670099,7.060659713720591
572,-0.6983450927024104,-1.2165970203095706,-5.48347508724658,6.956460112686694
573,-0.67882522234882,-1.4581883023140714,-5.525959081639734,6.329161945474563
574,-0.6710650864316411,-1.9603187041970482,-4.999007877610877,5.206718775372397
575,-0.6914344722348278,-2.6858738981625896,-3.462735193926174,3.7490817578258038
576,-0.9266955106592685,-3.562928775236393,-1.3201624061858441,2.155745513806471
577,-1.5697723780298536,-4.482132401598672,0.6422544857785679,0.541623748953091
578,-2.826138221722684,-5.455592862746722,1.7577294233067093,-1.634621756101562
579,-4.753319305267559,-6.438969720218807,1.9420082152982374,-4.014818779105079
580,-6.805714999188206,-7.493198411706378,1.8279334292222393,-6.007964711741495
581,-8.433714349600447,-8.49637981688596,1.8259054960309224,-7.178023988882677
582,-9.265005344093314,-9.272875331081025,1.834270038179451,-7.497136232376432
583,-9.326191991343146,-9.72066764246319,1.1813446334914368,-7.2520983653229525
584,-9.321901452615691,-9.861217449958538,-0.2488218056578968,-7.249167148569924
585,-9.387121904710957,-9.787751400702609,-2.345606949067033,-7.4733151519309
586,-9.142847747730217,-9.793775003178418,-4.718314452487072,-7.15821215743815
587,-8.130302455297699,-9.881104245584174,-7.022597072342741,-6.126585205058215
588,-6.4787848101974985,-9.770532280273635,-9.256938490268166,-4.499600355953639
589,-4.572552724670997,-9.314947117371645,-11.200209948081614,-2.4903869576020443
590,-2.703202662075572,-8.479208673853222,-12.542484799401652,-0.7291878598505276
591,-1.275757742379823,-7.375808498559356,-13.18942674308397,0.311427465616276
592,-0.16797967081334655,-6.216834220802259,-13.216324574737744,0.8913498058081287
593,0.4757414729336441,-5.1739647803593805,-13.227190860682317,1.024892821413898
594,0.6711257999979902,-4.158025623409393,-13.307349973506168,0.9684331446310631
595,0.5929493363773305,-3.190247156797501,-13.077193603679788,0.927327577154605
596,0.5067152492757935,-2.2527299594114605,-12.130768602308063,0.9410245829918819
597,0.5471475756015357,-1.330330530300984,-10.544960442684005,0.6906144855290988
598,0.5449834980160999,-0.4266285931102476,-8.643499803208547,0.10418630291419712
599,0.5375503341851426,0.4308577506065666,-6.860762809584324,-0.9391754078365437
600,0.5301171703541854,1.2009261873822825,-5.439607413636126,-2.139994513273931
601,0.5454979102950014,1.8416426638148813,-4.0378684440345465,-3.100166648537319
602,0.5150904029345271,2.35779649833489,-2.6721375602684687,-3.644722562376073
603,0.47082102935731196,2.7325073707704735,-1.2597084864245391,-3.7415201060577634
604,0.480138493064855,2.9631325815873786,0.003992936868625396,-3.7034143366792827
605,0.833134024864631,3.0686643869960144,0.9086031055990063,-3.7121565788022757
606,1.4775145020728102,3.086340609854639,1.3756175963316934,-3.652803568774738
607,2.17853394751254,3.066208960644114,1.486295635070377,-3.2012779606642505
608,2.6723177717735984,3.0692303768036964,1.364552959513449,-2.4649068410654507
609,2.805519913969174,3.08237240221698,1.3275558527442566,-1.7062100050530125
610,2.7633728404167877,3.037299667911959,1.4823972541515038,-1.2048866405854015
611,2.723601183497411,2.9147846257165355,1.6616305290086937,-1.0815943501398255
612,2.7530428096259247,2.7079407852581983,1.8741580789976529,-1.1484843833697242
613,2.5463785346082433,2.4276796782469248,1.8883929419437409,-1.1324782276522305
614,1.9951982813604001,2.094173322333453,1.7950127686811184,-1.0837896532981213
615,1.128335131766572,1.725806693643285,1.878970303809449,-1.186925638723322
616,0.18723002052927928,1.269213819975554,2.4746699995174657,-1.4797413187531332
617,-0.5500758585799029,0.7898014002334681,3.6685115340808547,-2.092526817834119
618,-1.1225888077468695,0.3915691269829238,5.121938067100872,-2.860018974641319
619,-1.655380980396062,0.14523302062825233,6.307393199065057,-3.508967524866761
620,-2.1944504263537725,0.056067016985529405,6.875919178723701,-3.8518560943625344
621,-2.6613021511345254,0.08044678696450618,6.951556664961693,-3.969832749904861
622,-2.926201941471815,0.08613784417390569,6.961502963042806,-3.916794585072358
623,-2.935188736279373,0.059742757907524466,6.9954387653824535,-3.921567805661987
624,-2.915664167183937,0.10479014115850571,6.81879175396122,-3.984784115304475
625,-2.9751523065221277,0.2587162026034469,6.074098431303761,-3.7589868995767954
626,-2.910379713527036,0.5078688700858811,4.854742790133437,-3.0713932512352775
627,-2.5024616769215093,0.7975783347858851,3.405758647907314,-1.8702281573740747
628,-1.7510598549684862,1.0543476499151085,2.2054868595072894,-0.33197472621229324
629,-0.8509764788742278,1.2347591385985566,1.5727301525911865,1.2249528108349579
630,-0.08372655451128766,1.3892861502095724,1.2725000404584226,2.568789632251819
631,0.50552052070062,1.541119374510892,1.226362938856347,3.8910328555981613
632,0.9977018338045567,1.6852300457780371,1.2953240680458453,5.079460088622773
633,1.3998875694606472,1.8015941609276744,1.3167668628412035,5.99365877252668
634,1.6751598931153895,1.8724181259039034,1.2507604705878037,6.525114801419911
635,1.7775835264705004,1.894627917824772,1.1871274932713642,6.6771728060561015
636,1.7437569301488578,1.8854087894269331,1.1284222446539185,6.6019307247266665
637,1.6957922354825818,1.8741165887061744,1.0968566221069802,6.523893443846245
638,1.7181039705440564,1.8796700755453362,1.0993816670650072,6.5646238064477975
639,1.7181039705440564,1.8796700755453362,1.1149609695621132,6.5646238064477975
640,-0.18073335089632744,-0.10499301057321686,-0.07966455623210789,-0.13042145909400918
641,-0.41764190989369826,-0.4348296770795371,-0.33547644311840924,-0.3204359955542767
642,-0.6762759525639734,-1.113362887878862,-0.8858523865597332,-0.5768411521030532
643,-0.9268154195766042,-2.1862620781277036,-1.7996747266911817,-0.9028359554964926
644,-1.263551503492768,-3.5603549149654605,-3.0831757700805307,-1.357654304951064
645,-1.8575103503794432,-5.336042236686003,-4.651688883138406,-2.006336117728744
646,-2.727915441624133,-7.150017758692858,-6.6153664763765905,-2.893264110456205
647,-3.6553446452329093,-8.57905856222857,-8.594827126367026,-3.7997967534217585
648,-4.613542090160356,-9.381077760922349,-10.141427461037186,-4.474432587811578
649,-5.465787804273151,-9.542675616425836,-11.001865960111143,-4.809286321606231
650,-6.122691502809059,-9.485267707425741,-11.21556427563131,-4.869827670885809
651,-6.545104430783262,-9.512627671303175,-11.016580600136741,-4.789141603800492
652,-6.715155967383483,-9.470748003798718,-11.05290164665154,-4.814389793383673
653,-6.649735196150392,-8.755332486447696,-11.267972752565743,-4.878662375691254
654,-6.615514607173729,-7.217865287897605,-10.930157428868231,-4.738424987580307
655,-6.723267639509307,-4.933727161137472,-9.657692148907044,-4.30721282021056
656,-6.661353535990761,-2.2485566240341948,-7.274582747060293,-3.530208295905937
657,-6.217420835240842,0.4136453047641826,-3.9800192040999103,-2.452705037448676
658,-5.245672601408593,2.9148630335388566,-0.29049596598850447,-1.1251272364375167
659,-3.8435283803087765,5.3116412383615135,3.3774660593726025,0.13124358820971743
660,-2.319873677045031,7.315535384991282,7.178331860740839,1.1297157367267583
661,-0.9518771845711278,8.689355950886908,10.467263605555479,1.6569745226615886
662,0.3161518103794003,9.378993939040509,12.727524938168841,1.7322927110190836
663,1.6614400835488872,9.488372564234027,13.81193016232516,1.7048819274276927
664,2.9778433579029095,9.461952806764062,13.915662214538699,1.716393247652661
665,4.014997053275382,9.459310191780862,13.856434563888685,1.6361177740852089
666,4.57985215387488,9.363361707926796,13.887964841473439,1.199857319794236
667,4.686462649164929,8.785741890271131,13.683584243863326,0.3584876000832574
668,4.605026301753164,7.767419681003021,12.723963954344581,-0.6315901008389999
669,4.616374799588492,6.356934037143386,11.112329887188652,-1.4118842379653695
670,4.574778964429395,4.962412425869248,9.191669953431878,-1.7621560478808698
671,4.311092552566923,3.992601091085341,7.45890283310553,-1.8282246357884033
672,3.9551545641275414,3.4338952390515978,6.248253865573649,-1.7651261517476837
673,3.6453853279487873,3.274231520391929,5.210132811612527,-1.7934631439617288
674,3.516718442792924,3.3657864806587643,4.2889312128155925,-1.8334134012307748
675,3.5288829025734927,3.3811768034694754,3.516014486210456,-1.580682990777753
676,3.527845473699775,3.2938182311580526,2.9696841496591952,-0.8992752738897535
677,3.5207237399722415,3.3916963539535083,2.6954661255456007,0.3010988520710015
678,3.8496581266277707,3.7847076449569106,2.6886121455657404,1.996700809760269
679,4.6148588790352045,4.482518217704726,2.6721576521880803,4.034553929816305
680,5.725921145849878,5.492291030906155,2.6251059899572757,6.256819547950472
681,6.973069060396826,6.512754811406025,2.7507915580725815,8.576072191556417
682,8.253699862259763,7.236184832356317,3.226909794609438,10.985367096482257
683,9.698840329646648,7.650383691387692,4.041343578484739,13.540086835356254
684,11.572522000693292,7.7485328509006095,5.0200192413312426,15.874558089463514
685,13.555052270592247,7.674371888777475,5.83471377504277,17.571921408737982
686,15.12518160375974,7.678719281574712,6.264422496520032,18.41808859093291
687,15.955793439095173,7.737935386879105,6.456726712416456,18.459725871063604
688,16.078823710086493,7.5532197676470485,6.432140336955307,18.431866504303958
689,15.993278008565415,7.015065469661434,6.450310471450812,18.541566930395668
690,16.02747934876183,6.1000083389612865,6.523777158725525,18.322123248265044
691,15.982023149240472,4.920065494388872,6.430679338697113,17.193718268805114
692,15.336429626916408,3.6629215021690786,5.914499665684501,15.108872852880518
693,14.027355616346027,2.445587855034792,4.860673851356612,12.35041635740246
694,12.136094770490242,1.228060736580899,3.309094219349331,9.405672319837477
695,9.842769702531058,0.052239527869928304,1.4614725031479,6.614039119634013
696,7.3234237750856,-1.0642356824431292,-0.4401746711652924,3.70724401923433
697,4.585226115115044,-2.1051778940601604,-2.3746912123014585,0.8044732434466105
698,1.8516702989705767,-3.0504520368926253,-4.200334944885967,-1.9035491665455841
699,-0.5309753708738214,-3.875850491425071,-5.8185430116636025,-4.2210345009995445
700,-2.4715622350692374,-4.565583363609169,-7.159606539044238,-6.105943620403634
701,-4.175758932847591,-5.1294133530356225,-8.183382706241348,-7.664997406828878
702,-5.879175660905155,-5.609376142755711,-8.907372047858987,-8.98900166464502
703,-7.577510387851955,-6.072075868047068,-9.404069281446837,-10.041125959008333
704,-9.083863266617001,-6.590015058634212,-9.724701202068696,-10.73659679514345
705,-10.32171975688989,-7.218894668621734,-9.910116537879988,-11.100355996945526
706,-11.464674625070536,-7.958521418220605,-9.99444240069038,-11.298689419146257
707,-12.727136144025277,-8.911126085531846,-9.975663011570292,-11.506256528633863
708,-14.139779252665022,-9.900673741306688,-10.021916492709371,-11.76999754860864
709,-15.494571237494345,-10.692702485646238,-10.085178433854466,-12.08858381025847
710,-16.492049864492778,-11.143560718266507,-9.976764466402352,-12.52769612078856
711,-17.02281390192449,-11.232483795343619,-9.51338606280491,-13.019835834984207
712,-17.19604504830115,-11.224955832317239,-8.67384039472955,-13.459543962650477
713,-17.163660378218932,-11.22366047306173,-7.5903496086094355,-13.744697194242812
714,-17.17773634651008,-11.150568128878504,-6.489520433494632,-13.794957145987334
715,-17.21641291354059,-10.728306401437617,-5.662736305425507,-13.801730574005644
716,-17.14234509264461,-9.957152505387485,-5.122478911948445,-13.845103681709077
717,-16.792955469892057,-8.938813414571122,-4.888131253623593,-13.783833020541703
718,-16.025101373746292,-7.865224780088767,-4.835523959058297,-13.297973984791282
719,-14.746848410719796,-6.898295280238134,-4.854743998680421,-12.248914184997123
720,-13.069964224213459,-5.970791314213981,-4.819978123907132,-10.700295245767801
721,-11.287010717418436,-5.129633834991592,-4.715079822848278,-8.940860185627217
722,-9.573082485069698,-4.389177581871475,-4.662828635612604,-7.287287819697801
723,-8.097382449255662,-3.742381740355816,-4.668968879897413,-5.740427285246501
724,-6.733875752777395,-3.1544450619256947,-4.6302711047488,-4.276852323540176
725,-5.317164527387425,-2.5674592791227764,-4.410352255419892,-2.8329713364771956
726,-3.8885425700355745,-1.916051686688045,-3.914682379696047,-1.4464562253258222
727,-2.636884980940901,-1.1488053224588537,-3.086526219758395,-0.2017350996618028
728,-1.6263856226058513,-0.2466711904044139,-2.013954442579047,0.9075756948979323
729,-0.6791053774102404,0.7734914427026798,-0.7849125229701696,1.9992971381591276
730,0.4328902039377983,1.8703423404992134,0.5948939242139631,3.168189648260971
731,1.7224568554309876,2.993373487423526,2.093324972067171,4.365115350896897
732,2.9753208201518557,4.089418904146993,3.77254569762197,5.4445077068294
733,4.006973294443914,5.131644511349938,5.363025469223355,6.327854707506884
734,4.864132518904256,6.1374508072564105,6.5559239498220485,7.072669678243971
735,5.717550402013205,6.989421078444008,7.198256835436674,7.83107416534869
736,6.601374269457674,7.575096246732859,7.356969727517543,8.55619042983789
737,7.339102969130707,7.861858703433485,7.252872108506273,9.108620469305093
738,7.823895312588023,7.885212679294258,7.20036787530758,9.394896952889335
739,8.06110836480958,7.886116687910248,7.26026279150998,9.42990649104015
740,8.164505517850763,7.914354233408156,7.208983642919649,9.40626786027386
741,8.27734355952883,7.837145636287512,7.053125849222708,9.435232066046474
742,8.40873394268925,7.4521148936763355,6.781480279112954,9.4032085433187
743,8.49459439937226,6.7515649698293645,6.397870291290589,9.100820439153441
744,8.544262923909969,5.835019088310692,5.9283405743970885,8.521333967644273
745,8.580416328663713,4.881190303234512,5.41289682710288,7.743790122537127
746,8.53624547276111,4.0334320619122375,4.84908512394221,6.8709456110441955
747,8.490859426517217,3.218992031886387,4.335867189381172,5.951952419397114
748,8.426574245479959,2.4670722494168515,3.917646655178588,4.900853476355126
749,8.316243042187056,1.7902717226643166,3.578827271472019,3.713637031920018
750,8.194924877676833,1.2121321538256593,3.261006564067852,2.494976617023159
751,8.031737096841852,0.7541269020403908,2.8952928767708594,1.3152661334032376
752,7.693026731521707,0.4206717089128338,2.4318385550075408,0.16997495324064607
753,7.112016422206789,0.19790999256054023,1.8616479194602893,-0.9388087665217788
754,6.342606905894923,0.06178321270042758,1.2210685471018703,-1.9134048222607478
755,5.461368404932591,-0.013721548288956208,0.5635094838683407,-2.649967498443684
756,4.587980145002754,-0.05227607782527023,-0.0730669733028251,-3.0803167738217505
757,3.6273295879661482,-0.07438309864285789,-0.7343611373773471,-3.2597415684134425
758,2.4301483666535884,-0.09293567401086536,-1.3447459199208132,-3.3082140440935928
759,0.9030307157683665,-0.13349924005401959,-1.8056849369638903,-3.3193388646138353
760,-0.6101471848475936,-0.18976378334291483,-2.057615668624116,-3.3219987245360327
761,-1.709009114050855,-0.24252028062415043,-2.109051857068069,-3.3213638346851684
762,-2.2329966384844617,-0.27724919121026526,-2.0891484017896866,-3.3196191787176796
763,-2.317109049058411,-0.2900474602209007,-2.0731226595743215,-3.3553915994419174
764,-2.2278940821606854,-0.2864149873758613,-2.0416589687281035,-3.3283624251546398
765,-2.172018516210686,-0.2797951485531034,-1.9294448517162799,-3.2131186392951534
766,-2.208790728633576,-0.28268695078941286,-1.7957353875559785,-3.0488830667808626
767,-2.208790728633576,-0.28268695078941286,-1.6925287011984276,-2.8990899684406735
768,-0.35010989182036595,-0.12618265609869755,-0.11373273002490453,-0.22906416120681672
769,-1.0208344583003348,-0.529010756063988,-0.5047078438594249,-0.7110142221817709
770,-2.0133548553863525,-1.3738886259476024,-1.3294020407999727,-1.5065663954452586
771,-3.176728408466624,-2.7233118833851533,-2.6503286378203557,-2.5757947115989364
772,-4.391315491179247,-4.452684784442613,-4.348040742268362,-3.8365178764918175
773,-5.880253307865839,-6.6564852943666,-6.505748381452745,-5.469908227278114
774,-7.45594133412011,-8.877388055269616,-8.67527210791884,-7.193013504380535
775,-8.770637187195476,-10.605220626899019,-10.360097888066372,-8.597519476857151
776,-9.537519454745317,-11.564801963593808,-11.292257322913803,-9.400586058835437
777,-9.688744436008358,-11.780699074677043,-11.480928670475304,-9.593312698223286
778,-9.629731743491103,-11.652291662311633,-11.402806874844224,-9.445539655190409
779,-9.652841365732534,-11.662956368955003,-11.421207620364033,-9.451202601489994
780,-9.59946730903892,-11.719747326931758,-11.391506501622583,-9.56164072812424
781,-8.936973129873584,-11.143665254224787,-10.648554337178775,-9.22628405386128
782,-7.616346814066539,-9.739365537765984,-9.027997719795211,-8.287489241205238
783,-5.814678268943552,-7.513737001599559,-6.594496315270238,-6.742248687906311
784,-3.8168312689835706,-4.749736589923091,-3.7072415590299936,-4.757958864373477
785,-1.75345487655052,-1.841209469056988,-0.8123056952766732,-2.5509555637243797
786,0.620152879129634,1.0590509827594403,1.9909719827374908,-0.21721706752881875
787,3.341701470329056,3.9695739662804046,4.634609470148392,2.3224839005525366
788,6.130981917006519,6.754126826192271,7.024160130513177,4.843971799500528
789,8.616077253262471,9.288471501622796,9.099666671485645,7.175355040570123
790,10.648605241809358,11.658354369905636,10.963879328475011,9.326665514793604
791,12.346007316201614,13.638941707525465,12.48033209573702,11.406937456763462
792,13.853995611392588,15.007205160424595,13.510608127783387,13.70742947517462
793,15.082716263864564,15.700839253135262,14.029708039422923,15.924566163100494
794,15.87172364036474,15.838977440613286,14.105200978184898,17.60435330272687
795,16.188931430468475,15.742059191691926,14.100949120187884,18.49573979425322
796,16.178693602517765,15.724322268760735,14.11579069578069,18.692800906841722
797,16.14805833726369,15.760831446829084,14.01555728346262,18.504841117550857
798,16.178795529076826,15.466987346914305,13.46555190953613,18.508849953162223
799,16.111754715788493,14.76801050698173,12.450842298908865,18.656644593282092
800,15.82616813257971,13.672486603893644,11.084903067410863,18.399871243046643
801,15.412996608314067,12.329735752818339,9.599257466336319,17.59571077358184
802,14.952976683211787,10.93995518115158,8.195950066531879,16.20331860414629
803,14.392010778336388,9.56121087251407,6.790856066608826,14.339839833835327
804,13.54608737037975,8.159354751855172,5.465753269086979,12.231880153378263
805,12.192540825436573,6.755232240634371,4.268443251547807,10.073277388028554
806,10.405758491722953,5.362254955370233,3.2437179667282035,7.762321610672029
807,8.396046772506073,4.013817225896569,2.428018474925258,5.4533573255778
808,6.2175491576394775,2.7504387309260245,1.8371460786202836,3.1386735817595195
809,3.750495894475445,1.598599872834873,1.4557183102533873,0.7407360873399021
810,0.9409123811916869,0.5612301029863532,1.2434154233511034,-1.7429639399392083
811,-2.0315782018879407,-0.37445297528354166,1.1495607145747755,-4.190213637803051
812,-4.8847187358056505,-1.2243647710393206,1.1142825391665248,-6.4752433877026165
813,-7.490166409531479,-1.9893458702791402,1.0612988781276196,-8.615098743692373
814,-9.893661106384721,-2.7242661857512878,0.9050568962397951,-10.702329341655787
815,-12.29323030371413,-3.358896181431571,0.5806435926423859,-12.986444473280432
816,-14.424051118719484,-3.809323136672677,0.07866594565182644,-15.155344497606066
817,-15.929245540661645,-4.042454633367521,-0.5484788692337633,-16.773250400661382
818,-16.663877052438067,-4.083806377649374,-1.2208510020089494,-17.617623967853454
819,-16.72142395683823,-4.064034734895445,-1.8751513418570185,-17.79445508315944
820,-16.734125156517173,-4.068409770223393,-2.4820153370559748,-17.61207397736648
821,-16.807272298345517,-4.058572568711567,-3.033259647969183,-17.642690038174216
822,-16.596161532257554,-3.879479014424157,-3.5213068141001926,-17.7926846335604
823,-15.587801652614807,-3.5096034585703646,-3.9284643625870506,-17.466729425443248
824,-13.81330963807149,-2.9376911346298713,-4.231415409036456,-16.454506525311384
825,-11.527462366044713,-2.2893635308204536,-4.4183846748441535,-14.675830233993063
826,-9.119075345152924,-1.7612550650440248,-4.504904109465498,-12.26155603597605
827,-6.763434376125448,-1.4302517574083171,-4.526403778626884,-9.519657691733647
828,-4.433132537581284,-1.2998703983372568,-4.511013431901768,-6.755764858743103
829,-2.567246394036722,-1.3298287958167307,-4.519466395680086,-4.02941480242359
830,-1.4661821957843912,-1.325228226097571,-4.545961546171676,-1.3903647903967722
831,-1.1110563502345288,-1.2740919600212608,-4.528688419647737,0.8401595090591567
832,-1.2239893245333107,-1.339843036294674,-4.384505629706185,2.403984577670996
833,-1.249280739917285,-1.661541172277608,-4.049247713467144,3.2344975729571956
834,-1.1494511397895888,-2.3026965537799997,-3.519438677854885,3.443858504806654
835,-1.298728684492552,-3.2366005416587758,-2.867518541621147,3.3196588640636175
836,-1.89788917898154,-4.338358908120606,-2.169090803824002,3.2633333170392564
837,-2.76854371041468,-5.454727668022629,-1.545326812162747,3.342649080769628
838,-3.583634944489442,-6.549809248555588,-1.1136283138606298,3.133570671568943
839,-4.04468095697332,-7.593449174460956,-0.9034239427760007,2.589983449590029
840,-4.07417256393893,-8.461312747859996,-0.8811639906855642,1.6802834565990281
841,-3.980905220453844,-9.055025411864275,-0.8841602866463593,0.687501317266331
842,-4.006135090095078,-9.354989849808174,-0.8740114385538473,-0.04819813940374469
843,-4.059114994533581,-9.404093599970155,-0.9208416128427533,-0.3870162586432755
844,-3.9278266792339793,-9.380883780967537,-1.153337658449543,-0.4506720960196776
845,-3.621088997643197,-9.400439124571001,-1.5686094258872145,-0.383517885149464
846,-3.1591323103204756,-9.388434834217142,-2.1042673228687274,-0.40257138337135084
847,-2.5460769391979596,-9.095717162296602,-2.6474170577379397,-0.4331033333010163
848,-1.8140448210032043,-8.44285378093846,-3.1081623486942473,-0.23713903979680206
849,-1.0495718188961636,-7.450824100731425,-3.539169229367906,0.19639990012608022
850,-0.2487205610608659,-6.264325733943618,-3.9859349360035785,0.7765327805082265
851,0.4343241548961054,-5.079364869929808,-4.40762135528586,1.4096454055771692
852,1.0672110064495106,-3.98065025866123,-4.736182452539527,1.9136127859203989
853,1.7935740752403513,-3.0468702993751373,-4.923790931770476,2.214045706485157
854,2.5983268956458776,-2.3484659912838737,-4.959573044335947,2.3922584225186854
855,3.2791718602105906,-1.9003600750433827,-4.955750610799012,2.4382796490902003
856,3.6819374350850893,-1.6619617077869882,-4.956026086078373,2.4260123389202737
857,3.8912067091706057,-1.5499555752215401,-4.924501364729894,2.4201657397881995
858,4.122782577713037,-1.466562452825273,-4.747341492644467,2.419443841651924
859,4.465974712140835,-1.326854587728962,-4.412071304872227,2.2913816880555777
860,4.815330280047455,-1.0760700378654446,-3.933006577840804,1.9909090292273295
861,5.07881877644277,-0.692582146605826,-3.3506383719455353,1.5499972952743324
862,5.378716875534609,-0.1742224916669932,-2.6944300916989166,1.0507739389693742
863,5.940658230418026,0.4792817556339158,-1.9169150517994877,0.6395847978945072
864,6.895752012738572,1.270271718354528,-1.0529805470996134,0.37711037063282304
865,7.97042657151264,2.1923012473953114,-0.15242014520910627,0.2704810821222194
866,8.795929260085071,3.2189219873974233,0.7369583981176193,0.2682727938768075
867,9.19239985136819,4.306274436038709,1.5730984653909448,0.26711608832252454
868,9.215251343868559,5.385208982252617,2.2447569837213766,0.2515547953780547
869,9.195299209997737,6.49401341417752,2.6757697842298587,0.2795964752917707
870,9.242623673199404,7.485645053152633,2.8668935819476387,0.4377351882201099
871,9.159018284502318,8.203365073186298,2.889223390311471,0.7642896458477839
872,8.727228441319937,8.580420994771291,2.8556230525472155,1.3051092360145908
873,7.8198532826537885,8.660265897492526,2.839976130817478,2.0630367859079675
874,6.699035745659287,8.60428868036748,2.845114286789743,2.959962223840278
875,5.770600447850895,8.60389846093232,2.832280297725729,3.9262592762424156
876,5.311964135324655,8.631040773910515,2.8194463086617145,4.893121982040263
877,5.234912890413968,8.446763933950795,2.8172045936973658,5.887905178107436
878,5.22689883145941,8.018911574339025,2.803903878656428,6.989481804325967
879,5.2465801280723,7.350990290626097,2.800741489813431,8.152708032938317
880,5.333686707804384,6.6265747064995395,2.826964042937973,9.154014478245124
881,5.74088704105744,6.085496265809868,2.8954586877497213,9.80519021983642
882,6.465222197085121,5.821517994001467,2.9869929415866254,10.0809966535682
883,7.765357841865734,5.727082940309229,3.0814147063512465,10.125223983876714
884,9.379215035645721,5.715242129175689,3.1655561023140537,10.11017808081044
885,10.815529500893724,5.673578675498252,3.3167955974045,10.112829002576703
886,11.82872842582002,5.559289306735135,3.5484765807032614,10.096214618166353
887,12.213905458947304,5.429706553315447,3.781073819310305,10.122645511046652
888,12.028370177410252,5.40195287713764,3.9383530026872906,10.185735897528724
889,12.08288101936921,5.426766332789543,3.9881009292679233,10.148466975484087
890,12.361440485829936,5.356676320471321,3.9551129032040317,9.804089235990743
891,12.155160725340805,5.101257611744289,3.9957918830643204,9.039965847583954
892,10.326554566133558,4.333832605000685,3.9838737415221543,7.49429003696881
893,7.234417972058952,3.241291614573491,3.83155961080046,5.566064420052156
894,4.015866614553151,2.219269026629008,3.6002235529104674,3.8994498494996037
895,1.8730294719597884,1.600476179974625,3.3798295903649533,2.8720270458936374
896,-0.3096508154133225,-0.1309449735961108,-0.1351522955764593,-0.14443545107965342
897,-0.9434134101669598,-0.535498577505808,-0.5586105811133253,-0.37622115428496994
898,-1.8329723035910548,-1.352310985658026,-1.4216033898332994,-0.6496046729059305
899,-2.8576061540667914,-2.6137191677989264,-2.765392348447107,-0.874563595471384
900,-3.7272684242641,-4.193488611868977,-4.480118816257236,-1.0375598019695018
901,-4.300218827499735,-6.153081462637831,-6.504296257563345,-1.2370023005913198
902,-4.584047954654291,-8.172727813994545,-8.670129785355149,-1.5391374323383271
903,-4.6565316956076686,-9.815825232229741,-10.556546410980296,-1.8825433155905498
904,-4.630104561975751,-10.803561994353647,-11.827226294740143,-2.1401740320822533
905,-4.592338285018361,-11.134865232770995,-12.399374102696129,-2.269176363030701
906,-4.6093222878834705,-10.978838003671157,-12.382315096892475,-2.452728605303094
907,-4.545501801594645,-10.993963105331249,-12.3821209798095,-2.7509366456089612
908,-4.312005669678201,-11.198014593048425,-12.495430705720663,-3.0983575936513494
909,-3.779818237807062,-10.959413000990187,-12.304730726033547,-3.361396541881639
910,-2.944194971563397,-9.87545277121801,-11.341036185628326,-3.4518191487866456
911,-1.9613682883466206,-7.7635605979740845,-9.473670815000562,-3.3806678830090973
912,-0.990585918555765,-4.771459943917238,-6.819780333295163,-3.4160236711565535
913,-0.07937488792698866,-1.3377997575048806,-3.7259688422987978,-3.5136090204559842
914,0.9130197098065245,2.0774188481395433,-0.5320421064231264,-3.340246796108911
915,2.1169735865083656,5.519754017613256,2.8799005013256043,-2.7064129233371075
916,3.4471414423154814,8.697833175730945,6.3111246357726865,-1.56313150115386
917,4.645378451877257,11.670948944755226,9.721367503477511,-0.015447661762648002
918,5.826042666575635,14.141961060139987,12.982981393054011,1.7103867409366162
919,6.918199623102074,15.836957638525966,15.643266680349711,3.745597505583967
920,7.816901409386174,16.691635574520067,17.359405129718755,5.893137009751179
921,8.406241862194255,16.82789661011411,18.105293850647843,7.649834847890178
922,8.595469825631598,16.789998270183347,18.108178594295484,8.671529459096735
923,8.547328405239428,16.802230418923862,18.06674116554221,8.929719507213619
924,8.520716028079134,16.70191830221824,18.14357178603063,8.738704168306159
925,8.55302227692,15.941283381179849,17.961973836600006,8.774057254319919
926,8.181324647017115,14.44911275460602,17.12116971384925,8.93531708983131
927,7.239946557967332,12.341747906863931,15.636403707636559,8.41387125630054
928,5.7581763874972784,9.948896758717481,13.735068359990722,6.954696893521153
929,4.03873836034155,7.613567845681253,11.796911942973537,4.615968623485978
930,2.4235840530184993,5.310641993564779,10.112200021730992,1.799801930251839
931,0.9262803399389044,3.1771853957114065,8.503406307287824,-0.9739250626155574
932,-0.6271395423214985,1.317804281883541,7.059118175315481,-3.4047032285206007
933,-2.320102106627825,-0.2501179665174218,5.802325673581044,-5.687300397960978
934,-4.0764240882793725,-1.4098069321675268,4.73509439068667,-7.505686725921249
935,-5.53514924259434,-2.122270873156343,3.8345328945002763,-8.648866458734535
936,-6.43127206490548,-2.4255593370804878,3.06386675560535,-9.130375591353769
937,-6.7843941297555865,-2.4890432326779974,2.4020082134237297,-9.166121146446523
938,-6.799173265246548,-2.464588431181695,1.8582169347921074,-9.103308289425451
939,-6.769521295335266,-2.485959461309392,1.4462470946861035,-9.098007055338176
940,-6.7633865760527,-2.5671232907752977,1.1503291779982099,-9.078900311984565
941,-6.717738028124944,-2.608424614292821,0.9153715824558972,-8.863468560911427
942,-6.553926837606671,-2.6519856814955967,0.6552493532926169,-8.464846924740685
943,-6.155150074587088,-2.712170094282377,0.2817343511759124,-7.848779426412783
944,-5.61475906096748,-2.808648142459024,-0.24119729054147915,-6.878511851814143
945,-5.123799606307475,-2.9550780077378023,-0.912248868390672,-5.783753484897326
946,-4.831665287781839,-3.1684316061867612,-1.6231788506145255,-4.81647663895715
947,-4.699511203277145,-3.373669120389659,-2.23116572710346,-4.211999972077484
948,-4.7674964284564645,-3.526670323556025,-2.62994349557865,-4.073165091478913
949,-4.836788443040838,-3.610389225211209,-2.832882412117066,-4.17388474087545
950,-4.6849612283427335,-3.5940579194617572,-2.8677952818818806,-4.205694710392973
951,-4.567660279180328,-3.641777721741468,-2.8498087511064343,-4.078755195605855
952,-4.499844677683485,-3.662116096263781,-2.9113764690505692,-3.985332870602988
953,-4.542261161486228,-3.515871678437225,-3.2335488677416335,-3.9200580137139993
954,-4.729429607904129,-3.2191396932210563,-3.762904789241317,-3.9047856883623884
955,-4.999878093333973,-2.886958842995591,-4.309018236814731,-3.9282106522268054
956,-4.9825561430782,-2.6485105695151754,-4.679816268614543,-3.9271828922404732
957,-4.940558496828136,-2.610260460312523,-4.720710029831485,-3.9248447676536435
958,-5.343992890174038,-2.6353896031870154,-4.741741101034799,-3.929204318982267
959,-6.394294024401384,-2.592986277080101,-4.84952286248182,-3.947542348129976
960,-8.058344849572366,-2.680235834283611,-4.771737851640648,-3.897582057227444
961,-10.234182284005238,-3.0262869536379027,-3.9267016920000484,-3.814556310696671
962,-12.266726698970002,-3.5823605174827815,-1.9724484758937817,-4.001926411257099
963,-13.638661766610545,-4.1559295463164005,1.1954978448679756,-4.564068152121045
964,-14.413347022386988,-4.538452995930536,5.394034069696079,-5.326478545890554
965,-14.595238560387928,-4.643237801691374,10.240484656464558,-6.00007176610575
966,-14.532261545348415,-4.629396807894265,15.645723053193741,-6.345475088793185
967,-14.531558285464294,-4.621790387434369,21.65912542594625,-6.2738311263368995
968,-14.539465690020256,-4.64486180678474,27.21209051734285,-6.291693621774235
969,-13.944197170862983,-4.61465942473021,31.233769135456953,-6.418575645186839
970,-12.454331810935265,-4.437048343803849,33.282202135865106,-6.2234887955247205
971,-9.897434944591312,-4.064433809407504,33.3656376484383,-5.395850113286837
972,-6.397937721870643,-3.5032360194053407,33.512258112445956,-3.830935258994123
973,-2.2417071389859213,-2.830970613625715,33.97668306684386,-1.5627111296401925
974,2.568942098661202,-2.1415931651311095,33.289551731166625,1.3525143783267217
975,8.136955391969114,-1.4383810274262208,28.991574687275943,4.98111132705386
976,14.519476795285039,-0.7517505395657975,19.788212484131268,9.696118677688496
977,21.571599873697963,-0.05779041681151148,5.220066533687018,15.35156040113624
978,28.87465712242368,0.6789141101856209,-14.175743046057514,21.618023130041855
979,35.95884528053192,1.4655901619944187,-37.564595760560245,28.13813851923021
980,42.52844532294997,2.2796852993489845,-65.59913429490211,34.557965882618454
981,48.958728519368854,3.0910331958152706,-97.31772812908739,41.22519888145588
982,54.6095655906309,3.8783649483161087,-130.66318721187912,47.28472707797079
983,58.68109519133243,4.645712665514886,-167.21183023707113,51.72969058475878
984,60.79384608501539,5.425530864676281,-202.06422157720417,54.07801717085315
985,61.081481959464966,6.245755265488052,-228.90846596317735,54.491588548334086
986,61.038536741085906,7.079838027828977,-244.20958253173373,54.34583981676971
987,61.146892890361755,7.991087679915648,-248.80718001907408,54.3688587309257
988,60.759176940218794,8.847300288948897,-246.00363841685706,54.13957408008662
989,58.4178716581231,9.490289241536978,-246.16288993036423,52.22011216105363
990,53.9755885103998,9.840979913760618,-249.41660076088684,48.54301992797567
991,47.87854757371735,9.898153261319111,-245.65211020354712,43.5282299983053
992,41.01527594100033,9.903569715652461,-229.43008384493498,37.99294749846006
993,34.0520655420454,9.928825237265908,-198.34779147309004,32.5734299902285
994,26.457826447945315,9.85856104190521,-154.75455387655904,26.8555763568231
995,18.461772394245962,9.393741613632015,-104.7490599195483,20.788943675265248
996,10.412473109369015,8.46982248965679,-54.09437963007092,14.487735414223854
997,2.6751540588573595,7.1546000751290615,-0.6735447701780437,8.072471950569666
998,-4.610669946335167,5.645328344756762,52.84705365253626,1.6104592014337387
999,-11.488629469226142,4.143848310394402,104.80787090589773,-4.837443881415368
1000,-17.919009344685048,2.632817243201991,153.74590246095744,-11.11440868125472
1001,-23.65093576813266,1.2031625724901591,198.46086196526167,-16.97042689654596
1002,-28.417771704666954,-0.06881926608980193,238.0658095855195,-22.20088556699288
1003,-32.214760702652214,-1.1243706564373799,272.0030329127132,-26.767857032021926
1004,-35.30039796539632,-1.9425447392179194,300.01599288581696,-30.753808765626438
1005,-37.90516699574241,-2.541602942858331,322.11648956328895,-34.21100603843507
1006,-40.007954199430024,-2.9597373495944064,338.6036616834273,-37.11012880700175
1007,-41.44846778964267,-3.239285508335738,350.1153911706914,-39.43334194067612
1008,-42.266317773375896,-3.4244789025178375,357.6065547998404,-41.33520917489133
1009,-42.633428539446946,-3.563008544655034,362.14633375740385,-42.89959048297002
1010,-42.82090428472455,-3.704384060899028,364.9583594028617,-44.111566080666854
1011,-42.970735845076135,-3.89294702225144,367.1984037258768,-44.89575383271659
1012,-43.079438999133316,-4.163121392472808,369.1622522422708,-45.24180306579904
1013,-43.11369019353782,-4.543566507882331,370.7023910301542,-45.27658151750669
1014,-43.12199393419767,-5.025521772075154,371.60099328208344,-45.23900142941643
1015,-43.094938119588655,-5.7446514781779685,371.21741079284334,-45.21411045257532
1016,-43.13148111363199,-6.564789519860385,371.91273405921595,-45.22413863827016
1017,-43.16126289357617,-7.2689224771631435,373.2033763634314,-45.227331611719904
1018,-43.00075459350286,-7.698311042269926,371.97011611676163,-45.132143118144946
1019,-42.66397945387216,-7.8282467888088965,365.94555347510834,-44.95094298439392
1020,-41.52318634696002,-7.770881774888356,343.3724595373146,-44.13439240197504
1021,-39.7871596379993,-7.703566873152403,308.826522966921,-42.804302600189814
1022,-38.04916000611063,-7.736586637944023,274.6906097283322,-41.404370517822045
1023,-36.89888198682345,-7.736586637944023,252.56823677989865,-40.440583179428515
1024,-0.277806877175798,-0.09915816100998254,1.2989675098452595,-0.1891118135580929
1025,-0.705961747670067,-0.41871616712257587,5.377398185869469,-0.5681332264969645
1026,-1.1596340422269327,-1.085122686321401,13.701333779364903,-1.1265725558783908
1027,-1.4677011859262568,-2.1136620958621,26.066833535527742,-1.73046985448357
1028,-1.540582967040465,-3.5672846285183546,43.90064930627779,-2.193624308758801
1029,-1.489728311059928,-5.23435912768379,63.177827733999955,-2.4517117413511795
1030,-1.4837914737540643,-6.701063125929806,78.84150331979528,-2.5441594864400314
1031,-1.4869403290537526,-7.656481692216858,87.85108174552478,-2.5275901046738842
1032,-1.3848853358223563,-8.035850912722399,90.26515899526562,-2.5485796942775716
1033,-1.2170210440711902,-7.957793804229694,88.30235310860272,-2.574952668114148
1034,-1.0443976567505655,-7.959314453704993,88.4353444564128,-2.5057242753339115
1035,-0.9329466616863666,-8.089534773163958,90.45778418382777,-2.250480750420729
1036,-0.9121508571440707,-7.902298587205351,87.40811071755783,-1.766386429898669
1037,-0.9335988702855346,-7.076569897158034,76.27140300674941,-1.0657622571880339
1038,-0.9265473995899589,-5.550181283740127,55.865173764720666,-0.26803208757611885
1039,-0.9165318843557202,-3.5190843477712592,28.220429420703624,0.43830342738606604
1040,-0.9141470525581641,-1.3770952182090006,-2.3336014527412594,1.160518987087237
1041,-0.9116562407344491,0.5233147924170709,-32.03406086578467,1.8163527673294841
1042,-0.9088330396605315,2.272768078308887,-61.76518496090593,2.340800211494481
1043,-0.9395874510981467,3.7519639834499197,-89.69321846662078,2.695994826368336
1044,-0.941096289500645,4.921969642974708,-115.49711440735823,2.859424972480217
1045,-1.0109450765194485,5.787943998823195,-136.319425151979,2.8271571956353188
1046,-1.155196206996157,6.3596408729989395,-149.960682111017,2.817751874496742
1047,-1.3227174388785141,6.679526925731344,-156.2998707625986,2.8915876670077614
1048,-1.4561151985484364,6.818967744982913,-156.87481013349057,2.828959306182408
1049,-1.5088153181400945,6.8522206739619484,-156.52712972500407,2.4224106837251367
1050,-1.5249485260604023,6.833767773298243,-156.78433575079563,1.5767742507609657
1051,-1.5731142426315372,6.850098630558552,-155.7724896603615,0.5509758649724987
1052,-1.5697111284687424,6.915339228673797,-149.87581808921715,-0.2799136782035231
1053,-1.1851572635346588,6.9933807140361575,-138.77815419273563,-0.6678788376529716
1054,-0.3679023381649241,7.060385844160568,-123.43596201640796,-0.7248977757183489
1055,0.6738867426411466,7.081330818494972,-106.06559422534761,-0.6588135830467976
1056,1.6182113294638025,7.088580931645475,-88.65764196635749,-0.6522245891286681
1057,2.2702260569016928,7.108693394068541,-70.29549711158865,-0.6443955121853788
1058,2.712281360448028,7.095573002477565,-51.92859549307316,-0.48688268805916424
1059,3.110975585435311,6.923386745967181,-34.152995733313155,-0.212652875743381
1060,3.4082210199283662,6.536914492979852,-17.504707641818392,0.10900595926359971
1061,3.493250288484627,5.956267638413136,-2.426988379424025,0.4320630261535957
1062,3.637050032325817,5.285985585851715,10.759630194693557,0.813243417048706
1063,3.9593295088170137,4.6588788456259485,21.884656557723932,1.3930266823621875
1064,4.417790720051613,4.117219198465375,30.93790111580187,2.3248480293661733
1065,4.825667128169958,3.6612416286850142,38.04399613694343,3.3866566494245407
1066,5.006833548998728,3.2696335076825727,43.421712092855145,4.25133051063114
1067,4.942427829976843,2.902348108786576,47.35709014564697,4.722909968744991
1068,4.934722006550092,2.527639023731236,50.17636423506083,4.78884895407214
1069,5.023049548599615,2.131422111439737,52.20271260081666,4.792484086003182
1070,4.8151241116001,1.7141695879883982,53.71190442408297,4.813915018214767
1071,4.188857171073898,1.2836762661160313,54.90292102430501,4.6941456754859425
1072,3.255799553864456,0.8527882861132867,55.89066652786822,4.146293299110223
1073,2.362494794458811,0.44523970537988683,56.727456916644485,3.2165849516784033
1074,1.832332952352495,0.09615788308179582,57.444958773885915,2.058158665315441
1075,1.6719815004275485,-0.16307957583916927,58.059039861327186,0.8701700047279415
1076,1.5137615879472144,-0.3236505268494027,58.76339727364965,-0.21719816172671508
1077,1.1963309924369439,-0.40624481059020245,59.50879394988224,-1.3210257907958955
1078,0.79124135596702,-0.45282416098539957,60.1483621362595,-2.3392828616397905
1079,0.45704766684474263,-0.5078817769931668,60.54984189992877,-3.192631090813096
1080,0.18989332886052604,-0.6027609100800569,60.67131811767762,-4.05956125157287
1081,-0.18039816543501858,-0.7535952354689955,60.56515731045415,-4.914443496032977
1082,-0.7552105014899255,-0.9642674516029422,60.6226473279731,-5.637436274231374
1083,-1.4179906076105162,-1.2258466782900528,60.7728747030859,-6.094458538974442
1084,-1.9741978766774604,-1.5208035468677998,60.494351567150815,-6.224027820769458
1085,-2.3909172444154905,-1.8351094540195305,59.42225346128378,-6.1607954949402215
1086,-2.827510877754181,-2.167350176450675,57.334618291090514,-6.166908275109323
1087,-3.3696650749300026,-2.5279493064746448,54.278856783158496,-6.213286063021149
1088,-3.9157566163462163,-2.928638822383011,50.53858758121658,-5.9302265578149
1089,-4.285647094061526,-3.368346138876378,46.40947530474468,-5.2203238723407
1090,-4.455876445949589,-3.8296490267499577,41.85868909588325,-4.188634262077041
1091,-4.52013993204936,-4.280741520622483,37.104502934793615,-3.1447364876705457
1092,-4.590926090978037,-4.736593806222023,32.32334099188512,-2.3742306747638073
1093,-4.685457645536005,-5.139948410179858,27.6661148821902,-1.9310850357192406
1094,-4.736102519835711,-5.431176790550687,23.248335446913693,-1.6883255410641311
1095,-4.724795268809901,-5.585166670274103,19.151914237759517,-1.5377634593739091
1096,-4.713517837950173,-5.6216060509121695,15.429191409021483,-1.4420692135960564
1097,-4.760496067238239,-5.581693267245573,12.100421539431366,-1.4321732997329095
1098,-4.746694619109787,-5.590626646379404,9.14487512087503,-1.4102917996593065
1099,-4.531978853959254,-5.638511245119831,6.502553814484623,-1.2243678415306956
1100,-4.073003669513682,-5.582748539508355,4.100699228308114,-0.8469698910844302
1101,-3.470767736694953,-5.327811386463281,1.8908407109705752,-0.35895488643848533
1102,-2.849363332691592,-4.808131694819651,-0.1329226443722875,0.15878509530351054
1103,-2.195368125638556,-4.031848953105326,-1.9475299300146858,0.6493906733232511
1104,-1.3201969231189317,-3.077436362235165,-3.5316329701627485,1.176990000458136
1105,-0.07745070166349133,-2.040937637806734,-4.885033120117824,1.8273781690368396
1106,1.410735586722113,-0.9304364731628125,-6.028835227481161,2.5418715034687374
1107,2.8503096122954394,0.18599960975146107,-7.002486088120615,3.2285473154833197
1108,4.322809434084448,1.242659395368032,-7.867426011727481,3.994366099295916
1109,5.69016568076628,2.3088014989024477,-8.70904603632886,4.911420381909208
1110,6.786521733506828,3.277343187880951,-9.618873008927185,5.837595935416765
1111,7.469285908461348,4.00529013292418,-10.656247619443443,6.550657166507823
1112,7.686207405346909,4.413569105192849,-11.822656803970078,6.901608214848407
1113,7.563102361907049,4.5302920682073236,-13.071646286844928,6.894697795345886
1114,7.539233996682704,4.450988051290666,-14.339255962925597,6.871746826277168
1115,7.684213362740109,4.450953174836957,-15.57108947127821,6.942449155212256
1116,7.464007042326939,4.535519556981399,-16.728895218071493,6.844337897504927
1117,6.6243458225648775,4.43619726109144,-17.783329913614168,6.330956212126891
1118,5.112543359219732,4.036250502206317,-18.725588362682387,5.393306945316487
1119,3.2153256267484887,3.29627348289343,-19.593457984998505,4.212422713242856
1120,1.3698283803094118,2.2954389492139464,-20.46288831344253,3.0643769849077014
1121,-0.18522337420118973,1.1933508359388125,-21.373929176111297,2.1247364800078343
1122,-1.6325304765768394,0.1207417453581312,-22.406283880538943,1.25146363950283
1123,-3.017803169796135,-1.0055961220368497,-23.388423699120498,0.4387216454236553
1124,-4.21597334043117,-2.148825688800769,-24.116020144756337,-0.24920995866184611
1125,-5.120467008231993,-3.2633048449555946,-24.496115385965492,-0.7372000713146055
1126,-5.658876416243067,-4.401215455739857,-24.571640586556633,-1.0478298401019046
1127,-5.907212524659996,-5.416041593397585,-24.51705588163446,-1.2813011431581314
1128,-6.009615445184759,-6.1482764180989715,-24.516993016017473,-1.4968091436495565
1129,-6.044748635014478,-6.53163553354367,-24.54275384322946,-1.661518515113582
1130,-6.049383383652219,-6.595701241845659,-24.34946229116359,-1.7371821074043494
1131,-6.0260705338906515,-6.5806968065856255,-23.858555829418716,-1.7923277445727501
1132,-6.0284833299272576,-6.591532522150274,-23.05538984200892,-1.9874580687336785
1133,-5.992432830985126,-6.54609957709601,-22.038876920019565,-2.432382063215845
1134,-5.825758381288665,-6.175880720290272,-20.975134282965136,-3.0865715411986474
1135,-5.510548029907763,-5.432425832909757,-19.965956684870356,-3.8247962024571223
1136,-5.135401130449973,-4.370411903605227,-19.044930367282515,-4.575448196982873
1137,-4.799918068882499,-3.1631379043925514,-18.26444372493652,-5.3476622429910705
1138,-4.611669648031084,-2.0016292809507803,-17.63070240346185,-6.154831422601566
1139,-4.583407979291678,-0.8949098789007115,-17.128387414757103,-6.87308799463062
1140,-4.5370790150053635,0.09819555873576652,-16.727470042413792,-7.3642768163668535
1141,-4.3621707608438145,0.9473974644250724,-16.382147347012854,-7.58101683471121
1142,-4.158737898219028,1.6354965458881945,-16.029310656400877,-7.576017893355694
1143,-3.998088790205161,2.1541753461312583,-15.592816230595284,-7.573343520440328
1144,-3.8231261546369235,2.4911549380142834,-14.99806715429997,-7.614462768109035
1145,-3.5202619144782017,2.663784245785704,-14.18983922012006,-7.546677578017627
1146,-2.7780604325990272,2.7206676509147627,-13.13507252898209,-7.205225119260077
1147,-1.7148032442539578,2.7208322594509715,-11.906523504793908,-6.6645905801874195
1148,-0.7174140867890983,2.709343074339054,-10.098533067438673,-5.594599146382989
1149,-0.09566418408581968,2.7062327266918933,-8.011472892239135,-4.239302903268035
1150,0.10267584405251323,2.7105552752297366,-6.180399170434574,-3.030855898693727
1151,0.04882914896554819,2.7105552752297366,-5.0278222830038635,-2.2033892055331483
1152,-0.3192775970235674,-0.10578751775738776,-0.17848053478559178,-0.2354940448387628
1153,-1.131057653080286,-0.43959340139319936,-0.7190244639862677,-0.9689058302335658
1154,-2.6353633817635993,-1.129087860666358,-1.7779710320706241,-2.2047393182568706
1155,-4.393078108603295,-2.2186025005965093,-3.3402427288105407,-3.537118060137815
1156,-5.803091162620208,-3.606187193290811,-5.268206987464655,-4.505470545985687
1157,-6.5569004061880145,-5.369944544707103,-7.486636235291566,-4.9295400633483215
1158,-6.66740715973803,-7.147957535458777,-9.544507419742573,-4.863745173840196
1159,-6.621874965146784,-8.533390330424606,-11.033260739565346,-4.896777990316662
1160,-6.669836392215109,-9.303621373164376,-11.788026737919925,-5.023602622808136
1161,-6.571266638240943,-9.496187841107798,-11.85373895654303,-4.770266152020227
1162,-5.821948765862368,-9.344540267544017,-11.860820375921433,-3.8181566591017937
1163,-4.4128258811640375,-9.340931749181005,-11.944272506951398,-2.237940157262914
1164,-2.529680686386655,-9.4740594659387,-11.746417051818604,-0.10497063316180594
1165,-0.42801626630297235,-9.220855729805388,-10.672041245550135,1.955228410094079
1166,1.5028439554555768,-8.404262189661248,-8.614812283418676,3.354708674526375
1167,3.078625781422217,-6.981970273062191,-5.772185110608291,4.1835064846998895
1168,4.113223413158011,-5.130669463395505,-2.6219595222319647,4.426998147552691
1169,4.5304446950414965,-3.153784819844999,0.36466450051527,4.298511158839282
1170,4.5059660546846,-1.269656445647394,3.318416658135421,4.235282023528411
1171,4.4572220905019915,0.6128722291455759,6.081109100033197,4.3474224217150566
1172,4.455213368298946,2.3842123077686974,8.307301586678136,4.247949202569114
1173,4.3661902082688915,3.988473083400654,9.741630255784084,3.856733778565048
1174,4.168974591562572,5.398236279968296,10.374317949884514,3.2113021809151863
1175,3.9612083477882947,6.618482492359006,10.435715427936149,2.523387906598695
1176,3.8218884132015583,7.670806064091091,10.332019656580256,2.0382646520856813
1177,3.8046907966878067,8.573299387250994,10.280404775760978,1.8251069225262302
1178,3.863458162956237,9.33231716202776,10.284372152134752,1.6311294384455788
1179,3.842525123375584,9.996499839932724,10.210759943362838,1.266016548778686
1180,3.819599517025925,10.566632607201472,10.110074165329785,0.7690788154491541
1181,3.8090325859425214,10.997180952950668,10.02672712257741,0.319300392382866
1182,3.791738389453128,11.256800662147448,9.985149682126435,0.05909707550235475
1183,3.823342044417778,11.356891238286064,9.951439248240403,0.010961832439697125
1184,3.7873148225368904,11.336470411856629,9.876061730666933,0.06667345238697327
1185,3.591594377042962,11.338695093209857,9.850856656540218,0.07782374620841005
1186,3.275786634268157,11.37341580780141,9.810268629411297,-0.01069689968379221
1187,2.8994828042264658,11.322358466887438,9.689770821036813,-0.11435512403820522
1188,2.4688087545582134,11.098105739449306,9.423133610236723,-0.21096083902734142
1189,1.9485609646320294,10.680526018463981,8.959688180584298,-0.2740187886013052
1190,1.4250572707344031,10.108558165867287,8.31082147778455,-0.26070392113055063
1191,0.9424455632064919,9.462543426791756,7.528170525290421,-0.22099686026143633
1192,0.6670726868301698,8.806314232693707,6.626682693877557,-0.24979720658861765
1193,0.6152139113996775,8.089316711062041,5.60996909492529,-0.4049515514403084
1194,0.6727407758988357,7.335853159048677,4.583558314455101,-0.6488120038872288
1195,0.6667419312101158,6.569211332624335,3.6722538937542235,-0.9004378384849159
1196,0.6442685566422035,5.818919221621206,2.9606485702286123,-1.079130194803265
1197,0.713144741037305,5.109744038063172,2.4386870524614572,-1.1432654604818298
1198,0.8473705812666817,4.452035651990495,2.0780844115375183,-1.1523053345663177
1199,0.9987364710782566,3.837190408110556,1.8441274838287516,-1.1686772680177315
1200,1.0982956043059247,3.2376157514103254,1.7133099606355215,-1.182116224982755
1201,1.1238434708619442,2.6120480615066315,1.6526617210013288,-1.156464365288559
1202,1.1053392760093144,1.9161909621132374,1.6396025633992828,-1.1339717967164316
1203,1.1303608378690178,1.1160488605792256,1.6583261918306604,-1.1297010384519155
1204,1.163755216656699,0.20152837318594755,1.6508949142255602,-1.1159071654577082
1205,1.1949625387121425,-0.8064766225794556,1.5349478004682922,-0.9980733873049383
1206,1.200526877973566,-1.8625622961269357,1.200051369614824,-0.6360113970332149
1207,1.1780633477913043,-2.912227161096047,0.5983315446959657,0.045680710528802626
1208,1.1522647411326463,-3.9028825285064173,-0.23181592102579696,0.9383659888279021
1209,1.128122551446912,-4.797554165916813,-1.1665130749411574,1.8464195445929787
1210,1.110423072277341,-5.580481781723598,-2.0918449620065163,2.644962139416828
1211,1.114730434485923,-6.180252541975751,-2.962851525251347,3.447506376504303
1212,1.1256795151179542,-6.548731565587813,-3.7799122165406107,4.228258848118365
1213,1.1156885552755533,-6.709366297983932,-4.577041499553865,4.881968641103717
1214,1.0854175131535309,-6.736241222393956,-5.373323493599103,5.287002964356083
1215,1.0327231261407372,-6.731215263397005,-6.293132834565061,5.398129031355241
1216,0.9641650854489898,-6.766935573579133,-7.205436050666323,5.344681537685607
1217,0.974958359116843,-6.843791016608238,-7.921581124506632,5.329473766962929
1218,1.0238288468106618,-6.876051578164796,-8.327354628416094,5.359874856985977
1219,0.9055405523303703,-6.87773534426533,-8.422955555722098,5.175339300823138
1220,0.43578482001200913,-6.9059128612958585,-8.38530040675317,4.729251285033696
1221,-0.3924884899098041,-7.006840193313852,-8.369848472281033,4.08302799662464
1222,-1.380516058795658,-7.260437168235047,-8.353717610663045,3.3819165928374666
1223,-2.305528493424929,-7.596937102051026,-8.133914847205302,2.7173841468542057
1224,-3.1264280762165324,-7.89092118191059,-7.755295894326614,2.014943956986188
1225,-3.9670338760423567,-8.051376045237257,-7.341451153785298,1.1518885445961669
1226,-4.764128614474756,-8.087504370170508,-7.042866229193145,0.1600743764031432
1227,-5.361284121379864,-8.061805652018093,-6.94869691622806,-0.80068843090447
1228,-5.645301026716805,-8.087475237385314,-6.959311579239047,-1.6646029197891792
1229,-5.64206706297698,-8.111530366881444,-6.940349675095152,-2.373999932715124
1230,-5.62376800539645,-7.936603890705797,-6.796487510965168,-2.9079784224587297
1231,-5.673382618991763,-7.46025617597816,-6.453110562097735,-3.2502261069642766
1232,-5.594970359612267,-6.665260047445661,-5.878403764257333,-3.4135998649275834
1233,-5.22675043267184,-5.648397138341227,-5.08874314446374,-3.449530587787358
1234,-4.604074780226878,-4.573683470915551,-4.165316705427932,-3.4668111550044887
1235,-3.932853443233047,-3.5510221381446465,-3.2104266411610647,-3.541078858868661
1236,-3.47782144819141,-2.600128939818055,-2.3145005661710396,-3.5958273314698976
1237,-3.3317539107414325,-1.7871205621564863,-1.5183128109530162,-3.592093531803288
1238,-3.3013168742718424,-1.1399777169499277,-0.8237771963506675,-3.5702984565299127
1239,-3.3046737909273403,-0.6554668124355707,-0.1939245875165558,-3.6805735566204882
1240,-3.2349297865462914,-0.3053419329719766,0.3224135614378069,-4.061673095648311
1241,-3.0957615058019248,-0.053833651477061054,0.6679200368641564,-4.7187893405901296
1242,-2.9289771909761595,0.12750734295719912,0.8304335332991426,-5.452896464105107
1243,-2.7830873531033493,0.25958272665142745,0.8553302677904722,-6.0897764851217975
1244,-2.6703719377789383,0.3669189675495365,0.8277328716556169,-6.500182752575517
1245,-2.6043146149052503,0.48673559744887096,0.8246016669382845,-6.707919024721695
1246,-2.5465371481205463,0.6609635652040972,0.8362217552694136,-6.798821928455961
1247,-2.458180630889765,0.9134319678438767,0.7854356404533294,-6.820854928839383
1248,-2.3762751223213656,1.2342838521911443,0.6678523370946987,-6.824543110701132
1249,-2.265145560098543,1.5885479044259299,0.48661057605230895,-6.834357947720669
1250,-2.1677013889191032,1.941845125544518,0.29350996355552406,-6.835833219419098
1251,-2.040706647203746,2.2791632465146545,0.15164129462885262,-6.682387495241338
1252,-1.9225772479961765,2.6018873238977775,0.08246161063208889,-6.269849452224254
1253,-1.8268471741602745,2.9136277319785004,0.06124555712577437,-5.565814958553569
1254,-1.7243960179259419,3.2157500066300386,0.07415382805710516,-4.664712499843999
1255,-1.582063195880224,3.503032108795246,0.07254264674447738,-3.7106978710249763
1256,-1.37981787649241,3.843201309853986,0.057104717372313075,-2.7279975927202367
1257,-1.0204572681023305,4.21705134509563,0.06996330497367578,-1.6508587929119523
1258,-0.367056141202724,4.549175816283603,0.15323084985018862,-0.39463450734156175
1259,0.5466409377121175,4.76880462367792,0.3579690612545719,1.006769374901467
1260,1.5822033806405755,4.852932688953012,0.7332643753607001,2.3816542754276466
1261,2.5398791330699515,4.825190629157878,1.3112766177514912,3.565328026233532
1262,3.3550028688269102,4.825282839768686,2.099047003004835,4.537251799515938
1263,4.355784024314848,4.860341534949354,3.0691144342280885,5.384931299909274
1264,5.5127404066036085,4.8026053619224145,4.263948429645732,6.156808353438667
1265,6.566332364567153,4.60321989008816,5.448749616795322,6.778837619868201
1266,7.230963745210687,4.275582088840604,6.359300656941674,7.16145041093407
1267,7.415652965854017,3.899094231502823,6.856934825896689,7.301146053976985
1268,7.289242989856724,3.597805544532717,6.967848814182124,7.294327131212547
1269,7.293580595547923,3.448525606352026,6.905489354403841,7.258154801354745
1270,7.394463655882018,3.3798321643684157,6.885548850526341,7.277506060312105
1271,7.128156126317538,3.3679628738419067,6.896311612520086,7.283598103144564
1272,6.421467473644427,3.3782102351641776,6.681505223725404,7.220969761471341
1273,5.4017022605545915,3.372189321213974,6.237438989330325,7.118866163636171
1274,4.323581164143446,3.3239094054807516,5.610662473893255,7.004693672770962
1275,3.3796385811293805,3.2360908033126377,4.919223676560722,6.8714598450551545
1276,2.553969706744301,3.037755996333054,4.118345006884194,6.727319380435033
1277,1.7306698268606864,2.7716276183206525,3.2980710397419477,6.5907471856544655
1278,1.0739910065327476,2.525107541849241,2.5992473586734905,6.456075069269468
1279,0.7189633555555657,2.3692726183531296,2.17441746706161,6.387422079303513
1280,-0.2752004137839825,-0.1296291146262803,-0.10582471588596543,-0.21886003259495723
1281,-1.1581060372761522,-0.5441759141576288,-0.45754789104130567,-0.8545191107219363
1282,-2.7199496351730805,-1.4054667802622802,-1.186487696845149,-1.9650844679567772
1283,-4.981662095007371,-2.7348531910003624,-2.327462766613922,-3.5795816554246125
1284,-7.295012952860651,-4.573732853282998,-3.796120165504349,-5.362351019571677
1285,-9.036595525278049,-6.737258121171061,-5.4454166147174,-6.860685648271161
1286,-9.9384480488104,-8.710196532660584,-7.273153000370014,-7.79141547864963
1287,-10.12944781007245,-10.064431858429522,-8.965199725187516,-8.146037117603568
1288,-9.952169211956619,-10.667739489785916,-10.209416225909164,-8.052065909291057
1289,-9.97966286391566,-10.622356822557236,-10.866717951024826,-8.071626173230916
1290,-10.11820640386318,-10.633422575545817,-10.960386969245405,-8.21829163604978
1291,-9.72839082944234,-10.781108017963017,-10.958007279072113,-8.003506363138172
1292,-8.584355502029672,-10.529667349531213,-10.992120381046226,-7.078571991021023
1293,-6.603790014744788,-9.38301798465993,-10.858870758062332,-5.3253959098455255
1294,-4.014769183409861,-7.259384578704747,-10.084866016968318,-2.9220329939731315
1295,-1.330093396955165,-4.415696725047593,-8.594398979995928,-0.37947502616493045
1296,0.9900097116475726,-1.3797021725287104,-6.495400117770988,1.9612021947839642
1297,2.95695588618698,1.3698606090035585,-4.0743057249353845,3.9639835358620505
1298,4.550707286215508,3.959236239343333,-1.5991338002847955,5.287285153159944
1299,6.0314914473600805,6.197021485746562,1.039286476664138,5.914573526121901
1300,7.5957239088548345,8.124337849067778,3.723689627077394,6.033575012919586
1301,9.1450738103437,9.617716767614347,6.337629109153676,5.937164685331608
1302,10.653001600402934,10.584923531732668,8.914950091479348,5.935212240907681
1303,11.894975870700542,11.046315960122842,11.27205431412292,5.924813856927178
1304,12.74026279300642,11.123363254267467,13.085908413645218,5.693525084792409
1305,13.195618061720648,11.071322294095266,14.166499585099121,5.367988082171861
1306,13.335370259227979,11.056642928064566,14.563363607894647,5.074800572306858
1307,13.248117927395125,11.05067945141677,14.477634049170671,4.930936780302952
1308,13.221357184851051,10.831371290648413,14.468542077232023,4.961064980254509
1309,13.331330322858703,10.401065301988561,14.591272124129203,4.9689758130390995
1310,13.252850099094129,9.817983406718,14.410154546642113,4.933415487621521
1311,12.803504710498505,9.204763487725186,13.642083120394481,5.089128061698835
1312,11.862203784489747,8.672325075877332,12.267936806576358,5.603373700893098
1313,10.552923262551081,8.201285549927988,10.503843873239841,6.34891850894957
1314,9.209819025434161,7.775678958899528,8.724092384954554,7.051986365287943
1315,8.117799296714892,7.3848433669179405,7.232928972111219,7.467138828406664
1316,7.175466096855519,7.008685712913876,5.906235622063567,7.547479744255169
1317,6.218228326991984,6.620356210336265,4.830977161605357,7.484621698246169
1318,5.10049544169669,6.190485001737088,4.022215581936155,7.474916519529678
1319,3.877621853535314,5.699789274092471,3.4560728726568852,7.543990099486671
1320,2.6863007884738717,5.144949180809378,3.064584500408159,7.417516174481827
1321,1.525176398409131,4.531909296739035,2.754660675153096,6.958855896497778
1322,0.24391643156997678,3.86759148248635,2.442806402052399,6.093616832267915
1323,-1.2363749569125715,3.1575271870512487,2.0811187364077117,4.95897053773384
1324,-2.7344772562781885,2.409720359762019,1.666719346353186,3.7550175713798604
1325,-4.105065188296703,1.6411522533545024,1.236913319313179,2.7827935020133516
1326,-5.1292112944796395,0.8758784353252809,0.8489360067816896,2.140881872066822
1327,-5.745113964718093,0.1338474999635324,0.5524927936312971,1.8558674037431797
1328,-6.037953330074374,-0.5721873130709014,0.3686839998429331,1.8237947420769052
1329,-6.115160896575079,-1.2297335644707805,0.2836479315355279,1.8160343924432707
1330,-6.07258784224584,-1.8260718600381283,0.25683885546314333,1.8564354584243314
1331,-6.049440928628934,-2.35480263120485,0.23436861266666278,1.9302166422275817
1332,-6.107899018399223,-2.8225869318048638,0.16172443856887453,2.087248338599658
1333,-6.036514646327916,-3.2417331057199936,-0.002599735766463107,2.2442800349717347
1334,-5.67456724710392,-3.6997377997547023,-0.2782440235753676,2.3090641047186917
1335,-4.759844624329676,-4.153574658286364,-0.6664910806086906,2.34539295315694
1336,-3.4997125721274696,-4.51691482431993,-1.1634620746940567,2.400659306689885
1337,-2.3337838156785806,-4.728157325272874,-1.7750824916009558,2.3682302805909807
1338,-1.5977478533265603,-4.777039859724237,-2.517880067481082,1.8653511003267822
1339,-1.4324600086276265,-4.7576990267800525,-3.4003233701304163,0.7571854920138544
1340,-1.5176216768530366,-4.758893461151474,-4.410448821527859,-0.8748048201832006
1341,-1.5192469876749874,-4.7593987920882315,-5.521639987652145,-2.761073025556783
1342,-1.3067167806657694,-4.604976411944858,-6.686196827295901,-4.641898570170143
1343,-1.0911474643823034,-4.236308632856099,-7.9018655781319715,-6.452531103079069
1344,-0.9033336967341021,-3.624278425133732,-9.116315990721766,-7.983352023571882
1345,-0.9024622754611763,-2.827279144496527,-10.137289794235436,-8.999809186241755
1346,-0.9835193582164006,-1.7844548758358965,-10.80889818913348,-9.449298042056466
1347,-0.803756382140039,-0.6856302482458198,-11.10396403248915,-9.456058900814403
1348,-0.43145953948561566,0.21044120259649618,-11.092450854929533,-9.427192624692083
1349,0.030682377733722163,0.7267387014406159,-11.093388879295302,-9.470681053761444
1350,0.3856725609758229,0.8240271253242082,-11.152175224729946,-9.369425720054444
1351,0.49835545034530004,0.8294155082941252,-11.045405371216084,-8.888725090729391
1352,0.4312309242521238,0.8390985310681929,-10.546665061835604,-8.081147137711026
1353,0.4611989989802639,0.7309662330452953,-9.637044502063612,-7.145221223398994
1354,0.45951735103392877,0.15834524046985804,-8.433133425575145,-6.141805215142681
1355,0.19075086521363951,-0.8858433976748006,-7.127224754496503,-5.290370061950997
1356,-0.4309059209005781,-2.263556179258771,-5.83344328070397,-4.598130814715982
1357,-1.486743728066903,-3.7164236938813247,-4.36801171767731,-4.171069725857822
1358,-2.9656319345782585,-5.031405628596099,-2.700297802743358,-4.031985145136464
1359,-4.655954864539545,-6.281397312333757,-0.8648667170981117,-4.100274726831383
1360,-6.42612595847765,-7.507183199481169,0.9893790253929098,-4.11659175048245
1361,-7.9641080544089835,-8.581560275637312,2.6668464009314357,-4.096918726388748
1362,-8.948892275456043,-9.356936356660702,4.029628884165803,-4.212298091816173
1363,-9.372882314827583,-9.768738474990801,5.065161849481272,-4.391671774927181
1364,-9.396727558570738,-9.833438563142849,5.851494846512813,-4.5652833434008215
1365,-9.400340190454243,-9.832837655902331,6.615708885862537,-4.653492713626675
1366,-9.437402098691088,-9.86373085645569,7.3467531287959655,-4.65796392942349
1367,-9.327987483130592,-9.792009473424308,7.928688125318034,-4.655511435915631
1368,-8.78298371428811,-9.269037692831999,8.26781328282486,-4.683682256267134
1369,-7.784389371755865,-8.209429153180274,8.344737162747762,-4.481162447082063
1370,-6.384641705909575,-6.674102554309408,8.312061156061528,-3.8800030711131157
1371,-4.742745371908978,-4.8826697670288555,8.340665226761422,-2.8153124061182497
1372,-3.0861580977547933,-3.081932139323551,8.348638576991029,-1.4421470868814725
1373,-1.45934761295951,-1.2754081464587856,8.010648774626683,-0.05641625179845644
1374,-0.027080297587115665,0.45162414343059654,7.199711837784636,1.1609762870809344
1375,1.185423928393611,2.048834489991738,5.920089279735075,2.230250840794543
1376,2.454729638532806,3.4709710384533903,4.342864344018815,3.3205442562909875
1377,3.731592557400518,4.809815714363863,2.7123272683943958,4.368174800766295
1378,4.784359393045616,5.949602060438733,1.157047881612626,5.188899592933416
1379,5.394365915020842,6.753250067426382,-0.37462779877748,5.636790649150763
1380,5.53858271947721,7.170640670995771,-1.675426534690252,5.693419883291121
1381,5.415287668496524,7.269846105157394,-2.5720242445041297,5.6849002282470495
1382,5.442047695077534,7.182674507276772,-3.01810520979603,5.726233620071145
1383,5.535347266452091,7.174358520885482,-3.0940025806506055,5.635483641684799
1384,5.240013402771317,7.253066076048677,-3.057212456536882,5.0714645292520695
1385,4.477787570692869,7.161477137172927,-3.0361862883627677,4.009588469411092
1386,3.38178994729467,6.818258549344926,-3.011547901888156,2.6073979878297457
1387,2.1907416362052436,6.19245058883499,-2.753410855204972,1.1227791586460782
1388,1.04463412469168,5.3462152614954865,-2.358589263906838,-0.26604780460115607
1389,-0.10103269528153325,4.398123837221649,-1.9743067104826837,-1.6499878404897985
1390,-1.6219818267049877,3.4380962268895634,-1.742366700800535,-3.0153280715679274
1391,-3.2112168006706705,2.40776257425364,-1.7214490046940263,-4.1654563892925776
1392,-4.436861069877987,1.310159304706632,-1.7344050093200267,-4.916675262385656
1393,-5.065116710434926,0.22182243643595423,-1.7162270069393153,-5.245086594021257
1394,-5.146558411852585,-0.6737773711350248,-1.7688987946319275,-5.268267560916811
1395,-5.098616444887271,-1.2442004105837623,-1.9572916854929203,-5.2287279730803276
1396,-5.153175493769537,-1.4789072203616422,-2.2006368376067025,-5.274708211820364
1397,-5.081430026140773,-1.4608428339668884,-2.4043000251512483,-5.260928144401248
1398,-4.5292710585935145,-1.449666589483699,-2.4874219891705436,-4.95279591819729
1399,-3.134096781681373,-1.5005688343885872,-2.4348485663645216,-4.181704071196228
1400,-1.2594436501535826,-1.398697268702984,-2.4809085468623744,-2.9068641279483916
1401,0.41616673226414436,-1.0489840867390328,-2.5842580776416786,-1.5227565594860515
1402,1.3547187629146946,-0.5736343809945725,-2.2734232788951085,-0.49189446079342886
1403,1.614193990254631,-0.15392230470267027,-1.5738898858143642,0.02241277172331263
1404,1.5006258197114146,0.057491626907779966,-0.7376442783070489,0.1217517446306262
1405,1.3473964703139196,0.03734683566110235,-0.08698197512871694,0.009940897935572873
1406,1.4212810638662359,-0.007431020516115459,0.1573845180573059,-0.033379796746598425
1407,1.4212810638662359,-0.008166225571647921,0.04821786062010225,0.0
1408,-0.15105825115825244,-0.11892830375502134,-0.13292720717946782,-0.12727102783164046
1409,-0.7883921783528854,-0.4756402417738327,-0.5290383206507175,-0.5669154577924279
1410,-2.0527837309606998,-1.1997916134189497,-1.3270166455876622,-1.4045938187818348
1411,-3.784479617424439,-2.3410258998421236,-2.5745923107681588,-2.5656220256254127
1412,-5.7785529585939885,-3.854265630383253,-4.16834606520345,-3.851652421575631
1413,-7.550603288896556,-5.602336339985115,-6.30987904495404,-5.1050462433280455
1414,-8.75354305502296,-7.618231865574911,-8.573293962012059,-6.2670274151313885
1415,-9.300234748228203,-9.534642426646412,-10.41116181676118,-7.336409395636996
1416,-9.4624058806301,-10.965741259464748,-11.475438736142877,-8.281599436764404
1417,-9.47523798530213,-11.73110816201884,-11.703522331411342,-9.053452325534728
1418,-9.597334579587846,-11.863201026801567,-11.639940937483667,-9.677098077324374
1419,-9.897542846331042,-11.840159308137247,-11.665048407824653,-10.270060444486386
1420,-10.144655391771796,-11.842678423012753,-11.58868319932545,-10.974713499820705
1421,-10.19306749110294,-11.734235762073313,-10.633526143945625,-11.774256013979429
1422,-10.23350366912816,-11.035166120245904,-8.63691603340207,-12.482892528986316
1423,-10.388087636910761,-9.688902757460133,-5.698017851167424,-12.931852970500177
1424,-10.5876561398224,-7.781631368554636,-2.2184015191443502,-13.096467098073568
1425,-10.820439849682607,-5.549451449171107,1.2581612440864853,-13.016497988435283
1426,-10.892472545157501,-3.2030327796543276,5.0624366193362205,-13.094317948237446
1427,-10.99030584282836,-0.6153220455305984,8.665206283705796,-13.237332630411895
1428,-11.086959008950599,2.113296739883603,11.375578593214684,-13.038674131635625
1429,-10.970005677926995,4.895168862565109,12.851963298017825,-12.102764637035046
1430,-10.035356685543865,7.629114891213021,13.222209291070746,-10.199841417691756
1431,-7.908865341021079,10.180685521951034,12.95537815241281,-7.284561953086004
1432,-4.4525445031464805,12.605055469374634,12.877518689683544,-3.520841172456413
1433,0.04909887786335432,14.642529785080507,13.069096065204926,0.8036084163017527
1434,4.995685136313569,16.04600551100669,12.78205418467702,5.651031498726581
1435,10.055323220002494,16.748743558106447,11.956158288302012,10.630824718446192
1436,14.880376407709235,16.864270961188115,10.686567169318232,15.491039977819822
1437,19.297126146412502,16.81692423864859,9.300716287479062,20.068508044940113
1438,23.608887792720097,16.800069802629977,8.18594039149822,24.639970242364907
1439,27.404999696199386,16.73628069849894,7.520300928653397,28.695181106925265
1440,30.13094812384306,16.267036956620114,7.01887329184158,31.6109086256042
1441,31.525385960041337,15.39131392852344,6.674993792495904,33.112743305321175
1442,31.764644038880082,14.193760079370513,6.443499499053112,33.42561924233989
1443,31.60739689069658,12.852323916224739,6.292918943555782,33.14317086310298
1444,31.60653554336703,11.511770767342869,6.183154645265572,33.144240837713994
1445,31.569680789039445,10.073114346428621,6.0562129200284325,33.34122730266196
1446,30.74022705551571,8.58385056163992,5.846048506222623,32.80823377922867
1447,29.128441548188327,7.084677210063468,5.494713149774157,31.312597279603242
1448,26.96306437329786,5.626608796604147,4.957540643282128,28.83070622625699
1449,24.598570846968244,4.261897433707105,4.199881851961421,25.63206879154936
1450,22.26542424617888,3.0275808633455554,3.2044998016838084,22.132028652971158
1451,19.786596779869292,1.9382264049335278,1.9847603439658228,18.589490405072784
1452,17.133500517159952,0.9957582140634497,0.5821246845256256,14.896610319024555
1453,14.510374953413002,0.20050241432657034,-0.9167798397975346,11.356952586898684
1454,12.001250269260442,-0.44828023221385016,-2.566535088581227,8.129783928541599
1455,9.479603411125977,-0.9608658352895574,-4.14318053168691,5.2211745960758025
1456,6.791026397719135,-1.3668428905039827,-5.360034932243023,2.574554246302557
1457,4.005253193145263,-1.7124093877485893,-6.052806559634302,0.19133092960882314
1458,1.3975964755429926,-2.044537797348837,-6.258182369306933,-1.879295397119968
1459,-0.8437272076931298,-2.400740589020728,-6.1625117359965245,-3.6665228132291254
1460,-2.8247828216874233,-2.811139753305001,-6.126054216644567,-5.34233209277833
1461,-4.808419255682795,-3.2993678160690476,-6.204583722195206,-7.119224949498157
1462,-6.91076109336976,-3.8768899609404377,-6.115951136055451,-9.097014653529271
1463,-9.010454823113347,-4.53810169612568,-5.803582948527381,-11.240700680742098
1464,-10.95962412475946,-5.24101097702599,-5.212891408875946,-13.498553794147856
1465,-12.799160872412637,-6.0394997092113964,-4.5230870699513686,-15.893567481931948
1466,-14.687460319855276,-6.809412974612069,-3.9827339727485844,-18.416236796677218
1467,-16.635181533337736,-7.401771757667209,-3.7403793679648363,-21.145069774350432
1468,-18.408294339137655,-7.732806920528404,-3.6813737032773304,-23.628608464193903
1469,-19.749481017316988,-7.811251985724507,-3.7140622652155186,-25.394102618099964
1470,-20.65135616984236,-7.770310902536247,-3.7202462695441065,-26.269146474180566
1471,-21.337265364426955,-7.765005318928992,-3.7319774023445067,-26.389606717541376
1472,-22.03903928006548,-7.775749644522805,-3.8493946477381256,-26.348341615501116
1473,-22.72381277095637,-7.6019691543299555,-4.015751545759506,-26.343868271365984
1474,-23.22875110242244,-7.233374911348154,-4.167201274292414,-26.20822685019113
1475,-23.45993687374605,-6.737648904758374,-4.247563555528972,-25.516211258815204
1476,-23.460390699013363,-6.2581090537750335,-4.218611914119403,-24.339631662686752
1477,-23.424207231351183,-5.926026567348323,-4.234559961826894,-22.83180681445423
1478,-23.512387956996868,-5.73832788762655,-4.2895064640299525,-21.172105516599437
1479,-23.50719619717206,-5.605377176576682,-4.2160805650335424,-19.439901054742663
1480,-23.096788458623827,-5.468923907053425,-3.8917988973983544,-17.411972879151108
1481,-22.139362036971814,-5.268863300020073,-3.2699509324516587,-15.192644952540613
1482,-20.586542059392233,-4.964754781760234,-2.410491267631232,-12.868522833919327
1483,-18.460088568919232,-4.533370504087144,-1.461194952041906,-10.419556987378128
1484,-15.84784458539244,-3.967161229438532,-0.5655170747235099,-7.776360196042698
1485,-12.822659848249003,-3.2840567414534068,0.3092572337041586,-4.9621861957378695
1486,-9.52257902515846,-2.532479897516626,1.1171346610671324,-2.132338545538167
1487,-6.259285313516462,-1.777238956861203,1.9600440690015735,0.5450241862940077
1488,-3.1343390486262073,-1.0754923730320036,2.7529756908626704,3.013859756387151
1489,-0.08275649110982108,-0.4554708563079428,3.363682260767683,5.302646428639676
1490,2.860169100116194,0.08514185324067305,3.70805779963354,7.397023281944813
1491,5.6271887608630085,0.5822121247548792,3.789997882724066,9.167336002230405
1492,7.8566752694737705,1.079464933998527,3.7400336926556177,10.681665438643279
1493,9.283502489521956,1.5213895424011843,3.7504507944425467,11.862321892241825
1494,9.940488025396876,1.8380155054747573,3.78161582193168,12.662245771547035
