,TP9,AF7,AF8,TP10
0,-7.291079200419813,-11.018727295877788,-12.06565909286014,-7.138110270913991
1,-7.490326137505366,-11.365457641429318,-12.444191364806946,-7.375523525740157
2,-7.684207269997988,-11.704626915152597,-12.814504928610809,-7.608320778358133
3,-7.872430163335021,-12.035712209212688,-13.176025359234385,-7.8361344673604805
4,-8.054714088281491,-12.358209816595924,-13.52819930129185,-8.058609951310011
5,-8.230790020930101,-12.671635231109835,-13.870494469048825,-8.2754055087398
6,-8.400400642701237,-12.975523147383216,-14.202399646422466,-8.486192338153154
7,-8.563300340342987,-13.269427460866082,-14.523424686981405,-8.69065455802364
8,-8.719255205931093,-13.552921267829676,-14.833100513945757,-8.888489206795073
9,-8.86804303686901,-13.825596865366482,-15.130979120187156,-9.079406242881507
10,-9.009453335887844,-14.087065751390217,-15.416633568228686,-9.26312854466726
11,-9.143287311046398,-14.336958624635832,-15.689657990244942,-9.439391910506886
12,-9.269357875731165,-14.574925384659492,-15.94966758806203,-9.607945058725193
13,-9.3874896486563,-14.800635131838607,-16.196298633157507,-9.768549627617219
14,-9.497518953863656,-15.013776167371828,-16.429208466660427,-9.920980175448275
15,-9.599293820722748,-15.214055993279016,-16.64807549935137,-10.065024180453902
16,-9.692673983930792,-15.40120131240127,-16.852599211662344,-10.200482040839896
17,-9.777530883512675,-15.574958028400921,-17.042500153676883,-10.327167074782288
18,-9.853747664820942,-15.735091245761527,-17.217519945129997,-10.444905520427366
19,-9.921219178535866,-15.88138526978786,-17.377421275408185,-10.553536535891658
20,-9.979851980665352,-16.01364360660595,-17.521987903549434,-10.652912199261928
21,-10.029564332545018,-16.13168896316302,-17.651024658243205,-10.742897508595213
22,-10.070286200838131,-16.235363247227557,-17.76435743783045,-10.82337038191875
23,-10.101959257535656,-16.32452756738924,-17.861833210303605,-10.894221657230073
24,-10.124536879956233,-16.39906223305899,-17.943320013306582,-10.955355092496916
25,-10.137984150746178,-16.45886675446895,-18.008706954134812,-11.006687365657273
26,-10.142277857879483,-16.5038598426725,-18.057904209735145,-11.048148074619386
27,-10.137406494657823,-16.533979409544223,-18.090843026705958,-11.07967973726174
28,-10.12337025971053,-16.54918256777995,-18.107475721297106,-11.101237791433043
29,-10.100181056994646,-16.549445630896706,-18.10777567940992,-11.112790594952271
30,-10.067862495794854,-16.534764113232765,-18.091737356597204,-11.114319425608636
31,-10.026449890723539,-16.505152729947632,-18.059376278063247,-11.105818481161574
32,-9.97599026172077,-16.460645397021995,-18.01072903866383,-11.087294879340783
33,-9.916542334054247,-16.40129523125779,-17.945853302906176,-11.058768657846194
34,-9.848176538319388,-16.327174550278187,-17.864827804949023,-11.02027277434797
35,-9.77097501043926,-16.23837487252755,-17.7677523486026,-10.971853106486542
36,-9.685031591664627,-16.13500691727147,-17.654747807328548,-10.913568451872539
37,-9.590451828573912,-16.017200604596763,-17.525956124240054,-10.845490528086872
38,-9.487352973073225,-15.88510505541148,-17.38154031210176,-10.767703972680671
39,-9.375863982396321,-15.738888591444859,-17.221684453329747,-10.680306343175296
40,-9.256125519104662,-15.57873873524738,-17.046593699991625,-10.583408117062366
41,-9.12828995108738,-15.404862210190739,-16.856494273806458,-10.477132691803728
42,-8.992521351561246,-15.217484940467834,-16.65163346614477,-10.36161638483147
43,-8.84899549907074,-15.016852051092796,-16.432279638028575,-10.237008433547919
44,-8.697899877488007,-14.80322786790098,-16.198722220131362,-10.103470995325631
45,-8.539433676012857,-14.57689591754893,-15.951271712778087,-9.96117914750741
46,-8.373807789172766,-14.338158927514424,-15.690259685945177,-9.810320887406295
47,-8.201244816822904,-14.087338826096463,-15.416038779260546,-9.65109713230556
48,-8.021979064146088,-13.824776742415255,-15.128982702003553,-9.483721719458712
49,-7.8362565416528165,-13.550833006412203,-14.829486233105037,-9.3084214060895
50,-7.644334965181264,-13.265887148849966,-14.517965221147334,-9.12543586939191
51,-7.446483755897273,-12.97033790131238,-14.194856584364215,-8.935017706530157
52,-7.242984040294349,-12.664603196204508,-13.860618310640941,-8.737432434638695
53,-7.034128650193671,-12.349120166752627,-13.515729457514228,-8.532958490822212
54,-6.820222122744094,-12.024345147004219,-13.160690152172272,-8.321887232155632
55,-6.601580700422133,-11.690753671827999,-12.796021591454732,-8.104522935684114
56,-6.378532331031979,-11.348840476913866,-12.422266041852744,-7.881182798423044
57,-6.151416667705491,-10.99911949877294,-12.039986839508893,-7.652196937358058
58,-5.920585068902189,-10.642123874737564,-11.649768390217245,-7.417908389445003
59,-5.686400598409275,-10.278405942961271,-11.252216169423324,-7.178673111609978
60,-5.449238025341606,-9.908537242418817,-10.847956722224131,-6.934859980749304
61,-5.209483824141719,-9.533108512906166,-10.437637663368106,-6.686850793729542
62,-4.967536174579805,-9.152729695040485,-10.021927677255198,-6.435040267387479
63,-4.723804961753734,-8.76802993026015,-9.601516517936767,-6.179836038530137
64,-6.668257720046355,-10.971441386382066,-9.844263352577975,-5.350977968424007
65,-6.84830947594359,-11.351315820360137,-10.206916916869261,-5.527632125574411
66,-7.023208521481808,-11.72430528476355,-10.563737018321746,-5.69987397281984
67,-7.192703586372666,-12.08981624425062,-10.914149183404541,-5.867480133416565
68,-7.356553714866112,-12.447275626795255,-11.257597978097952,-6.0302356503233705
69,-7.514528265750431,-12.79613082368696,-11.593547007893525,-6.187933986201556
70,-7.666406912352216,-13.135849689530852,-11.921478917793992,-6.340377023414932
71,-7.811979642536384,-13.465920542247668,-12.24089539231332,-6.487375064029832
72,-7.951046758706147,-13.78585216307372,-12.551317155476672,-6.628746829815084
73,-8.083418877803046,-14.095173796560953,-12.852283970820451,-6.764319462242043
74,-8.20891693130694,-14.393435150576876,-13.143354641392236,-6.893928522484577
75,-8.327372165236,-14.680206396304625,-13.424107009750836,-7.017417991419053
76,-8.4386261401467,-14.95507816824295,-13.694137957966278,-7.13464026962437
77,-8.542530731133839,-15.217661564206177,-13.953063407619782,-7.245456177381924
78,-8.638948127830531,-15.467588145324243,-14.200518319803791,-7.349734954675631
79,-8.727750834408203,-15.704509936042687,-14.43615669512195,-7.447354261191908
80,-8.808821669576577,-15.928099424122625,-14.65965157368912,-7.538200176319696
81,-8.88205376658372,-16.138049560640813,-14.870695035131352,-7.622167199150446
82,-8.947350573215983,-16.334073759989575,-15.068998198585941,-7.699158248478109
83,-9.004625851798043,-16.51590589987684,-15.254291222701362,-7.769084662799156
84,-9.053803679192887,-16.683300321326143,-15.42632330563729,-7.831866200312573
85,-9.094818446801819,-16.836031828676592,-15.584862685064637,-7.887431038919837
86,-9.127614860564444,-16.97389568958294,-15.729696638165496,-7.935715776224963
87,-9.152147940958685,-17.09670763501548,-15.860631481633181,-7.976665429534452
88,-9.168383023000793,-17.204303859260133,-15.9774925716722,-8.010233435857321
89,-9.176295756245281,-17.29654101991841,-16.080124303998268,-8.036381651905115
90,-9.175872104785029,-17.373296237907404,-16.16839011383832,-8.055080354091858
91,-9.1671083472512,-17.434467097459837,-16.24217247593047,-8.066308238534106
92,-9.150011076813257,-17.479971646123968,-16.301372904524055,-8.070052421050917
93,-9.124597201178995,-17.509748394763704,-16.34591195337961,-8.066308437163853
94,-9.09089394259451,-17.523756317558508,-16.37572921576886,-8.055080242096997
95,-9.048938837844208,-17.521974852003467,-16.39078332447476,-8.036380210776926
96,-8.9987797382508,-17.50440389890923,-16.391051951791447,-8.010229137832727
97,-8.940474809675319,-17.471063822402048,-16.37653180952424,-7.9766562375960195
98,-8.874092532517086,-17.42199544992379,-16.34723864898972,-7.935699144100897
99,-8.799711701713747,-17.357260072231842,-16.303207261015608,-7.8874039110839735
100,-8.717421426741256,-17.27693944339927,-16.24449147594085,-7.83182501198438
101,-8.62732113161387,-17.181135780814675,-16.17116416361559,-7.7690253399437355
102,-8.529520554884146,-17.069971765182242,-16.083317233401175,-7.699076207806194
103,-8.424139749642967,-16.943590540521782,-15.981061634170135,-7.622057348118388
104,-8.311309083519507,-16.802155714168663,-15.86452735430621,-7.53805691312947
105,-8.19116923868126,-16.64585135677386,-15.733863421704353,-7.447171474791103
106,-8.063871211834014,-16.474882002303918,-15.589237903770684,-7.349506024757445
107,-7.929576314221873,-16.289472648040967,-15.430837907422537,-7.245173974385168
108,-7.788456171627243,-16.08986875458275,-15.258869579088447,-7.134297154733449
109,-7.640692724370841,-15.876336245842564,-15.073558104708127,-7.017005816563962
110,-7.486478227311684,-15.649161509049316,-14.875147709732502,-6.893438630340909
111,-7.326015249847093,-15.408651394747478,-14.66390165912368,-6.763742686230968
112,-7.15951667591271,-15.15513321679711,-14.440102257354983,-6.628073494103344
113,-6.987205703982458,-14.888954752373861,-14.20405084841091,-6.486594983529735
114,-6.809315847068585,-14.610484241968972,-13.95606781578714,-6.33947950378435
115,-6.626090932721637,-14.320110389389248,-13.696492582490587,-6.186907823843904
116,-6.437785103030458,-14.018242361757087,-13.425683611039327,-6.029069132387606
117,-6.244662814622208,-13.705309789510457,-13.144018403462633,-5.866161037797179
118,-6.046998838662339,-13.381762766402927,-12.851893501300967,-5.698389568156849
119,-5.845078260854615,-13.04807184950363,-12.549724485606001,-5.525969171253335
120,-5.639196481441104,-12.70472805919729,-12.237945976940575,-5.349122714575879
121,-5.429659215202168,-12.352242879184196,-11.917011635378731,-5.1680814853162085
122,-5.216782491456482,-11.991148256480233,-11.587394160505704,-4.983085190368562
123,-5.000892654061024,-11.621996601416855,-11.249585291417915,-4.79438195632968
124,-4.782326361411059,-11.245360787641093,-10.90409580672297,-4.602228329498805
125,-4.561430586440175,-10.861834152115566,-10.551455524539666,-4.40688927587768
126,-4.338562616620249,-10.472030495118457,-10.192213302497992,-4.208638181170559
127,-4.114090053961463,-10.076584080243535,-9.826937037739123,-4.007756850784187
128,-2.6281759241177007,-11.175780015859605,-12.016102220915439,-4.933750328583323
129,-2.817508210349377,-11.543759769063595,-12.33233379132306,-5.1384690728021205
130,-3.008631799669204,-11.905103672096095,-12.63908517611998,-5.3412641110753984
131,-3.2011148984131967,-12.259210226318976,-12.935921145846244,-5.5417702656826275
132,-3.394536208396193,-12.60549879233065,-13.222424893614154,-5.739633409216841
133,-3.588484926911837,-12.943409589966095,-13.498198035108304,-5.9345104645846485
134,-3.7825607467325937,-13.272403698296861,-13.762860608585553,-6.126069405006236
135,-3.9763738561097464,-13.59196305563099,-14.01605107487504,-6.313989254015369
136,-4.1695449387733765,-13.901590459513132,-14.257426317378158,-6.497960085459376
137,-4.361705173932404,-14.200809566724473,-14.486661642068611,-6.6776830234991635
138,-4.552496236274537,-14.489164893282728,-14.703450777492353,-6.852870242609217
139,-4.741570295966314,-14.766221814442194,-14.907505874767587,-7.023244967577583
140,-4.928590018653085,-15.031566564693685,-15.098557507584841,-7.188541473505892
141,-5.113228565459004,-15.284806237764593,-15.276354672206873,-7.3485050858093395
142,-5.2951695929870475,-15.525568786618843,-15.440664787468725,-7.5028921802167
143,-5.474107253318996,-15.753503023456897,-15.591273694777712,-7.651470182770314
144,-5.649746194015453,-15.968278619715788,-15.727985658113425,-7.7940175698260905
145,-5.821801558115821,-16.169586106069076,-15.850623364027712,-7.930323868053524
146,-5.989998984138326,-16.357136872426885,-15.959027921644694,-8.060189654435666
147,-6.15407460608,-16.530663167935874,-16.05305886266077,-8.18342655626914
148,-6.313775053416688,-16.68991810097924,-16.132594141344597,-8.299857251164148
149,-6.46885745110304,-16.83467563917674,-16.197530134537093,-8.409315467044461
150,-6.619089419572525,-16.96473060938466,-16.247781641651475,-8.511645982147416
151,-6.76424907473742,-17.079898697695857,-16.283281884673205,-8.606704625023916
152,-6.904125027988812,-17.180016449439687,-16.303982508159987,-8.694358274538445
153,-7.0385163861965925,-17.264941269182074,-16.309853579241846,-8.77448485986905
154,-7.16723275170947,-17.334551420725514,-16.300883587621048,-8.84697336050734
155,-7.2900942223549645,-17.388746027108994,-16.27707944557211,-8.911723806258502
156,-7.406931391439396,-17.427445070608066,-16.238466487941817,-8.9686472772413
157,-7.517585347747901,-17.450589392734813,-16.185088472149243,-9.017665903888036
158,-7.621907675544421,-17.45814069423788,-16.1170075781857,-9.058712866944619
159,-7.7197604545717065,-17.450081535102427,-16.03430440861479,-9.091732397470498
160,-7.81101626005132,-17.42641533455017,-15.93707798857235,-9.11667977683869
161,-7.89555816268363,-17.38716637103935,-15.82544576576649,-9.133521336735798
162,-7.9732797286478085,-17.33237978226476,-15.699543610477596,-9.142234459161974
163,-8.04408501960184,-17.26212156515772,-15.5595258155583,-9.142807576430954
164,-8.107888592682515,-17.17647857588609,-15.405565096433502,-9.135240171170016
165,-8.16461550050543,-17.075558529854284,-15.237852591100367,-9.119542776320026
166,-8.214201291164994,-16.95949000170321,-15.05659786012831,-9.095736975135406
167,-8.25659200823441,-16.828422425310364,-14.862028886659006,-9.063855401184144
168,-8.291744190765698,-16.682526093789733,-14.654392076406424,-9.0239417383478
169,-8.319624873289685,-16.521992159491873,-14.433952257656731,-8.976050720821485
170,-8.340211585815995,-16.347032634003856,-14.2009926812684,-8.92024813311389
171,-8.353492353833062,-16.157880388149277,-13.955815020672155,-8.856610810047266
172,-8.359465698308131,-15.954789151988303,-13.698739371870966,-8.785226636757423
173,-8.358140635687246,-15.738033514817582,-13.430104253440067,-8.706194548693738
174,-8.349536677895252,-15.507908925170346,-13.150266606526955,-8.619624531619158
175,-8.333683832335804,-15.264731690816323,-12.859601794851368,-8.525637621610185
176,-8.310622601891367,-15.008838978761785,-12.558503604705328,-8.424365905056884
177,-8.280403984923193,-14.740588815249538,-12.247384244953071,-8.315952518662893
178,-8.24308947527136,-14.460360085758909,-11.926674347031138,-8.2005516494454
179,-8.19875106225473,-14.168552535005759,-11.596822964948279,-8.078328534735162
180,-8.147471230670979,-13.865586766942487,-11.258297575285543,-7.9494594621765025
181,-8.089342960796582,-13.551904244758017,-10.911584077196189,-7.814131769727298
182,-8.024469728386821,-13.22796729087779,-10.55718679240576,-7.6725438456589945
183,-7.952965504675774,-12.894259086963784,-10.195628465212035,-7.524905128556597
184,-7.874954756376329,-12.551283673914504,-9.827450262485076,-7.371436107318666
185,-7.790572445680169,-12.199565951864983,-9.453211773667157,-7.212368321157328
186,-7.699964030257785,-11.839651680186781,-9.073491010772818,-7.047944359598275
187,-7.603285463258467,-11.472107477487986,-8.68888440838887,-6.878417862480745
188,-7.5007031933103026,-11.097520821613195,-8.300006823674357,-6.7040535199575535
189,-7.392394164520185,-10.716500049643553,-7.90749153636057,-6.525127072495067
190,-7.278545816473808,-10.329674357896716,-7.511990248751065,-6.3419253108732105
191,-7.1593560842356645,-9.937693801926867,-7.1141730857216325,-6.154746076185467
192,-18.049380556565215,-16.90769766994379,-5.802919943280315,-12.118375970399892
193,-18.285890412703502,-17.325603737815,-6.150710785400228,-12.330271011913428
194,-18.50670867042748,-17.731069851565323,-6.497329277195271,-12.532395486359542
195,-18.71153015140055,-18.123468731907124,-6.842165777074178,-12.724444267031279
196,-18.900071473850005,-18.502199485524986,-7.184626829121667,-12.90612863964778
197,-19.072071052567118,-18.866687605075715,-7.524135163098452,-13.077176302354259
198,-19.227289098907022,-19.216384969188283,-7.860129694441219,-13.237331365721971
199,-19.36550762078883,-19.550769842463865,-8.192065524262633,-13.3863543527483
200,-19.486530422695626,-19.86934687547589,-8.519413939351372,-13.524022198856697
201,-19.590183105674324,-20.17164710476991,-8.841662412172061,-13.650128251896646
202,-19.67631306733583,-20.457227952863757,-9.158314600865333,-13.764482272143757
203,-19.744789501854953,-20.72567322824739,-9.468890349247802,-13.866910432299694
204,-19.795503399970503,-20.97659312538304,-9.77292568681204,-13.957255317492189
205,-19.828367548985103,-21.209624224705045,-10.06997282872664,-14.035375925275076
206,-19.843316532765396,-21.42442949262002,-10.359600175836142,-14.101147665628238
207,-19.840306731741894,-21.620698281506744,-10.641392314661084,-14.154462360957638
208,-19.819316322909078,-21.798146329716193,-10.914950017397986,-14.195228246095295
209,-19.780345279825298,-21.95651576157153,-11.179890241919345,-14.22336996829936
210,-19.72341537261293,-22.095575087368122,-11.43584613177363,-14.238828587254003
211,-19.648570167958166,-22.21511920337358,-11.682467016185296,-14.241561575069476
212,-19.555875029111178,-22.314969391827606,-11.919418410054782,-14.231542816282108
213,-19.445417115886066,-22.39497332094216,-12.146382013958508,-14.2087626078543
214,-19.317305384660816,-22.455005044901412,-12.363055714148855,-14.173227659174541
215,-19.171670588377385,-22.494965003861672,-12.5691535825542,-14.124961092057353
216,-19.00866527654162,-22.514780023951467,-12.76440587677889,-14.064002440743364
217,-18.828463795223296,-22.514403317271533,-12.948559040103252,-13.99040765189924
218,-18.631262287056106,-22.493814481894756,-13.12137570148359,-13.904249084617764
219,-18.417278691237684,-22.453019501866223,-13.282634675552178,-13.805615510417736
220,-18.186752743529556,-22.392050747203236,-13.43213096261728,-13.694612113244068
221,-17.939945976257192,-22.310966973895276,-13.569675748663109,-13.5713604894677
222,-17.677141718309983,-22.20985332390398,-13.695096405349892,-13.435998647885675
223,-17.398645095141184,-22.088821325163195,-13.808236490013803,-13.288681009721094
224,-17.104783028768058,-21.948008891578965,-13.908955745666995,-13.129578408623113
225,-16.7959042377717,-21.78758032302953,-13.997130100997605,-12.958878090666964
226,-16.472379237297186,-21.60772630536523,-14.072651670369732,-12.776783714353948
227,-16.134600339053485,-21.408663910408716,-14.13542875382346,-12.583515350611433
228,-15.782981651313468,-21.190636595954725,-14.185385837074833,-12.379309482792845
229,-15.41795907891395,-20.953914205770218,-14.222463591515881,-12.1644190066777
230,-15.039990323255623,-20.698792969594344,-14.246618874214597,-11.939113230471524
231,-14.649554882303127,-20.425595503138393,-14.257824727914956,-11.703677874805972
232,-14.247154050585014,-20.134670808085893,-14.25607038103689,-11.458415072738726
233,-13.833310919193726,-19.826394272092507,-14.241361247676311,-11.203643369753532
234,-13.40857037578565,-19.5011676687861,-14.213718927605107,-10.939697723760212
235,-12.973499104581059,-19.159419157766713,-14.173181206271119,-10.666929505094663
236,-12.528685586364155,-18.801603284606568,-14.11980205479818,-10.385706496518823
237,-12.074740098483023,-18.428200980850054,-14.053651629986087,-10.09641289322068
238,-11.612294714849707,-18.039719564013755,-13.97481627431058,-9.799449302814326
239,-11.142003305940126,-17.6366927375864,-13.883398515923416,-9.495232745339878
240,-10.664541538794118,-17.219680591028943,-13.779517068652273,-9.184196653263538
241,-10.180606877015423,-16.789269599774478,-13.663306832000835,-8.866790871477548
242,-9.690918580771706,-16.346072625228256,-13.534918891148724,-8.543481657300228
243,-9.196217706794537,-15.89072891476777,-13.39452051695155,-8.214751680475946
244,-8.697267108379377,-15.423904101742616,-13.242295165940876,-7.8811000231751445
245,-8.19485143538561,-14.946290205474597,-13.078442480324247,-7.543042179994306
246,-7.6897771342365235,-14.4586056312577,-12.90317828798516,-7.201110057955986
247,-7.182872447919317,-13.961595170358052,-12.716734602483076,-6.855851976508793
248,-6.674987415985081,-13.456030000013964,-12.519359623053443,-6.50783266752739
249,-6.166993874548831,-12.942707683435941,-12.311317734607655,-6.157633275312516
250,-5.659785456289468,-12.42245216980662,-12.092889507733073,-5.805851356590942
251,-5.15427759044981,-11.896113794280827,-11.864371698693022,-5.453100880515514
252,-4.651407502836575,-11.364569277985554,-11.626077249426801,-5.100012228665126
253,-4.152134215820382,-10.828721728019971,-11.378335287549659,-4.747232195044732
254,-3.657438548335759,-10.289500637455399,-11.12149112635282,-4.39542398608534
255,-3.168323115881131,-9.747861885335332,-10.85590626480346,-4.045267220644015
256,-13.079252047889963,-19.406419021612017,-8.171259540893818,-8.339177369066652
257,-13.45610109385151,-20.011551662478272,-8.476613153995247,-8.614974815724068
258,-13.822277905553312,-20.60266591494715,-8.777180702847044,-8.88489041552455
259,-14.177292699332373,-21.17888585375857,-9.072475700313168,-9.148523062251664
260,-14.520675505051315,-21.739368199190324,-9.362027822908658,-9.40548601975634
261,-14.851976166098313,-22.283302317058233,-9.645382910799684,-9.655406921956814
262,-15.170764339387134,-22.80991021871603,-9.92210296780351,-9.8979277728387
263,-15.47662949535712,-23.318446561055474,-10.191766161388491,-10.132704946454938
264,-15.76918091797322,-23.808198646506206,-10.453966822674078,-10.359409186925802
265,-16.048047704725917,-24.278486423035872,-10.708315446430854,-10.577725608438891
266,-16.312878766631318,-24.728662484150053,-10.954438691080473,-10.7873536952492
267,-16.56334282823109,-25.158112068892333,-11.191979378695684,-10.988007301679005
268,-16.799128427592464,-25.56625306184419,-11.420596495000364,-11.179414652117941
269,-17.019943916308293,-25.95253599312508,-11.639965189369462,-11.361318341022988
270,-17.225517459496945,-26.31644403839245,-11.849776774829046,-11.533475332918455
271,-17.41559703580245,-26.65749301884165,-12.049738728056264,-11.695656962395997
272,-17.58995043739433,-26.975231401205992,-12.23957468937937,-11.847648934114618
273,-17.748365269967707,-27.269240297756784,-12.419024462777728,-11.989251322800609
274,-17.89064895274333,-27.539133466303213,-12.587844015881757,-12.120278573247669
275,-18.01662871846746,-27.784557310192486,-12.745805479973022,-12.240559500316767
276,-18.126151613411952,-28.00519087830974,-12.892697149984162,-12.349937288936259
277,-18.219084497374272,-28.200745865078016,-13.02832348449891,-12.448269494101813
278,-18.295314043677408,-28.37096661045837,-13.152505105752107,-12.535428040876434
279,-18.354746739169958,-28.51563009994977,-13.265078799629661,-12.611299224390462
280,-18.397308884226057,-28.63454596458915,-13.365897515668605,-12.675783709841575
281,-18.42294659274544,-28.72755648095134,-13.454830367057054,-12.728796532494787
282,-18.431625792153433,-28.794536571149173,-13.53176263063421,-12.770267097682453
283,-18.423332223400887,-28.83539380283343,-13.59659574689039,-12.80013918080423
284,-18.39807144096426,-28.850068389192764,-13.649247319966973,-12.81837092732715
285,-18.355868812845568,-28.838533188953853,-13.68965111765645,-12.824934852785551
286,-18.29676952057237,-28.80079370638128,-13.717757071402412,-12.819817842781111
287,-18.220838559197862,-28.736888091277542,-13.733531276299523,-12.803021152982861
288,-18.12816073730075,-28.646887138983164,-13.736955991093538,-12.774560409127123
289,-18.018840676985327,-28.530894290376516,-13.728029638181335,-12.734465607017574
290,-17.893002813881477,-28.38904563187396,-13.706766803610853,-12.682781112525236
291,-17.75079139714461,-28.22150989542977,-13.673198237081113,-12.619565661588435
292,-17.592370489455735,-28.02848845853618,-13.627370851942255,-12.544892360212849
293,-17.41792396702141,-27.810215344223323,-13.569347725195493,-12.458848684471459
294,-17.22765551957378,-27.566957221059354,-13.499208097493124,-12.36153648050462
295,-17.021788650370546,-27.29901340315026,-13.417047373138557,-12.253071964519973
296,-16.800566676194965,-27.006715850140015,-13.32297712008626,-12.133585722792521
297,-16.56425272735587,-26.69042916721053,-13.217125069941805,-12.003222711664568
298,-16.313129747687654,-26.35055060508164,-13.099635117961869,-11.862142257545775
299,-16.047500494550285,-25.987510060011104,-12.970667323054172,-11.7105180569131
300,-15.767687538829282,-25.601770073794626,-12.830397907777567,-11.54853817631086
301,-15.474033264935738,-25.19382583376583,-12.679019258341961,-11.376405052350682
302,-15.166899870806294,-24.764205172796274,-12.516739924608357,-11.194335491711529
303,-14.846669367903166,-24.313468569295466,-12.343784620088856,-11.00256067113968
304,-14.513743581214129,-23.842209147210784,-12.160394221946628,-10.801326137448749
305,-14.16854414925252,-23.351052676027592,-11.966825770995937,-10.59089180751967
306,-13.811512524057235,-22.84065757076917,-11.763352471702138,-10.371531968300713
307,-13.443109971192735,-22.311714891996708,-11.550263692181645,-10.14353527680747
308,-13.063817569749032,-21.76494834580932,-11.327864964201982,-9.907204760122852
309,-12.674136212341708,-21.20111428384408,-11.096477983181739,-9.662857815397105
310,-12.27458660511191,-20.62100170327592,-10.856440608190603,-9.410826209847793
311,-11.865709267726313,-20.02543224681777,-10.608106861949349,-9.1514560807598
312,-11.448064533377183,-19.41526020272041,-10.351846930829804,-8.88510793548534
313,-11.022232548782327,-18.791372504772617,-10.088047164854904,-8.61215665144396
314,-10.588813274185124,-18.154688732301025,-9.817110077698663,-8.332991476122514
315,-10.14842648335449,-17.50616111017021,-9.539454346686163,-8.04801602707518
316,-9.701711763584907,-16.846774508782683,-9.255514812793582,-7.757648291923474
317,-9.249328515696428,-16.177546444078857,-8.965742480648174,-7.462320628356224
318,-8.791955954034625,-15.499527077537053,-8.670604518528265,-7.162479764129575
319,-8.330293106470664,-14.813799216173539,-8.37058425836327,-6.858586797066999
320,-5.3074524087016615,-12.394681320555842,-12.188595558144916,-4.84704756719566
321,-5.458688219735529,-12.820492016595178,-12.587912276996395,-4.973889385538681
322,-5.60589903648528,-13.238972448983136,-12.979026019548181,-5.096968522824016
323,-5.7488710729751995,-13.64943246106075,-13.361332405460981,-5.216107396762257
324,-5.887399073443442,-14.051205493463268,-13.734248697309692,-5.3311358607113934
325,-6.021286312342053,-14.443648584120204,-14.097213800583443,-5.441891203676745
326,-6.150344594336972,-14.8261423682553,-14.449688263685571,-5.5482181503110155
327,-6.274394254308018,-15.198091078386517,-14.791154277933611,-5.649968860914245
328,-6.3932641573488915,-15.558922544326077,-15.12111567755933,-5.747002931433868
329,-6.506791698767193,-15.908088193180424,-15.439097939708693,-5.839187393464656
330,-6.614822804084401,-16.24506304935026,-15.74464818444188,-5.926396714248751
331,-6.717211929035873,-16.56934573453048,-16.03733517473329,-6.008512796675658
332,-6.813822059570869,-16.880458467710266,-16.3167493164715,-6.085424979282236
333,-6.904524711852522,-17.177947065172997,-16.582502658459347,-6.157030036252709
334,-6.989199932257852,-17.461380940496298,-16.834228892413833,-6.223232177418665
335,-7.067736297377769,-17.730353104552027,-17.071583352966183,-6.283943048259043
336,-7.140030914017059,-17.984480165506287,-17.29424301766184,-6.339081729900158
337,-7.205989419194401,-18.223402328819358,-17.50190650696042,-6.388574739115667
338,-7.265525980142357,-18.44678339724585,-17.694294084235807,-6.4323560283265975
339,-7.318563294307372,-18.6543107708345,-17.871147655776014,-6.470366985601338
340,-7.36503258934977,-18.845695446928357,-18.03223077078333,-6.502556434655627
341,-7.404873623143772,-19.020672020164646,-18.17732862137419,-6.528880634852577
342,-7.438034683777465,-19.178998682474848,-18.306248042579288,-6.549303281202646
343,-7.464472589552832,-19.32045722308465,-18.418817512343487,-6.563795504363661
344,-7.484152688985737,-19.444853028513997,-18.51488715152584,-6.572335870640799
345,-7.497048860805931,-19.552015082577075,-18.59432872389966,-6.574910381986597
346,-7.503143513957033,-19.641795966382215,-18.657035636152397,-6.571512476000967
347,-7.50242758759656,-19.714071858332048,-18.702922937885752,-6.562143025931154
348,-7.494900551095905,-19.76874253412343,-18.73192732161561,-6.546810340671781
349,-7.480570404040351,-19.805731366747406,-18.744007122772047,-6.525530164764815
350,-7.459453676229038,-19.82498532648928,-18.73914231969935,-6.498325678399594
351,-7.431575427675029,-19.826474980928545,-18.717334533656008,-6.465227497412807
352,-7.396969248605226,-19.81019449493894,-18.678607028814685,-6.42627367328849
353,-7.355677259460438,-19.776161630688435,-18.623004712262297,-6.381509693158061
354,-7.307750110895357,-19.724417747639205,-18.550594133999905,-6.330988479800271
355,-7.253246983778542,-19.655027802547636,-18.461463486942794,-6.274770391641248
356,-7.192235589192441,-19.568080349464392,-18.355722606920427,-6.21292322275446
357,-7.124792168433377,-19.46368753973428,-18.2335029726765,-6.145522202860735
358,-7.051001493011563,-19.34198512199638,-18.094957705868875,-6.072649997328266
359,-6.97095686465108,-19.203132442183986,-17.940261571069595,-5.994396707172603
360,-6.884760115289902,-19.0473124435246,-17.769610975764955,-5.9108598690566385
361,-6.792521607079867,-18.87473166653993,-17.58322397035539,-5.822144455290625
362,-6.6943602323867095,-18.685620249045943,-17.381340248155556,-5.728362873832187
363,-6.590403413790038,-18.48023192615277,-17.164221145394293,-5.629634968286281
364,-6.480787104083327,-18.258844030264804,-16.932149641214643,-5.526088017905235
365,-6.365655786273954,-18.02175749108063,-16.685430357673837,-5.417856737588728
366,-6.245162473583148,-17.769296835593064,-16.42438955974328,-5.305083277883792
367,-6.119468709446046,-17.50181018808912,-16.149375155308597,-5.1879172249848144
368,-5.988744567511636,-17.219669270150057,-15.860756695169597,-5.06651560073354
369,-5.853168651642804,-16.923269400651307,-15.55892537304027,-4.941042862619066
370,-5.7129280959163005,-16.61302949576253,-15.244294025548808,-4.811670903777841
371,-5.568218564622767,-16.289392068947624,-14.91729713223758,-4.678579052993675
372,-5.419244252266709,-15.952823230964674,-14.578390815563145,-4.541954074697727
373,-5.266217883566517,-15.603812689865984,-14.228052840896256,-4.401990168968507
374,-5.109360713454457,-15.242873750998067,-13.86678261652187,-4.2588889715318885
375,-4.948902527076677,-14.870543317001644,-13.495101193639098,-4.112859553761087
376,-4.785081639793193,-14.48738188781166,-13.113551266361265,-3.96411842267668
377,-4.618144897177898,-14.093973560657263,-12.722697171715867,-3.8128895209465945
378,-4.448347675018574,-13.690926030061796,-12.323124889644593,-3.6594042268861076
379,-4.275953879316865,-13.278870587842832,-11.915442043003326,-3.5039013544578546
380,-4.101235946288295,-12.858462123112139,-11.500277897562118,-3.346627153271823
381,-3.924474842362268,-12.430379122275696,-11.078283362005205,-3.1878353085853477
382,-3.745960064182063,-11.995323669033692,-10.650130987931028,-3.0277869413031198
383,-3.565989638604824,-11.554021444380515,-10.216514969852186,-2.866750607977182
384,-206.59009623307358,-18.56424355400333,-11.69878930086053,-186.62368031267584
385,-215.2993313901674,-19.177455108996426,-12.064664255472005,-194.03195872328948
386,-223.8439181856537,-19.77847625868028,-12.422001497808683,-201.2837224105686
387,-232.21274354581064,-20.36636532313239,-12.770275112095357,-208.36987152099007
388,-240.3950637228276,-20.94021402650914,-13.108978933015939,-215.28162191537152
389,-248.3805042948048,-21.499147497045893,-13.437626545713442,-222.01050516887074
390,-256.1590601657541,-22.042324267056888,-13.755751285790032,-228.54836857098508
391,-263.72109556559803,-22.56893627293533,-14.062906239306997,-234.88737512555295
392,-271.0573440501705,-23.07820885515334,-14.358664242784721,-241.02000355075222
393,-278.15890850121673,-23.569400758261942,-14.642617883202709,-246.93904827910137
394,-285.0172611263919,-24.04180413089108,-14.914379497999638,-252.6376194574588
395,-291.62424345926405,-24.494744525749663,-15.17358117507323,-258.10914294702303
396,-297.97206635931127,-24.927580899625493,-15.41987475278037,-263.3473603233331
397,-304.05331001192263,-25.339705613385274,-15.652931819937058,-268.34632887626725
398,-309.86092392839873,-25.730544431974664,-15.872443715818404,-273.10042161004515
399,-315.388226945951,-26.09955652441824,-16.078121530158636,-277.6043272432259
400,-320.6289072277018,-26.446234463819465,-16.269696103151105,-281.8530502087084
401,-325.57702226268515,-26.77010422736075,-16.446918025448287,-285.841910653732
402,-330.22699886584525,-27.070725196303382,-16.609557638161746,-289.56654443987605
403,-334.5736331780379,-27.34769015598765,-16.757405032862184,-293.02290314306066
404,-338.61209066602964,-27.600625295832664,-16.89027005157942,-296.20725405354455
405,-342.3379061224982,-27.829190209336492,-17.00798228680238,-299.1161801759279
406,-345.7469836660326,-28.033077894076126,-17.110391081479097,-301.74658022915065
407,-348.8355967411322,-28.21201475170745,-17.197365529016743,-304.09566864649213
408,-351.6003881182075,-28.365760587965237,-17.268794473281567,-306.1609755755721
409,-354.0383698935805,-28.494108612663236,-17.32458650859897,-307.94034687835085
410,-356.14692348948364,-28.596885439694056,-17.36466997975344,-309.4319441311282
411,-357.92379965406076,-28.67395108702924,-17.388992981988586,-310.6342446245439
412,-359.3671184613657,-28.725198976719202,-17.39752336100712,-311.54604136357807
413,-360.4753693113648,-28.750555934893338,-17.39024871297089,-312.16644306755063
414,-361.2474109299338,-28.749982191759898,-17.367176384500826,-312.4948741701214
415,-361.6824713688601,-28.72347138160601,-17.328333472676956,-312.53107481929067
416,-361.7801480058424,-28.671050542797783,-17.273766825038486,-312.27510087739836
417,-361.54040754448937,-28.592780117780162,-17.20354303958365,-311.72732392112385
418,-360.96358601432144,-28.48875395307705,-17.11774846476985,-310.8884312414875
419,-360.05038877076925,-28.359099299291213,-17.01648919951357,-309.75942584384956
420,-358.8018904951746,-28.20397681110435,-16.899891093190384,-308.3416264479092
421,-357.2195351947903,-28.02358054727706,-16.768099745635034,-306.6366674877064
422,-355.3051362027801,-27.81813797064881,-16.621280507141293,-304.6464991116214
423,-353.06087617821794,-27.58790994813799,-16.459618478462097,-302.3733871823731
424,-350.48930710608954,-27.333190750741903,-16.283318510809455,-299.8199132770216
425,-347.59335029729107,-27.054308053536733,-16.09260520585452,-296.98897468696657
426,-344.37629638862893,-26.751622935677556,-15.887722915727505,-293.88378441794697
427,-340.8418053428211,-26.425529880398358,-15.668935743017746,-290.50787119004235
428,-336.9939064484962,-26.076456775012037,-15.436527540773703,-286.86507943767225
429,-332.8369983201936,-25.70486491091033,-15.190801912502913,-282.9595693095953
430,-328.3758488983635,-25.311248983563946,-14.932082212172011,-278.7958166689111
431,-323.6155954493669,-24.89613709252243,-14.660711544206766,-274.37861309305805
432,-318.5617445654751,-24.46009074141423,-14.377052763492031,-269.71306587381514
433,-313.22017216487114,-24.003704837946717,-14.081488475371765,-264.80459801730115
434,-307.59712349164784,-23.527607693906116,-13.77442103564901,-259.6589482439744
435,-301.6992131158092,-23.032461025157563,-13.456272550585943,-254.2821709886334
436,-295.5334249332704,-22.51895995164508,-13.127484876903809,-248.6806364004162
437,-289.1071121658566,-21.98783299739157,-12.788519621782985,-242.8610303428006
438,-282.42799736130394,-21.439842090498846,-12.439858142862903,-236.83035439360492
439,-275.50417239325947,-20.87578256314758,-12.082001548242145,-230.5959258449866
440,-268.34409846128074,-20.296483151597364,-11.715470696478349,-224.16537770344306
441,-260.9566060908359,-19.70280599618664,-11.340806196588286,-217.54665868981164
442,-253.35089513330448,-19.09564664133276,-10.958568408047798,-210.7480332392694
443,-245.5365347659756,-18.475934035531967,-10.569337440791832,-203.77808150133316
444,-237.52346349205,-17.844630531359353,-10.173713155214447,-196.6456993398597
445,-229.32198914063844,-17.20273188546892,-9.77231516216877,-189.36009833304524
446,-220.94278886676256,-16.551267258593555,-9.365782822967043,-181.9308057734262
447,-212.39690915135503,-15.891299215545015,-8.954775249380603,-174.3676646678783
448,-136.125102715742,-9.875284082694234,-8.62175062626403,-125.58088824597279
449,-137.7098938304499,-10.178108399252695,-8.969848741926606,-126.53631558557831
450,-139.1566287318192,-10.474243503326557,-9.313271388362663,-127.36203049963481
451,-140.46427822004608,-10.763224794235681,-9.651456978099842,-128.05778152574192
452,-141.63194851109242,-11.044604900833615,-9.983861722687873,-128.62343086925452
453,-142.65888123668694,-11.317953681507573,-10.309959632698622,-129.05895440328388
454,-143.54445344432483,-11.582858224178436,-10.629242517726055,-129.36444166869776
455,-144.28817759726775,-11.838922846300784,-10.941219986386267,-129.540095874119
456,-144.88970157454403,-12.085769094862863,-11.245419446317442,-129.58623389592736
457,-145.34880867094833,-12.323035746386578,-11.541386104179896,-129.50328627825826
458,-145.66541759704188,-12.550378806927512,-11.828682965656046,-129.2917972330033
459,-145.8395824791525,-12.767471512074941,-12.106890835450422,-128.95242463980978
460,-145.87149285937454,-12.974004326951782,-12.375608317289675,-128.48594004608148
461,-145.76147369556864,-13.169684946214648,-12.634451813922553,-127.89322866697776
462,-145.5099853613621,-13.354238294053829,-12.88305552711992,-127.1752893854144
463,-145.11762364614896,-13.527406524193252,-13.121071457674747,-126.33323475206302
464,-144.5851197550891,-13.688949019890565,-13.348169405402128,-125.3682909853513
465,-143.91334030910943,-13.838642393937032,-13.56403696913925,-124.28179797146271
466,-143.10328734490324,-13.97628048865763,-13.768379546745408,-123.07520926433709
467,-142.15609831493015,-14.101674375910976,-13.960920335102013,-121.75009208567008
468,-141.07304608741657,-14.214652357089385,-14.141400330112585,-120.30812732491343
469,-139.855538946355,-14.315059963118816,-14.309578326702745,-118.75110953927485
470,-138.5051205915048,-14.40275995445891,-14.465230918820216,-117.08094695371786
471,-137.02347013839125,-14.477632321102973,-14.608152499434842,-115.29966146096243
472,-135.41240211830677,-14.539574282577979,-14.738155260538568,-113.40938862148394
473,-133.67386647830972,-14.588500287944571,-14.855069193145432,-111.41237766351443
474,-131.80994858122529,-14.624342015797042,-14.958742087291593,-109.31099148304133
475,-129.8228692056449,-14.647048374263377,-15.049039532035318,-107.10770664380833
476,-127.71498454592651,-14.656585501005221,-15.125844915456955,-104.80511337731527
477,-125.48878621219447,-14.652936763217866,-15.18905942465897,-102.4059155828177
478,-123.14690123033948,-14.636102757630294,-15.238602045765939,-99.91293082732719
479,-120.69209204201907,-14.606101310505137,-15.274409563924536,-97.32909034561132
480,-118.12725650465686,-14.562967477638702,-15.296436563303523,-94.65743904019372
481,-115.45542789144307,-14.50675354436093,-15.304655427093792,-91.90113548135399
482,-112.67977489133403,-14.437529025535483,-15.299056337508311,-89.06345190712756
483,-109.80360160905323,-14.355380665559624,-15.279647275782166,-86.14777422330589
484,-106.8303475650898,-14.260412438364323,-15.24645402217253,-83.1576020034366
485,-103.76358769569967,-14.152745547414195,-15.1995201559587,-80.09654848882289
486,-100.60703235290529,-14.03251842570751,-15.138907055442045,-76.96834058852426
487,-97.36452730449524,-13.899886735776207,-15.064693897946048,-73.77681887935597
488,-94.04005373402464,-13.755023369685897,-14.976977659816287,-70.52593760588934
489,-90.63772824081525,-13.598118449035839,-14.875873116420447,-67.21976468045156
490,-87.1618028399548,-13.429379324958951,-14.761512842148305,-63.86248168312595
491,-83.61666496229788,-13.249030578121817,-14.634047210411735,-60.45838386175139
492,-80.00683745446518,-13.057314018724686,-14.493644393644702,-57.01188013192326
493,-76.33697857884381,-12.85448868650145,-14.34049036330329,-53.527493076992194
494,-72.6118820135874,-12.640830850719661,-14.17478888986565,-50.00985894806545
495,-68.836476852616,-12.416634010180564,-13.996761542832065,-46.46372766400579
496,-65.01582760561585,-12.182208893219013,-13.806647690724876,-42.893962811432004
497,-61.155134198039775,-11.937883457703542,-13.60470450108855,-39.30554164471886
498,-57.25973197110692,-11.68400289103635,-13.391206940489623,-35.70355508599707
499,-53.33509168180269,-11.420929610153287,-13.166447774516746,-32.09320772515318
500,-49.386819502879135,-11.14904326152384,-12.930737567780664,-28.479817819829716
501,-45.420657022854435,-10.868740721151188,-12.684404683914194,-24.868817295425096
502,-41.44248124601316,-10.580436094572136,-12.427795285572273,-21.265751745093624
503,-37.45830459240648,-10.284560716857154,-12.161273334431918,-17.67628042974571
504,-33.474274897851636,-9.981563152610368,-11.88522059119223,-14.106176278047403
505,-29.49667541393246,-9.671909195969558,-11.600036615574426,-10.561325886420846
506,-25.53192480799898,-9.35608187060616,-11.30613876632179,-7.04772951904397
507,-21.586577163167686,-9.034581429725256,-11.003962201199707,-3.571501107850726
508,-17.667321978321308,-8.707925356065578,-10.693959876995656,-0.1388682525308631
509,-13.780984168109093,-8.376648361899534,-10.376602549519198,3.2438277794699153
510,-9.934524062946517,-8.04130238903316,-10.052378773602006,6.570132052950017
511,-6.13503740901537,-7.702456608806149,-9.721794903097809,9.83347596495199
512,-0.06229721585384709,-11.994001157746043,-11.453104935032046,-1.2060291541181436
513,-0.16416804149926342,-12.416117649492767,-11.85402324579194,-1.2936691497233488
514,-0.26693262233817966,-12.830780968817358,-12.247994647538789,-1.3810035750317953
515,-0.3704249204678588,-13.237330601167107,-12.634382276156716,-1.4678919193226676
516,-0.47448182129132355,-13.63512859268741,-13.012570953563477,-1.5541971527813871
517,-0.578943133517358,-14.023559550221838,-13.381967187710398,-1.6397857264996194
518,-0.6836515891605063,-14.402030641312091,-13.741999172582403,-1.7245275724752633
519,-0.7884528435410733,-14.769971594197976,-14.092116788198053,-1.8082961036124607
520,-0.893195475285124,-15.126834697817491,-14.431791600609472,-1.8909682137215875
521,-0.9977309863244852,-15.472094801806737,-14.760516861902385,-1.9724242775192637
522,-1.101913801896744,-15.805249316499943,-15.077807510196134,-2.0525481506283434
523,-1.2056012705452457,-16.12581821292952,-15.383200169643647,-2.13122716957792
524,-1.308653664119099,-16.433344022825974,-15.67625315043145,-2.208352151803328
525,-1.41093417777317,-16.727391838617965,-15.956546448779667,-2.283817395646138
526,-1.5123089299680872,-17.007549313432285,-16.223681746942002,-2.3575206803541575
527,-1.6126469624702378,-17.273426661093875,-16.477282413205785,-2.4293632660814333
528,-1.7118202403517695,-17.52465665612576,-16.716993501891935,-2.499249893888252
529,-1.8097036519905896,-17.76089463374918,-16.94248175335493,-2.567088785741138
530,-1.9061750090703664,-17.981818489883413,-17.153435593982884,-2.632791644512848
531,-2.001115046580527,-18.187128681145975,-17.34956513619748,-2.696273653982383
532,-2.094407422816257,-18.3765482248524,-17.530602178454,-2.75745347883498
533,-2.1859387193785067,-18.54982269901646,-17.696300205241336,-2.8162532646621123
534,-2.2755984411739787,-18.706720242349995,-17.84643438708194,-2.8725986379614885
535,-2.36327901641514,-18.847031554262987,-17.980801580531864,-2.9264187061370643
536,-2.4488757966202166,-18.970569894863548,-18.09922032818078,-2.977646057499021
537,-2.532287056613193,-19.077171084957943,-18.201530858651918,-3.0262167612637816
538,-2.6134139945238113,-19.166693506050525,-18.287595086602106,-3.0720703675540086
539,-2.692160731787579,-19.23901810034382,-18.357296612721765,-3.1151499073986013
540,-2.7684343131457556,-19.294048370738434,-18.41054072373489,-3.1554018927326934
541,-2.8421447066453616,-19.331710380833126,-18.447254392399117,-3.192776316397654
542,-2.9132048036391813,-19.351952754924813,-18.46738627750558,-3.2272266521410957
543,-2.981530418785752,-19.354746678008482,-18.470906723879086,-3.2587098546168636
544,-3.047040290049374,-19.340085895777264,-18.45780776237797,-3.2871863593850366
545,-3.1096560787001017,-19.30798671462243,-18.4281031098942,-3.3126200829119368
546,-3.169302369313753,-19.258488001633378,-18.381828169353284,-3.334978422570119
547,-3.225906669771904,-19.19165118459762,-18.31904002971435,-3.3542322566383747
548,-3.2793994112618865,-19.107560252000763,-18.23981746597009,-3.370355944301731
549,-3.329713948276793,-19.006321753026587,-18.144260939146797,-3.383327325651456
550,-3.376786558615474,-18.888064797556975,-18.032492596304323,-3.393127721685044
551,-3.4205564433825404,-18.752941056171927,-17.904656270536133,-3.3997419343062383
552,-3.460965726988356,-18.601124760149556,-17.760917480969262,-3.40315824632501
553,-3.4979594571490513,-18.432812701466105,-17.60146343276432,-3.403368421457566
554,-3.5314856048865053,-18.248224232795963,-17.426503017115497,-3.4003677043263525
555,-3.5614950645283625,-18.0476012675116,-17.236266811250587,-3.3941548204600505
556,-3.587941653708025,-17.831208279683626,-17.031007078430928,-3.3847319762935766
557,-3.6107821133646456,-17.599332304080757,-16.810997767951477,-3.3721048591680787
558,-3.6299761077431456,-17.35228293616984,-16.576534515140747,-3.3562826373309496
559,-3.645486224394196,-17.090392332115833,-16.327934641360834,-3.337277959935809
560,-3.6572779741742303,-16.814015208781818,-16.065537154007416,-3.3151069570425165
561,-3.665319791245438,-16.523528843728982,-15.78970274650974,-3.2897892396171646
562,-3.669583033075765,-16.219333075216632,-15.500813798330647,-3.2613478995320837
563,-3.670041980438916,-15.901850302202215,-15.19927437496654,-3.2298095095658352
564,-3.666673837414354,-15.571525484341251,-14.885510227947401,-3.195204123403222
565,-3.6594587313872995,-15.228826141987394,-14.559968794836793,-3.1575652756352746
566,-3.648379713048729,-14.874242356192426,-14.223119199231855,-3.116929981759262
567,-3.6334227563953783,-14.508286768706215,-13.875452250763296,-3.073338738178693
568,-3.6145767587297364,-14.131494581976767,-13.517480445095403,-3.0268355222033
569,-3.591833540660055,-13.74442355915019,-13.149737963926029,-2.9774677920490586
570,-3.5651878461003377,-13.347654024070707,-12.772780674986624,-2.925286486838176
571,-3.5346373422703503,-12.941788861280635,-12.387186132042174,-2.8703460265990945
572,-3.500182619695611,-12.527453516020426,-11.993553574891262,-2.8127043122664914
573,-3.461827192207395,-12.105295994228637,-11.59250392936605,-2.7524227256812765
574,-3.419577496942742,-11.675986862541917,-11.184679807332236,-2.689566129590594
575,-3.373442894344439,-11.24021924829505,-10.770745506689137,-2.624202867647826
576,-3.392886471069867,-12.354069852007747,-13.302286406409545,-5.196863270906127
577,-3.587777916985231,-12.773130474269585,-13.796732022018698,-5.441231392794052
578,-3.7814354408164204,-13.184112618800512,-14.282906051296989,-5.682556114127184
579,-3.9735407929955375,-13.58637515104415,-14.760046559040712,-5.920471208446159
580,-4.163784384826982,-13.9792993925112,-15.227417042837091,-6.154621483331081
581,-4.351865288487448,-14.362289120779407,-15.684306433064258,-6.3846627804015235
582,-4.537491237025907,-14.734770569493628,-16.130029092891238,-6.610261975316543
583,-4.7203786243636365,-15.096192428365809,-16.563924818277982,-6.831096977774657
584,-4.900252505294196,-15.446025843174915,-16.985358837975365,-7.046856731513873
585,-5.07684659548344,-15.783764415767022,-17.393721813525165,-7.257241214311651
586,-5.249903271469513,-16.108924204055285,-17.788429839260054,-7.461961437984947
587,-5.419173570662847,-16.42104372201993,-18.16892444230365,-7.660739448390168
588,-5.584417191346171,-16.719683939708247,-18.534672582570423,-7.853308325423209
589,-5.745402492674497,-17.0044282832346,-18.885166652765818,-8.03941218301942
590,-5.901906494675126,-17.27488263478044,-19.219924478386147,-8.21880616915364
591,-6.053714878247658,-17.53067533259428,-19.538489317718618,-8.391256465840172
592,-6.20062198516397,-17.771457170991706,-19.84042986184138,-8.556540289132784
593,-6.342430818068236,-17.996901400355352,-20.125340234623476,-8.714445889124727
594,-6.478953040476922,-18.20670372713498,-20.392839992724863,-8.864772549948713
595,-6.610008976778772,-18.400582313847362,-20.642574125596354,-9.007330589776931
596,-6.735427612234827,-18.578277779076362,-20.874213055479753,-9.141941360821026
597,-6.855046592978412,-18.739553197472947,-21.08745263740769,-9.268437249332136
598,-6.968712226015146,-18.884194099755078,-21.282014159203737,-9.386661675600847
599,-7.076279479222931,-19.012008472707848,-21.457644341482364,-9.496469093957222
600,-7.177611981351953,-19.12282675918341,-21.614115337648908,-9.597724992770802
601,-7.272582022024692,-19.21650185810095,-21.75122473389967,-9.690305894450576
602,-7.361070551735915,-19.29290912444674,-21.868795549221794,-9.77409935544503
603,-7.442967181852679,-19.35194636927413,-21.96667623539338,-9.849003966242089
604,-7.51817018461431,-19.393533859703513,-22.04474067698338,-9.914929351369164
605,-7.586586493132446,-19.417614318922357,-22.102888191351642,-9.971796169393123
606,-7.648131701390995,-19.424152926185194,-22.141043528648968,-10.01953611292032
607,-7.702730064246158,-19.413137316813636,-22.159156871816997,-10.058091908596548
608,-7.750314497426419,-19.384577582196325,-22.157203836588288,-10.087417317107096
609,-7.790826577532549,-19.33850626978898,-22.13518547148631,-10.107477133176694
610,-7.8242165420376,-19.274978383114387,-22.09312825782542,-10.11824718556955
611,-7.850443289286919,-19.194071381762402,-22.03108410971084,-10.11971433708935
612,-7.869474378498131,-19.095885181389928,-21.949130374038756,-10.111876484579218
613,-7.881286029761151,-18.980542153720904,-21.847369830496163,-10.094742558921775
614,-7.885863124038175,-18.8481871265464,-21.725930691561004,-10.068332525039079
615,-7.883199203163682,-18.698987383724482,-21.584966602502114,-10.032677381892672
616,-7.87329646984444,-18.533132665180293,-21.424656641379194,-9.987819162483554
617,-7.856165787659497,-18.350835166906037,-21.245205319042864,-9.933810933852191
618,-7.831826681060196,-18.152329540960967,-21.04684257913461,-9.870716797078508
619,-7.800307335370142,-17.93787289547142,-20.82982379808684,-9.798611887281902
620,-7.761644596785243,-17.70774479463074,-20.594429785122824,-9.717582373621232
621,-7.71588397237369,-17.46224725869939,-20.340966782256704,-9.627725459294817
622,-7.663079630075946,-17.20170476400483,-20.069766464293572,-9.529149381540432
623,-7.603294398704759,-16.926464242941638,-19.78118593882936,-9.421973411635335
624,-7.536599767945167,-16.63689508397138,-19.475607746250912,-9.306327854896232
625,-7.463075888354492,-16.33338913162271,-19.15343985973591,-9.182354050679294
626,-7.382811571362324,-16.016360686491346,-18.815115685253012,-9.050204372380152
627,-7.295904289270551,-15.686246505240026,-18.461094061561667,-8.910042227433907
628,-7.202460175253333,-15.343505800598573,-18.091859260212274,-8.762042057315123
629,-7.102594023357117,-14.988620241363853,-17.707920985546085,-8.606389337537808
630,-6.996429288500627,-14.622093952399764,-17.309814374695236,-8.443280577655436
631,-6.884098086474875,-14.244453514637284,-16.898099997582772,-8.272923321260958
632,-6.765741193943145,-13.856247965074422,-16.473363856922607,-8.095536145986785
633,-6.641508048441015,-13.458048796776232,-16.036217388219516,-7.911348663504761
634,-6.511556748376329,-13.050449958874841,-15.587297459769179,-7.720601519526214
635,-6.376054053029219,-12.634067856569413,-15.127266372658154,-7.52354639380193
636,-6.235175382552105,-12.209541351126147,-14.656811860763879,-7.320446000122146
637,-6.0891048179696705,-11.77753175987831,-14.17664709075466,-7.111574086316567
638,-5.9380351011788886,-11.338722856226202,-13.687510662089695,-6.897215434254347
639,-5.782167634949014,-10.893820869637182,-13.19016660701906,-6.677665859844108
640,0.3793553393627175,-9.82925282523632,-14.411201815021125,-1.9981025244431938
641,0.25868069552698714,-10.184810920353014,-14.813648686502718,-2.1445429455995764
642,0.13632248261845725,-10.534019388779406,-15.20538217111015,-2.290586310272043
643,0.012487475092960096,-10.876339110309202,-15.585819411773928,-2.4359922949672885
644,-0.11262077866792988,-11.21124928040592,-15.954400835353047,-2.5805266043518817
645,-0.23880195635689888,-11.538247410202954,-16.310590152634965,-2.723960971252275
646,-0.3658589617408926,-11.856849326503536,-16.6538743583356,-2.8660731566547955
647,-0.4935979246611149,-12.166589171780748,-16.983763731099355,-3.006646949705648
648,-0.6218282010330259,-12.467019404177497,-17.29979183349912,-3.145472167710913
649,-0.7503623728463519,-12.757710797506556,-17.60151551203624,-3.2823446561365546
650,-0.8790162481650717,-13.03825244125052,-17.888514897140524,-3.4170662886084036
651,-1.0076088611274265,-13.308251740561861,-18.160393403170275,-3.549444966912178
652,-1.1359624719459147,-13.567334416262849,-18.41677772841224,-3.679294620993466
653,-1.2639025669072934,-13.815144504845629,-18.657317855081644,-3.8064352089577325
654,-1.3912578583725783,-14.051344358472173,-18.881687049322213,-3.9306927170703223
655,-1.5178602847770466,-14.27561464497432,-19.089581861206074,-4.051899159756454
656,-1.6435450106302298,-14.487654347853706,-19.280722124733884,-4.169892579601226
657,-1.7681504265159185,-14.687180766281832,-19.454850957834743,-4.284517047349602
658,-1.891518149092165,-14.873929515100055,-19.61173476236621,-4.395622661906439
659,-2.013493021091275,-15.047654524819542,-19.751163224114347,-4.503065550336453
660,-2.1339231113198167,-15.208128041621325,-19.872949312793608,-4.606707867864246
661,-2.252659714658614,-15.355140627356251,-19.976929282046996,-4.706417797874292
662,-2.369557352062747,-15.488501159545024,-20.062962669445913,-4.8020695519109395
663,-2.48447377056156,-15.608036831378168,-20.13093229649027,-4.893543369678412
664,-2.597269943258649,-15.713593151716061,-20.18074426860842,-4.980725519040813
665,-2.7078100693318707,-15.805033945088924,-20.212327975157187,-5.063508296022112
666,-2.8159615740333406,-15.88224135169678,-20.22563608942183,-5.141790024806163
667,-2.9215951086894267,-15.94511582740953,-20.220644568616123,-5.215475057736683
668,-3.0245845507007596,-15.993576143766894,-20.197352653882255,-5.284473775317279
669,-3.124807003542225,-16.027559387978403,-20.155782870290892,-5.348702586211414
670,-3.2221427967629688,-16.047020962923465,-20.09598102684117,-5.408083927242442
671,-3.31647548598639,-16.051934587151298,-20.018016216460644,-5.46254626339358
672,-3.4076918529101508,-16.042292294880962,-19.921980816005384,-5.5120240878079265
673,-3.4956819053061605,-16.018104436001348,-19.807990486259897,-5.5564579217884456
674,-3.580338877020599,-15.979399676071163,-19.67618417193714,-5.595794314797982
675,-3.6615592279738904,-15.926224996318991,-19.52672410167852,-5.629985844459248
676,-3.7392426441607256,-15.8586456936432,-19.359795788053898,-5.658991116554833
677,-3.813292037650045,-15.776745380612025,-19.17560802756165,-5.682774765027201
678,-3.8836135465850514,-15.680625985463502,-18.974392900628516,-5.701307451978685
679,-3.950116535183201,-15.570407752105533,-18.756405771609767,-5.714565867671493
680,-4.012713593736206,-15.446229240115818,-18.521925288789085,-5.722532730527705
681,-4.07132053861004,-15.308247324741906,-18.27125338437862,-5.725196787129276
682,-4.125856412244929,-15.156637196901173,-18.004715274519,-5.722552812218031
683,-4.176243483155355,-14.991592363180828,-17.722659459279242,-5.714601608695664
684,-4.222407245930056,-14.813324645837884,-17.425457722656894,-5.701350007623748
685,-4.264276421232036,-14.622064182799228,-17.113505132577888,-5.682810868223725
686,-4.301782955798536,-14.418059427661525,-16.78722004089664,-5.6590030778769105
687,-4.334862022441073,-14.2015771496913,-16.447044083396026,-5.629951552124484
688,-4.363452020045407,-13.972902433824903,-16.09344217978736,-5.5956872346675075
689,-4.387494573571557,-13.732338680668498,-15.726902533710394,-5.556247097366912
690,-4.406934534053804,-13.480207606498087,-15.347936632733342,-5.511674140243493
691,-4.4217199786006764,-13.216849243259476,-14.957079248352871,-5.462017391477923
692,-4.431802210394963,-12.942621938568331,-14.55488843599408,-5.40733190741074
693,-4.437135758693707,-12.657902355710116,-14.141945535010537,-5.347678772542364
694,-4.437678378828207,-12.363085473640137,-13.718855168684236,-5.283125099533073
695,-4.433391052204016,-12.058584586983498,-13.286245244225622,-5.213744029203024
696,-4.424237986300947,-11.744831306035163,-12.8447669527736,-5.139614730532246
697,-4.410186614673063,-11.42227555675989,-12.39509476939551,-5.060822400660625
698,-4.391207596948687,-11.091385580792274,-11.937926453087137,-4.977458264887932
699,-4.367274818830392,-10.752647935436725,-11.473983046772698,-4.889619576673803
700,-4.338365392095008,-10.40656749366748,-11.004008877304877,-4.797409617637738
701,-4.3044596545936225,-10.053667444128605,-10.528771555464795,-4.700937697559117
702,-4.265541170251578,-9.694489291133962,-10.049061975961992,-4.600319154377183
703,-4.221596729068467,-9.32959285466726,-9.565694317434483,-4.495675354191049
704,-3.0352387749717824,-10.286750366321353,-12.171655458333813,-6.0955302482576865
705,-3.1951216917763494,-10.666615172644407,-12.577911624074549,-6.302250777067752
706,-3.3539982465624503,-11.04089648535675,-12.97622285239039,-6.504951356088586
707,-3.5115950158102884,-11.40896609881246,-13.365964389198421,-6.70331769764127
708,-3.6676462328530524,-11.770216324879577,-13.74653351028103,-6.89704652516845
709,-3.821893787876921,-12.124059992940083,-14.11734952128584,-7.0858455732343275
710,-3.97408722792106,-12.46993044988992,-14.4778537577258,-7.269433587524655
711,-4.123983756877623,-12.807281560139005,-14.827509584979136,-7.4475403248467495
712,-4.271348235491753,-13.135587705611178,-15.165802398289298,-7.619906553129476
713,-4.415953181361579,-13.45434378574427,-15.492239622765103,-7.786284051423266
714,-4.557578768938218,-13.763065217490027,-15.806350713380578,-7.946435609900094
715,-4.696012829525779,-14.061287935314187,-16.107687154975064,-8.100135029853504
716,-4.831050851281344,-14.348568391196421,-16.395822462253157,-8.247167123698574
717,-4.962495979214996,-14.624483554630356,-16.670352179784746,-8.387327714971967
718,-5.090159015189798,-14.888630912623555,-16.930893882004998,-8.520423638331868
719,-5.213858417921798,-15.140628469697583,-17.177087173214343,-8.646272739558045
720,-5.333420302980037,-15.380114747887902,-17.408593687578506,-8.764703875551797
721,-5.448678442786537,-15.606748786743948,-17.625097089128467,-8.875556914335991
722,-5.559474266616307,-15.82021014332911,-17.826303071760496,-8.978682735055047
723,-5.665656860597341,-16.02019889222072,-18.01193935923613,-9.073943227974931
724,-5.767082967710618,-16.20643562551006,-18.18175570518219,-9.161211294483161
725,-5.863616987790103,-16.378661452802373,-18.33552389309072,-9.240370847088812
726,-5.955130977522752,-16.536638001216833,-18.473037736319146,-9.31131680942252
727,-6.0415046504484975,-16.680147415386582,-18.594113078090047,-9.373955116236464
728,-6.122625376960256,-16.808992357458685,-18.69858779149134,-9.428202713404366
729,-6.198388184303936,-16.922996007094174,-18.786321779476193,-9.473987557921522
730,-6.268695756578431,-17.022002061468008,-18.85719697486308,-9.511248617904752
731,-6.333458434735608,-17.10587473526913,-18.911117340335668,-9.539935872592462
732,-6.392594216580324,-17.17449876070039,-18.948008868442983,-9.560010312344568
733,-6.446028756770426,-17.227779387478602,-18.96781958159925,-9.571443938642565
734,-6.4936953668167385,-17.26564238283451,-18.970519532084005,-9.5742197640895
735,-6.5355350150830684,-17.288034031512826,-18.956100802042034,-9.568331812409955
736,-6.571496326786209,-17.294921135772174,-18.92457750348339,-9.553785118450064
737,-6.601535583995936,-17.28629101538515,-18.875985778283415,-9.530595728177515
738,-6.6256167256350045,-17.262151507638286,-18.810383798182674,-9.498790698681548
739,-6.643711347479159,-17.222530967332045,-18.72785176478703,-9.458408098172955
740,-6.655798702157123,-17.167478266780844,-18.62849190956762,-9.409497005984054
741,-6.6618656991506064,-17.09706279581304,-18.51242849386082,-9.352117512568743
742,-6.661906904794288,-17.011374461770917,-18.379807808868282,-9.286340719502446
743,-6.655924542275845,-16.91052368951071,-18.230798175656922,-9.212248739482149
744,-6.643928491635931,-16.794641421402606,-18.065589945158926,-9.129934696326378
745,-6.625936289768178,-16.663879117330705,-17.884395498171727,-9.0395027249752
746,-6.601973130419203,-16.518408754693077,-17.687449245358035,-8.94106797149025
747,-6.572071864188599,-16.35842282840169,-17.4750076272458,-8.834756593054689
748,-6.536272998528949,-16.18413435088249,-17.24734911422827,-8.72070575797323
749,-6.494624697745813,-15.995776852075345,-17.004774206563923,-8.599063645672143
750,-6.447182782997726,-15.793604379434047,-16.747605434376506,-8.46998944669923
751,-6.394010732296212,-15.57789149792635,-16.476187357655036,-8.333653362723853
752,-6.33517968050577,-15.348933290033912,-16.19088656625376,-8.190236606536908
753,-6.270768419343885,-15.107045355752359,-15.892091679892228,-8.039931402050838
754,-6.200863397381017,-14.852563812591239,-15.580213348155205,-7.882940984299641
755,-6.125558720040606,-14.585845295574028,-15.255684250492742,-7.719479599438848
756,-6.044956149599075,-14.307266957238134,-14.918959096220133,-7.5497725047455395
757,-5.959165105185822,-14.017226467634922,-14.570514624517946,-7.374055968618339
758,-5.868302662783233,-13.716142014329662,-14.210849604431973,-7.192577270577417
759,-5.772493555226659,-13.404452302401577,-13.840484834873289,-7.0055947012644895
760,-5.671870172204445,-13.082616554443806,-13.459963144618214,-6.813377562442809
761,-5.566572560257907,-12.75111451056343,-13.06984939230834,-6.616206166997177
762,-5.456748422781337,-12.41044642838146,-12.670730466450477,-6.414371838933936
763,-5.3425531200220115,-12.061133083032837,-12.263215285416717,-6.2081769133809726
764,-5.224149669080184,-11.703715767166434,-11.847934797444395,-5.997934736587713
765,-5.101708743909084,-11.338756290945042,-11.425541980636103,-5.783969665925129
766,-4.97540867531492,-10.966836982045395,-10.996711842959686,-5.566617069885734
767,-4.845435450956878,-10.588560685658152,-10.562141422248223,-5.346223328083581
768,-7.2561401654013125,-12.154670552393858,-10.925426181428222,-7.05845190800121
769,-7.496256176973869,-12.649765355228975,-11.284542803927204,-7.285385135895402
770,-7.731805472910922,-13.138938842379353,-11.636308515274402,-7.507773936529792
771,-7.962408849537797,-13.621358728058446,-11.980179550683033,-7.725261775905024
772,-8.187700410713722,-14.096218810059803,-12.315631640388554,-7.937504917478361
773,-8.407327567831816,-14.562738969757074,-12.642160009648565,-8.144172422163717
774,-8.620951039819097,-15.020165172104033,-12.959279378742893,-8.344946148331578
775,-8.828244853136487,-15.467769465634559,-13.2665239629735,-8.539520751809118
776,-9.028896341778768,-15.904849982462633,-13.563447472664594,-8.727603685880092
777,-9.222606147274671,-16.330730938282326,-13.849623113162519,-8.90891520128489
778,-9.409088218686785,-16.744762632367845,-14.124643584835821,-9.08318834622052
779,-9.588069812611595,-17.146321447573467,-14.388121083075252,-9.250168966340619
780,-9.75929149317949,-17.534809850333602,-14.639687298293724,-9.409615704755455
781,-9.922507132054754,-17.90965639066273,-14.878993415926326,-9.561300002031901
782,-10.07748390843555,-18.27031570215544,-15.105710116430359,-9.705006096193458
783,-10.22400230905396,-18.616268501986468,-15.31952757528529,-9.840531022720246
784,-10.361856128175928,-18.947021590910595,-15.520155462992763,-9.96768461454902
785,-10.490852467601306,-19.262107853262716,-15.707322945076614,-10.086289502073138
786,-10.61081173666385,-19.561086256957825,-15.88077868208286,-10.1961811131426
787,-10.721567652231178,-19.843541853491036,-16.040290829579703,-10.297207673063994
788,-10.822967238704829,-20.10908577793755,-16.1856470381575,-10.389230204600553
789,-10.914870828020222,-20.35735524895264,-16.316654453428825,-10.47212252797213
790,-10.997152059646663,-20.588013568771704,-16.433139716028418,-10.545771260855188
791,-11.069697880587338,-20.80075012321024,-16.53494896161317,-10.610075818382818
792,-11.132408545379345,-20.99528038166381,-16.62194782086221,-10.664948413144705
793,-11.185197616093676,-21.171345897108097,-16.69402141947678,-10.710314055187188
794,-11.227991962335194,-21.328714306098878,-16.75107437818035,-10.746110552013208
795,-11.260731761242642,-21.46717932877202,-16.79303081271854,-10.772288508582315
796,-11.283370497488688,-21.586560768843473,-16.819834333859156,-10.788811327310688
797,-11.295874963279852,-21.68670451360929,-16.831448047392183,-10.79565520807113
798,-11.298225258356572,-21.767482533945614,-16.827854554129782,-10.792809148193044
799,-11.290414789993148,-21.82879288430867,-16.80905594990627,-10.780274942462452
800,-11.27245027299779,-21.870559702734806,-16.77507382557818,-10.758067183122005
801,-11.244351729712578,-21.8927332108404,-16.725949267024173,-10.726213259870967
802,-11.206152490013489,-21.895289713821985,-16.661742855145118,-10.684753359865201
803,-11.157899191310387,-21.878231600456136,-16.58253466586405,-10.633740467717208
804,-11.099651778547022,-21.841587343099555,-16.488424270126163,-10.573240365496089
805,-11.031483504201015,-21.785411497688976,-16.37953073389885,-10.503331632727573
806,-10.953480928283902,-21.709784703741274,-16.25599261817164,-10.424105646393997
807,-10.865743918341082,-21.61481368435339,-16.117967978956273,-10.33566658093429
808,-10.76838564945184,-21.500631246202353,-15.965634367286626,-10.238131408244033
809,-10.661532604229357,-21.367396279545265,-15.799188829218775,-10.131629897675412
810,-10.545324572820693,-21.215293758219318,-15.618847905830947,-10.016304616037202
811,-10.419914652906794,-21.044534739641815,-15.424847633223559,-9.892310927594815
812,-10.285469249702484,-20.855356364810092,-15.217443542519176,-9.759816994070269
813,-10.14216807595647,-20.648021858301618,-14.996910659862538,-9.619003774642186
814,-9.990204151951364,-20.422820528273892,-14.763543506420563,-9.470065025945818
815,-9.829783805503629,-20.18006776646455,-14.517656098382332,-9.313207302073007
816,-9.661126671963634,-19.920105048191264,-14.25958194695909,-9.148649954572232
817,-9.484465694215618,-19.643299932351827,-13.989674058384256,-8.976625132448559
818,-9.30004712267771,-19.350046061424056,-13.708304933913409,-8.79737778216368
819,-9.10813051530191,-19.040763161465904,-13.415866569824296,-8.611165647635888
820,-8.908988737574116,-18.71589704211536,-13.112770457416842,-8.418259270240098
821,-8.702907962514091,-18.37591959659052,-12.799447583013118,-8.218941988807826
822,-8.490187670675486,-18.021328801689545,-12.476348427957364,-8.0135099396272
823,-8.271140650145837,-17.652648717790665,-12.143942968616004,-7.802272056442955
824,-8.046092996546552,-17.270429488852198,-11.802720676377598,-7.58555007045644
825,-7.815384113032917,-16.875247342412532,-11.453190517652892,-7.363678510325611
826,-7.579366710294114,-16.46770458959013,-11.095880953874785,-7.137004702165031
827,-7.338406806553179,-16.048429625083525,-10.73133994149834,-6.905888769545879
828,-7.092883727567047,-15.618076927171337,-10.360134932000781,-6.670703633495924
829,-6.843190106626532,-15.177327057712237,-9.982852871881494,-6.431835012499563
830,-6.589731884556308,-14.726886662144985,-9.60010020266203,-6.189681422497788
831,-6.332928309714946,-14.26748846948841,-9.212502860886097,-5.944654176888201
832,-7.977204095929609,-11.660280116734052,-10.04982664131621,-6.795931136442288
833,-8.208222272211772,-12.014700798888722,-10.41669810672804,-7.044475473484683
834,-8.4331655914914,-12.361209492949717,-10.777542267818236,-7.288558916953407
835,-8.651710026887203,-12.699263038941966,-11.131778970202571,-7.527808558439449
836,-8.863544337961688,-13.028338425160133,-11.478847479497606,-7.761864180354214
837,-9.068370070721167,-13.347932788168587,-11.81820648132076,-7.99037825592951
838,-9.265901557615754,-13.657563412801405,-12.14933408129026,-8.213015949217544
839,-9.455865917539374,-13.956767732162348,-12.471727805025157,-8.429455115090944
840,-9.638003055829744,-14.24510332762492,-12.784904598145307,-8.63938629924274
841,-9.8120656642684,-14.522147928832323,-13.08840082627141,-8.842512738186372
842,-9.977819221080663,-14.787499413697454,-13.38177227502497,-9.038550359255666
843,-10.135041990935676,-15.040775808402934,-13.664594150028305,-9.227227780604887
844,-10.283525024946362,-15.28161528740107,-13.936461076904576,-9.40828631120868
845,-10.423072160669461,-15.509676173413881,-14.196987101277742,-9.581479950862098
846,-10.553500022105526,-15.724636937433113,-14.445805688772573,-9.746575390180618
847,-10.674638019698879,-15.926196198720195,-14.682569725014691,-9.903352010600095
848,-10.786328350337664,-16.114072724806274,-14.90695151563047,-10.051601884376815
849,-10.88842599735383,-16.28800543149217,-15.118642786247186,-10.191129774587449
850,-10.980798730523116,-16.447753382848443,-15.31735468249286,-10.321753135129068
851,-11.063327106065069,-16.593095791215333,-15.502817769996364,-10.443302110719177
852,-11.135904466643014,-16.7238320172028,-15.67478203438738,-10.55561953689565
853,-11.19843694136412,-16.839781569690505,-15.833016881296391,-10.658560940016773
854,-11.250843445779305,-16.940784105827777,-15.977311136354707,-10.751994537261252
855,-11.293055681883324,-17.026699431033688,-16.107473045194453,-10.835801236628178
856,-11.325018138114705,-17.09740749899699,-16.22333027344856,-10.909874636937053
857,-11.346688089355787,-17.152808411676155,-16.32472990675077,-10.97412102782776
858,-11.358035596932709,-17.192822419299315,-16.411538450735637,-11.02845938976061
859,-11.35904350861541,-17.217389920364333,-16.483641831038533,-11.072821394016321
860,-11.349707458617612,-17.226471461638766,-16.54094539329565,-11.107151402695965
861,-11.330035867596841,-17.220047738159856,-16.58337390314397,-11.131406468721062
862,-11.300049942654423,-17.198119593234566,-16.610871546221304,-11.145556335833515
863,-11.25978367733548,-17.160708018439532,-16.623401928166246,-11.149583438595636
864,-11.209283851628939,-17.107854153621098,-16.620948074618234,-11.14348290239011
865,-11.148610031967495,-17.039619286895324,-16.603512431217492,-11.127262543420054
866,-11.077834571227676,-16.95608485464791,-16.57111686360506,-11.100942868708957
867,-10.997042608729764,-16.857352441534303,-16.523802657422788,-11.064557076100732
868,-10.90633207023787,-16.743543780479637,-16.46163051831333,-11.018151054259674
869,-10.805813667959892,-16.61480075267872,-16.384680571920143,-10.96178338267047
870,-10.695610900547516,-16.471285387596076,-16.293052363887497,-10.89552533163823
871,-10.575860053096227,-16.3131798629659,-16.186864859860464,-10.819460862288437
872,-10.44671019714529,-16.140686504792097,-16.06625644548492,-10.73368662656698
873,-10.308323190677784,-15.95402778734826,-15.931384926407576,-10.638311967240144
874,-10.16087367812057,-15.753446333177669,-15.782427528275905,-10.533458917894622
875,-10.0045490903443,-15.539204913093304,-15.6195808967382,-10.419262202937484
876,-9.839549644663432,-15.311586446177833,-15.443061097443561,-10.295869237596207
877,-9.666088344836204,-15.070893999783609,-15.25310361604189,-10.163440127918667
878,-9.484390981064633,-14.817450789532682,-15.0499633581839,-10.022147670773128
879,-9.29469612999457,-14.551600179316786,-14.833914649521091,-9.872177353848251
880,-9.097255154715612,-14.273705681297354,-14.60525123570578,-9.713727355653083
881,-8.892332204761173,-13.984150955905493,-14.364286282391074,-9.547008545517091
882,-8.680204216108454,-13.683339811842009,-14.111352375230878,-9.372244483590114
883,-8.461160911178432,-13.371696206077388,-13.846801519879923,-9.189671420842389
884,-8.235504798835896,-13.049664243851815,-13.571005141993716,-8.999538299064548
885,-8.00355117438941,-12.717708178675153,-13.284354087228563,-8.802106750867631
886,-7.765628119591335,-12.376312412326946,-12.987258621241578,-8.597651099683038
887,-7.522076502637815,-12.025981494856437,-12.680148429690687,-8.38645835976259
888,-7.273249978168791,-11.667240124582548,-12.363472618234587,-8.168828236178493
889,-7.019514987267984,-11.300633148093878,-12.037699712532792,-7.945073124823341
890,-6.761250757462907,-10.926725560248723,-11.703317658245608,-7.715518112410124
891,-6.498849302724865,-10.546102504175062,-11.360833821034134,-7.48050097647222
892,-6.232715423468945,-10.159369271270544,-11.010774986560275,-7.240372185363401
893,-5.963266706554025,-9.767151301202512,-10.65368736048672,-6.995494898257831
894,-5.690933525282762,-9.370094181907998,-10.290136568476965,-6.746244965150058
895,-5.416159039401621,-8.968863649593699,-9.920707656195296,-6.493010926855031
896,-6.086042624082126,-9.978811260149497,-10.727241850411433,-6.478300630058276
897,-6.248322148650428,-10.355780148495217,-11.093590260872583,-6.695836587344797
898,-6.4060443043290185,-10.726593100320926,-11.452995177858586,-6.909412568168783
899,-6.558973730814757,-11.090668939480656,-11.804893209315832,-7.118680358203085
900,-6.706884675810319,-11.447445748881693,-12.148740638682776,-7.323303805062144
901,-6.849560995024172,-11.796380870484553,-12.484013424889957,-7.52295881830199
902,-6.986796152170603,-12.136950905303022,-12.810207202359996,-7.717333369420223
903,-7.118393218969697,-12.468651713404164,-13.126837281007566,-7.906127491856055
904,-7.244164875147348,-12.79099841390823,-13.433438646239429,-8.08905328099026
905,-7.363933408435253,-13.103525384988796,-13.7295659589544,-8.265834894145211
906,-7.4775307145709276,-13.405786263872635,-14.014793555543397,-8.436208550584864
907,-7.584798297297674,-13.697353946839803,-14.288715447889368,-8.599922531514759
908,-7.685587268364612,-13.977820589223581,-14.550945323367351,-8.756737180082016
909,-7.7797583475266645,-14.246797605410512,-14.801116544844461,-8.906424901375352
910,-7.867181862544554,-14.503915668840406,-15.038882150679862,-9.048770162425054
911,-7.947737749184809,-14.748824712006288,-15.263914854724813,-9.183569492203004
912,-8.021315551219775,-14.981193926454452,-15.47590704632261,-9.310631481622652
913,-8.087814420427575,-15.200711762784431,-15.674570790308639,-9.429776783539056
914,-8.14714311659217,-15.407085930649025,-15.859637827010346,-9.540838112748833
915,-8.199220007503293,-15.600043398754256,-16.030859572247234,-9.643660245990196
916,-8.243973068956501,-15.779330394859405,-16.188007117330905,-9.738100021942936
917,-8.281339884753146,-15.944712405776999,-16.330871229064968,-9.824026341228418
918,-8.311267646700381,-16.09597417737281,-16.459262349745156,-9.90132016640962
919,-8.333713154611164,-16.232919714565845,-16.573010597159243,-9.969874521991052
920,-8.348642816304261,-16.355372281328382,-16.671965764587057,-10.029594494418848
921,-8.356032647604229,-16.463174400685904,-16.75599732080051,-10.080397232080706
922,-8.355868272341446,-16.556187854717184,-16.824994410063557,-10.122211945305907
923,-8.348144922352068,-16.634293684554198,-16.878865852132233,-10.154979906365304
924,-8.33286743747806,-16.69739219038218,-16.917540142254616,-10.178654449471347
925,-8.310050265567206,-16.74540293143961,-16.940965451170868,-10.193200970778053
926,-8.279717462473068,-16.77826472601822,-16.949109625113213,-10.198596928381022
927,-8.241902692055021,-16.795935651462962,-16.941960185805907,-10.194831842317427
928,-8.196649226178238,-16.798393044172037,-16.919524330465293,-10.181907294566034
929,-8.144009944713696,-16.785633499596894,-16.881828931799774,-10.15983692904718
930,-8.084047335538154,-16.757672872242207,-16.828920538009783,-10.128646451622775
931,-8.016833494534207,-16.71454627566591,-16.760865372787855,-10.088373630096317
932,-7.942450125590215,-16.65630808247917,-16.677749335318545,-10.039068294212875
933,-7.860988540600354,-16.583031924346365,-16.57967800027851,-9.980792335659096
934,-7.772549659464593,-16.494810691985155,-16.4667766178364,-9.913619708063209
935,-7.677244010088706,-16.39175653516641,-16.33919011365299,-9.837636426995019
936,-7.575191728384263,-16.27400086271425,-16.19708308888107,-9.752940569965899
937,-7.466522558268637,-16.141694342506025,-16.040639820165506,-9.659642276428812
938,-7.35137585166499,-15.995006901472316,-15.870064259643199,-9.557863747778288
939,-7.2299005685022895,-15.834127725596966,-15.685580034943136,-9.447739247350427
940,-7.102255276715292,-15.659265259917019,-15.487430449186324,-9.329415100422928
941,-6.9686081522445695,-15.470647208522779,-15.275878480985854,-9.203049694215037
942,-6.829136979036476,-15.268520534557775,-15.051206784446867,-9.068813477887591
943,-6.684029149043165,-15.053151460218764,-14.81371768916653,-8.926888962543003
944,-6.53348166222259,-14.824825466755755,-14.56373320023409,-8.777470721225253
945,-6.377701126538502,-14.58384729447198,-14.301594998230833,-8.620765388919894
946,-6.216903757960449,-14.330540942723893,-14.027664439230126,-8.456991662554067
947,-6.051315380463767,-14.065249669921204,-13.742322554797333,-8.286380300996461
948,-5.881171426029605,-13.788335993526832,-13.445970051989931,-8.109174125057374
949,-5.706716934644886,-13.500181690056952,-13.139027313357396,-7.92562801748864
950,-5.528206554302347,-13.201187795080939,-12.821934396941286,-7.736008922983687
951,-5.345904541000514,-12.891774603221432,-12.495151036275196,-7.540595848177516
952,-5.160084758743705,-12.57238166815427,-12.159156640384785,-7.339679861646688
953,-4.9710306795420385,-12.243467802608542,-11.814450293787726,-7.133564093909346
954,-4.7790353834114265,-11.905511078366564,-11.461550756493777,-6.922563737425203
955,-4.5844015583735676,-11.55900882626387,-11.10099646400473,-6.707006046595538
956,-4.387441500455967,-11.204477636189232,-10.733345527314427,-6.487230337763204
957,-4.188477113691916,-10.842453357084645,-10.359175732908753,-6.263587989212631
958,-3.9878399101205053,-10.473491096945338,-9.979084542765642,-6.036442441169808
959,-3.7858710097866117,-10.098165222819759,-9.593689094355065,-5.806169195802305
960,-8.217830599295693,-12.251434564661903,-11.235097847057366,-6.99817480733674
961,-8.455378300294887,-12.762377119265622,-11.661313310822987,-7.282615166801027
962,-8.686617682948349,-13.267133078685921,-12.081119717423164,-7.5632423421058945
963,-8.911218585949785,-13.764862424147697,-12.493833158971684,-7.839600059998034
964,-9.128863885870963,-14.25475122088441,-12.89879210894199,-8.111246398930419
965,-9.339249497161681,-14.736011618138189,-13.295357422167104,-8.377753789062307
966,-9.54208437214979,-15.207881849159735,-13.682912334839653,-8.638709012259271
967,-9.737090501041155,-15.66962623120837,-14.06086246451186,-8.893713202093158
968,-9.924002911919715,-16.12053516555204,-14.42863581009556,-9.142381843842125
969,-10.102569670747444,-16.559925137467253,-14.785682751862186,-9.38434477449058
970,-10.272551881364338,-16.98713871623917,-15.13147605144276,-9.619246182729292
971,-10.43372368548846,-17.401544555161564,-15.46551085182793,-9.846744608955255
972,-10.585872262715883,-17.802537391536763,-15.787304677367906,-10.066512945271786
973,-10.728797830520739,-18.189538046675743,-16.09639743377253,-10.278238435488493
974,-10.862313644255202,-18.561993425898095,-16.392351408111235,-10.481622675121272
975,-10.986245997149465,-18.91937651853198,-16.674751268813015,-10.676381611392289
976,-11.100434220311783,-19.26118639791417,-16.943204065666517,-10.86224554323003
977,-11.204730682728444,-19.58694822139006,-17.197339229819953,-11.038959121269256
978,-11.299000791263763,-19.896213230313645,-17.436808573781136,-11.206281347851013
979,-11.3831229906601,-20.188558750047513,-17.661286291417465,-11.363985577022643
980,-11.456988763537847,-20.463588189962824,-17.870468957955957,-11.511859514537772
981,-11.520502630395443,-20.720931043439407,-18.06407552998319,-11.64970521785632
982,-11.573582149609363,-20.960242887865633,-18.24184734544539,-11.777339096144491
983,-11.616157917434109,-21.181205384638513,-18.403548123648292,-11.89459191027476
984,-11.648173568002225,-21.383526279163615,-18.5489639652573,-12.001308772825917
985,-11.6695857733243,-21.56693940085515,-18.67790335229738,-12.097349148083026
986,-11.68036424328894,-21.73120466313589,-18.790197148153116,-12.182586852037437
987,-11.68049172566279,-21.876108063437247,-18.885698597568624,-12.256910052386786
988,-11.66996400609055,-22.00146168319916,-18.96428332664764,-12.320221268534988
989,-11.648789908094937,-22.107103687870246,-19.025849342853537,-12.372437371592257
990,-11.616991293076701,-22.192898326907645,-19.070317035009214,-12.413489584375077
991,-11.574603060314631,-22.25873593377715,-19.097629173297175,-12.443323481406232
992,-11.521673146965558,-22.304532925953136,-19.107750909259533,-12.46189898891478
993,-11.45826252806433,-22.33023180491852,-19.10066977579796,-12.469190384836065
994,-11.384445216523849,-22.335801156164877,-19.076395687173754,-12.46518629881172
995,-11.300308263135019,-22.321235649192342,-19.034960939007753,-12.449889712189645
996,-11.205951756566806,-22.286556037509655,-18.976420208280413,-12.423317958024041
997,-11.101488823366207,-22.231809158634135,-18.900850553331765,-12.38550272107538
998,-10.98704562795822,-22.157067934091685,-18.808351413861438,-12.33649003781042
999,-10.862761372645918,-22.06243136941685,-18.69904461092861,-12.276340296402207
1000,-10.728788297610368,-21.948024554152685,-18.5730743469521,-12.205128236730063
1001,-10.585291680910684,-21.81399866185088,-18.430607205710256,-12.122942950379587
1002,-10.432449838484022,-21.660530950071728,-18.27183215234106,-12.029887880642667
1003,-10.270454124145544,-21.487824760384058,-18.096960533342006,-11.926080822517461
1004,-10.09950892958847,-21.29610951836534,-17.90622607657025,-11.811653922708416
1005,-9.919831684384015,-21.08564073360159,-17.699884891242487,-11.686753679626259
1006,-9.731652855981451,-20.85669999968744,-17.478215467934973,-11.551540943387987
1007,-9.535215949708087,-20.609594994226086,-17.241518678583596,-11.406190915816897
1008,-9.330777508769218,-20.344659478829303,-16.990117776483793,-11.250893150442531
1009,-9.118607114248215,-20.062253299117476,-16.724358396290587,-11.085851552500749
1010,-8.898987385106452,-19.762762384719547,-16.444608554018572,-10.911284378933649
1011,-8.672213978183327,-19.446598749273072,-16.151258647041924,-10.727424238389636
1012,-8.43859558819629,-19.114200490424153,-15.844721454094406,-10.534518091223392
1013,-8.19845394774079,-18.766031789827494,-15.525432135269355,-10.332827249495855
1014,-7.952123827290319,-18.402582913146375,-15.193848232019677,-10.122627376974252
1015,-7.699953035196402,-18.024370210052663,-14.850449667157859,-9.904208489132097
1016,-7.442302417688565,-17.63193611422679,-14.495738744855966,-9.677874953149159
1017,-7.179545858874386,-17.225849143357774,-14.130240150645633,-9.4439454879115
1018,-6.912070280739464,-16.806703899143216,-13.754500951418077,-9.202753164011446
1019,-6.640275643147409,-16.37512106728929,-13.36909059542408,-8.954645403747607
1020,-6.3645749438398695,-15.931747417510742,-12.974600912274004,-8.699983981124861
1021,-6.0853942184365115,-15.477255803530909,-12.57164611293779,-8.43914502185436
1022,-5.803172540435037,-15.012345163081692,-12.160862789744934,-8.172519003353537
1023,-5.51836202121116,-14.537740517903565,-11.742909916384516,-7.900510754746095
1024,-6.3306117266988,-15.15692972853405,-11.001638226932617,-6.111938410971812
1025,-6.594655692143048,-15.611521111215422,-11.30393461871568,-6.34606827007656
1026,-6.855888486015271,-16.05543613950602,-11.598325662175126,-6.576605634257347
1027,-7.113855861039872,-16.4879964091847,-11.884358137378378,-6.803181304852413
1028,-7.3681175424049,-16.90854912209634,-12.161596839901312,-7.025438190784089
1029,-7.61824722776204,-17.31646708615187,-12.429624580828273,-7.243031308558839
1030,-7.863832587226603,-17.711148715328303,-12.688042186752064,-7.455627782267212
1031,-8.104475263377545,-18.092018029668623,-12.936468499773932,-7.66290684358389
1032,-8.339790871257447,-18.4585246552819,-13.174540377503602,-7.864559831767646
1033,-8.569408998372532,-18.810143824343232,-13.40191269305925,-8.060290193661379
1034,-8.792973204692656,-19.146376375093755,-13.618258335067525,-8.249813483692076
1035,-9.010141022651302,-19.46674875184064,-13.823268207663496,-8.432857363870855
1036,-9.2205839571456,-19.770813004957088,-14.016651230490725,-8.60916160379293
1037,-9.423987485536284,-20.058146790882347,-14.198134338701218,-8.778478080637623
1038,-9.620051057647744,-20.328353372121732,-14.367462482955437,-8.940570779168368
1039,-9.808488095768018,-20.58106161724652,-14.524398629422308,-9.0952157917327
1040,-9.989025994648719,-20.81592600089407,-14.668723759779205,-9.242201318262268
1041,-10.161406121505143,-21.03262660376778,-14.800236871211949,-9.381327666272822
1042,-10.325383816016204,-21.230869112637095,-14.91875497641485,-9.512407250864229
1043,-10.480728390324433,-21.410384820337416,-15.024113103590624,-9.635264594720445
1044,-10.627223129036015,-21.570930625770288,-15.116164296450478,-9.749736328109543
1045,-10.764665289220739,-21.71228903390318,-15.194779614214061,-9.85567118888371
1046,-10.892866100412041,-21.834268155769685,-15.259848131609466,-9.952930022479217
1047,-11.011650764606971,-21.93670170846935,-15.31127693887326,-10.041385781916455
1048,-11.120858456266228,-22.019449015167794,-15.348991141750437,-10.120923527799924
1049,-11.220342322314124,-22.082395005096654,-15.37293386149445,-10.19144042831822
1050,-11.309969482138614,-22.125450213553627,-15.383066234867231,-10.252845759244023
1051,-11.389621027591252,-22.148550781902372,-15.37936741413912,-10.305060903934168
1052,-11.459192022987263,-22.151658457572644,-15.361834567088954,-10.348019353329546
1053,-11.518591505105453,-22.13476059406018,-15.330482877003965,-10.381666705955176
1054,-11.567742483188297,-22.09787015092674,-15.28534554267988,-10.40596066792017
1055,-11.606581938941865,-22.041025693800183,-15.226473778420862,-10.420871052917756
1056,-11.635060826535861,-21.964291394374275,-15.153936814039511,-10.42637978222524
1057,-11.65314407260363,-21.86775703040892,-15.067821894856898,-10.422480884704054
1058,-11.660810576242126,-21.751537985729964,-14.968234281702518,-10.409180496799722
1059,-11.65805320901194,-21.615775250229326,-14.855297250914331,-10.386496862541868
1060,-11.644878814937279,-21.460635419864925,-14.729152094338733,-10.354460333544232
1061,-11.621308210505976,-21.286310696660703,-14.589958119330584,-10.313113369004627
1062,-11.587376184669484,-21.093018888706624,-14.437892648753163,-10.262510535704985
1063,-11.543131498842895,-20.88100341015869,-14.273151020978228,-10.20271850801135
1064,-11.488636886904915,-20.65053328123892,-14.095946589885942,-10.133816067873834
1065,-11.423969055197873,-20.401903128235308,-13.906510724864962,-10.055894104826685
1066,-11.34921868252772,-20.135433183501924,-13.705092810812344,-9.969055615988221
1067,-11.264490420164035,-19.851469285458826,-13.49196024813361,-9.873415706060888
1068,-11.169902891840014,-19.550382878592135,-13.267398452742738,-9.7691015873312
1069,-11.065588693752469,-19.23257101345389,-13.031710856062121,-9.656252579669783
1070,-10.95169439456186,-18.89845634666226,-12.785218905022607,-9.53502011053137
1071,-10.828380535392238,-18.548487140901365,-12.528262062063503,-9.405567714954786
1072,-10.695821629831286,-18.183137264921356,-12.261197805132536,-9.268071035562956
1073,-10.554206163930315,-17.80290619353838,-11.984401627685875,-9.12271782256289
1074,-10.403736596204242,-17.408319007634656,-11.698267038688147,-8.96970793374571
1075,-10.244629357631618,-16.999926394158344,-11.40320556261241,-8.809253334486636
1076,-10.07711485165461,-16.578304646123648,-11.099646739440164,-8.641578097744976
1077,-9.901437454178994,-16.144055662610814,-10.788038124661345,-8.466918404064137
1078,-9.717855513574177,-15.697806948766054,-10.468845289274327,-8.285522541571622
1079,-9.526641350673186,-15.240211615801613,-10.142551819785938,-8.097650905979032
1080,-9.328081258772652,-14.77194838099575,-9.809659318211414,-7.903576000582064
1081,-9.12247550363284,-14.293721567692716,-9.470687402074478,-7.7035824362605085
1082,-8.910138323477621,-13.806261105302806,-9.126173704407247,-7.49796693147825
1083,-8.691397928994498,-13.31032252930227,-8.776673873750289,-7.287038312283274
1084,-8.46659650333457,-12.806686981233426,-8.422761574152613,-7.071117512307648
1085,-8.23609020211257,-12.296161208704548,-8.065028485171661,-6.850537572767551
1086,-8.000249153406838,-11.779577565389966,-7.704084301873319,-6.625643642463241
1087,-7.759457457759335,-11.257794011029965,-7.340556734831897,-6.396792977779074
1088,-5.677337952197374,-10.234010684666265,-9.65038207641004,-3.0723727976361785
1089,-5.827708576578102,-10.567437649103702,-10.007604178675038,-3.1795602825019875
1090,-5.9732657810745415,-10.893931139038608,-10.359125781145725,-3.284157552967805
1091,-6.113820222396797,-11.21298825099658,-10.70437925366415,-3.3860313583277715
1092,-6.249190896157315,-11.524124163633994,-11.042815857832156,-3.485053489799701
1093,-6.379205136870881,-11.826872137738002,-11.37390574701135,-3.581100780525088
1094,-6.50369861795461,-12.120783516226489,-11.697137966323124,-3.6740551055691064
1095,-6.622515351727961,-12.40542772414813,-12.012020452648636,-3.7638033819206087
1096,-6.73550768941273,-12.680392268682374,-12.318080034628833,-3.8502375684921235
1097,-6.8425363211330446,-12.945282739139412,-12.614862432664417,-3.9332546661198595
1098,-6.943470275915371,-13.199722806960212,-12.90193225891589,-4.012756717563705
1099,-7.038186921688513,-13.443354225716508,-13.178873017303516,-4.088650807507224
1100,-7.126571965283611,-13.67583683111079,-13.445287103507322,-4.160849062557657
1101,-7.208519452434139,-13.896848540976316,-13.700795804967123,-4.229268651245927
1102,-7.283931767775905,-14.10608535527711,-13.9450393008825,-4.293831784026623
1103,-7.352719634847056,-14.303261356107944,-14.17767666221283,-4.354465713278033
1104,-7.414802116088077,-14.48810870769437,-14.398385851677217,-4.4111027333021
1105,-7.470106612841778,-14.6603776563927,-14.606863723754575,-4.463680180324455
1106,-7.518568865353305,-14.819836530689994,-14.802826024683561,-4.512140432494408
1107,-7.560132952770159,-14.966271741204086,-14.986007392462637,-4.556430909884939
1108,-7.5947512931421475,-15.099487780683562,-15.156161356850012,-4.59650407449271
1109,-7.622384643421429,-15.219307224007759,-15.313060339363657,-4.632317430238058
1110,-7.643002099462497,-15.325570728186808,-15.456495653281324,-4.663833522965
1111,-7.6565810960221645,-15.41813703236156,-15.586277503640549,-4.691019940441221
1112,-7.663107406759591,-15.496882957803644,-15.702234987238613,-4.71384931235809
1113,-7.662575144236262,-15.561703407915445,-15.80421609263257,-4.732299310330654
1114,-7.654986759916003,-15.6125113682301,-15.89208770013925,-4.746352647897622
1115,-7.640353044164979,-15.649237906411516,-15.965735581835245,-4.755997080521402
1116,-7.61869312625166,-15.671832172254334,-16.025064401556907,-4.761225405588059
1117,-7.590034474346878,-15.680261397683987,-16.069997714900374,-4.76203546240734
1118,-7.554412895523785,-15.674510896756628,-16.10047796922153,-4.758430132212665
1119,-7.511872535757864,-15.654584065659195,-16.11646650363603,-4.750417338161137
1120,-7.4624658799269366,-15.620502382709352,-16.117943549019298,-4.738010045333534
1121,-7.4062537518111515,-15.572305408355536,-16.104908228006533,-4.72122626073429
1122,-7.343305314092992,-15.510050785176944,-16.07737855499266,-4.700089033291545
1123,-7.273698068357265,-15.433814237883508,-16.035391436132404,-4.67462645385709
1124,-7.197517855091114,-15.34368957331593,-15.97900266934025,-4.6448716552064
1125,-7.114858853684025,-15.239788680445656,-15.908286944290435,-4.610862812038625
1126,-7.025823582427792,-15.122241530374884,-15.82333784241695,-4.57264314097659
1127,-6.93052289851656,-14.991196176336574,-15.72426783691357,-4.530260900566794
1128,-6.829075998046791,-14.84681875369444,-15.611208292733817,-4.483769391279403
1129,-6.721610416017287,-14.689293479942913,-15.484309466590984,-4.433226955508276
1130,-6.608262026329173,-14.518822654707215,-15.343740506958094,-4.378696977570925
1131,-6.489175041785907,-14.33562665974331,-15.189689454067985,-4.320247883708551
1132,-6.364502014093276,-14.139943958937899,-15.022363239913203,-4.257953142086023
1133,-6.234403833859393,-13.932031098308435,-14.841987688246085,-4.191891262791882
1134,-6.0990497305947144,-13.71216270600314,-14.648807514578701,-4.122145797838344
1135,-5.9586172727120035,-13.480631492300956,-14.443086326182904,-4.048805341161306
1136,-5.8132923675263735,-13.237748249611592,-14.225106622090292,-3.9719635286203276
1137,-5.663269261255253,-12.98384185247549,-13.995169793092227,-3.8917190379986515
1138,-5.5087505390184015,-12.719259257563861,-13.753596121739816,-3.808175589003185
1139,-5.34994712483791,-12.444365503678654,-13.500724782343932,-3.721441943264513
1140,-5.187078281638199,-12.159543711752562,-13.236913840975204,-3.6316319043368965
1141,-5.020371611246017,-11.865195084849011,-12.962540255464019,-3.538864317698261
1142,-4.8500630543904295,-11.561738908162198,-12.677999875400502,-3.4432630707502137
1143,-4.6763968907028435,-11.249612549017044,-12.383707442134556,-3.344957092818027
1144,-4.499625738716984,-10.929271456869243,-12.080096588775827,-3.2440803551506545
1145,-4.320010555868907,-10.601189163305193,-11.767619840193706,-3.140771870920713
1146,-4.137820638496996,-10.26585728204207,-11.44674861301736,-3.0351756952244977
1147,-3.9533336218419595,-9.923785508927777,-11.117973215635688,-2.927440925081972
1148,-3.7668354800468324,-9.575501621940976,-10.781802848197355,-2.8177216994367753
1149,-3.5786205261569797,-9.221551481191044,-10.438765602610761,-2.7061771991562202
1150,-3.3889914121200877,-8.862499028918126,-10.089408462544082,-2.592971647031284
1151,-3.19825912878617,-8.498926289493099,-9.73429730342522,-2.478274307776622
1152,-8.631472916578653,-14.211715527439116,-11.377276096312873,-10.485552052739198
1153,-8.970423575162062,-14.761407913794852,-11.795921318795724,-10.855864137501042
1154,-9.304456617255221,-15.302786275601418,-12.207337901473894,-11.219544198615937
1155,-9.63303225973703,-15.834984848791931,-12.610887682928066,-11.576019205814045
1156,-9.955628175449272,-16.357166015195077,-13.005953920149771,-11.924735757074297
1157,-10.27173949319662,-16.868520302535043,-13.391941288541389,-12.265160078624437
1158,-10.58087879774663,-17.368266384431507,-13.768275881916097,-12.596778024940964
1159,-10.882576129829754,-17.855651080399763,-14.134405212497947,-12.919095078749178
1160,-11.176378986139314,-18.329949355850555,-14.489798210921803,-13.231636351023147
1161,-11.46185231933153,-18.79046432209014,-14.833945226233379,-13.533946580985733
1162,-11.7385785380255,-19.23652723632041,-15.166358025889206,-13.825590136108575
1163,-12.006157506803202,-19.66749750163863,-15.486569795756644,-14.10615101211209
1164,-12.264206546209515,-20.082762667037706,-15.794135140113903,-14.375232832965468
1165,-12.51236043275219,-20.48173842740601,-16.08863008165,-14.632458850886678
1166,-12.75027139890184,-20.863868623527434,-16.3696520614648,-14.87747194634249
1167,-12.977609133092011,-21.228625242081414,-16.636819939069028,-15.109934628048427
1168,-13.194060779719088,-21.575508415642897,-16.88977399238418,-15.3295290329688
1169,-13.399330939142352,-21.90404642268234,-17.128175917742585,-15.535956926316686
1170,-13.593141667683968,-22.21379568756574,-17.35170882988748,-15.728939701553971
1171,-13.775232477628974,-22.504340780554585,-17.560077261972825,-15.908218380391281
1172,-13.9453603372253,-22.775294417805892,-17.75300716556348,-16.073553612788032
1173,-14.103299670683747,-23.026297461372213,-17.93024591063511,-16.224725676952428
1174,-14.248842358178008,-23.257018919201585,-18.0915622855742,-16.361534479341415
1175,-14.381797735844634,-23.467155945137577,-18.236746497178068,-16.48379955466075
1176,-14.501992595783076,-23.656433838919277,-18.36561017065486,-16.591360065864954
1177,-14.609271186055652,-23.824606046181252,-18.477986349623553,-16.684074804157287
1178,-14.703495210687556,-23.97145415845366,-18.573729496113927,-16.761822188989843
1179,-14.784543829666875,-24.09678791316209,-18.652715490566607,-16.82450026806344
1180,-14.852313658944551,-24.200445193627672,-18.714841631833043,-16.872026717327692
1181,-14.906718770434422,-24.28229202906706,-18.760026637175493,-16.904338840980973
1182,-14.947690692013195,-24.342222594592428,-18.78821064226703,-16.921393571470432
1183,-14.97517840752045,-24.380159211211396,-18.799355201191595,-16.923167469491986
1184,-14.989148356758653,-24.396052345827187,-18.793443286443896,-16.909656723990334
1185,-14.989584435493127,-24.389880611238446,-18.7704792889295,-16.88087715215894
1186,-14.976487995452098,-24.36165076613938,-18.73048901796476,-16.836864199440022
1187,-14.949877844326625,-24.311397715119696,-18.67351970127691,-16.7776729395246
1188,-14.909790245770683,-24.2391845086646,-18.599639985003932,-16.70337807435242
1189,-14.856278919401095,-24.14510234315477,-18.50893993369467,-16.61407393411202
1190,-14.78941504079758,-24.02927056086647,-18.40153103030877,-16.509874477240718
1191,-14.709287241502699,-23.891836649971385,-18.27754617621672,-16.39091329042456
1192,-14.616001609021902,-23.732976244536758,-18.13713969119979,-16.25734358859841
1193,-14.509681686823514,-23.55289312452532,-17.9804873134501,-16.10933821494586
1194,-14.39046847433873,-23.35181921579529,-17.807786199570554,-15.947089640899275
1195,-14.258520426961608,-23.130014590100423,-17.619254924574903,-15.770809966139787
1196,-14.11401345604909,-22.887767465089915,-17.41513348188771,-15.580730918597313
1197,-13.957140928920973,-22.625394204308535,-17.19568328334433,-15.377103854450494
1198,-13.788113668859934,-22.34323931719651,-16.961187159190946,-15.16019975812677
1199,-13.607159955111511,-22.041675459089575,-16.71194935808457,-14.930309242302325
1200,-13.41452552288413,-21.721103431218964,-16.448295547092997,-14.687742547902118
1201,-13.21047356334907,-21.3819521807114,-16.17057281169487,-14.432829544099864
1202,-12.995284723640466,-21.02467880058912,-15.879149655779615,-14.165919728318034
1203,-12.769257106855353,-20.649768529769855,-15.57441600164749,-13.887382226227869
1204,-12.532706272053604,-20.257734753066813,-15.25678319000955,-13.597605791749384
1205,-12.285965234257976,-19.849119001188715,-14.926683979987668,-13.296998807051311
1206,-12.029384464454088,-19.424490950739784,-14.58457254911454,-12.985989282551209
1207,-11.763331889590422,-18.984448424219714,-14.230924493333646,-12.665024856915322
1208,-11.488192892578335,-18.529617390023713,-13.866236826999293,-12.334572797058714
1209,-11.20437031229203,-18.060651962442464,-13.49102798287659,-11.995119998145176
1210,-10.912284443568598,-17.578234401662154,-13.105837812141472,-11.647172983587259
1211,-10.61237303720798,-17.083075113764462,-12.71122758438065,-11.291257905046287
1212,-10.305091299972984,-16.57591265072655,-12.30777998759168,-10.927920542432322
1213,-9.990911894589287,-16.057513710421077,-11.89609912818289,-10.557726303904207
1214,-9.670324939745422,-15.528673136616181,-11.476810530973435,-10.181260225869517
1215,-9.343838010092789,-14.990213918975508,-11.050561139193277,-9.799126972984597
1216,-5.966634521243826,-14.32305200805629,-12.776577194344245,-5.124987442773082
1217,-6.161747110093122,-14.750329047695043,-13.166166770195005,-5.316998336652253
1218,-6.353423346797489,-15.167715828632277,-13.546920619750566,-5.506477445232585
1219,-6.541337595859722,-15.57456316944168,-13.918251845378709,-5.693095854723145
1220,-6.725175486866822,-15.970246304039684,-14.279595321679118,-5.876535165765059
1221,-6.904633914489992,-16.354164881685435,-14.630407695483294,-6.056487493431529
1222,-7.079421038484635,-16.725742966980874,-14.970167385854614,-6.232655467227796
1223,-7.249256283690352,-17.084429039870635,-15.298374584088286,-6.404752231091172
1224,-7.413870340030954,-17.429695995642092,-15.614551253711376,-6.572501443391021
1225,-7.5730051625144394,-17.761041144925372,-15.918241130482794,-6.735637276928759
1226,-7.726413971233019,-18.077986213693382,-16.2090097223933,-6.893904418937865
1227,-7.873861251363086,-18.380077343261664,-16.48644430966553,-7.047058071083873
1228,-8.015122753165263,-18.666885090288595,-16.75015394475391,-7.194863949464366
1229,-8.149985491984339,-18.93800442677525,-16.999769452344758,-7.337098284609001
1230,-8.278247748249324,-19.193054740065417,-17.234943429356214,-7.473547821479476
1231,-8.399719067473422,-19.431679832845663,-17.455350244938302,-7.604009819469546
1232,-8.51422026025403,-19.653547923145272,-17.660686040472847,-7.728292052405023
1233,-8.62158340227275,-19.858351644336235,-17.85066872957354,-7.846212808543773
1234,-8.721651834295379,-20.04580804513331,-18.025037998085907,-7.957600890575723
1235,-8.81428016217191,-20.215658589594,-18.18355530408734,-8.06229561562284
1236,-8.899334256836536,-20.3676691571185,-18.326003877887025,-8.160146815239168
1237,-8.97669125430765,-20.50163004244972,-18.45218872202608,-8.251014835410775
1238,-9.046239555687833,-20.617355955673414,-18.561936611277353,-8.334770536555816
1239,-9.107878827163878,-20.71468602221794,-18.655096092645646,-8.41129529352447
1240,-9.161520000006758,-20.793483782854434,-18.731537485367497,-8.480480995598985
1241,-9.20708527057165,-20.85363719369678,-18.791152880911362,-8.542230046493664
1242,-9.244508100297928,-20.895058626201575,-18.833856142977503,-8.596455364354851
1243,-9.273733215709159,-20.917684867168113,-18.859582907498037,-8.643080381760953
1244,-9.294716608413111,-20.921477118738487,-18.86829058263691,-8.682039045722417
1245,-9.307425535101734,-20.906420998397454,-18.85995834878991,-8.713275817681765
1246,-9.311838517551193,-20.872526538972505,-18.834587158584654,-8.736745673513546
1247,-9.30794534262182,-20.819828188633902,-18.792199736880622,-8.75241410352437
1248,-9.29574706225817,-20.748384810894574,-18.732840580769086,-8.760257112452901
1249,-9.27525599348898,-20.658279684610225,-18.65657595957322,-8.76026121946985
1250,-9.246495718427175,-20.549620503979238,-18.563493914847985,-8.752423458177983
1251,-9.209501084269883,-20.42253937854277,-18.453704260380178,-8.736751376612116
1252,-9.164318203298416,-20.27719283318465,-18.327338582188457,-8.713263037239104
1253,-9.111004452878289,-20.113761808131464,-18.184550238523286,-8.681987016957866
1254,-9.049628475459203,-19.93245165895251,-18.025514359867007,-8.642962407099366
1255,-8.980270178575054,-19.733492156559787,-17.850427848933737,-8.596238813426623
1256,-8.90302073484393,-19.517137487208064,-17.659509380669473,-8.541876356134686
1257,-8.81798258196811,-19.283666252494783,-17.45299940225203,-8.479945669850677
1258,-8.725269422734064,-19.03338146936013,-17.231160133091045,-8.410527903633755
1259,-8.625006225012456,-18.76661057008699,-16.994275564828,-8.333714720975125
1260,-8.517329221758141,-18.483705402300988,-16.7426514613362,-8.249608299798043
1261,-8.402385911010164,-18.185042228970467,-16.47661535872078,-8.15832133245782
1262,-8.280335055891758,-17.871021728406465,-16.19651656531872,-8.059977025741807
1263,-8.151346684610347,-17.54206899426276,-15.902726161698817,-7.9547091008693975
1264,-8.015602090457556,-17.198633535535826,-15.59563700066168,-7.842661793492048
1265,-7.873293831809183,-16.841189276564865,-15.275663707239783,-7.72398985369325
1266,-7.724625732125227,-16.470234557031812,-14.943242678697406,-7.598858545988541
1267,-7.569812879949865,-16.08629213196127,-14.598832084530649,-7.467443649325513
1268,-7.40908162891148,-15.689909171720593,-14.242911866467464,-7.329931457083797
1269,-7.242669597722627,-15.281657262019845,-13.875983738467612,-7.186518777075076
1270,-7.070825670180067,-14.862132403911783,-13.498571186722684,-7.037412931543067
1271,-6.893809995164726,-14.4319550137919,-13.111219469656094,-6.882831757163554
1272,-6.711893986641742,-13.991769923398378,-12.714495617923074,-6.723003605044347
1273,-6.525360323660425,-13.542246379812124,-12.308988434410708,-6.558167340725307
1274,-6.334502950354272,-13.08407804545676,-11.895308494237867,-6.388572344178343
1275,-6.139627075940982,-12.617982998098604,-11.474088144755274,-6.214478509807398
1276,-5.941049174722428,-12.144703730846693,-11.045981505545464,-6.036156246448478
1277,-5.739096986084667,-11.665007152152764,-10.61166446842279,-5.853886477369615
1278,-5.534109514497956,-11.179684585811271,-10.17183469743343,-5.667960640270895
1279,-5.326437029516725,-10.68955177095937,-9.727211628855395,-5.478680687284443
1280,-56.50935513966723,-10.922345042996353,-9.878886457145255,-60.525783794833366
1281,-65.75835276781173,-11.52437886628651,-10.173934750645062,-69.18308456033694
1282,-75.08497645692762,-12.123830711823427,-10.461335233229711,-77.89559218719555
1283,-84.47186622406207,-12.719630065075057,-10.740682413504798,-86.64759411307658
1284,-93.9020355315933,-13.310735856951522,-11.011586736691262,-95.42372324420009
1285,-103.35887128723049,-13.896136463805124,-11.273674584625386,-104.20895795533913
1286,-112.82613384401361,-14.474849707430389,-11.526588275758797,-112.98862208981949
1287,-122.28795700031375,-15.045922855063964,-11.769986065158477,-121.74838495951991
1288,-131.72884799983268,-15.608432619384727,-12.003542144506758,-130.4742613448719
1289,-141.13368753160321,-16.161485158513727,-12.226946642101275,-139.1526114948597
1290,-150.48772972998907,-16.704216076014205,-12.43990562285506,-147.77014112702057
1291,-159.7766021746848,-17.235790420891547,-12.64214108829646,-156.3139014274443
1292,-168.98630589071576,-17.75540268759336,-12.833390976569179,-164.77128905077376
1293,-178.10321534843834,-18.262276816009415,-13.013409162432259,-173.1300461202044
1294,-187.11407846353964,-18.75566619147166,-13.181965457260066,-181.37826022748453
1295,-196.00601659703776,-19.23485364475423,-13.338845609042345,-189.50436443291517
1296,-204.76652455528145,-19.699151452073448,-13.48385130238415,-197.49713726535023
1297,-213.3834705899502,-20.147901335087766,-13.616800158505885,-205.34570272219614
1298,-221.8450963980549,-20.580474460897868,-13.737525735243322,-213.0395302694123
1299,-230.14001712193664,-20.996271442046584,-13.845877527047527,-220.5684348415108
1300,-238.25722134926733,-21.39472233651893,-13.94172096498495,-227.92257684155635
1301,-246.18607111305022,-21.775286647742096,-14.024937416737359,-235.09246214116655
1302,-253.91630189161884,-22.137453324585454,-14.095424186601846,-242.06894208051148
1303,-261.4380226086375,-22.480740761360515,-14.153094515490878,-248.8432134683141
1304,-268.7417156331017,-22.804696797821006,-14.19787758093225,-255.4068185818501
1305,-275.8182367793371,-23.108898719162806,-14.229718497069076,-261.75164516694764
1306,-282.65881530700074,-23.39295325602394,-14.248578314659827,-267.8699264379878
1307,-289.25505392108005,-23.656496584484643,-14.2544340210783,-273.75424107790417
1308,-295.59892877189316,-23.89919432606733,-14.247278540313648,-279.39751323818325
1309,-301.68278945508905,-24.12074154773654,-14.22712073297034,-284.79301253886354
1310,-307.49935901164724,-24.320862761898994,-14.193985396268188,-289.93435406853735
1311,-313.04173392787817,-24.499311926403585,-14.147913264042359,-294.81549838434836
1312,-318.3033841354229,-24.655872444541394,-14.088961006743322,-299.43075151199355
1313,-323.2781530112532,-24.79035716504564,-14.017201231436896,-303.7747649457226
1314,-327.96025737767155,-24.90260838209172,-13.932722481804264,-307.84253564833756
1315,-332.34428750231086,-24.992497835297183,-13.835629238141903,-311.62940605119303
1316,-336.42520709813505,-25.059926709721758,-13.72604191736163,-315.13106405419654
1317,-340.19835332343825,-25.104825635867325,-13.604096872990615,-318.34354302580755
1318,-343.6594367818459,-25.12715468967794,-13.46994639517136,-321.26322180303924
1319,-346.8045415223134,-25.12690339253982,-13.32375871066168,-323.88682469145607
1320,-349.630125039127,-25.104090711281327,-13.165717982834737,-326.211421465176
1321,-352.13301827190395,-25.058765058172984,-12.996024311679024,-328.234427366869
1322,-354.3104256055916,-24.99100429092751,-12.814893733798385,-329.953603107758
1323,-356.1599248704681,-24.900915712699724,-12.622558222411943,-331.3670548676181
1324,-357.67946734214195,-24.78863607208667,-12.419265687354212,-332.47323429477734
1325,-358.86737774155284,-24.654331563127492,-12.205279975075005,-333.27093850611556
1326,-359.72235423497045,-24.498197825303535,-11.980880868639469,-333.75931008706607
1327,-360.2434684339955,-24.320459943538264,-11.74636408772808,-333.9378370916142
1328,-360.4301653955584,-24.121372448197317,-11.502041288636658,-333.8063530422974
1329,-360.2822636219212,-23.901219315088497,-11.24824006427633,-333.3650369302065
1330,-359.7999550606757,-23.660313965461743,-10.985303944173578,-332.6144132149839
1331,-358.98380510474493,-23.398999266009163,-10.713592394470194,-331.5553518248254
1332,-357.83475259238156,-23.11764752886501,-10.4334808179233,-330.18906815647813
1333,-356.35410980716955,-22.816660511605676,-10.145360553905359,-328.5171230752427
1334,-354.5435624780229,-22.49646941724973,-9.849638878404143,-326.54142291497186
1335,-352.4051697791863,-22.15753489425789,-9.546739004022756,-324.2642194780704
1336,-349.94136433023476,-21.800347036532994,-9.237100079979644,-321.6881100354961
1337,-347.15495219607413,-21.425425383420055,-8.92117719210857,-318.8160373267588
1338,-344.04911288694035,-21.03331891970624,-8.599441362858611,-315.651289559921
1339,-340.6273993583999,-20.624606075620854,-8.272379551294192,-312.19750041159756
1340,-336.8937380113498,-20.199894726835335,-7.940494653095048,-308.45864902695536
1341,-332.85242869201755,-19.75982219446329,-7.6043055005562366,-304.4390600197145
1342,-328.508144691961,-19.30505524506047,-7.264346862588159,-300.1434034721465
1343,-323.86593274806836,-18.836290090624757,-6.921169444716513,-295.57669493507586
1344,-66.97938987664452,-12.552629109034408,-8.87350939090676,-39.35110292701262
1345,-68.68200469233015,-12.840036134612571,-9.35977628119041,-39.588199467252615
1346,-70.31873562810338,-13.118336239270695,-9.84249933363671,-39.78166287692434
1347,-71.88791885323914,-13.387081571459513,-10.320888645678462,-39.93164859911037
1348,-73.38797513495878,-13.645843822343318,-10.79417630941831,-40.03834178730151
1349,-74.8174098384301,-13.89421422580004,-11.261616411628797,-40.10195730539679
1350,-76.17481292676734,-14.131803558421145,-11.722485033752314,-40.122739727703326
1351,-77.45885896103121,-14.358242139511734,-12.176080251901157,-40.10096333893646
1352,-78.66830710022869,-14.573179831090481,-12.621722136857475,-40.03693213421985
1353,-79.80200110131335,-14.776286037889633,-13.058752754073302,-39.93097981908504
1354,-80.85886931918505,-14.967249707355059,-13.486536163670534,-39.78346980947195
1355,-81.83792470669002,-15.145779329646203,-13.904458420440958,-39.59479523172862
1356,-82.7382648146211,-15.311602937636094,-14.3119275738462,-39.36537892261122
1357,-83.5590717917174,-15.464468106911339,-14.708373668017797,-39.09567342928425
1358,-84.29961238466437,-15.604141955772146,-15.093248741757124,-38.786161009320104
1359,-84.95923793809403,-15.730411145232308,-15.466026828535442,-38.437353630699626
1360,-85.53738439458465,-15.8430818790192,-15.82620395649388,-38.04979297181164
1361,-86.03357229466116,-15.941979903573786,-16.173298148443426,-37.624050421453255
1362,-86.44740677679442,-16.026950508050625,-16.506849421864967,-37.160727078829645
1363,-86.7785775774021,-16.09785852431784,-16.826419788909217,-36.660453753554194
1364,-87.02685903084816,-16.154588326957146,-17.13159325639678,-36.123890965648506
1365,-87.19211006944293,-16.19704383326386,-17.42197582581813,-35.55172894554227
1366,-87.27427422344304,-16.22514850324685,-17.697195493333588,-34.94468763407342
1367,-87.27337962105165,-16.23884533962859,-17.95690224977337,-34.30351668248795
1368,-87.18953898841832,-16.238096887845135,-18.200768080637552,-33.62899545244011
1369,-87.02294964963873,-16.222885236046118,-18.428486966096028,-32.92193301599225
1370,-86.7738935267553,-16.193212015094765,-18.63977488098863,-32.183168155614915
1371,-86.44273713975652,-16.149098398567848,-18.834369794825,-31.413569364186852
1372,-86.02993160657758,-16.090585102755757,-19.01203167178466,-30.614034844994876
1373,-85.53601264309967,-16.01773238666245,-19.172542470717005,-29.785492511734006
1374,-84.96160056315074,-15.930620052005452,-19.31570614514126,-28.92889998850743
1375,-84.30740027850483,-15.829347443215898,-19.441348643246577,-28.045244609826444
1376,-83.57420129888244,-15.714033447438474,-19.54931790789189,-27.135543420610638
1377,-82.76287773195043,-15.58481649453145,-19.639483876606047,-26.200843176187554
1378,-81.87438828332209,-15.441854557066698,-19.711738481587737,-25.24222034229305
1379,-80.90977625655698,-15.285325150329605,-19.765995649705513,-24.26078109507112
1380,-79.87016955316112,-15.115425332319212,-19.802191302497782,-23.257661321073844
1381,-78.75678067258674,-14.932371703748098,-19.820283356172816,-22.234026617261495
1382,-77.57090671223257,-14.736400408042407,-19.82025172160875,-21.191072291002474
1383,-76.3139293674437,-14.52776713134189,-19.80209830435358,-20.130023360073398
1384,-74.98731493151149,-14.306747102499838,-19.765847004625112,-19.052134552658977
1385,-73.59261429567367,-14.073635093083153,-19.711543717311073,-17.958690307352093
1386,-72.13146294911434,-13.828745417372284,-19.63925633196902,-16.85100477315381
1387,-70.60558097896399,-13.572411932361266,-19.54907473282636,-15.730421809473231
1388,-69.0167730702993,-13.304988037757711,-19.441110798780358,-14.598314986127749
1389,-67.36692850614352,-13.026846675982792,-19.315498403398138,-13.456087583342825
1390,-65.65802116746609,-12.738380332171241,-19.172393414916673,-12.305172591752065
1391,-63.892109533182825,-12.440001034171415,-19.01197369624278,-11.147032712397277
1392,-62.07133668015588,-12.132140352545187,-18.834439104953177,-9.98316035672836
1393,-60.197930283193664,-11.815249400568028,-18.640011493294352,-8.815077646603367
1394,-58.274202615051195,-11.489798834228978,-18.428934708182727,-7.644336414288521
1395,-56.30255054642948,-11.156278852230635,-18.201474591204523,-6.472518202458151
1396,-54.285455545976006,-10.815199195989173,-17.95791897861583,-5.301234264194795
1397,-52.225483680284654,-10.467089149634353,-17.698577701342593,-4.132125562989061
1398,-50.12528561389555,-10.112497540009475,-17.423782584980597,-2.966862772739748
1399,-47.987596609295146,-9.751992736671426,-17.13388744979548,-1.8071462777537741
1400,-45.81523652691623,-9.386162651890656,-16.829268110722737,-0.6547061727461858
1401,-43.61110982513795,-9.01561474065117,-16.510322377367686,0.48869773715979314
1402,-41.37820556028568,-8.640976000650571,-16.17747005400552,1.6212759364328342
1403,-39.119597386631185,-8.262892972299998,-15.831152939581282,2.741209199133452
1404,-36.83844355639252,-7.882031738724166,-15.471834827709833,3.8466485889140243
1405,-34.5379869197341,-7.499077925761365,-15.100001506675902,4.9357154590188
1406,-32.221554924766515,-7.1147367019634356,-14.716160759434059,6.006501452283883
1407,-29.892559617546823,-6.729732778595792,-14.320842363608717,7.057068501137252
1408,4.827789826100572,-13.734086792528569,-12.884273099293463,4.13045557374787
1409,4.735869260207356,-14.227763757104846,-13.316932405575303,4.013272118571907
1410,4.637367518548347,-14.713118152475795,-13.741493318658707,3.8896587761840835
1411,4.532505348051032,-15.18937085927662,-14.157275050910156,3.759889336824008
1412,4.421503729443784,-15.655769019883493,-14.56362054418822,3.624236265375271
1413,4.304583877255832,-16.111586038413567,-14.959896469843525,3.4829707013654274
1414,4.181967239817327,-16.556121580725016,-15.345493228718745,3.336362458966017
1415,4.053875499259274,-16.98870157441699,-15.71982495114862,3.1846800269925453
1416,3.920530571513579,-17.408678208829638,-16.082329496959957,3.0281905689044923
1417,3.782154606313031,-17.815429935044108,-16.432468455471636,2.867159922805338
1418,3.6389699871912966,-18.208361465882508,-16.769727145494517,2.701852601442497
1419,3.4911993314829313,-18.586903775907967,-17.093614615331635,2.532531792207395
1420,3.339065490323378,-18.950514101424606,-17.40366364277798,2.359459357135412
1421,3.1827915486489498,-19.298675940477505,-17.699430735120664,2.182895832905909
1422,3.0226008251968715,-19.63089905285276,-17.980496129138814,2.003100430842226
1423,2.858716872505222,-19.94671946007745,-18.24646379110365,1.82033103691167
1424,2.691363476912985,-20.24569944541962,-18.496961416778394,1.6348442117255353
1425,2.520764658560023,-20.52742755388833,-18.73164043141837,1.4468951905390826
1426,2.3471446713870723,-20.791518592233615,-18.95017598977096,1.2567378832515539
1427,2.1707280031357783,-21.03761362894649,-19.152266976075538,1.0646248744061533
1428,1.9917393753486416,-21.26537999425895,-19.33763600406359,0.8708074231900785
1429,1.8104037433690716,-21.47451128014401,-19.506029416958658,0.6755354634344932
1430,1.6269462963413424,-21.6647273403156,-19.657217287476257,0.4790576036145364
1431,1.4415924572106273,-21.835774290228716,-19.79099341782405,0.2816211268493303
1432,1.2545678827229811,-21.987424507079247,-19.90717533970168,0.08347199090195856
1433,1.0660984634253399,-22.119476629804144,-20.005604314300893,-0.11514517182050593
1434,0.8764103236655174,-22.231755559081304,-20.08614533230545,-0.3139870542670232
1435,0.6857298215922252,-22.32411245732959,-20.148687113891143,-0.5128116747425691
1436,0.4942835491550547,-22.396424748708878,-20.193142108725873,-0.7113783769081514
1437,0.30229833210447626,-22.448596119119966,-20.219446495969514,-0.9094478297808013
1438,0.1100012299918472,-22.48055651620472,-20.22756018427406,-1.1067820277335696
1439,-0.08238046383058814,-22.49226214934592,-20.217466811783503,-1.3031442904955355
1440,-0.2746192222097037,-22.483695489667312,-20.189173746133896,-1.4982992631518
1441,-0.4664872841914852,-22.45486527003366,-20.14271208445332,-1.692012916143487
1442,-0.657756655021039,-22.405806485050675,-20.07813665336192,-1.8840525452677481
1443,-0.8481991061425851,-22.33658039106508,-19.995526008971904,-2.0741867716777587
1444,-1.0375861751994595,-22.247274506164526,-19.89498243688748,-2.262185541882713
1445,-1.22568916603411,-22.13800261017767,-19.77663195220492,-2.4478201277478364
1446,-1.412279148688112,-22.00890474467413,-19.640624299512528,-2.630863126494372
1447,-1.5971269594021409,-21.860147212964478,-19.487132952890683,-2.8110884606995907
1448,-1.7800032006159985,-21.691922580100318,-19.31635511591176,-2.9882713782967834
1449,-1.9606782409685974,-21.504449672874152,-19.128511721640205,-3.1621884525752715
1450,-2.1389222152979683,-21.297973579819523,-18.923847432632485,-3.332617582180393
1451,-2.314505024641257,-21.072765651210872,-18.702630640937123,-3.4993379911135145
1452,-2.487196336234726,-20.829123499063677,-18.465153468094673,-3.662130228732021
1453,-2.6567655835137503,-20.567370997134326,-18.211731765137714,-3.8207761697493297
1454,-2.822981966112825,-20.287858280920236,-17.94270511259091,-3.975059014234872
1455,-2.9856144498655572,-19.990961747659735,-17.658436820470904,-4.12476328761411
1456,-3.144431766804671,-19.677084056332152,-17.359313928286394,-4.269674840668526
1457,-3.29920241516201,-19.346654127657782,-17.045747205038136,-4.409580849535625
1458,-3.449694659368524,-19.000127144097867,-16.718171149218914,-4.5442698157089385
1459,-3.595676530054291,-18.63798454985463,-16.37704398881352,-4.673531566038023
1460,-3.736915824048495,-18.26073405087125,-16.0228476812988,-4.797157252728451
