,TP9,AF7,AF8,TP10
0,-3.8526158560090606,-11.914948698117124,-9.275615016535735,-6.722649750650189
1,-3.9707045411476,-12.32646085873655,-9.591207061169888,-6.936791249160279
2,-4.086714698827823,-12.730719933801486,-9.901176325541247,-7.146273409091648
3,-4.200438835851118,-13.127071749536908,-10.205017734924255,-7.350778512050569
4,-4.3116766639143815,-13.514884509845759,-10.50224359043946,-7.550000327267752
5,-4.420235099610004,-13.893548796309002,-10.792383569053504,-7.743644111598393
6,-4.525928264425888,-14.262477568185588,-11.074984723579098,-7.931426609522132
7,-4.628577484745423,-14.62110616241248,-11.349611482675058,-8.113076053143079
8,-4.728011291847518,-14.968892293604613,-11.615845650846294,-8.2883321621898
9,-4.82406542190656,-15.305316054054959,-11.873286408443793,-8.456946144015326
10,-4.916582815992445,-15.629879913734454,-12.121550311664647,-8.61868069359714
11,-5.0054136200705805,-15.942108720292056,-12.360271292552014,-8.773309993537193
12,-5.090415185001856,-16.24154969905468,-12.589100658995148,-8.920619714061882
13,-5.171452066542673,-16.527772453027282,-12.807707094729405,-9.06040701302208
14,-5.248396025344925,-16.80036896289278,-13.015776659336206,-9.192480535893115
15,-5.321126026956014,-17.05895358701211,-13.213012788243082,-9.316660415774763
16,-5.389528241818829,-17.30316306142418,-13.399136292723627,-9.432778273391268
17,-5.453496045271771,-17.532656499845924,-13.573885359897542,-9.540677217091332
18,-5.512930017548728,-17.747115393672214,-13.737015552730584,-9.64021184284811
19,-5.567737943779094,-17.94624361197597,-13.888299810034626,-9.73124823425921
20,-5.6178348139877565,-18.12976740150808,-14.027528446467613,-9.81366396254671
21,-5.663142823095109,-18.297435386697426,-14.154509152533578,-9.88734808655714
22,-5.703591370917036,-18.44901856965085,-14.26906699458262,-9.952201152761477
23,-5.739117062164925,-18.584310330153265,-14.371044414810946,-10.008135195255166
24,-5.769663706445655,-18.703126425667467,-14.460301231260836,-10.055073735758109
25,-5.795182318261608,-18.80530499133434,-14.536714637820642,-10.092951783614655
26,-5.8156311170106605,-18.890706539972683,-14.60017920422482,-10.121715835793616
27,-5.830975526986196,-18.959213962079343,-14.650606876053883,-10.141323876888253
28,-5.841188177377071,-19.010732525829095,-14.687926974734449,-10.151745379116278
29,-5.8462489022676705,-19.045189877074744,-14.712086197539197,-10.152961302319886
30,-5.846144740637848,-19.062536039347066,-14.723048617586892,-10.144964093965687
31,-5.840869936362978,-19.06274341385483,-14.720795683842395,-10.127757689144763
32,-5.83042593821391,-19.04580677948477,-14.70532622111662,-10.101357510572663
33,-5.814821399857001,-19.01174329280165,-14.676656430066576,-10.065790468589363
34,-5.7940721798541155,-18.960592488048153,-14.634819887195365,-10.02109496115931
35,-5.768201341662583,-18.892416277145,-14.579867544852123,-9.967320873871415
36,-5.737239153635253,-18.807298949690875,-14.511867731232106,-9.90452957993901
37,-5.701223089020467,-18.705347172962448,-14.430906150376641,-9.832793940199913
38,-5.660197825962064,-18.58668999191437,-14.337085882173104,-9.75219830311635
39,-5.614215247499361,-18.45147882917927,-14.230527382354992,-9.662838504775058
40,-5.563334441567196,-18.29988748506776,-14.111368482501833,-9.56482186888718
41,-5.50762170099588,-18.13211213756844,-13.979764390039259,-9.458267206788326
42,-5.447150523511227,-17.948371342347883,-13.835887688238982,-9.343304817438561
43,-5.382001611734554,-17.748906032750646,-13.679928336218767,-9.220076487422395
44,-5.312262873182659,-17.53397951979926,-13.512093668942459,-9.088735490948787
45,-5.238029420267837,-17.303877492194214,-13.332608397219998,-8.949446589851155
46,-5.159403570297884,-17.058908016314042,-13.141714607707367,-8.802386033587357
47,-5.076494845476084,-16.799401536215182,-12.939671762906649,-8.64774155923971
48,-4.989419972901219,-16.525710873632093,-12.726756701165986,-8.48571239151497
49,-4.89830288456756,-16.23821122797718,-12.503263636679595,-8.316509242744353
50,-4.8032747173648715,-15.937300176340852,-12.269504159487768,-8.140354312883519
51,-4.704473813078416,-15.623397673491477,-12.025807235476854,-7.957481289512575
52,-4.602045718388945,-15.296946051875402,-11.772519206379311,-7.768135347836082
53,-4.496143184872704,-14.958410021616936,-11.510003789773613,-7.572573150683042
54,-4.38692616900143,-14.608276670518407,-11.238642079084359,-7.371062848506915
55,-4.274561832142358,-14.247055464060052,-10.958832543582188,-7.163884079385596
56,-4.159224540558206,-13.875278245400121,-10.67099102838381,-6.951327969021442
57,-4.041095865407191,-13.493499235374827,-10.375550754452005,-6.7336971307412385
58,-3.9203645827430216,-13.102295032498363,-10.072962318595636,-6.511305665496237
59,-3.797226673514898,-12.70226461296288,-9.763693693469618,-6.28447916186212
60,-3.6718853235675075,-12.294029330638498,-9.448230227574943,-6.053554696039033
61,-3.544550923641036,-11.878232917073323,-9.127074645258658,-5.818880831851548
62,-3.415441069371154,-11.455541481493414,-8.800747046713902,-5.580817620748698
63,-3.2847805612890304,-11.02664351080281,-8.469784907979863,-5.3397366018039545
64,-7.450760501532147,-14.239620255510689,-11.281564792416471,-8.561403214939899
65,-7.691102520299233,-14.700844826606358,-11.67770177139383,-8.769290496895616
66,-7.926873915436712,-15.152616782623205,-12.067003434441665,-8.9706392994767
67,-8.15768710622145,-15.594229182562863,-12.448840701123947,-9.165149667856044
68,-8.38316810262161,-16.02500045450312,-12.822605877396944,-9.35253454592239
69,-8.602956505296694,-16.444274395597926,-13.187712655609197,-9.53251977628028
70,-8.816705505597461,-16.851420172077383,-13.54359611450155,-9.704844100250059
71,-9.024081885566023,-17.245832319247704,-13.889712719207147,-9.869259157867921
72,-9.224766017935762,-17.626930741491357,-14.225540321251403,-10.025529487885853
73,-9.418451866131374,-17.99416071226684,-14.550578158552048,-10.173432527771697
74,-9.604846984268871,-18.346992874108885,-14.864346855419086,-10.312758613709072
75,-9.783672517155564,-18.68492323862832,-15.16638842255482,-10.443310980597433
76,-9.95466320029005,-19.00747318651215,-15.45626625705385,-10.564905762052064
77,-10.117567359862246,-19.314189467523548,-15.733565142403041,-10.677371990404042
78,-10.272146912753376,-19.604644200501788,-15.997891248481583,-10.780551596700274
79,-10.418177366535955,-19.878434873362316,-16.248872131560894,-10.874299410703491
80,-10.555447819473796,-20.135184343096736,-16.48615673430476,-10.958483160892227
81,-10.683760960522044,-20.37454083577277,-16.709415385769198,-11.032983474460844
82,-10.802933069327107,-20.596177946534304,-16.918339801402535,-11.0976938773195
83,-10.91279401622671,-20.79979463960138,-17.112643083045352,-11.15252079409419
84,-11.013187262249879,-20.985115248270148,-17.29205971893057,-11.197383548126716
85,-11.103969859116951,-21.15188947491295,-17.456345583683348,-11.232214361474705
86,-11.185012449239547,-21.29989239097821,-17.605277938321148,-11.256958354911566
87,-11.256199265720586,-21.428924436990552,-17.738655430253736,-11.271573547926552
88,-11.317428132354308,-21.53881142255072,-17.85629809328312,-11.276030858724734
89,-11.36861046362624,-21.62940452633558,-17.95804734760362,-11.270314104226973
90,-11.409671264713198,-21.700580296098188,-18.04376599980183,-11.254420000069961
91,-11.440549131483305,-21.752240648667655,-18.113338242856646,-11.228358160606188
92,-11.46119625049599,-21.784312869949353,-18.166669656139195,-11.192151098903976
93,-11.471578399001976,-21.796749614924664,-18.203687205412958,-11.145834226747452
94,-11.471674944943272,-21.78952890765121,-18.224339242833615,-11.08945585463654
95,-11.461478846953195,-21.762654141262704,-18.2285955069492,-11.023077191786994
96,-11.440996654356368,-21.716154077968977,-18.216447122699982,-10.946772346130375
97,-11.41024850716868,-21.65008284905604,-18.18790660141854,-10.86062832431405
98,-11.369268136097356,-21.564519954886013,-18.143007840829682,-10.764745031701203
99,-11.318102862540881,-21.459570264897177,-18.081806125050544,-10.65923527237083
100,-11.256813598589066,-21.335364017603904,-18.004378124590538,-10.54422474911772
101,-11.185474847022991,-21.19205682059676,-17.910821896351308,-10.419852063452504
102,-11.104174701315058,-21.029829650542364,-17.801256883626827,-10.286268715601594
103,-11.013014845628934,-20.848888853183563,-17.67582391610331,-10.14363910450721
104,-10.912110554819606,-20.649466143339254,-17.534685209859262,-9.992140527827415
105,-10.80159069443334,-20.43181860490451,-17.37802436736546,-9.83196318193604
106,-10.681597720707707,-20.196228690850525,-17.20604637748496,-9.663310161922752
107,-10.552287680571563,-19.94300422322462,-17.018977615473087,-9.486397461593018
108,-10.413830211645056,-19.67247839315026,-16.817065842977442,-9.301453973468098
109,-10.266408542239631,-19.385009760827007,-16.600580208037886,-9.10872148878509
110,-10.110219491358034,-19.08098225553059,-16.369811245086584,-8.908454697496868
111,-9.945473468694274,-18.76080517561283,-16.12507087494795,-8.700921188272133
112,-9.772394474633693,-18.424913188501726,-15.866692404838659,-8.48640144849539
113,-9.59122010025289,-18.07376633070135,-15.595030528367687,-8.265188864266943
114,-9.402201527319775,-17.70785000779191,-15.310461325536261,-8.0375897204029
115,-9.205603528293546,-17.327674994429778,-15.013382262737885,-7.803923200435193
116,-9.00170446632468,-16.93377743434741,-14.704212192758332,-7.564521386611535
117,-8.790796295254957,-16.526718840353393,-14.383391354775636,-7.31972925989546
118,-8.573184559617447,-16.107086094332473,-14.05138137436011,-7.069904699966308
119,-8.349188394636498,-15.675491447245465,-13.708665263474327,-6.81541848521921
120,-8.119140526227755,-15.232572519129358,-13.355747420473145,-6.556654292765115
121,-7.8833872709981545,-14.778992299097219,-12.99315363010367,-6.294008698430767
122,-7.64228853624592,-14.315439145338264,-12.621431063505273,-6.027891176758717
123,-7.396217819960559,-13.84262678511782,-12.241148278209604,-5.758724101007322
124,-7.145562210822869,-13.361294314777338,-11.852895218140583,-5.486942743150736
125,-6.890722388204941,-12.872206199734393,-11.457283213614373,-5.2129952738789145
126,-6.632112622170146,-12.376152274482665,-11.054944981339418,-4.937342762597627
127,-6.370160773473145,-11.873947742591968,-10.646534624416422,-4.660459177428429
128,-10.419363393132004,-13.804555653778557,-9.921780681955386,-8.634965719768843
129,-11.02627025591545,-14.446284742155857,-10.200829547497431,-9.072697009722322
130,-11.629321503549733,-15.08113586826684,-10.472705595275093,-9.505784283499764
131,-12.227529112874326,-15.708079981041132,-10.736995551524698,-9.933559012536946
132,-12.81993227849065,-16.32611894868064,-10.993302333775803,-10.355372350762336
133,-13.405597412762098,-16.934285558659464,-11.24124505085128,-10.770595134597086
134,-13.983618145814045,-17.53164351772397,-11.480459002867212,-11.178617882955031
135,-14.553115325533785,-18.11728745189272,-11.710595681232995,-11.578850797242676
136,-15.113237017570617,-18.69034290645654,-11.931322768651272,-11.970723761359238
137,-15.663158505335765,-19.249966345978436,-12.142324139117942,-12.353686341696593
138,-16.20208229000244,-19.795345154293695,-12.343299857922172,-12.727207787139312
139,-16.729238090505792,-20.325697634509787,-12.533966181646402,-13.09077702906464
140,-17.243882843542952,-20.840273009006427,-12.714055558166336,-13.443902681342504
141,-17.745300703572955,-21.338351419435547,-12.883316626650933,-13.786113040335517
142,-18.232803042816883,-21.819243926721313,-13.041514217562414,-14.11695608489897
143,-18.705728451257677,-22.282292511060117,-13.188429352656255,-14.435999476380841
144,-19.16344273664033,-22.72687007192056,-13.32385924498121,-14.742830558621769
145,-19.605338924471702,-23.15238042804346,-13.447617298879303,-15.037056357955093
146,-20.030837258020654,-23.55825831744188,-13.559533109985782,-15.318303583206804
147,-20.439385198318003,-23.943969397401087,-13.659452465229183,-15.58621862569562
148,-20.8304574241565,-24.309010244478575,-13.747237342831317,-15.84046755923288
149,-21.20355583209086,-24.652908354504056,-13.82276591230721,-16.080736140122628
150,-21.558209536437754,-24.975222142579447,-13.88593253446518,-16.306729807161595
151,-21.893974869275795,-25.275540943078905,-13.936647761406801,-16.51817368163917
152,-22.21043538044552,-25.55348500964877,-13.974838336526897,-16.714812567337425
153,-22.50720183754951,-25.808705515207645,-14.000447194513558,-16.896410950531088
154,-22.783912225952168,-26.04088455194631,-14.013433461348127,-17.062752999987616
155,-23.04023174877996,-26.249735131327785,-14.013772454305212,-17.21364256696706
156,-23.275852826921206,-26.435001184087277,-14.00145568195267,-17.348903185222223
157,-23.490495099026237,-26.596457560232217,-13.97649084415161,-17.468378070998526
158,-23.683905421507315,-26.73391002904228,-13.938901832056406,-17.571930123034107
159,-23.85585786853862,-26.847195279069307,-13.888728728114707,-17.659441922559743
160,-24.006153732056333,-26.93618091813735,-13.826027806067382,-17.730815733298883
161,-24.134621521758515,-27.00076547334273,-13.750871530948567,-17.785973501467687
162,-24.24111696510524,-27.040878391053894,-13.663348559085657,-17.824856855774936
163,-24.325523007318456,-27.056480036911573,-13.563563738099315,-17.847427107422106
164,-24.387749811382093,-27.04756169582867,-13.45163810690344,-17.853665250103354
165,-24.42773475804204,-27.014145571990273,-13.327708895705193,-17.843571960005473
166,-24.445442445806087,-26.95628478885373,-13.191929526004975,-17.817167595807966
167,-24.440864690943982,-26.874063389148564,-13.044469610596458,-17.774492198682974
168,-24.414020527487427,-26.767596334876483,-12.885514953566554,-17.71560549229533
169,-24.364956207230037,-26.63702950731145,-12.715267550295444,-17.640586882802513
170,-24.293745199727404,-26.482539706999578,-12.533945587456534,-17.549535458854677
171,-24.200488192296998,-26.304334653759256,-12.34178344301651,-17.442569991594652
172,-24.085313090018303,-26.102652986680965,-12.139031686235281,-17.31982893465793
173,-23.94837501573267,-25.8777642641275,-11.92595707766604,-17.18147042417265
174,-23.78985631004344,-25.629968963733774,-11.70284256915519,-17.027672278759653
175,-23.60996653131584,-25.359598482406966,-11.46998730384243,-16.858631999532435
176,-23.40894245567708,-25.067015136326397,-11.227706616160667,-16.6745667700971
177,-23.18704807701628,-24.75261216094363,-10.976332031836073,-16.47571345655251
178,-22.944574606984503,-24.416813710982392,-10.716211267888086,-16.262328607490126
179,-22.68184047499474,-24.060074860438615,-10.44770823262937,-16.034688453994093
180,-22.3991913282219,-23.682881602580466,-10.171203025665843,-15.793088909641208
181,-22.09700003160285,-23.285750849948254,-9.88709193789667,-15.537845570500952
182,-21.775666667836383,-22.869230434354495,-9.595787451514266,-15.269293715135454
183,-21.435618537383206,-22.43389910688393,-9.297718240004299,-14.9877883045995
184,-21.07731015846597,-21.980366537893474,-8.993329168145664,-14.693703982440526
185,-20.701223267069253,-21.509273317012205,-8.683081292010526,-14.38743507469867
186,-20.30786681693955,-21.021290953141456,-8.367451858964275,-14.069395589906698
187,-19.897776979585323,-20.51712187445469,-8.046934307665563,-13.740019219090035
188,-19.47151714427691,-19.997499428397603,-7.722038268066278,-13.399759335766774
189,-19.029677918046605,-19.463187881688047,-7.393289561411552,-13.049088995947669
190,-18.57287712568863,-18.914982420316104,-7.061230200239768,-12.688500938136126
191,-18.101759809759116,-18.353709149544002,-6.726418388382545,-12.318507583328207
192,-7.0575605851276295,-12.000379135384298,-8.878726732170907,-4.692504887453137
193,-7.250794967990769,-12.420155136385027,-9.248658468475417,-4.854109242957709
194,-7.439233649997773,-12.832973731803053,-9.614383013980941,-5.012855405360052
195,-7.622571720372892,-13.238150250385026,-9.975277378925437,-5.168485813570538
196,-7.800516159077727,-13.635023256296618,-10.330737813279537,-5.320751751666584
197,-7.972785836811216,-14.022954549122527,-10.680179806746509,-5.469413348892624
198,-8.139111515009619,-14.401329163866462,-11.02303808876228,-5.6142395796601345
199,-8.299235845846527,-14.769555370951164,-11.35876662849543,-5.755008263547611
200,-8.452913372232889,-15.127064676218394,-11.686838634847183,-5.891506065300583
201,-8.59991052781694,-15.473311820928917,-12.006746556451432,-6.023528494831619
202,-8.740005636984293,-15.807774781762514,-12.31800208167471,-6.150879907220298
203,-8.872988914857856,-16.129954770818024,-12.62013613861619,-6.273373502713234
204,-8.998662467297903,-16.43937623561325,-12.912698895107724,-6.390831326724084
205,-9.116840290902008,-16.73558685908505,-13.195259758713782,-6.503084269833513
206,-9.227348273005104,-17.018157559589262,-13.467407376731495,-6.6099720677892275
207,-9.330024191679415,-17.286682490900784,-13.728749636190653,-6.7113433015059565
208,-9.424717715734543,-17.540779042213497,-13.978913663853675,-6.807055397065461
209,-9.511290404717386,-17.780087838140307,-14.217545826215648,-6.896974625716519
210,-9.589615708912183,-18.004272738713148,-14.444311729504294,-6.980976103874955
211,-9.6595789693405,-18.21302083938292,-14.658896219679988,-7.0589437931236025
212,-9.721077417761231,-18.406042471019592,-14.861003382435747,-7.130770500212331
213,-9.77402017667061,-18.58307119991212,-15.050356543197227,-7.196357877058033
214,-9.818328259302179,-18.743863827768468,-15.226698267122744,-7.255616420744632
215,-9.853934569626832,-18.888200391715618,-15.389790359103257,-7.308465473523075
216,-9.88078390235277,-19.01588416429955,-15.539413863762361,-7.354833222811334
217,-9.898832942925536,-19.12674165348529,-15.675369065456298,-7.394656701194413
218,-9.90805026752799,-19.22062260265684,-15.797475488273955,-7.427881786424333
219,-9.908416343080326,-19.297399990617215,-15.905571896036866,-7.454463201420141
220,-9.89992352724007,-19.356970031588435,-15.999516292299209,-7.474364514267917
221,-9.882576068402049,-19.399252175211547,-16.079185920347783,-7.487558138220764
222,-9.856390105698456,-19.42418910654659,-16.144477263202067,-7.4940253316988095
223,-9.82139366899877,-19.431746746072626,-16.195306043614142,-7.493756198289196
224,-9.777626678909828,-19.421914249687696,-16.23160722406876,-7.4867496867461085
225,-9.725140946775767,-19.394704008708885,-16.253335006783285,-7.473013590990744
226,-9.664000174678069,-19.35015164987222,-16.260462833707763,-7.4525645501113225
227,-9.594279955435528,-19.28831603533282,-16.25298338652483,-7.425428048363095
228,-9.516067772604268,-19.209279262664733,-16.2309085866498,-7.3916384151683285
229,-9.429463000477739,-19.11314666486104,-16.194269595230615,-7.3512388251163205
230,-9.334576904086708,-19.000046810333842,-16.143116813147827,-7.304281297963391
231,-9.231532639199273,-18.870131502914205,-16.07751988101467,-7.250826698632876
232,-9.120465252320852,-18.723575781852222,-15.997567679177006,-7.190944737215146
233,-9.001521680694184,-18.560577921816975,-15.903368327713288,-7.124713968967579
234,-8.874860752299334,-18.381359432896573,-15.795049186434678,-7.052221794314592
235,-8.740653185853693,-18.18616506059809,-15.67275685488491,-6.97356445884761
236,-8.599081590811965,-17.975262785847626,-15.53665717234039,-6.888847053325088
237,-8.450340467366185,-17.748943824990246,-15.386935217810155,-6.798183513672501
238,-8.294636206445702,-17.507522629790067,-15.223795310035865,-6.701696620982343
239,-8.132187089717192,-17.25133688743015,-15.047461007491814,-6.599518001514137
240,-7.963223289584654,-16.98074752051259,-14.858175108384946,-6.491788126694417
241,-7.787986869189401,-16.696138687058465,-14.656199650654827,-6.3786563131167435
242,-7.606731782410073,-16.397917780507836,-14.44181591197365,-6.260280722541697
243,-7.419723873862625,-16.086515429719803,-14.215324409746252,-6.13682836189688
244,-7.2272408789003375,-15.762385498972414,-13.977044901110096,-6.008475083276912
245,-7.0295724236138,-15.426005087962729,-13.727316382935275,-5.8754055839434365
246,-6.827020024830938,-15.077874531806806,-13.466497091824525,-5.737813406325112
247,-6.619897090116987,-14.718517401039701,-13.194964504113189,-5.595900938017622
248,-6.408528917774497,-14.34848050161545,-12.91311533586926,-5.449879411783664
249,-6.193252696843344,-13.968333874907092,-12.621365542893358,-5.29996890555296
250,-5.97441750710072,-13.578670797706646,-12.320150320718726,-5.146398342422249
251,-5.752384319061137,-13.180107782225146,-12.009924104611239,-4.989405490655288
252,-5.527525993976421,-12.773284576092582,-11.6911605695694,-4.8292369636828525
253,-5.300227283835715,-12.35886416235796,-11.36435263032433,-4.666148220102737
254,-5.070884831365486,-11.93753275948928,-11.030012441339803,-4.500403563679756
255,-4.83990717002951,-11.50999982137351,-10.688671396812197,-4.33227614334574
256,-4.082487869606912,-15.5823634941797,-8.83054911862254,-1.5758921366150744
257,-4.308495312611061,-16.040181024730174,-9.193336711352194,-1.7647179737474985
258,-4.535036038734706,-16.487139346251684,-9.551326397910442,-1.9565148980212652
259,-4.761632945629147,-16.92254557867452,-9.903936569327275,-2.1508396565320584
260,-4.987821487624156,-17.34573315805242,-10.250603923570146,-2.347258755210452
261,-5.213149675727996,-17.756061836562594,-10.5907834655439,-2.545348458821906
262,-5.437178077627375,-18.152917682505752,-10.92394850709077,-2.744694790966775
263,-5.659479817687481,-18.535713080306035,-11.24959066699046,-2.9448935340802995
264,-5.879640576951967,-18.903886730511093,-11.567219870960004,-3.145550229432609
265,-6.097258593142954,-19.25690364979202,-11.876364351653942,-3.3462801771287194
266,-6.311944660661034,-19.59425517094339,-12.176570648664155,-3.5467084361085406
267,-6.523322130585257,-19.91545894288328,-12.467403608519954,-3.7464698241468644
268,-6.73102691067315,-20.220058930653153,-12.748446384688068,-3.945208917853372
269,-6.934707465360705,-20.50762541541801,-13.019300437572623,-4.142580052672633
270,-7.134024815762373,-20.777754994466317,-13.27958553451517,-4.338247322884105
271,-7.328652539671085,-21.03007058120996,-13.528939749794661,-4.531884581602129
272,-7.518276771558226,-21.264221405184312,-13.767019464627444,-4.72317544077594
273,-7.702596202573649,-21.479883012048273,-13.993499367167292,-4.911813271189646
274,-7.8813220805456705,-21.67675726358409,-14.208072452505395,-5.097501202462261
275,-8.054178209981082,-21.854572337697586,-14.410450022670311,-5.279952123047665
276,-8.220900952065127,-22.01308272841796,-14.600361686628036,-5.458888680234639
277,-8.38123922466152,-22.15206924589794,-14.777555360281973,-5.634043280146844
278,-8.534954502312448,-22.271339016413698,-14.941797266472914,-5.805158087742821
279,-8.68182081623853,-22.370725482364836,-15.092871934979064,-5.971985026816004
280,-8.82162475433889,-22.450088402274446,-15.230582202516047,-6.13428577999471
281,-8.954165461191094,-22.509313850789095,-15.35474921273686,-6.291831788742137
282,-9.079254638051165,-22.548314218678758,-15.465212416231932,-6.444404253356377
283,-9.196716542853599,-22.567028212836938,-15.561829570529078,-6.591794132970393
284,-9.306387990211352,-22.565420856280515,-15.644476740093529,-6.73380214555204
285,-9.408118351415846,-22.543483488149917,-15.713048296327912,-6.870238767904058
286,-9.501769554436956,-22.501233763708967,-15.767456917572266,-7.000924235664068
287,-9.587216083923026,-22.438715654344975,-15.807633589104013,-7.125688543304572
288,-9.664344981200847,-22.35599944756867,-15.833527603137991,-7.24437144413296
289,-9.733055844275697,-22.253181747014278,-15.845106558826437,-7.3568224502914985
290,-9.793260827831288,-22.130385472439453,-15.842356362258972,-7.4629008327573425
291,-9.844884643229811,-21.98775985972534,-15.825281226462652,-7.562475621342526
292,-9.8878645585119,-21.82548046087647,-15.7939036714019,-7.655425604693972
293,-9.92215039839667,-21.64374914402091,-15.748264523978552,-7.741639330293473
294,-9.94770454428167,-21.442794093410107,-15.688422918031849,-7.821015104457716
295,-9.964501934242929,-21.222869809419006,-15.614456294338408,-7.893460992338257
296,-9.972530063034927,-20.98425710854598,-15.526460400612276,-7.958894817921547
297,-9.971788982090601,-20.727263123412875,-15.424549291504862,-8.017244164028906
298,-9.962291299521349,-20.452221302764954,-15.308855328604997,-8.068446372316542
299,-9.944062180117015,-20.159491411470963,-15.179529180438909,-8.112448543275539
300,-9.917139345345928,-19.849459530523063,-15.036739822470205,-8.149207536231867
301,-9.881573073354845,-19.522538057036886,-14.880674537099905,-8.17868996934637
302,-9.837426198968997,-19.179165704251535,-14.711538913666418,-8.200872219614778
303,-9.784774113692063,-18.819807501529496,-14.529556848445534,-8.215740422867693
304,-9.723704765706184,-18.444954794356768,-14.334970544650465,-8.223290473770602
305,-9.654318659871954,-18.055125244342733,-14.128040512431804,-8.22352802582387
306,-9.576728857728424,-17.650862829220276,-13.909045568877527,-8.21646849136274
307,-9.491060977493103,-17.23273784284568,-13.678282838013004,-8.202137041557338
308,-9.397453194061951,-16.801346895198705,-13.43606775080102,-8.18056860641266
309,-9.296056239009381,-16.357312912382536,-13.182734045141746,-8.151807874768586
310,-9.187033400588266,-15.901285136623807,-12.918633765872716,-8.115909294299875
311,-9.070560523729931,-15.43393912627259,-12.644137264768887,-8.072937071516161
312,-8.946826010044157,-14.955976755802407,-12.3596332005426,-8.022965171761957
313,-8.816030817819177,-14.468126215810202,-12.065528538843582,-7.966077319216655
314,-8.678388462021672,-13.971142013016383,-11.762248552258947,-7.902366996894516
315,-8.534125014296787,-13.46580497026477,-11.45023682031321,-7.83193744664469
316,-8.38347910296811,-12.95292222652266,-11.129955229468255,-7.7549016691511925
317,-8.226701913037688,-12.43332723688075,-10.801883973123388,-7.671382423932926
318,-8.064057186186016,-11.907879772553187,-10.46652155161527,-7.581512229343656
319,-7.895821220772041,-11.377465920877563,-10.124384772217962,-7.485433362572039
320,-326.8871956334923,-16.92201144805796,-13.365939996467484,-326.50227562267355
321,-331.9525518623917,-17.36376500434575,-13.721609835616556,-331.85394050008387
322,-336.7414425291687,-17.792806309243936,-14.067030213663449,-336.93466572461796
323,-341.2470615402725,-18.208494874846753,-14.40169803194184,-341.7370463160778
324,-345.4630167456251,-18.610216639916015,-14.725130993987593,-346.25410226892785
325,-349.3833299386222,-18.997383969881103,-15.036867605538639,-350.47927855229557
326,-353.0024368561319,-19.36943565683897,-15.33646717453509,-354.4064451099706
327,-356.3151871784962,-19.725836919554226,-15.623509811119206,-358.0298968604058
328,-359.3168445295294,-20.066079403458986,-15.897596427635358,-361.3443536967159
329,-362.00308647651957,-20.389681180652982,-16.158348738630092,-364.3449604866792
330,-364.37000453022824,-20.696186749903504,-16.405409260852075,-367.0272870727358
331,-366.414104144889,-20.98516703664548,-16.638441313252105,-369.3873282719883
332,-368.1323047182096,-21.25621939298134,-16.85712901698312,-371.42150387620285
333,-369.5219395913707,-21.508967597681142,-17.06117729540023,-373.1266586518075
334,-370.5807560490249,-21.74306185618254,-17.250311874060614,-374.5000623398927
335,-371.3069153192996,-21.95817880059072,-17.42427928072367,-375.5394096562117
336,-371.69899257379427,-22.154021489678456,-17.582846845350854,-376.242820291181
337,-371.75597692758157,-22.33031940888613,-17.72580270010585,-376.60883890987833
338,-371.47727143920713,-22.48682847032169,-17.852955779354364,-376.63643515204495
339,-370.86269311069,-22.623331012760612,-17.964135819664335,-376.32500363208425
340,-369.91247288752214,-22.739635801646024,-18.059193359805786,-375.67436393906223
341,-368.627255658668,-22.835578029088563,-18.13799974075087,-374.684760636707
342,-367.00810025656614,-22.9110193138665,-18.200447105673913,-373.3568632634095
343,-365.0564794571271,-22.965847701425638,-18.24644839995134,-371.6917663322238
344,-362.77427997973456,-22.999977663879353,-18.275937371161717,-369.69098933086514
345,-360.1638024872457,-23.01335010000859,-18.28886856908574,-367.3564767217122
346,-357.22776158599055,-23.005932335261928,-18.285217345706258,-364.6905979418056
347,-353.9692858257717,-22.977718121755412,-18.264979855208203,-361.6961474028485
348,-350.391917699865,-22.92872763827274,-18.2281730539787,-358.3763444912074
349,-346.4996136450193,-22.859007490265174,-18.174834700606947,-354.7348335679091
350,-342.296744041456,-22.7686307098515,-18.105023355884306,-350.77568396864484
351,-337.7880932128701,-22.657696755818094,-18.018818382804273,-346.50339000376755
352,-332.9788594264287,-22.52633151361892,-17.916319946562428,-341.92287095829255
353,-327.87465489277264,-22.374687295375495,-17.797649014556534,-337.03947109189716
354,-322.4815057660149,-22.202942839876886,-17.66294735638643,-331.85895963892176
355,-316.80585214374196,-22.01130331257974,-17.51237754385414,-326.3875308083684
356,-310.8545480670125,-21.800000305608286,-17.34612295096376,-320.63180378390217
357,-304.63486152035915,-21.569291837754296,-17.16438775392156,-314.5988227238504
358,-298.15447443178635,-21.3194623544771,-16.96739693113587,-308.29605676120207
359,-291.42148267277184,-21.050822727903647,-16.75539626321722,-301.73140000360894
360,-284.4443960582659,-20.763710256828343,-16.52865233297823,-294.9131715333853
361,-277.23213834669207,-20.458488666713254,-16.287452525433622,-287.8501154075072
362,-269.79404723994674,-20.13554810968798,-16.03210502780029,-280.5514006576135
363,-262.1398743833986,-19.795305164549653,-15.762938829497216,-273.02662129000515
364,-254.27978536588935,-19.43820283676302,-15.480303722145502,-265.28579628564523
365,-246.2243597197338,-19.064710558460334,-15.184570299568405,-257.3393696001594
366,-237.9845909207189,-18.67532418844142,-14.87612995779127,-249.19821016383534
367,-229.57188638810524,-18.270566012173695,-14.555394895041578,-240.87361188162265
368,-220.99806748462538,-17.85098474179209,-14.222798111748927,-232.37729363313397
369,-212.27536951648517,-17.417155516099122,-13.878793410545052,-223.7213992726433
370,-203.4164417333628,-16.969679900564852,-13.52385539626378,-214.9184976290875
371,-194.4343473284094,-16.509185887326908,-13.158479475941062,-205.98158250606525
372,-185.34256343824873,-16.03632789519047,-12.783181858814995,-196.9240726818376
373,-176.15498114297753,-15.55178676962825,-12.398499556325762,-187.75981190932782
374,-166.88590546616487,-15.05626978278055,-12.004990382115686,-178.5030689161211
375,-157.55005537485272,-14.550510633455193,-11.603232952029185,-169.16853740446496
376,-148.16256377955565,-14.035269447127598,-11.19382668411282,-159.77133605126903
377,-138.73897753426104,-13.511332775940682,-10.777391798615252,-150.32700850810525
378,-129.29525743642873,-12.979513598704962,-10.354569317987256,-140.8515234012074
379,-119.84777822699134,-12.440651320898471,-9.926021066881733,-131.3612743314716
380,-110.4133285903541,-11.895611774666808,-9.492429672153689,-121.8730798744559
381,-101.00911115439496,-11.345287218823133,-9.054498562860259,-112.40418358038067
382,-91.65274249046432,-10.790596338848134,-8.61295197026066,-102.97225397412817
383,-82.36225311338539,-10.23248424689006,-8.168534927816262,-93.59538455524284
384,-10.705573600109142,-10.071248039451376,-10.802831383871466,-26.864178225584915
385,-10.41811614418455,-10.480635732041142,-11.211212968178915,-26.53638967420755
386,-10.119362540113043,-10.884699419428028,-11.613229238213533,-26.180783509241326
387,-9.809716339150999,-11.282773056967116,-12.00823483808013,-25.797902942872966
388,-9.489585784905382,-11.674211613886907,-12.395605639532434,-25.388308580183626
389,-9.1593838133337,-12.05839107328932,-12.774738741973167,-24.952578419148747
390,-8.819528052744117,-12.434708432149682,-13.145052472453932,-24.49130785063819
391,-8.470440823795364,-12.802581701316733,-13.505986385675302,-24.0051096584162
392,-8.112549139496727,-13.161449905512649,-13.857001263986808,-23.49461401914136
393,-7.746284705208112,-13.510773083332998,-14.197579117386871,-22.960468502366613
394,-7.372083918640052,-13.850032287246764,-14.527223183522896,-22.403338070539274
395,-6.990387869853588,-14.178729583596363,-14.845457927691209,-21.823905079001054
396,-6.601642341260398,-14.496388052597592,-15.151829042837047,-21.222869275988014
397,-6.2062978076227795,-14.8025517883397,-15.445903449554637,-20.600947802630536
398,-5.804809436053558,-15.096785898785312,-15.727269296087096,-19.958875192953457
399,-5.39763708601617,-15.378676505770477,-15.995535958326506,-19.29740337387587
400,-4.985245309324674,-15.647830745004667,-16.250334039813872,-18.617301665211293
401,-4.568103350143673,-15.90387676607076,-16.49131537173913,-17.91935677966764
402,-4.146685144988389,-16.146463732425016,-16.71815301294115,-17.20437282284714
403,-3.7214693227246176,-16.375261821397146,-16.93054124990777,-16.473171293246345
404,-3.2929392045687194,-16.589962224190234,-17.1281955967757,-15.726591082256276
405,-2.861582804087706,-16.7902771458808,-17.310852795330636,-14.965488474162262
406,-2.4278928271991433,-16.97593980541877,-17.478270815007182,-14.190737146143931
407,-1.9923666721711621,-17.146704435627434,-17.63022885288888,-13.403228168275342
408,-1.5555064296225252,-17.30234628320355,-17.76652733370819,-12.60387000352495
409,-1.1178188825225546,-17.442661608717252,-17.88698790984654,-11.793588507755498
410,-0.679815506191178,-17.567467686612076,-17.991453461334235,-10.973326929724093
411,-0.24201246829889134,-17.676602805204972,-18.079788095850553,-10.144045911082264
412,0.19506937113321265,-17.7699262666863,-18.15187714872369,-9.306723486375828
413,0.6309044597334336,-17.84731838711981,-18.207627182930754,-8.462355083045006
414,1.0649625527795112,-17.90868049644266,-18.246965989097824,-7.61195352142433
415,1.4967087131985801,-17.953934938465427,-18.269842585499827,-6.756549014742763
416,1.9256033115672042,-17.983025070872063,-18.276227218060715,-5.897189169123557
417,2.35110202611134,-17.995915265219942,-18.266111360353296,-5.034938983584345
418,2.7726558427063726,-17.992590906939846,-18.23950771359934,-4.170880850037134
419,3.1897110548770957,-17.97305839533594,-18.196450206669528,-3.306114553288247
420,3.6017092637977073,-17.937345143585798,-18.13699399608347,-2.441757271038421
421,4.008087378291826,-17.885499578740394,-18.061215466009692,-1.5789435738826954
422,4.408277614832483,-17.8175911417241,-17.969212228265658,-0.7188254253104746
423,4.801707497542124,-17.733710287334702,-17.861103122317765,0.13742781829446615
424,5.187799858192603,-17.63396848424336,-17.737028215281295,0.9886294076540095
425,5.565972836205197,-17.518498214994636,-17.597148801920486,1.833575200595671
426,5.935639878650585,-17.387452976006525,-17.441647404648503,2.6710436620526328
427,6.296209740248864,-17.241007277570386,-17.2707277735274,3.499795864063697
428,6.647086483369547,-17.07935664385096,-17.08461488626819,4.318575485773356
429,6.987669478031562,-16.90271761288643,-16.883554948230767,5.126108813431703
430,7.317353401903242,-16.711327736588345,-16.667815392423982,5.92110474039451
431,7.635528240302346,-16.505445580741654,-16.437684879505586,6.702254767123186
432,7.941579286196039,-16.285350725004708,-16.19347329778226,7.4682330011847995
433,8.234887140200907,-16.051343762909237,-15.935511763209595,8.217696157252048
434,8.514827710582939,-15.803746301860377,-15.664152619392095,8.949283557103309
435,8.78077221325756,-15.542900963136669,-15.379769437583201,9.661617129622579
436,9.032087171789577,-15.26917138189002,-15.082757016685257,10.35330141079953
437,9.268134417393245,-14.982942207145753,-14.773531383249523,11.022923543729473
438,9.488271088932208,-14.68461910180256,-14.452529791476188,11.669053278613376
439,9.69184963291955,-14.374628742632549,-14.120210723214347,12.290242972757854
440,9.878217803517742,-14.053418820281204,-13.777053887962008,12.885027590575172
441,10.0467186625387,-13.721458039267395,-13.423560222866094,13.45192470358327
442,10.19669057944373,-13.379236117983407,-13.060251892722453,13.989434490405715
443,10.327467231343554,-13.027263788694881,-12.687672289975847,14.496039736771735
444,10.438377602998342,-12.666072797540876,-12.306386034719926,14.97020583551621
445,10.528745986817636,-12.296215904533813,-11.916978974697281,15.410380786579697
446,10.597891982860434,-11.918266883559527,-11.520058185299412,15.814995197008372
447,10.645130498835112,-11.53282052237722,-11.11625196956671,16.18246228095409
448,-4.861045139048527,-17.14966782765336,-10.788553772985766,-3.1614103190738407
449,-5.031787533735682,-17.730520666834746,-11.164805622393766,-3.345617882800938
450,-5.199537486907968,-18.300165823177142,-11.534142422900034,-3.529141029510529
451,-5.3640252725362485,-18.857712914955957,-11.895985580650699,-3.711654717280956
452,-5.5249904315615606,-19.40230284493108,-12.249776458958918,-3.8928427028927195
453,-5.682181771895086,-19.933107800346793,-12.594976378304892,-4.07239754182849
454,-5.835357368418186,-20.449331252931856,-12.931066616335896,-4.250020588273095
455,-5.984284562982358,-20.950207958899497,-13.257548407866214,-4.425421995113534
456,-6.128739964409278,-21.435003958947352,-13.573942944877185,-4.598320713938962
457,-6.26850944849077,-21.90301657825753,-13.879791376517192,-4.768444495040705
458,-6.403388157988815,-22.353574426496582,-14.17465480910166,-4.935529887412247
459,-6.533180502635566,-22.786037397815488,-14.458114306113053,-5.099322238749233
460,-6.657700159133316,-23.19979667084968,-14.72977088820087,-5.259575695449478
461,-6.776770071154535,-23.59427470871901,-14.989245533181686,-5.416053202612954
462,-6.890222449341837,-23.96892525902783,-15.23617917603905,-5.568526504041799
463,-6.997898771307997,-24.323233353864893,-15.470232708923609,-5.7167761422403105
464,-7.099649781635948,-24.656715309803392,-15.691086981153019,-5.860591458414951
465,-7.1953354918787795,-24.96891872790092,-15.898442799211999,-5.999770592474337
466,-7.2848251805597455,-25.259422493699617,-16.092020926752262,-6.134120483029254
467,-7.367997393172243,-25.52783677722596,-16.271562084592617,-6.263456867392652
468,-7.444739942179834,-25.77380303299092,-16.43682695071887,-6.3876042815796295
469,-7.514949907016239,-25.99699399998986,-16.587596160283862,-6.506396060307456
470,-7.578533634085329,-26.197113701702612,-16.7236703056075,-6.619674336995561
471,-7.63540673676113,-26.37389744609347,-16.844869936176696,-6.72729004376553
472,-7.68549409538783,-26.527111825611087,-16.951035558645412,-6.8291029114411135
473,-7.728729857279768,-26.656554717188595,-17.042027636834653,-6.924981469548217
474,-7.76505743672144,-26.762055282243562,-17.117726591732435,-7.014803046314912
475,-7.794429514967493,-26.843473966677987,-17.178032801493828,-7.098453768671421
476,-7.816808040242736,-26.900702500878275,-17.22286660144093,-7.175828562250135
477,-7.832164227742131,-26.93366389971531,-17.252168284062854,-7.246831151385602
478,-7.840478559630777,-26.942312462544333,-17.265898099015786,-7.3113740591145255
479,-7.841740785043961,-26.926633773205108,-17.26403625312291,-7.369378607175771
480,-7.835949920087096,-26.886644700021748,-17.246582910374432,-7.420774916010361
481,-7.823114247835752,-26.82239339580281,-17.213558191927643,-7.465501904761474
482,-7.803251318335672,-26.73395929784133,-17.165002176106807,-7.5035072912744525
483,-7.7763879486027205,-26.621453127914698,-17.100974898403237,-7.534747592096793
484,-7.742560222622947,-26.485016892284772,-17.021556351475297,-7.559188122478152
485,-7.701813491352533,-26.324823881697842,-16.926846485148342,-7.576802996370345
486,-7.654202372717816,-26.141078671384584,-16.816965206414796,-7.587575126427332
487,-7.599790751615298,-25.934017121060126,-16.692052379434063,-7.591496224005253
488,-7.538651779911615,-25.703906374924017,-16.55226782553264,-7.588566799162384
489,-7.470867876443571,-25.45104486166022,-16.39779132320398,-7.578796160659168
490,-7.396530727018109,-25.175762294437114,-16.228822608108608,-7.562202415958207
491,-7.315741284412334,-24.878419670907522,-16.045581373074086,-7.538812471224248
492,-7.228609768373492,-24.55940927320865,-15.848307268094944,-7.508662031324206
493,-7.135255665618989,-24.21915466796217,-15.637259900332792,-7.4717955998271455
494,-7.035807729836375,-23.858110706274125,-15.412718834116244,-7.428266479004288
495,-6.930403981683355,-23.476763523735002,-15.17498359094094,-7.378136769829011
496,-6.819191708787788,-23.075630540419706,-14.924373649469551,-7.321477371976844
497,-6.702327465747672,-22.655260460887533,-14.661228445531746,-7.2583679838254795
498,-6.579977074131163,-22.216233274182226,-14.385907372124255,-7.188897102454759
499,-6.452315622476568,-21.759160253831933,-14.098789779410795,-7.113162023646676
500,-6.319527466292336,-21.284683957849197,-13.80027497472214,-7.031268841885388
501,-6.181806228057071,-20.793478228731,-13.490782222556048,-6.943332450357191
502,-6.039354797219525,-20.28624819345872,-13.170750744577322,-6.849476540950555
503,-5.8923853301986,-19.76373026349815,-12.840639719617789,-6.749833604256087
504,-5.741119250383342,-19.226692134799503,-12.500928283676279,-6.6445449295665595
505,-5.585787248132955,-18.675932787797375,-12.152115529918648,-6.5337606048768855
506,-5.426629280776779,-18.11228248741082,-11.794720508677786,-6.417639516884146
507,-5.263894572614309,-17.53660278304324,-11.429282227453578,-6.2963493509875645
508,-5.097841614915189,-16.949786508582484,-11.056359650912935,-6.170066591288522
509,-4.9287381659192055,-16.35275778240081,-10.676531700889806,-6.038976520590552
510,-4.756861250836295,-15.746472007354866,-10.290397256385123,-5.903273220399334
511,-4.582497161846542,-15.131915870785708,-9.898575153566858,-5.763159570922709
512,-0.9546946320644012,-12.39327758525128,-14.588984168404577,-5.1415475817490925
513,-1.1843520516994515,-12.795716084570628,-15.042925018900108,-5.407768866444304
514,-1.4166188987138153,-13.189813310612042,-15.487180196141376,-5.672164082443604
515,-1.6510518995734258,-13.574959156445207,-15.921047514218554,-5.934282218057248
516,-1.887216740012446,-13.950565446209099,-16.34385036731621,-6.193684934426811
517,-2.12468806503328,-14.31606593511207,-16.754937729713383,-6.449946565525199
518,-2.363049478906564,-14.670916309431796,-17.1536841557835,-6.702654118156668
519,-2.601893545171166,-15.014594186515286,-17.539489779994387,-6.951407271956788
520,-2.8408217866341916,-15.346599114778897,-17.91178031690832,-7.195818379392482
521,-3.079444685370981,-15.666452573708296,-18.270007061181982,-7.435512465761982
522,-3.317381682725103,-15.973697973858528,-18.61364688756643,-7.670127229194876
523,-3.5542611793083676,-16.26790065685392,-18.94220225090723,-7.899313040652071
524,-3.7897205350008156,-16.548647895388196,-19.255201186144237,-8.122732943925799
525,-4.023406068950713,-16.815548893224335,-19.55219730831184,-8.340062655639636
526,-4.2549730595745725,-17.06823478519473,-19.83276981253877,-8.550990565248496
527,-4.484085744557129,-17.30635863720106,-20.096523474048155,-8.75521773503859
528,-4.710417320851357,-17.529595446214334,-20.3430886481576,-8.952457900127508
529,-4.933649944678458,-17.737642140274907,-20.572121270279073,-9.142437468464118
530,-5.153474731527865,-17.93021757849249,-20.783302855918965,-9.324895520828669
531,-5.369591756157252,-18.10706255104606,-20.97634050067808,-9.4995838108327
532,-5.581710052592511,-18.267939779183976,-21.150966880251644,-9.666266764919099
533,-5.789547614127779,-18.412633915223907,-21.306940250429232,-9.824721482362078
534,-5.992831393325416,-18.54095154255287,-21.444044447094917,-9.97473773526717
535,-6.191297302016015,-18.652721175627185,-21.562088886227116,-10.116117968571253
536,-6.384690211298401,-18.747793259972532,-21.660908563898662,-10.248677300042523
537,-6.57276395153963,-18.82604017218384,-21.74036405627683,-10.372243520280508
538,-6.755281312374984,-18.887356219925493,-21.800341519623224,-10.48665709271605
539,-6.932014042707983,-18.931657641931107,-21.84075269029394,-10.591771153611335
540,-7.102742850710368,-18.958882608003634,-21.86153488473942,-10.687451512059875
541,-7.267257403822118,-18.96899121901537,-21.862650999504538,-10.773576649986495
542,-7.425356328751437,-18.961965506907934,-21.844089511228557,-10.85003772214735
543,-7.576847211474759,-18.93780943469228,-21.805864476645148,-10.916738556129937
544,-7.72154659723675,-18.89654889644866,-21.748015532582386,-10.973595652353065
545,-7.859279990550299,-18.838231717326664,-21.670607895962746,-11.020538184066858
546,-7.98988185519653,-18.762927653545187,-21.573732363803092,-11.057507997352795
547,-8.113195614224793,-18.670728392392498,-21.45750531321472,-11.08445961112366
548,-8.229073649952664,-18.561747552226127,-21.322068701403275,-11.101360217123542
549,-8.337377303965951,-18.436120682472954,-21.167590065668847,-11.108189679927898
550,-8.43797687711869,-18.294005263629177,-20.9942625234059,-11.10494053694348
551,-8.530751629533146,-18.135580707260317,-20.802304772103305,-11.09161799840838
552,-8.615589780599796,-17.96104835600122,-20.591961089344323,-11.06823994739198
553,-8.692388508977372,-17.770631483556013,-20.36350133280661,-11.034836939795028
554,-8.761053952592809,-17.56457529469819,-20.11722094026225,-10.991452204349574
555,-8.821501208641283,-17.34314692527056,-19.853440929577662,-10.938141642618978
556,-8.873654333586185,-17.106635442185198,-19.572507898713706,-10.87497382899795
557,-8.917446343159142,-16.85535184342356,-19.274794025725633,-10.802030010712507
558,-8.952819212360007,-16.589629058036373,-18.960697068763054,-10.719404107819983
559,-8.979723875456855,-16.309821946143714,-18.630640366070022,-10.627202713209035
560,-8.998120225985984,-16.016307298934947,-18.285072835984934,-10.525545092599646
561,-9.007977116751926,-15.709483838668767,-17.924468976940624,-10.414563184543129
562,-9.009272359827435,-15.389772218673183,-17.549328867464265,-10.294401600422091
563,-9.001992726553485,-15.057615023345505,-17.160178166177463,-10.16521762445048
564,-8.98613394753928,-14.713476768152383,-16.757568111796207,-10.027181213673558
565,-8.961700712662248,-14.35784389962974,-16.34207552313086,-9.880474997967905
566,-8.928706671068046,-13.991224795382855,-15.914302799086174,-9.725294280041421
567,-8.887174431170541,-13.614149764086287,-15.474877918661317,-9.561847035433328
568,-8.837135560651843,-13.22717104548393,-15.024454440949802,-9.390353912514158
569,-8.778630586462272,-12.830862810388954,-14.563711505139551,-9.21104823248577
570,-8.711708994820379,-12.425821160683888,-14.093353830512893,-9.024175989381334
571,-8.636429231212931,-12.012664129320527,-13.614111716446494,-8.829995850065345
572,-8.552858700394928,-11.592031680320005,-13.126741042411455,-8.62877915423361
573,-8.461073766389589,-11.164585708772744,-12.632023267973214,-8.420809914413253
574,-8.361159752488351,-10.731010040838497,-12.130765432791636,-8.20638481596272
575,-8.253210941250877,-10.292010433746292,-11.623800156620943,-7.985813217071761
576,-6.633647995874856,-13.294305501763407,-12.491729248232973,-8.293575023960363
577,-6.84730342087586,-13.78248300271259,-12.929360014900745,-8.566428768872418
578,-7.057132839676496,-14.263007340260895,-13.359780800532642,-8.834302455134152
579,-7.262779057809025,-14.73509117483441,-13.782276924118909,-9.096752195650518
580,-7.463897306150743,-15.197973296905811,-14.196157895644935,-9.353349624371987
581,-7.660155240923939,-15.650918626994304,-14.600757416091248,-9.603681896294535
582,-7.851232943695932,-16.093218215665633,-14.995433377433569,-9.847351687459643
583,-8.036822921379057,-16.524189243532096,-15.37956786264276,-10.083977194954295
584,-8.216630106230664,-16.943175021252504,-15.752567145684846,-10.313192136910983
585,-8.390371855853111,-17.34954498953227,-16.113861691521013,-10.534645752507707
586,-8.557777953193801,-17.742694719123296,-16.462906156107618,-10.748002801967957
587,-8.718590606545122,-18.12204591082406,-16.79917938639616,-10.952943566560739
588,-8.872564449544493,-18.48704639547953,-17.122184420333273,-11.149163848600553
589,-9.019466541174337,-18.83717013398129,-17.431448486860802,-11.336374971447421
590,-9.15907636576211,-19.171917217267403,-17.72652300591572,-11.514303779506841
591,-9.291185832980268,-19.490813866322473,-18.006983588430135,-11.682692638229835
592,-9.415599277846292,-19.793412432177696,-18.272430036331357,-11.841299434112909
593,-9.532133460722655,-20.07929139591074,-18.522486342541814,-11.989897574698103
594,-9.640617567316879,-20.348055368645873,-18.756800690979105,-12.128275988572904
595,-9.740893208681465,-20.59933509155383,-18.975045456555968,-12.256239125370344
596,-9.832814421213952,-20.832787435851913,-19.176917205180303,-12.373606955768954
597,-9.916247666656897,-21.048095402804005,-19.36213669375515,-12.48021497149274
598,-9.99107183209782,-21.244968123720447,-19.530448870178756,-12.575914185311223
599,-10.057178229969326,-21.42314085995818,-19.681622873344427,-12.660571131039427
600,-10.11447059804897,-21.58237500292061,-19.81545203314068,-12.734067863537852
601,-10.162865099459358,-21.722458074057734,-19.93175387045119,-12.796301958712535
602,-10.202290322668091,-21.84320372486607,-20.03037009715474,-12.847186513514982
603,-10.232687281487781,-21.944451736888645,-20.1111666161253,-12.886650145942198
604,-10.254009415076064,-22.02606802171502,-20.174033521231955,-12.914636995036693
605,-10.266222587935559,-22.087944620981315,-20.21888509733898,-12.931106720886483
606,-10.269305089913924,-22.129999706370157,-20.245659820305736,-12.936034504625068
607,-10.26324763620382,-22.152177579610704,-20.254320356986806,-12.92941104843144
608,-10.248053367342907,-22.154448672478647,-20.244853565231846,-12.911242575530094
609,-10.22373784921387,-22.136809546796187,-20.21727049388569,-12.881550830191035
610,-10.190329073044383,-22.099282894432083,-20.17160638278836,-12.840373077729735
611,-10.147867455407152,-22.041917537301604,-20.107920662774927,-12.787762104507182
612,-10.096405838219866,-21.964788427366546,-20.026296955675694,-12.723786217929842
613,-10.036009488745256,-21.86799664663522,-19.926843074316057,-12.648529246449693
614,-9.966756099591025,-21.751669407162463,-19.80969102251657,-12.562090539564194
615,-9.888735788709909,-21.61596005104968,-19.674996995092943,-12.464584967816307
616,-9.80205109939964,-21.461048050444738,-19.522941377855986,-12.356142922794477
617,-9.70681700030296,-21.287139007542052,-19.353728747611708,-12.236910317132645
618,-9.603160885407618,-21.09446465458258,-19.1675878721612,-12.107048584510256
619,-9.49122257404637,-20.883282853853753,-18.96477171030074,-11.966734679652223
620,-9.371154310896983,-20.65387759768957,-18.745557411821704,-11.816161078328978
621,-9.243120765982214,-20.406559008470538,-18.510246317510635,-11.655535777356418
622,-9.107299034669841,-20.14166333862367,-18.259163959149227,-11.485082294595946
623,-8.963878637672645,-19.8595529706225,-17.992660059514265,-11.30503966895446
624,-8.81306152104841,-19.56061641698709,-17.71110853237771,-11.11566246038434
625,-8.655062056199919,-19.24526832028403,-17.41490748250664,-10.917220749883448
626,-8.490107039874973,-18.91394945312639,-17.104479205663278,-10.710000139495145
627,-8.31843569416636,-18.567126718173803,-16.780270188604984,-10.49430175230829
628,-8.140299666511892,-18.205293148132377,-16.442751109084234,-10.270442232457212
629,-7.955963029694368,-17.828967905754777,-16.09241683584866,-10.03875374512174
630,-7.765702281841591,-17.438696283840134,-15.72978642864102,-9.799583976527186
631,-7.569806346426384,-17.035049705234137,-15.355403138199204,-9.553296133944354
632,-7.368576572266554,-16.618625722828966,-14.969834406256224,-9.300268945689531
633,-7.162326733524916,-16.19004801956331,-14.573671865540252,-9.040896661124492
634,-6.951383029709294,-15.749966408422386,-14.167531339774563,-8.7755890506565
635,-6.736084085672503,-15.299056832437927,-13.752052843677562,-8.504771405738307
636,-6.516780951612369,-14.83802136468814,-13.327900582962807,-8.22888453886813
637,-6.293837103071712,-14.367588208297791,-12.895762954338975,-7.948384783589708
638,-6.0676284409383605,-13.888511696438123,-12.456352545509867,-7.663743994492233
639,-5.838543291445138,-13.401572292326899,-12.010406135174414,-7.375449547210396
640,-7.785448899675583,-14.125342141953832,-13.17909617445839,-8.519399523222425
641,-7.967601746741469,-14.555658685542427,-13.588028873159516,-8.77213091650339
642,-8.143773917024538,-14.976160747184377,-13.987953119879188,-9.018656290086275
643,-8.313702074161837,-15.386201134415014,-14.378248984660663,-9.258608280235054
644,-8.477134508526193,-15.785156831264851,-14.75831939117865,-9.491633570623057
645,-8.633831137226217,-16.172428998259583,-15.127590116739283,-9.71739289233301
646,-8.783563504106255,-16.547442972420075,-15.485509792280192,-9.935561023857016
647,-8.926114779746483,-16.90964826726243,-15.83154990237041,-10.145826791096543
648,-9.061279761462806,-17.258518572797858,-16.165204785210456,-10.347893067362461
649,-9.188864873306928,-17.593551755532786,-16.48599163263228,-10.541476773375015
650,-9.308688166066304,-17.914269858468845,-16.79345049009929,-10.726308877263813
651,-9.420579317264194,-18.22021910110279,-17.087144256706335,-10.902134394567865
652,-9.524379631159595,-18.510969879426614,-17.36665868517972,-11.068712388235541
653,-9.619942038747293,-18.786116765927442,-17.631602381877187,-11.225815968624591
654,-9.70713109775785,-19.04527850958763,-17.881606806787943,-11.373232293502156
655,-9.785822992657595,-19.28809803588463,-18.11632627353261,-11.510762568044736
656,-9.85590553464862,-19.514242446791158,-18.335437949363293,-11.638222044838225
657,-9.917278161668804,-19.72340302077505,-18.538641855163515,-11.755440023877888
658,-9.969851938391786,-19.915295212799343,-18.72566086544827,-11.86225985256835
659,-10.013549556226979,-20.089658654322257,-18.896240708363955,-11.95853892572363
660,-10.048305333319563,-20.246257153297154,-19.050149965688462,-12.044148685567134
661,-10.074065214550494,-20.384878694172585,-19.187180072831065,-12.118974621731619
662,-10.0907867715365,-20.50533543789229,-19.30714531883255,-12.182916271259217
663,-10.09843920263006,-20.607463721895176,-19.409882846365097,-12.235887218601452
664,-10.097003332919442,-20.69112406011533,-19.495252651732333,-12.277815095619218
665,-10.086471614228675,-20.756201142981947,-19.563137584869352,-12.30864158158278
666,-10.066848125117563,-20.802603837419515,-19.613443349342642,-12.328322403171768
667,-10.038148570881658,-20.83026518684757,-19.646098502350185,-12.3368273344752
668,-10.000400283552318,-20.839142411180898,-19.661054454721366,-12.33414019699146
669,-9.953642221896626,-20.82921690682942,-19.658285470917026,-12.3202588596283
670,-9.897924971417458,-20.800494246698236,-19.637788669029426,-12.295195238702856
671,-9.83331074435345,-20.753004180187624,-19.599584020782288,-12.258975297941626
672,-9.75987337967901,-20.686800633192995,-19.543714351530745,-12.211639048480482
673,-9.677698343104312,-20.60196170810497,-19.470245340261396,-12.153240548864668
674,-9.586882727075295,-20.498589683809318,-19.37926551959226,-12.083847905048808
675,-9.48753525077365,-20.376811015686975,-19.27088627577278,-12.003543270396886
676,-9.379776260116863,-20.23677633561404,-19.145241848683867,-11.912422845682247
677,-9.26373772775815,-20.07866045196177,-19.002489331837822,-11.810596879087637
678,-9.139563253086534,-19.902662349596632,-18.84280867237842,-11.69818966620513
679,-9.00740806222677,-19.709005189880184,-18.666402671080863,-11.575339550036208
680,-8.867439008039378,-19.497936310669196,-18.47349698235175,-11.442198920991702
681,-8.719834570120671,-19.269727226315595,-18.26434011422915,-11.29893421689182
682,-8.564784854802703,-19.024673627666456,-18.03920342838257,-11.145725922966122
683,-8.402491595153284,-18.763095382064048,-17.798381140112912,-10.982768571853558
684,-8.233168150976022,-18.485336533345745,-17.542190318352535,-10.810270743602443
685,-8.05703950881025,-18.191765301844143,-17.270970885665214,-10.628455065670428
686,-7.874342281931088,-17.882774084386952,-16.98508561824617,-10.437558212924579
687,-7.685324710349416,-17.558779454297074,-16.68492014592203,-10.237830907641296
688,-7.490246660811869,-17.22022216139255,-16.37088295215089,-10.029537919506348
689,-7.289379626800848,-16.86756713198658,-16.043405374022214,-9.81295806561489
690,-7.08300672853452,-16.501303468887528,-15.702941602256942,-9.58838421047142
691,-6.871422712966802,-16.121944451398914,-15.34996868120743,-9.356123265989813
692,-6.654933953787387,-15.730027535319424,-14.984986508857453,-9.116496191493303
693,-6.433858451421719,-15.326114352942877,-14.608517836822205,-8.869837993714492
694,-6.208525833031012,-14.910790713058265,-14.221108270348331,-8.61649772679536
695,-5.979277352512229,-14.484666600949733,-13.823326268313876,-8.356838492287222
696,-5.746465890498103,-14.048376178396579,-13.415763143228315,-8.091237439150778
697,-5.510455954357124,-13.60257778367325,-12.999033061232561,-7.820085763756087
698,-5.271623678193539,-13.147953931549354,-12.57377304209893,-7.543788709882571
699,-5.030356822847359,-12.685211313289638,-12.140642959231169,-7.26276556871901
700,-4.78705477589435,-12.215080796654025,-11.700325539664453,-6.977449678863554
701,-4.542128551646042,-11.738317425897568,-11.253526364065367,-6.688288426323708
702,-4.296000791149722,-11.255700421770475,-10.800973866731931,-6.395743244516342
703,-4.049105762188432,-10.768033181518112,-10.34341933559357,-6.10028961426769
704,-8.823807289842515,-14.619235424988057,-10.795325344078917,-7.955876579534283
705,-9.09872034344993,-15.089763197130218,-11.175196315775537,-8.207996781267603
706,-9.366792457202633,-15.550623347764528,-11.548222920396775,-8.45428471543578
707,-9.627649420133347,-16.001091736461852,-11.913817179285902,-8.694379961873462
708,-9.880931431324745,-16.440470262587898,-12.27141136051575,-8.927935624804892
709,-10.126293099909523,-16.868086865303262,-12.62045797888876,-9.154618332843945
710,-10.363403445070334,-17.28329552356338,-12.960429795936948,-9.374108238994129
711,-10.591945896039855,-17.685476256118555,-13.290819819921923,-9.586099020648547
712,-10.811618292100695,-18.07403512151391,-13.61114130583487,-9.790297879589955
713,-11.022132882585499,-18.44840421808948,-13.920927755396566,-9.986425541990696
714,-11.223216326876885,-18.808041683980104,-14.219732917057375,-10.174216258412748
715,-11.414609694407435,-19.15243169711548,-14.507130785997232,-10.353417803807703
716,-11.596068464659746,-19.48108447522021,-14.782715604125688,-10.52379147751678
717,-11.767362527166373,-19.79353627581367,-15.046101860081835,-10.685112103270802
718,-11.928276181509874,-20.089349396210128,-15.296924289234374,-10.837168029190233
719,-12.07860813732279,-20.36811217351873,-15.534837873681596,-10.979761127785123
720,-12.21817151428763,-20.62943898464343,-15.759517842251329,-11.112706795955168
721,-12.34679384213691,-20.87297024628303,-15.970659670501048,-11.235833954989664
722,-12.464317060653112,-21.0983724149312,-16.16797908071775,-11.348985050567531
723,-12.570597519668707,-21.305337986876456,-16.35121204191806,-11.4520160527573
724,-12.665505979066149,-21.49358549820217,-16.520114769848153,-11.544796456017124
725,-12.748927608777866,-21.662859524786533,-16.67446372698378,-11.627209279194771
726,-12.820761988786272,-21.81293068230262,-16.814055622530283,-11.699151065527618
727,-12.88092310912377,-21.94359562621833,-16.938707412422595,-11.760531882642669
728,-12.92933936987275,-22.054677051796382,-17.04825629932521,-11.81127532255652
729,-12.965953581165547,-22.146023694094392,-17.142559732632197,-11.851318501675408
730,-12.990722963184512,-22.217510327964785,-17.22149540846722,-11.880612060795185
731,-13.00361914616197,-22.269037768054837,-17.284961269683496,-11.899120165101275
732,-13.004628170380212,-22.300532868806663,-17.33287550586384,-11.906820504168765
733,-12.99375048617152,-22.31194852445725,-17.365176553320612,-11.903704291962336
734,-12.971000953918155,-22.303263669038373,-17.381823095095807,-11.889776266836272
735,-12.93640884405235,-22.2744832763767,-17.382794060960922,-11.865054691534485
736,-12.890017837056314,-22.2256383600937,-17.3680886274171,-11.829571353190486
737,-12.831886023462255,-22.156785973605697,-17.337726217694975,-11.783371563327407
738,-12.762085903852334,-22.068009210123876,-17.29174650175483,-11.726514157858
739,-12.680704388858695,-21.959417202654226,-17.230209396286465,-11.6590714970846
740,-12.587842799163466,-21.83114512399758,-17.153195064709305,-11.58112946569918
741,-12.483616865498753,-21.683354186749625,-17.060803917172315,-11.492787472783318
742,-12.368156728646627,-21.516231643300866,-16.95315661055402,-11.394158451808195
743,-12.241606939439151,-21.329990785836664,-16.83039404846254,-11.285368860634588
744,-12.104126458758348,-21.124870946337207,-16.69267738123558,-11.166558681512921
745,-11.955888657536217,-20.9011374965775,-16.540188005940365,-11.03788142108321
746,-11.797081316754749,-20.6590818481274,-16.373127566373718,-10.899504110375062
747,-11.627906627445885,-20.399021452351604,-16.191717953062042,-10.751607304807715
748,-11.448581190691566,-20.121299800409645,-15.996201303261287,-10.594385084190005
749,-11.259336017623694,-19.826286423255837,-15.786840000956985,-10.428045052720382
750,-11.060416529424137,-19.51437689163939,-15.563916676864231,-10.252808338986906
751,-10.852082557324747,-19.185992816104324,-15.327734208427692,-10.068909595967229
752,-10.634608342607347,-18.841581846989477,-15.07861571982159,-9.876597001028625
753,-10.408282536603727,-18.48161767442852,-14.81690458194973,-9.676132255927968
754,-10.173408200695668,-18.106600028349963,-14.542964412445457,-9.46779058681174
755,-9.930302806314895,-17.717054678477147,-14.257179075671704,-9.251860744216035
756,-9.67929823494312,-17.31353343432822,-13.95995268272097,-9.02864500306655
757,-9.42074077811203,-16.896614145216187,-13.651709591415294,-8.79845916267857
758,-9.15499113740328,-16.466900700248853,-13.332894406306316,-8.561632546757016
759,-8.882424424448478,-16.025023028328857,-13.003971978675196,-8.318508003396387
760,-8.603430160929227,-15.571637098153667,-12.665427406532697,-8.069441905080799
761,-8.318412278577092,-15.10742491821559,-12.317766034619106,-7.814804148683978
762,-8.0277891191736,-14.633094536801723,-11.961513454404308,-7.554978155469239
763,-7.731993434550254,-14.149380041994014,-11.597215504087732,-7.290360871089509
764,-7.431472386588526,-13.657041561669232,-11.225438268598356,-7.0213627655873205
765,-7.1266875472198565,-13.156865263498952,-10.846768079594748,-6.748407833394801
766,-6.818114898425648,-12.649663354949594,-10.461811515465008,-6.471933593333691
767,-6.506244832237279,-12.136274083282375,-10.071195401326815,-6.192391088615323
768,-4.472168810853677,-12.352916613148533,-13.918662989238872,-6.2241632899095505
769,-4.600319031855964,-12.708455695120165,-14.373592740701229,-6.344559843192299
770,-4.725286477395337,-13.054777975463754,-14.818887759571657,-6.459796222282066
771,-4.8468790931136,-13.391374318410584,-15.253872537391253,-6.5697094374038345
772,-4.964912281113256,-13.717755610606668,-15.67789599400452,-6.674145009055774
773,-5.079208899957486,-14.033452761112772,-16.090331477559364,-6.772956968009225
774,-5.189599264670184,-14.338016701404417,-16.49057676450707,-6.866007855308709
775,-5.295921146735907,-14.631018385371833,-16.878054059602402,-6.95316872227193
776,-5.398019774099919,-14.912048789320012,-17.252209995903435,-7.034319130489763
777,-5.495747831168174,-15.180718911968677,-17.612515634771718,-7.109347151826254
778,-5.588965458807316,-15.436659774452288,-17.958466465872206,-7.178149368418635
779,-5.677540254344675,-15.67952242032004,-18.289582407173185,-7.240630872677313
780,-5.761347271568272,-15.908977915535882,-18.605407804946445,-7.2967052672858665
781,-5.840269020726811,-16.124717348478487,-18.905511433767103,-7.346294665201047
782,-5.914195468529704,-16.32645182994127,-19.189486496513716,-7.389329689652786
783,-5.983024038147033,-16.513912493132374,-19.456950624368243,-7.425749474144189
784,-6.046659609209581,-16.68685049367469,-19.707545876816027,-7.455501662451548
785,-6.105014517808809,-16.845037009605843,-19.94093874164581,-7.478542408624305
786,-6.158008556496884,-16.98826324137816,-20.156820134949736,-7.494836376985101
787,-6.205568974286641,-17.11634041185875,-20.354905401123396,-7.504356742129733
788,-6.247630476651615,-17.229099766329448,-20.534934312865683,-7.507085188927193
789,-6.284135225526034,-17.326392572486807,-20.69667107117901,-7.50301191251962
790,-6.315032839304802,-17.40809012044209,-20.83990430536908,-7.492135618322349
791,-6.340280392843515,-17.474083722721343,-20.96444707304506,-7.47446352202388
792,-6.359842417458461,-17.52428471426532,-21.07013686011946,-7.450011349585891
793,-6.373690900926613,-17.558624452429495,-21.156835580808256,-7.418803337243225
794,-6.3818052874856255,-17.577054316984103,-21.224429577630744,-7.3808722315039095
795,-6.384172477833849,-17.57954571011407,-21.272829621409677,-7.336259289149125
796,-6.380786829130319,-17.56609005641909,-21.301970911271173,-7.285014277233258
797,-6.371650154994752,-17.536698802913556,-21.311813074644743,-7.227195473083825
798,-6.356771725507563,-17.49140341902662,-21.30234016726331,-7.16286966430155
799,-6.3361682672098345,-17.430255396602128,-21.27356067316315,-7.092112148760313
800,-6.309863963103356,-17.353326249898704,-21.22550750468398,-7.0150067346071765
801,-6.277890452650586,-17.26070751558964,-21.158238002468877,-6.931645740262353
802,-6.240286831774684,-17.15251075276299,-21.07183393546432,-6.842129994419252
803,-6.197099652859477,-17.028867542921535,-20.966401500920174,-6.746568836044439
804,-6.148382924749504,-16.889929489982784,-20.84207132438969,-6.6450801143776514
805,-6.094198112749958,-16.735868220278952,-20.698998459729534,-6.537790188931802
806,-6.034614138626739,-16.56687538255699,-20.53736238909974,-6.424833929492978
807,-5.969707380606426,-16.383162647978594,-20.357367022963693,-6.306354716120418
808,-5.89956167337628,-16.18496171012015,-20.159240700088247,-6.182504439146562
809,-5.824268308084252,-15.972524284972787,-19.943236187543583,-6.05344349917699
810,-5.743926032338977,-15.746122110942359,-19.709630680703285,-5.919340807090467
811,-5.658641050209767,-15.50604694884944,-19.458725803244327,-5.780373784038929
812,-5.568527022226623,-15.252610581929321,-19.190847607147063,-5.6367283614474735
813,-5.4737050653802335,-14.986144815832015,-18.906346572695234,-5.488598981014371
814,-5.374303753121967,-14.70700147862227,-18.605597608475964,-5.336188594711061
815,-5.270459115363875,-14.415552420779553,-18.28900005137976,-5.1797086647821535
816,-5.162314638478688,-14.112189515198024,-17.956977666600494,-5.019379163745425
817,-5.050021265299839,-13.797324657186593,-17.609978647635472,-4.855428574391821
818,-4.933737395121419,-13.471389764468888,-17.248475616285322,-4.68809388978545
819,-4.813628883698214,-13.134836777183246,-16.872965622654092,-4.517620613263601
820,-4.689869043245694,-12.788137657882718,-16.483970145149197,-4.344262758436721
821,-4.562638642440012,-12.431784391535096,-16.082035090481433,-4.1682828491884285
822,-4.432125906417996,-12.066288985522869,-15.66773079366497,-3.9899519196755047
823,-4.298526516777163,-11.692183469643238,-15.241652018017367,-3.8095495143279026
824,-4.1620436115757125,-11.310019896108154,-14.804417955159563,-3.6273636878487396
825,-4.02288778533252,-10.92037033954424,-14.356672225015858,-3.443691005214304
826,-3.881277089027144,-10.523826896992876,-13.899082875813946,-3.2588365416740466
827,-3.7374370300998336,-10.121001687910123,-13.432342384084885,-3.073113882750586
828,-3.5916005724515054,-9.712526854166784,-12.957167654663118,-2.886845124239707
829,-3.444008136443769,-9.299054560048363,-12.47430002068647,-2.7003608722103603
830,-3.2949075988989063,-8.881256992255082,-11.98450524359612,-2.5140002430046624
831,-3.144554293099884,-8.459826359901873,-11.488573513136636,-2.3281108632378937
832,-6.714458281643062,-10.662637066676444,-13.198288909691222,-7.831347693607261
833,-6.985378731378203,-11.117380444446965,-13.642495941924096,-8.102100810107657
834,-7.252682835588382,-11.566554405093562,-14.078345947667525,-8.367643280910992
835,-7.515932050254084,-12.009425440345842,-14.505143931670764,-8.627567819202815
836,-7.774701724449333,-12.445282771515764,-14.922219158086838,-8.881481333485663
837,-8.02858110034171,-12.873438349497585,-15.32892515047254,-9.129004927579038
838,-8.277173313192307,-13.2932268547679,-15.72463969178845,-9.369773900619458
839,-8.520095391355813,-13.7040056973856,-16.10876482439892,-9.603437747060417
840,-8.756978256280407,-14.105155016991935,-16.480726850072102,-9.829660156672386
841,-8.987466722507842,-14.49607768281044,-16.839976329979876,-10.048119014542822
842,-9.211219497673406,-14.876199293646987,-17.185988084697957,-10.258506401076176
843,-9.427909182505928,-15.24496817788975,-17.51826119420577,-10.46052859199388
844,-9.637222270827774,-15.601855393509249,-17.836318997886572,-10.653906058334345
845,-9.838859149554867,-15.946354728058289,-18.139709094527344,-10.838373466452964
846,-10.03253409869666,-16.277982698671998,-18.428003342318892,-11.01367967802213
847,-10.217975291356131,-16.596278552067847,-18.700797858855744,-11.179587750031203
848,-10.394924793729837,-16.90080426454559,-18.957713021136225,-11.335874934786526
849,-10.56313856510785,-17.191144541987317,-19.198393465562425,-11.482332679911437
850,-10.72238645787378,-17.46690681985742,-19.422508087940244,-11.618766628346236
851,-10.872452217504783,-17.727721263202614,-19.629750043479277,-11.744996618348233
852,-11.013133482571558,-17.973240766651905,-19.81983674679293,-11.860856683491692
853,-11.144241784738341,-18.203140954416657,-19.992509871898378,-11.966195052667874
854,-11.265602548762894,-18.417120180290507,-20.14753535221657,-12.060874150085002
855,-11.377055092496535,-18.614899527649417,-20.284703380572207,-12.144770595268303
856,-11.478452626884122,-18.79622280945166,-20.403828409193782,-12.217775203059983
857,-11.569662255964031,-18.9608565682378,-20.50474914971351,-12.279792983619199
858,-11.650564976868182,-19.108590076130767,-20.58732857316742,-12.330743142422127
859,-11.721055679822049,-19.23923533483574,-20.651453909995272,-12.370559080261895
860,-11.78104314814462,-19.352627075640235,-20.697036650040605,-12.399188393248615
861,-11.83045005824844,-19.448622759414068,-20.724012542550724,-12.416592872809385
862,-11.86921297963956,-19.527102576609376,-20.7323415961767,-12.422748505688258
863,-11.897282374917594,-19.587969447260594,-20.722008078973342,-12.417645473946303
864,-11.91462259977569,-19.63114902098444,-20.69302051839928,-12.401288154961534
865,-11.921211903000527,-19.656589676979998,-20.645411701316842,-12.373695121428954
866,-11.9170424264723,-19.664262524028622,-20.579238673992137,-12.334899141360545
867,-11.902120205164772,-19.654161400493937,-20.494582742095037,-12.284947178085266
868,-11.876465167145215,-19.626302874321937,-20.391549470699225,-12.223900390249046
869,-11.840111133574437,-19.5807262430409,-20.270268684282048,-12.151834131814784
870,-11.793105818706785,-19.517493533761378,-20.130894466724655,-12.068837952062378
871,-11.735510829890146,-19.436689503176236,-19.973605161311994,-11.975015595588676
872,-11.667401667565924,-19.33842163756069,-19.798603370732735,-11.870485002307504
873,-11.58886772526907,-19.222820152772194,-19.606115957079293,-11.755378307449686
874,-11.500012289628058,-19.090037994250533,-19.39639404184784,-11.629841841562982
875,-11.400952540364894,-18.94025083701781,-19.169713005938345,-11.494036130512153
876,-11.291819550295127,-18.77365708567839,-18.926372489654483,-11.348135895478944
877,-11.172758285327818,-18.590477874418962,-18.66669639270373,-11.192330052962031
878,-11.043927604465573,-18.39095706700851,-18.39103287419728,-11.026821714777101
879,-10.90550025980452,-18.175361256798315,-18.099754352650095,-10.851828188056796
880,-10.757662896534333,-17.943979766721966,-17.793257505980893,-10.667580975250734
881,-10.600616052938188,-17.697124649295322,-17.471963271512127,-10.474325774125504
882,-10.434574160392815,-17.435130686616585,-17.136316845970033,-10.272322477764668
883,-10.25976554336847,-17.158355390366214,-16.786787685484583,-10.06184517456876
884,-10.076432419428924,-16.867179001806964,-16.423869505589487,-9.84318214825527
885,-9.884830899231488,-16.562004491783924,-16.048080281222227,-9.616635877858682
886,-9.685230986526996,-16.24325756072444,-15.659962246724024,-9.382523037730438
887,-9.47791657815981,-15.911386638638174,-15.26008189583984,-9.141174497538946
888,-9.26318546406783,-15.566862885117066,-14.849029981718417,-8.892935322269588
889,-9.041349327282468,-15.21018018933536,-14.427421516912204,-8.638164772224714
890,-8.812733743928673,-14.841855170049598,-13.995895773377429,-8.377236303023647
891,-8.577678183224911,-14.462427175598595,-13.555116282474055,-8.110537565602671
892,-8.336536007483186,-14.072458283903474,-13.10577083496579,-7.83847040621504
893,-8.089674472109015,-13.672533302467652,-12.648571481020088,-7.56145086643098
894,-7.837474725601453,-13.263259768376827,-12.184254530208154,-7.279909183137681
895,-7.5803318095530745,-12.845267948298982,-11.713580551504938,-6.994289788539296
896,-5.70093634224227,-11.685566614761479,-12.715901466292841,-7.375514253236594
897,-5.868980289202031,-12.083317958672794,-13.115966466347025,-7.554593641183274
898,-6.0333036702234075,-12.47403214926251,-13.507580825660778,-7.7277045615561635
899,-6.193639667895367,-12.857070683590685,-13.890127948688999,-7.8946057484042695
900,-6.3497313579947745,-13.231816961624585,-14.263013602471865,-8.055066690529715
901,-6.501331709486426,-13.597676286238677,-14.625665916634835,-8.208867631487774
902,-6.648203584523,-13.95407586321462,-14.977535383388684,-8.355799569586816
903,-6.790119738445098,-14.300464801241262,-15.318094857529427,-8.49566425788835
904,-6.926862819781226,-14.636314111914674,-15.64683955643838,-8.628274204207004
905,-7.05822537024781,-14.961116709738093,-15.963287060082154,-8.753452671110521
906,-7.184009824749163,-15.27438741212198,-16.266977311012592,-8.871033675919788
907,-7.304028511377529,-15.575662939383989,-16.55747261436688,-8.980861990708798
908,-7.41810365141304,-15.86450191474895,-16.834357637867424,-9.082793142304661
909,-7.526067359323749,-16.1404848643489,-17.09723941182195,-9.176693412287623
910,-7.62776164276561,-16.403214217223073,-17.345747329123462,-9.262439836991046
911,-7.723038402582486,-16.652314305317898,-17.579533145250192,-9.339920207501416
912,-7.811759432806145,-16.887431363486996,-17.798270978265727,-9.409033069658342
913,-7.893796420656266,-17.108233529491173,-18.001657308818853,-9.469687724054532
914,-7.9690309465404265,-17.31441084399844,-18.1894109801437,-9.521804226035846
915,-8.03735448405412,-17.50567525058399,-18.361273198059614,-9.565313385701264
916,-8.098668399980738,-17.681760595730225,-18.517007530971277,-9.60015676790285
917,-8.152883954291582,-17.842422628826704,-18.656399909868586,-9.626286692245836
918,-8.19992230014586,-17.987439002170216,-18.779258628326744,-9.64366623308852
919,-8.239714483890673,-18.116609270964712,-18.885414342506227,-9.652269219542376
920,-8.27220144506105,-18.22975489332134,-18.974720071152785,-9.65208023547195
921,-8.297334016379901,-18.32671923025844,-19.0470511955974,-9.643094619494946
922,-8.315072923758056,-18.40736754570156,-19.10230545975642,-9.625318464982152
923,-8.325388786294244,-18.471587006483375,-19.14040297013136,-9.598768620057504
924,-8.328262116275102,-18.51928668234382,-19.16128619580907,-9.563472687598034
925,-8.32368331917515,-18.55039754592998,-19.16491996846163,-9.519469025233894
926,-8.31165269365685,-18.564872472796115,-19.15129148234643,-9.466806745348372
927,-8.292180431570532,-18.56268624140371,-19.12041029430612,-9.405545715077867
928,-8.265286617954454,-18.5438355331214,-19.072308323768585,-9.335756556311873
929,-8.231001231034751,-18.50833893222501,-19.007039852747017,-9.25752064569303
930,-8.18936414222549,-18.456236925897574,-18.924681525839855,-9.170930114617073
931,-8.140425116128618,-18.387591904229268,-18.82533235023082,-9.076087849232874
932,-8.084243810533989,-18.30248816021749,-18.70911369568887,-8.973107490442407
933,-8.020889776419375,-18.2010318897668,-18.576169294568274,-8.862113433900765
934,-7.9504424579504205,-18.083351191688966,-18.42666524180853,-8.743240830016145
935,-7.872991192480702,-17.949596067702906,-18.26078999493441,-8.616635583949899
936,-7.788635210551676,-17.79993842243472,-18.07875437405597,-8.482454355616436
937,-7.6974836358926995,-17.634572063417696,-17.880791561868495,-8.340864559683329
938,-7.59965548542105,-17.453712701092336,-17.667157103652556,-8.192044365571242
939,-7.495279669241888,-17.257597948806264,-17.438128907274006,-8.03618269745396
940,-7.384494990648276,-17.046487322814325,-17.1940072431839,-7.873479234258379
941,-7.267450146121188,-16.820662242278523,-16.935114744418627,-7.70414440966451
942,-7.144303725329481,-16.58042602926805,-16.661796406599784,-7.528399412105478
943,-7.0152242111299286,-16.326103908759265,-16.374419587934252,-7.346476184767526
944,-6.880389979567185,-16.058043008635707,-16.073374009214163,-7.158617425589999
945,-6.739989299873822,-15.776612359688103,-15.759071753816933,-6.965076587265365
946,-6.594220334470304,-15.482202895614348,-15.431947267705189,-6.7661178772392025
947,-6.443291138964986,-15.1752274530195,-15.092457359426879,-6.5620162577102
948,-6.28741966215413,-14.856120771415828,-14.741081200115143,-6.35305744563016
949,-6.126833746021893,-14.525339493222729,-14.37832032348844,-6.139537912703995
950,-5.961771125740333,-14.183362163766796,-14.004698625850436,-5.92176488538973
951,-5.792479429669403,-13.83068923128181,-13.620762366090084,-5.700056344898501
952,-5.619216179356952,-13.467843046908705,-13.227080165681587,-5.474741027194559
953,-5.442248789538729,-13.095367864695595,-12.824243008684398,-5.246158422995262
954,-5.261854568138383,-12.713829841597754,-12.412864241743224,-5.014658777771072
955,-5.07832071626745,-12.323817037477651,-11.993579574088036,-4.780603091745581
956,-4.891944328225374,-11.925939415104903,-11.567047077534056,-4.544363119895469
957,-4.703032391499488,-11.52082884015631,-11.133947186481748,-4.306321371950539
958,-4.511901786765019,-11.109139081215844,-10.694982697916842,-4.066871112393698
959,-4.318879287885099,-10.691545809774626,-10.250878771410319,-3.826416360460967
960,-5.434179700089913,-13.845780537871367,-11.711999746919238,-4.551742069842924
961,-5.881735349947733,-14.286213966626192,-12.164479542262658,-5.0560701630606975
962,-6.334264863635462,-14.717236132439192,-12.610018181573148,-5.567121539650005
963,-6.790748691270901,-15.138181379789737,-13.047906857127911,-6.083761957493812
964,-7.250191161046926,-15.548408210023913,-13.477459948677069,-6.604882391079246
965,-7.711620479231435,-15.947299281354613,-13.898015023443637,-7.129399031497591
966,-8.174088730167355,-16.334261408861437,-14.308932836123516,-7.656253286444282
967,-8.636671876272688,-16.708725564490784,-14.709597328885495,-8.184411780218932
968,-9.098469758040421,-17.070146877055787,-15.09941563137127,-8.71286635372529
969,-9.55860609403863,-17.418004632236325,-15.477818060695423,-9.240634064471282
970,-10.01622848091039,-17.751802272579056,-15.84425812144543,-9.766757186568974
971,-10.470508393373835,-18.07106739749738,-16.198212505681642,-10.290303210734596
972,-10.92064118422212,-18.375351763271443,-16.539181092937348,-10.810364844288538
973,-11.365846084323437,-18.664231283048178,-16.866686950218682,-11.32606001115533
974,-11.805366202621018,-18.937306026841178,-17.18027633200467,-11.836531851863677
975,-12.238468526133133,-19.194200221530934,-17.47951868024726,-12.340948723546415
976,-12.664443919953078,-19.434562250864563,-17.764006624371255,-12.83850419994054
977,-13.082607127249153,-19.658064655456,-18.033355981274376,-13.328417071387221
978,-13.492296769264751,-19.86440413278587,-18.28720575532722,-13.809931344831742
979,-13.892875345318254,-20.05330153720162,-18.52521813837325,-14.282316243823571
980,-14.283729232803093,-20.22450187991741,-18.74707850972883,-14.744866208516315
981,-14.6642686871877,-20.37777432901413,-18.95249543618325,-15.19690089566772
982,-15.033927842015569,-20.51291220943944,-19.141200671998604,-15.637765178639697
983,-15.392164708905215,-20.629733003007765,-19.312949158909966,-16.066829147398295
984,-15.738461177550178,-20.728078348400228,-19.4675190261252,-16.483488108513725
985,-16.07232301571903,-20.807814041164733,-19.60471159032513,-16.887162585160326
986,-16.393279869255352,-20.868830033715945,-19.724351355663433,-17.2772983171166
987,-16.700885262077776,-20.911040435335217,-19.82628601376667,-17.65336626076519
988,-16.994716596179952,-20.9343835121707,-19.910386443734254,-18.01486258909288
989,-17.274375151630558,-20.938821687237276,-19.976546712138553,-18.361308691690606
990,-17.539486086573284,-20.924341540416552,-20.024684073024744,-18.692251174753444
991,-17.789698437226857,-20.890953808456885,-20.05473896791093,-19.007261861080636
992,-18.024685117885042,-20.83869338497337,-20.06667502578807,-19.30593779007551
993,-18.244142920916584,-20.767619320447885,-20.060479063120017,-19.587901217745618
994,-18.447792516765297,-20.677814822228985,-20.036161083843496,-19.85279961670257
995,-18.635378453949993,-20.569387254532014,-19.99375427936811,-20.10030567616219
996,-18.806669159064516,-20.442468138439022,-19.93331502857634,-20.33011730194439
997,-18.961456936777722,-20.297213151898823,-19.85492289782356,-20.541957616473265
998,-19.099557969833484,-20.13380212972696,-19.758680640937985,-20.735574958777015
999,-19.220812319050715,-19.952439063605702,-19.644714199220747,-20.910742884487988
1000,-19.325083923323344,-19.75335210208409,-19.513172701445846,-21.067260165842683
1001,-19.412260599620286,-19.536793550577862,-19.364228463860112,-21.204950791681743
1002,-19.48225404298552,-19.303039871369513,-19.198076990183328,-21.323663967449903
1003,-19.53499982653801,-19.052391683608278,-19.014936971608076,-21.4232741151961
1004,-19.57045740147175,-18.785173763310105,-18.815050286799853,-21.50368087357336
1005,-19.588610097055767,-18.501735043357705,-18.59868200189702,-21.564809097838857
1006,-19.58946512063406,-18.202448613500508,-18.366120370510814,-21.6066088598539
1007,-19.5730535576257,-17.88771172035468,-18.117676833725334,-21.629055448083946
1008,-19.539430371524723,-17.55794576740311,-17.853686020097566,-21.63214936759857
1009,-19.488674403900205,-17.21359631499543,-17.57450574565736,-21.615916340071475
1010,-19.420888374396235,-16.855133080348008,-17.280517013907428,-21.58040730378052
1011,-19.336198880731907,-16.48304993754394,-16.972124015823365,-21.52569841360768
1012,-19.234756398701332,-16.09786491753304,-16.64975412985361,-21.45189104103905
1013,-19.116735282173643,-15.70012020813186,-16.313857921919514,-21.359111774164884
1014,-18.98233376309296,-15.290382154023696,-15.964909145415263,-21.247512417679552
1015,-18.831773951478446,-14.86924125675855,-15.603404741207903,-21.11726999288155
1016,-18.66530183542425,-14.43731217475317,-15.22986483763739,-20.96858673767351
1017,-18.483187281099536,-13.995233723291014,-14.8448327505165,-20.801690106562184
1018,-18.285724032748476,-13.543668874522291,-14.448874983130914,-20.616832770658462
1019,-18.07322971269027,-13.083304757463914,-14.04258122623914,-20.414292617677354
1020,-17.846045821319098,-12.61485265799952,-13.626564358072578,-20.194372751938005
1021,-17.60453773710417,-12.139048018879514,-13.201460444335488,-19.957401494363676
1022,-17.349094716589686,-11.656650439720964,-12.767928738204994,-19.703732382481757
1023,-17.080129894394865,-11.16844367700771,-12.32665168033106,-19.43374417042377
1024,-274.3919109111663,-18.21716740366754,-11.474458209354184,-262.62780856147066
1025,-275.97618874584884,-18.668686767396025,-11.831868244202266,-263.9504504284344
1026,-277.2878276847901,-19.10600976896596,-12.18170538958591,-265.0092726705102
1027,-278.3262795174694,-19.52850090296709,-12.52341422574073,-265.80411174659883
1028,-279.0912497997941,-19.935552115358536,-12.856459550225928,-266.3350413432746
1029,-279.5826978541002,-20.32658280346873,-13.180326377924304,-266.6023723747857
1030,-279.80083676915154,-20.701039815995365,-13.494519941042219,-266.6066529830558
1031,-279.74613340013997,-21.058397453005455,-13.798565689109651,-266.3486685376801
1032,-279.41930836868653,-21.398157465935327,-14.092009288980135,-265.8294416359298
1033,-278.82133606283975,-21.71984905759061,-14.374416624830802,-265.0502321027492
1034,-277.95344463707613,-22.023028882146225,-14.645373798162383,-264.01253699075676
1035,-276.8171160123016,-22.307281045146404,-14.904487127799154,-262.7180905802445
1036,-275.4140858758488,-22.57221710350466,-15.15138314988902,-261.1688643791789
1037,-273.7463436814801,-22.817476065503875,-15.385708617903429,-259.3670671232004
1038,-271.8161326493846,-23.042724390796092,-15.607130502637435,-257.31514477562285
1039,-269.62594976618055,-23.247655990402823,-15.81533599220966,-255.01578052743434
1040,-267.1785457849142,-23.431992226714755,-16.010032492062322,-252.47189479729752
1041,-264.47692522505974,-23.59548191349189,-16.190947624961197,-249.68664523154757
1042,-261.52434637252003,-23.73790131586359,-16.35782923099568,-246.66342670419453
1043,-258.3243212796257,-23.859054150328443,-16.5104453675787,-243.40587131692237
1044,-254.88061576513525,-23.958771584754388,-16.648584309446782,-239.9178483990888
1045,-251.19724941423624,-24.036912238378605,-16.77205454866005,-236.20346450772513
1046,-247.27849557854353,-24.093362181807606,-16.880684794602182,-232.26706342753693
1047,-243.12888137610076,-24.1280349370172,-16.974323973980436,-228.11322617090354
1048,-238.75318769137957,-24.140871477352476,-17.052841230825667,-223.74677097787827
1049,-234.1564491752791,-24.131840227527796,-17.116125926492277,-219.17275331618782
1050,-229.3439542451275,-24.100937063626844,-17.164087639658273,-214.39646588123378
1051,-224.32124508468064,-24.04818531310259,-17.196656166325216,-209.42343859609045
1052,-219.09411764412263,-23.97363575477728,-17.21378151981826,-204.25943861150697
1053,-213.66862164006534,-23.877366618842462,-17.215433930786116,-198.91047030590556
1054,-208.05106055554947,-23.75948358685897,-17.20160384720107,-193.3827752853826
1055,-202.24799164004307,-23.620119791756917,-17.172301934359016,-187.68283238370856
1056,-196.26622590944245,-23.459435817835733,-17.127559074879386,-181.8173576623274
1057,-190.11282814607256,-23.277619700764095,-17.06742636870519,-175.79330441035674
1058,-183.7951168986858,-23.074886927580014,-16.991975133103015,-169.61786314458863
1059,-177.320664482463,-22.851480436690725,-16.901296902663017,-163.2984616094885
1060,-170.6972969790128,-22.60767061787281,-16.79550342929894,-156.84276477719564
1061,-163.93309423637234,-22.343755312272116,-16.674726682248068,-150.25867484752342
1062,-157.0363898690062,-22.06005981240373,-16.539118848071293,-143.5543312479585
1063,-150.01577125780761,-21.75693686215207,-16.388852330653048,-136.7381106336618
1064,-142.8800795500973,-21.43476665677088,-16.22411975120134,-129.81862688746776
1065,-135.63840965962478,-21.09395684288306,-16.04513394824776,-122.80473111988482
1066,-128.30011026656678,-20.734942518480906,-15.85212797764746,-115.70551166909496
1067,-120.87478381752858,-20.35818623292594,-15.645355112579148,-108.53029410095428
1068,-113.37228652554326,-19.964177986948982,-15.425088843545122,-101.28864120899226
1069,-105.80272837007217,-19.553435232650127,-15.19162287837122,-93.99035301441235
1070,-98.17647309700433,-19.126502873498737,-14.945271142206877,-86.64546676609174
1071,-90.50413821865706,-18.68395326433346,-14.686367777525065,-79.26425694058119
1072,-82.79659501377554,-18.22638621136225,-14.415267144122359,-71.85723524210563
1073,-75.06496852753283,-17.75442897216228,-14.132343819118853,-64.43515060256323
1074,-67.32063757153028,-17.268736255680054,-13.837992596958244,-57.00898918152628
1075,-59.57523472379702,-16.76999022223133,-13.53262848940777,-49.58997436624056
1076,-51.84064632879019,-16.258900483501126,-13.21668672555825,-42.189566771625735
1077,-44.129012497394875,-15.736204102543766,-12.890622751824047,-34.81946424027505
1078,-36.45272710692414,-15.2026655937828,-12.554912231943113,-27.491601842455513
1079,-28.82443780111918,-14.659076923011119,-12.210051046976933,-20.218151876107903
1080,-21.257045990148796,-14.106257507390824,-11.856555295310576,-13.011523866846588
1081,-13.763706850610072,-13.545054215453327,-11.494961292652663,-5.88436456795977
1082,-6.35782932552781,-12.976341367099277,-11.125825572035382,1.1504420395908095
1083,0.9469238756450835,-12.401020733598633,-10.749724883814475,8.079774747169623
1084,8.136636277027952,-11.82002153759059,-10.367256195669242,14.890275118467493
1085,15.197137636312084,-11.234300453083629,-9.979036692602556,21.568347489501587
1086,22.11400394476088,-10.644841605455493,-9.585703776940838,28.1001589686154
1087,28.872557427209866,-10.052656571453197,-9.187915068334062,34.47163943647877
1088,15.833864208129675,-10.856205964743683,-11.247977965878093,5.123998289549442
1089,16.01830680076065,-11.307917773898465,-11.713245791816572,5.299802369443572
1090,16.18622067248298,-11.754130211721556,-12.172962043301103,5.469265628176673
1091,16.337509240023795,-12.194100429840365,-12.6263528130086,5.63228044900457
1092,16.47209125814883,-12.627108741196537,-13.072668278687637,5.788744201914232
1093,16.58990081966246,-13.052458620045853,-13.511182703158521,5.938559243623793
1094,16.690887355407572,-13.469476701958289,-13.941194434313207,6.0816329175825485
1095,16.775015634265706,-13.877512783818002,-14.362025905115365,6.2178775539709505
1096,16.842265763156973,-14.275939823823316,-14.77302363360033,6.34721046970062
1097,16.892633187040104,-14.664153941486735,-15.173558222875137,6.469553968414322
1098,16.92612868891237,-15.041574417634948,-15.56302436111851,6.584835340486
1099,16.942778389809707,-15.407643694408792,-15.940840821580862,6.692986863020745
1100,16.942623748806543,-15.761827375263326,-16.30645046258427,6.79394579985481
1101,16.92572156301602,-16.10361422496773,-16.659320227522507,6.8876544015556025
1102,16.892143967589753,-16.4325161696054,-16.998941144861043,6.9740599054217025
1103,16.84197843571803,-16.74806829657388,-17.32482832813701,7.053114535482843
1104,16.7753277786297,-17.0498288545849,-17.636520975959225,7.124775502499907
1105,16.692310145592216,-17.33737925366435,-17.933582372008225,7.189005003964951
1106,16.593059023911582,-17.610324065152305,-18.215599885036166,7.245770224101174
1107,16.477723238932427,-17.868291021702998,-18.482184968866942,7.29504333386295
1108,16.346466954037957,-18.110931017284855,-18.73297316239608,7.336801490935814
1109,16.19946967064999,-18.337918107180435,-18.96762408959083,7.371026839736433
1110,16.036926228228886,-18.548949507986496,-19.18582145949009,7.397706511412655
1111,15.859046804273634,-18.74374559761397,-19.387273066204447,7.41683262384348
1112,15.666056914321796,-18.922049915287907,-19.571710788916164,7.42840228163908
1113,15.458197411949506,-19.083629161547613,-19.738890591879194,7.432417576140757
1114,15.2357244887715,-19.22827319824645,-19.888592524419167,7.428885585420979
1115,14.99890967444112,-19.355795048552057,-20.020620720933355,7.417818374283408
1116,14.748039836650248,-19.46603089694616,-20.13480340089075,7.399232994262808
1117,14.483417181129399,-19.558840089224688,-20.230992868831983,7.3731514836251275
1118,14.20535925164765,-19.63410513249773,-20.309065514369383,7.339600867367494
1119,13.91419893001266,-19.69173169518952,-20.368921812186976,7.298613157218144
1120,13.61028443607067,-19.73164860703848,-20.410486322040406,7.250225351636509
1121,13.293979327706518,-19.753807859097186,-20.433707688757007,7.194479435813169
1122,12.965662500843623,-19.758184603732374,-20.43855864223582,7.131422381669851
1123,12.625728189443999,-19.74477715462495,-20.425035997447516,7.061106147859453
1124,12.274585965508198,-19.713606986769978,-20.393160654434478,6.9835876797660195
1125,11.91266073907541,-19.664718736476672,-20.342977598310714,6.898928909504747
1126,11.540392758223373,-19.598180201368415,-20.274555899261937,6.807196755922004
1127,11.158237609068426,-19.514082340382767,-20.187988712545504,6.708463124595309
1128,10.766666215765484,-19.412539273771422,-20.083393278490476,6.602804907833334
1129,10.366164840508029,-19.29368828310025,-19.96091092249754,6.490303984675892
1130,9.957235083528147,-19.15768981124925,-19.820707055039087,6.371047220893997
1131,9.540393883096494,-19.00472746241264,-19.662971171659144,6.24512646898976
1132,9.11617351552229,-18.835008002098718,-19.487916852973452,6.112638568196506
1133,8.685121595153374,-18.648761357130006,-19.295781764669368,5.973685344478669
1134,8.247801074376126,-18.446240615643138,-19.08682765750593,5.828373610531858
1135,7.804790243615533,-18.227722027088916,-18.861340367313847,5.676815165782845
1136,7.356682731335138,-17.99350500223232,-18.619629814995502,5.519126796389547
1137,6.90408750403708,-17.743912113152444,-18.362030006524922,5.355430275241027
1138,6.44762886626206,-17.479289093242564,-18.088899032947808,5.18585236195753
1139,5.987946460589381,-17.200004837210102,-17.800619070381522,5.010524802890431
1140,5.525695267636898,-16.90645140107664,-17.497596380015096,4.829584331122268
1141,5.061545606061053,-16.5990440021779,-17.18026130810921,4.643172666466736
1142,4.59618313255687,-16.278221019163762,-16.849068285996204,4.4514365154686875
1143,4.130308841857945,-15.94444399199825,-16.504495830080096,4.254527571404118
1144,3.664639066736444,-15.598197621959557,-16.14704654183655,4.052602514280187
1145,3.199905478003122,-15.23998977164001,-15.777247107812903,3.845823010835209
1146,2.7368550845072956,-14.870351464946092,-15.395648299628126,3.634355714538644
1147,2.276250233136861,-14.489836887098424,-15.00282497397287,3.418372265591118
1148,1.8188686088183001,-14.099023384631797,-14.599376072609441,3.1980492909243976
1149,1.3655032345166502,-13.698511465395129,-14.185924622371788,2.9735684042014165
1150,0.9169624712355271,-13.288924798551506,-13.763117735165537,2.7451162058162506
1151,0.47407001801713067,-12.87091021457814,-13.331626607967959,2.5128842828941265
1152,-0.0033806162358513865,-9.712026750493699,-10.86578809019922,-2.4444589990145222
1153,-0.1504596954643613,-10.10867096614545,-11.29467796913691,-2.6519798293794277
1154,-0.2997141470682333,-10.500611262853095,-11.7180767312115,-2.8594089168710317
1155,-0.4508610791264775,-10.887180836605983,-12.135267304444287,-3.066397692251457
1156,-0.6036229135714186,-11.26773369041248,-12.545555382034983,-3.2726060799543917
1157,-0.7577273861886906,-11.641644634299892,-12.948269422361712,-3.477702498085086
1158,-0.9129075466172438,-12.008309285314478,-13.34276064898106,-3.6813638584203567
1159,-1.0689017583493374,-12.367144067521481,-13.728403050627987,-3.8832755664085834
1160,-1.2254536987305436,-12.717586212005086,-14.104593381215922,-4.083131521169711
1161,-1.3823123589597455,-13.059093756868478,-14.470751159836688,-4.2806341154952445
1162,-1.5392320440891405,-13.391145547233748,-14.82631867076053,-4.475494235848257
1163,-1.6959723730242346,-13.713241235241997,-15.170760963436132,-4.6674312623633805
1164,-1.8522982785238469,-14.024901280053259,-15.503565852490594,-4.856173068846811
1165,-2.0079800072001075,-14.32566694784655,-15.824243917729408,-5.041456022776312
1166,-2.162793119518456,-14.615100311819814,-16.132328504136535,-5.223024985301201
1167,-2.3165184897976476,-14.892784252189996,-16.427375721874313,-5.400633311242367
1168,-2.4689423062097444,-15.15832245619296,-16.708964446283524,-5.5740428490922564
1169,-2.619856070780121,-15.411339418083555,-16.97669631788335,-5.743023941014874
1170,-2.7690565993874587,-15.651480439135584,-17.23019574237141,-5.907355422845792
1171,-2.916346021763757,-15.878411627641789,-17.469109890623727,-6.0668246240921455
1172,-3.061531781494322,-16.091819898913908,-17.693108698694736,-6.221227367932623
1173,-3.204426636017767,-16.291412975282586,-17.9018848678173,-6.370367971217483
1174,-3.3448486566260187,-16.476919386097453,-18.0951538644027,-6.514059244468541
1175,-3.4826212284643185,-16.648088467727092,-18.27265392004061,-6.65212249187917
1176,-3.6175730505312043,-16.804690363559043,-18.43414603149914,-6.784387511314312
1177,-3.74953813567854,-16.94651602399981,-18.579413960724807,-6.910692594310458
1178,-3.8783558106114877,-17.07337720647479,-18.708264234842552,-7.030884526075671
1179,-4.003870715888524,-17.185106475428444,-18.820526146155693,-7.144818585489569
1180,-4.1259328059214315,-17.281557202324073,-18.91605175214601,-7.252358545103325
1181,-4.244397348975308,-17.362603565644005,-18.99471587547366,-7.353376671139675
1182,-4.359124927168556,-17.428140550889495,-19.056416103977234,-7.447753723492922
1183,-4.469981436472887,-17.478083950580736,-19.101072790673697,-7.535378955728917
1184,-4.576838086713322,-17.512370364256896,-19.128629053758445,-7.616150115085073
1185,-4.679571401568194,-17.530957198476077,-19.139050776605313,-7.689973442470362
1186,-4.77806321856914,-17.533822666815354,-19.1323266077665,-7.756763672465325
1187,-4.872200689101108,-17.520965789870726,-19.108467960972636,-7.816444033322039
1188,-4.961876278402353,-17.49240639525714,-19.067509015132753,-7.868946246964163
1189,-5.046987765564439,-17.44818511760852,-19.009506714334304,-7.9142105289868985
1190,-5.127438243532244,-17.388363398577717,-18.934540767843128,-7.95218558865701
1191,-5.20313611910394,-17.313023486836517,-18.842713650103477,-7.982828628912818
1192,-5.27399511293102,-17.222268438075687,-18.734150600738,-8.006105346364201
1193,-5.339934259518283,-17.11622211500491,-18.608999624547796,-8.021989931292596
1194,-5.400877907223828,-16.995029187352834,-18.46743149151229,-8.030465067650999
1195,-5.45675571825907,-16.858855131867053,-18.309639736789393,-8.031521933063956
1196,-5.5075026686887245,-16.707886232314088,-18.135840660715374,-8.025160198827574
1197,-5.553059048430822,-16.542329579479414,-17.9462733288049,-8.011388029909517
1198,-5.593370461256695,-16.36241307116747,-17.741199571751064,-7.990222084948999
1199,-5.628387824790981,-16.168385412201616,-17.520903985425356,-7.9616875162568
1200,-5.658067370511632,-15.960516114424147,-17.285693930877656,-7.925817969815249
1201,-5.6823706437499,-15.739095496696322,-17.035899534336256,-7.882655585278233
1202,-5.701264503690347,-15.504434684898333,-16.771873687207837,-7.832250995971194
1203,-5.714721123370837,-15.256865611929324,-16.493992046077487,-7.774663328891123
1204,-5.722717989682549,-14.99674101770736,-16.20265303270871,-7.709960204706577
1205,-5.725237903369958,-14.72443444916946,-15.898277834043373,-7.638217737757659
1206,-5.722268979030855,-14.440340260271586,-15.581310402201765,-7.559520536056035
1207,-5.713804645116334,-14.144873611988626,-15.25221745448257,-7.4739617012849155
1208,-5.6998436439307865,-13.838470472314429,-14.911488473362867,-7.38164282879907
1209,-5.680390031631923,-13.521587616261757,-14.559635706498137,-7.2826740076248235
1210,-5.6554531782307516,-13.194702625862334,-14.197194166722245,-7.177173820460053
1211,-5.625047767591585,-12.858313890166807,-13.824721632047456,-7.065269343674188
1212,-5.589193797432048,-12.512940605244765,-13.442798645664437,-6.947096147308211
1213,-5.547916579323068,-12.159122774184729,-13.052028515942245,-6.822798295074664
1214,-5.50124673868887,-11.797421207094164,-12.653037316428332,-6.692528344357633
1215,-5.4492202148069975,-11.428417521099467,-12.246473885848534,-6.556447346212761
1216,-2.539315023715504,-12.440267135141529,-14.725435104238352,-3.697160147503713
1217,-2.737850146711031,-12.89837325865977,-15.153538214118834,-3.9124676954745814
1218,-2.9360831473381075,-13.349044241807333,-15.571254586990557,-4.1270243186951525
1219,-3.1336817852203347,-13.791555645707485,-15.977940328991625,-4.340447561206249
1220,-3.3303221163642434,-14.22520722640515,-16.37297628225529,-4.55236535007801
1221,-3.5256884931592967,-14.649322934866856,-16.755768024909873,-4.762415995409889
1222,-3.719473564377889,-15.06325091698079,-17.12574587107884,-4.970248190330658
1223,-3.9113782751753536,-15.466363513556757,-17.48236487088074,-5.175521010998388
1224,-4.101111867089939,-15.858057260326186,-17.825104810429256,-5.37790391660049
1225,-4.288391878042838,-16.237752887942136,-18.15347021183316,-5.577076749353654
1226,-4.472944142338173,-16.604895321979324,-18.46699033319634,-5.772729734503914
1227,-4.654502790662994,-16.95895368293406,-18.76521916861779,-5.964563480326599
1228,-4.832810250087278,-17.299421286224284,-19.04773544819161,-6.152288978126362
1229,-5.007617244063943,-17.625815642189583,-19.314142638007016,-6.335627602237159
1230,-5.178682792428824,-17.937678456091184,-19.564068940148307,-6.514311110022268
1231,-5.345774211400697,-18.234575628111894,-19.797167292694926,-6.688081641874266
1232,-5.508667113581262,-18.516097253356165,-20.013115369721376,-6.8566917212150535
1233,-5.667145407955152,-18.7818576218501,-20.2116155812973,-7.0199042544958346
1234,-5.821001299889924,-19.0314952185414,-20.392395073487414,-7.177492531197136
1235,-5.970035291136068,-19.264672723299398,-20.55520572835157,-7.329240223828779
1236,-6.114056179826999,-19.48107701091504,-20.699824163944683,-7.474941387929913
1237,-6.252881060479071,-19.680419151100917,-20.826051734316806,-7.614400462068983
1238,-6.386335323991555,-19.86243440849124,-20.933714529513082,-7.747432267843752
1239,-6.514252657646654,-20.026882242641804,-21.022663375573725,-7.873862009881294
1240,-6.636475045109507,-20.17354630803005,-21.0927738345341,-7.9935252758379844
1241,-6.752852766428162,-20.30223445405509,-21.143946204424648,-8.106268036399525
1242,-6.863244398033617,-20.412778725037555,-21.17610551927088,-8.211946645280909
1243,-6.967516812739781,-20.50503536021978,-21.189201549093468,-8.310427839226442
1244,-7.0655451797434985,-20.578884793765663,-21.183208799908122,-8.401588738009755
1245,-7.157212964624541,-20.63423165476078,-21.158126513725673,-8.485316844433761
1246,-7.242411929345602,-20.671004767212253,-21.113978668552072,-8.561510044330705
1247,-7.321042132252307,-20.689157150048885,-21.0508139783883,-8.63007660656213
1248,-7.39301192807321,-20.688666017121065,-20.968705893230506,-8.69093518301888
1249,-7.4582379679197786,-20.669532777200786,-20.867752599069895,-8.744014808621118
1250,-7.51664519928642,-20.631783033981687,-20.748077017892765,-8.789254901318314
1251,-7.568166866050465,-20.575466586079003,-20.609826807680538,-8.826605262089236
1252,-7.612744508472164,-20.500657427029587,-20.453174362409698,-8.856026074941967
1253,-7.650327963194701,-20.407453745291914,-20.278316812051816,-8.877487906913892
1254,-7.680875363244177,-20.295977924246056,-20.085476022573598,-8.89097170807171
1255,-7.704353138029628,-20.166376542193706,-19.874898595936774,-8.896468811511408
1256,-7.7207360133430045,-20.01882037235818,-19.646855870098232,-8.893980933358305
1257,-7.73000701135919,-19.85350438288439,-19.401643919009924,-8.883520172767001
1258,-7.732157450635991,-19.670647736838863,-19.139583552618873,-8.865109011921417
1259,-7.727186946114131,-19.470493792209723,-18.8610203168672,-8.838780316034777
1260,-7.715103409117269,-19.253310101906735,-18.566324493692147,-8.804577333349602
1261,-7.6959230473519815,-19.01938841376127,-18.255891101026,-8.762553695137726
1262,-7.669670364907769,-18.769044670526256,-17.93013989279615,-8.712773415700287
1263,-7.636378162257058,-18.502619009876298,-17.58951535892507,-8.655310892367714
1264,-7.596087536255197,-18.220475764407563,-17.23448672533035,-8.59025090549976
1265,-7.548847880140459,-17.923003461637848,-16.865547953924594,-8.517688618485474
1266,-7.494716883534034,-17.610614824006536,-16.48321774261557,-8.437729577743195
1267,-7.433760532440047,-17.28374676887464,-16.088039525306076,-8.35048971272059
1268,-7.366053109245532,-16.942860408524755,-15.680581471894026,-8.256095335894607
1269,-7.2916771927204564,-16.58844105016111,-15.261436488272391,-8.154683142771505
1270,-7.210723658017702,-16.220998195909498,-14.83122221632925,-8.046400211886855
1271,-7.123291676673079,-15.841065542817345,-14.390581033947742,-7.931404004805512
1272,-7.029488716605317,-15.449200982853675,-13.940180055006094,-7.809862366121644
1273,-6.929430542116066,-15.045986602909114,-13.480711129377625,-7.681953523458722
1274,-6.823241213889894,-14.632028684795875,-13.012890842930714,-7.547866087469508
1275,-6.7110530889943005,-14.20795770524779,-12.537460517528833,-7.40779905183608
1276,-6.593006820879695,-13.774428335920291,-12.055186211030533,-7.261961793269803
1277,-6.4692513593794185,-13.332119443390393,-11.566858717289444,-7.110574071511355
1278,-6.339943950709724,-12.88173408915674,-11.073293566154264,-6.9538660293307055
1279,-6.205250137469789,-12.423999529639548,-10.575331023468772,-6.792078192527126
1280,-8.175190452390794,-13.47768760345627,-9.591756274112269,-9.21613568630727
1281,-8.423028778011187,-13.87667986113081,-9.941714968495944,-9.508941665122054
1282,-8.665014372414682,-14.266200005112445,-10.285886587048495,-9.795511615740665
1283,-8.900785267790031,-14.645649589424144,-10.623720012683716,-10.075402233652914
1284,-9.129992999925038,-15.014452861022919,-10.954682566242939,-10.348186227838438
1285,-9.352302608206482,-15.372056759799834,-11.278260006495035,-10.613452320766648
1286,-9.567392635620173,-15.717930918580029,-11.593956530136401,-10.870805248396813
1287,-9.774955128750907,-16.05156766312269,-11.901294771790997,-11.119865760177984
1288,-9.974695637782498,-16.372482012121075,-12.199815804010287,-11.36027061904901
1289,-10.166333216497751,-16.680211677202454,-12.489079137273315,-11.591672601438574
1290,-10.349600422278487,-16.974317062928193,-12.768662719986605,-11.813740497265158
1291,-10.52424331610553,-17.254381266793718,-13.038162938484277,-12.026159109937034
1292,-10.690021462558702,-17.520010079228474,-13.297194617027932,-12.228629256352319
1293,-10.846707929816834,-17.770831983595972,-13.545391017806741,-12.420867766898892
1294,-10.994089289657747,-18.006498156193793,-13.782403840937402,-12.602607485454476
1295,-11.13196561745829,-18.22668246625355,-14.007903224464139,-12.77359726938658
1296,-11.260150492194287,-18.43108147594092,-14.221577744358711,-12.933601989552509
1297,-11.378470996440589,-18.61941444035561,-14.42313441452043,-13.082402530299419
1298,-11.486767716371006,-18.791423307531414,-14.61229868677611,-13.219795789464223
1299,-11.584894741758417,-18.946872718436133,-14.788814450880121,-13.345594678373647
1300,-11.672719665974649,-19.085550006971662,-14.95244403451434,-13.459628121844244
1301,-11.750123585990538,-19.207265199973914,-15.102968203288214,-13.561741058182351
1302,-11.81700110237594,-19.31185101721285,-15.24018616073869,-13.651794439184114
1303,-11.873260319299682,-19.3991628713925,-15.363915548330244,-13.729665230135485
1304,-11.91882284452962,-19.469078868150913,-15.473992445454897,-13.795246409812211
1305,-11.953623789432603,-19.521499806060213,-15.570271369432197,-13.848446970479854
1306,-11.977611768974457,-19.55634917662656,-15.652625275509223,-13.889191917893767
1307,-11.990748901720035,-19.57357316429016,-15.720945556860572,-13.9174222712991
1308,-11.993010809833175,-19.573140646425248,-15.775142044588375,-13.93309506343083
1309,-11.984386619076702,-19.55504319334012,-15.815143007722298,-13.936183340513706
1310,-11.964878958812472,-19.519295068277135,-15.840895153219519,-13.92667616226228
1311,-11.93450396200131,-19.465933227412645,-15.852363625964768,-13.904578601880932
1312,-11.893291265203034,-19.39501731985707,-15.849532008770273,-13.869911746063805
1313,-11.841284008576483,-19.306629687654915,-15.832402322375808,-13.82271269499487
1314,-11.778538835879493,-19.200875365784654,-15.800995025448662,-13.763034562347883
1315,-11.705125894468859,-19.07788208215886,-15.755349014583649,-13.690946475286397
1316,-11.621128835300418,-18.937800257624104,-15.695521624303128,-13.606533574463777
1317,-11.52664481292897,-18.78080300596103,-15.621588627056948,-13.50989701402316
1318,-11.421784485508327,-18.60708613388429,-15.533644233222516,-13.401153961597513
1319,-11.306672014791289,-18.416868141042624,-15.431801091104735,-13.28043759830958
1320,-11.181445066129658,-18.210390220018752,-15.316190286936054,-13.147897118771896
1321,-11.046254808474217,-17.987916256329488,-15.186961344876432,-13.003697731086815
1322,-10.90126591437476,-17.749732828425618,-15.044282227013339,-12.848020656846462
1323,-10.746656559980067,-17.496149207692042,-14.8883393333618,-12.68106313113277
1324,-10.5826184250379,-17.22749735844765,-14.719337501864326,-12.503038402517479
1325,-10.409356692895031,-16.944131937945357,-14.53750000839098,-12.314175733062097
1326,-10.227090050497223,-16.646430296372156,-14.34306856673932,-12.11472039831794
1327,-10.036050688389217,-16.33479247684902,-14.136303328634432,-11.904933687326134
1328,-9.836484300714767,-16.00964121543104,-13.917482883728928,-11.685092902617567
1329,-9.628650085216607,-15.671421941107232,-13.686904259602937,-11.455491360212953
1330,-9.412820743236454,-15.320602775800733,-13.444882921764105,-11.216438389622759
1331,-9.18928247971504,-14.957674534368682,-13.191752773647588,-10.968259333847284
1332,-8.958335003192056,-14.583150724602248,-12.92786615661608,-10.711295549376604
1333,-8.720291525806209,-14.197567547226623,-12.653593849959769,-10.445904406190579
1334,-8.475478763295195,-13.801483895901058,-12.36932507089638,-10.172459287758864
1335,-8.224236934995686,-13.395481357218804,-12.075467474571148,-9.891349591040916
1336,-7.966919763843349,-12.980164210707162,-11.772447154056813,-9.602980726485976
1337,-7.703894476372854,-12.55615942882746,-11.460708640353646,-9.307774118033066
1338,-7.435541802717837,-12.124116676975047,-11.140714902389428,-9.006167203111012
1339,-7.162255976610931,-11.684708313479312,-10.812947347019454,-8.69861343263842
1340,-6.884444735383775,-11.23862938960365,-10.477905819026532,-8.38558227102369
1341,-6.602529319966965,-10.786597649545515,-10.136108601120984,-8.067559196165009
1342,-6.316944474890109,-10.329353530436363,-9.788092413940655,-7.7450456994503485
1343,-6.028138448281795,-9.867660162341688,-9.434412416050884,-7.41855928575748
1344,-11.182205176388761,-14.144986518153738,-12.027889179671163,-8.058208367503568
1345,-11.38519263812388,-14.563892482403926,-12.401679562315298,-8.232003724550653
1346,-11.57900068625522,-14.973197046611215,-12.766929117597488,-8.399548765560727
1347,-11.763346739815628,-15.37225383877911,-13.123087452936208,-8.560588136652738
1348,-11.937963484163385,-15.760440775523039,-13.469624717937371,-8.714878558419265
1349,-12.102598870982137,-16.13716006207037,-13.806031604394382,-8.862188825926532
1350,-12.257016118280973,-16.50183819226041,-14.131819346288088,-9.002299808714401
1351,-12.400993710394326,-16.853925948544347,-14.446519719786815,-9.13500445079641
1352,-12.534325397982078,-17.192898401985335,-14.749685043246327,-9.26010777065969
1353,-12.65682019802947,-17.51825491225844,-15.040888177209856,-9.37742686126506
1354,-12.768302393847181,-17.829519127650627,-15.319722524408114,-9.486790890046946
1355,-12.86861153507124,-18.126238985060834,-15.585802029759222,-9.588041098913454
1356,-12.957602437663107,-18.407986709999886,-15.838761180368824,-9.681030804246296
1357,-13.035145183909638,-18.674358816590523,-16.07825500552997,-9.765625396900857
1358,-13.101125122423065,-18.924976107567428,-16.303959076723185,-9.841702342206133
1359,-13.15544286814103,-19.15948367427721,-16.515569507616455,-9.909151179964784
1360,-13.19801430232657,-19.377550896678382,-16.712802954065225,-9.96787352445312
1361,-13.228770572568113,-19.57887144334136,-16.8953966141124,-10.017783064421058
1362,-13.247658092779483,-19.763163271448498,-17.06310822798831,-10.058805563092186
1363,-13.254638543199908,-19.930168626794107,-17.215716078110756,-10.090878858163709
1364,-13.249688870393982,-20.079654043784352,-17.35301898908503,-10.113952861806501
1365,-13.232801287251732,-20.21141034543734,-17.47483632770383,-10.127989560665046
1366,-13.203983272988554,-20.32525264338309,-17.581008002947318,-10.13296301585748
1367,-13.163257573145232,-20.421020337863563,-17.671394465983113,-10.128859362975593
1368,-13.110662199587964,-20.498577117732598,-17.745876710166307,-10.115676812084779
1369,-13.046250430508312,-20.557810960455978,-17.804356271039417,-10.093425647724105
1370,-12.970090810423267,-20.598634132111382,-17.846755226332412,-10.062128228906259
1371,-12.882267150175181,-20.620983187388415,-17.873016195962737,-10.02181898911758
1372,-12.7828785269318,-20.62481896958858,-17.883102342035254,-9.97254443631802
1373,-12.672039284186289,-20.61012661062531,-17.876997368842307,-9.9143631529412
1374,-12.54987903175716,-20.576915531023957,-17.854705522863654,-9.847345795894345
1375,-12.41654264578834,-20.52521943992174,-17.816251592766562,-9.771575096558342
1376,-12.272190268749164,-20.45509633506785,-17.76168090940568,-9.687145860787707
1377,-12.116997309434314,-20.366628502823342,-17.691059345823117,-9.594164968910592
1378,-11.95115444296389,-20.25992251816119,-17.604473317248484,-9.49275137572879
1379,-11.774867610783373,-20.13510924466629,-17.50202978109877,-9.383036110517722
1380,-11.588358020663646,-19.992343834535447,-17.383856236978463,-9.265162277026448
1381,-11.391862146700946,-19.831805728577347,-17.250100726679463,-9.139285053477664
1382,-11.185631729316931,-19.653698656212637,-17.100931834181132,-9.005571692567688
1383,-10.969933775258625,-19.45825063547381,-16.936538685650294,-8.864201521466502
1384,-10.745050557598443,-19.245713973005312,-16.757130949441162,-8.715365941817689
1385,-10.51127961573422,-19.01636526406345,-16.56293883609545,-8.559268429738495
1386,-10.268933755389126,-18.77050539251648,-16.354213098342296,-8.396124535819785
1387,-10.01834104861173,-18.508459530844544,-16.131225031098268,-8.226161885126054
1388,-9.759844833776016,-18.2305771401397,-15.8942664714674,-8.049620177195436
1389,-9.493803715581326,-17.937231970105874,-15.643649798741157,-7.866751186039701
1390,-9.220591565052391,-17.62882205905893,-15.379707934398445,-7.67781876014424
1391,-8.940597519539322,-17.305769733926628,-15.10279434210561,-7.483098822468094
1392,-8.654225982717634,-16.968521610248615,-14.813283027716444,-7.282879370443926
1393,-8.361896624588205,-16.617548592176465,-14.51156853927218,-7.077460475978022
1394,-8.064044381477302,-16.253345872473616,-14.198065967001488,-6.867154285450321
1395,-7.761119456036579,-15.876432932515446,-13.873210943320464,-6.652285019714373
1396,-7.453587317243075,-15.487353542289195,-13.537459642832678,-6.43318897409737
1397,-7.141928700399194,-15.086675760394039,-13.191288782329101,-6.210214518400128
1398,-6.826639607132746,-14.674991934041023,-12.835195620788168,-5.983722096897104
1399,-6.508231305396905,-14.2529186990531,-12.469697959375736,-5.754084228336371
1400,-6.18723032947023,-13.821096979865121,-12.095334141445106,-5.521685505939645
1401,-5.864178479956667,-13.380191989523842,-11.712663052537012,-5.286922597402261
1402,-5.539632823785533,-12.930893229687896,-11.322264120379629,-5.050204244893188
1403,-5.214165694211534,-12.473914490627822,-10.924737314888569,-4.811951265055027
1404,-4.888364690814746,-12.009993851226053,-10.520703148166858,-4.572596549004003
1405,-4.562832679500638,-11.539893678976922,-10.110802674504997,-4.3325850623299695
1406,-4.238187792500041,-11.064400629986649,-9.695697490380882,-4.092373845096411
1407,-3.915063428369177,-10.584325648973342,-9.276069734459863,-3.852432011840436
1408,-10.58364500786284,-12.819562821008086,-13.499482322742567,-10.508059646239596
1409,-10.86458494854832,-13.239084849064646,-13.885624922036722,-10.807904940375714
1410,-11.13747581204876,-13.650389628620673,-14.26224532759832,-11.099927137548361
1411,-11.40191576790048,-14.05281992585439,-14.62876085333365,-11.38369491599483
1412,-11.657519609816834,-14.44574183608437,-14.984611343059408,-11.658793986455452
1413,-11.903918755688206,-14.828544783769463,-15.329259170502633,-11.924827092173683
1414,-12.140761247582022,-15.200641522508802,-15.662189239300782,-12.18141400889599
1415,-12.367711751742737,-15.561468135041862,-15.982908983001657,-12.428191544871929
1416,-12.584451558591851,-15.910484033248384,-16.290948365063446,-12.664813540854137
1417,-12.790678582727896,-16.247171958148417,-16.58585987885473,-12.890950870098308
1418,-12.986107362926429,-16.571037979902336,-16.867218547654446,-13.106291438363204
1419,-13.170469062140064,-16.881611497810777,-17.134621924651903,-13.31054018391065
1420,-13.343511467498438,-17.178445240314673,-17.387690092946823,-13.503419077505548
1421,-13.5049989903082,-17.461115264995296,-17.62606566554926,-13.684667122415853
1422,-13.654712666053069,-17.729220958574174,-17.849413785379674,-13.854040354412584
1423,-13.792450154393784,-17.98238503691314,-18.057422125268875,-14.011311841769848
1424,-13.918025739168105,-18.220253545014334,-18.249800887958067,-14.156271685264786
1425,-14.031270328390837,-18.442495857020205,-18.426282806098783,-14.288727018177632
1426,-14.132031454253811,-18.648804676213434,-18.58662314225301,-14.408502006291657
1427,-14.220173273125898,-18.83889603501707,-18.73059968889302,-14.515437847893217
1428,-14.295576565552985,-19.01250929499442,-18.858012768401505,-14.609392773771717
1429,-14.358138736258013,-19.169407146849082,-18.968685233071536,-14.690242047219638
1430,-14.407773814140922,-19.30937561042494,-19.062462465106503,-14.757877964032508
1431,-14.444412452278709,-19.432224034706216,-19.139212376620232,-14.81220985250893
1432,-14.468001927925384,-19.537785097817366,-19.198825409636857,-14.853164073450559
1433,-14.478506142512016,-19.625914807023157,-19.24121453609091,-14.880684020162114
1434,-14.475905621646644,-19.696492498728652,-19.266315257827287,-14.894730118451376
1435,-14.460197515114402,-19.749420838479203,-19.274085606601282,-14.895279826629192
1436,-14.431395596877401,-19.784625820960446,-19.26450614407848,-14.882327635509451
1437,-14.3895302650748,-19.80205676999832,-19.237579961834932,-14.855885068409123
1438,-14.334648542022816,-19.801686338559023,-19.19333268135696,-14.815980681148226
1439,-14.266814074214635,-19.783510508749064,-19.131812454041313,-14.762660062049836
1440,-14.186107132320489,-19.747548591815228,-19.05308996119508,-14.695985831940083
1441,-14.092624611187674,-19.693843228144605,-18.95725841403571,-14.61603764414818
1442,-13.986480029840454,-19.62246038726454,-18.84443355369105,-14.522912184506346
1443,-13.867803531480158,-19.533489367842684,-18.714753651199253,-14.41672317134992
1444,-13.736741883485127,-19.42704279768697,-18.568379507508897,-14.297601355517248
1445,-13.593458477410724,-19.303256633745608,-18.405494453478873,-14.16569452034976
1446,-13.438133328989343,-19.162290162107094,-18.226304349878454,-14.021167481691936
1447,-13.270963078130404,-19.004325998000223,-18.031037587387292,-13.864202087891302
1448,-13.092160988920321,-18.829570085794046,-17.81994508659535,-13.694997219798443
1449,-12.901956949622582,-18.638251698997923,-17.593300298003008,-13.513768790767001
1450,-12.700597472677659,-18.43062344026145,-17.35139920202097,-13.320749746653684
1451,-12.488345694703055,-18.20696124137456,-17.094560308970305,-13.116190065818227
1452,-12.2654813764933,-17.967564363267446,-16.823124659082445,-12.900356759123445
1453,-12.032300903019934,-17.712755396010547,-16.537455822499183,-12.67353386993518
1454,-11.789117283431542,-17.44288025881464,-16.237939899272654,-12.436022474122362
1455,-11.536260151053703,-17.158308200030735,-15.924985519365364,-12.188140680056938
1456,-11.274075763389028,-16.859431797150133,-15.599023842650181,-11.93022362861392
1457,-11.002927002117145,-16.546666956804412,-15.260508558910317,-11.662623493171377
1458,-10.723193373094713,-16.220452914765445,-14.909915887839325,-11.385709479610428
1459,-10.435271006355388,-15.881252235945349,-14.547744579041154,-11.099867826315233
1460,-10.13957265610986,-15.52955081439654,-14.174515912030069,-10.805501804173003
1461,-9.836527700745842,-15.165857873311706,-13.7907736962307,-10.503031716574014
