,TP9,AF7,AF8,TP10
0,6.702906077507622e-15,-3.2393512716642595e-14,-3.313270313449857e-14,-6.05824184137621e-14
1,2.3549816066622066e-13,-6.838603511449521e-13,-7.154786824159522e-13,-1.3418869023450238e-12
2,2.6517752094416486e-12,-8.199730821176542e-12,-8.583453933834419e-12,-1.6007522058957824e-11
3,1.9037406886702857e-11,-6.597523590052783e-11,-6.900888708425185e-11,-1.2771945516093114e-10
4,9.837627652100715e-11,-4.0016510977407186e-10,-4.180243392899607e-10,-7.669597573036847e-10
5,3.846610287383481e-10,-1.9561902327355984e-09,-2.040372224016716e-09,-3.707598334842771e-09
6,1.1452828242922333e-09,-8.048347973140149e-09,-8.381592253060502e-09,-1.507188536838994e-08
7,2.4247478984467352e-09,-2.873134583562198e-08,-2.987838681423274e-08,-5.3133915925568076e-08
8,2.235249345007042e-09,-9.10342530636613e-08,-9.455913350877889e-08,-1.6622244674441257e-07
9,-9.294613982208997e-09,-2.605402273878541e-07,-2.7040968041301083e-07,-4.697461639755488e-07
10,-6.486118520364056e-08,-6.830223919239778e-07,-7.085923566004994e-07,-1.2163433167521226e-06
11,-2.52596501317806e-07,-1.6589008644741666e-06,-1.720901512679113e-06,-2.919227008440575e-06
12,-7.794283533007196e-07,-3.767976747237948e-06,-3.909820518722195e-06,-6.5555550437463724e-06
13,-2.0835040413187654e-06,-8.066915895966654e-06,-8.374819982777638e-06,-1.3883468910440432e-05
14,-5.0196084470277065e-06,-1.6386898432058142e-05,-1.7023549056883532e-05,-2.79125131577017e-05
15,-1.1147022429081828e-05,-3.1763258688148926e-05,-3.3020637106717845e-05,-5.357157058682317e-05
16,-2.3154051667455107e-05,-5.903232076615185e-05,-6.140919325667788e-05,-9.862035760141792e-05
17,-4.545677363208015e-05,-0.00010563248618722845,-0.00010994005053115911,-0.0001748491668015852
18,-8.501067169542636e-05,-0.0001826464696944175,-0.00019014078382520658,-0.00029960637386093413
19,-0.00015237214697261925,-0.0003061189752948636,-0.0003186502315401112,-0.0004976839690685287
20,-0.0002630420121163621,-0.0004986787126826086,-0.0005188346908918055,-0.0008035780812323454
21,-0.00043911478939027927,-0.000791485256375818,-0.0008226894889586872,-0.0012641245326260437
22,-0.0007112460141335215,-0.0012265097844343874,-0.0012730148822806232,-0.0019414896306009213
23,-0.0011209351197545576,-0.0018591443143485733,-0.0019258390169849982,-0.0029164746733024234
24,-0.001723104470146617,-0.0027611169794373907,-0.0028530438816198557,-0.004292070226936532
25,-0.0025889365495152905,-0.004023671650945796,-0.004145133695819478,-0.006197174425334104
26,-0.00380891217770056,-0.00576094949360569,-0.005914069825404811,-0.008790369658527997
27,-0.005495973896382559,-0.008113488716431302,-0.008296082824459806,-0.012263635266653923
28,-0.0077887213940666476,-0.011251737877803923,-0.011454361188519986,-0.016845861252889553
29,-0.010854531029888531,-0.015379458775218393,-0.015581508352454209,-0.022806020314563562
30,-0.014892480129332983,-0.02073687840876901,-0.02090165475671018,-0.0304558530914846
31,-0.020135949528120388,-0.027603436962076098,-0.027672110696477042,-0.040151924553424596
32,-0.026854775346857953,-0.036299971322943325,-0.036184448313159166,-0.05229691770789176
33,-0.03535682344703231,-0.04719017232774032,-0.04676490754325474,-0.06734004386603241
34,-0.0459888674982621,-0.060681159356426755,-0.059774031078400465,-0.08577646593248052
35,-0.05913666394465072,-0.07722302848480955,-0.07560544730284513,-0.10814565185097627
36,-0.07522413407581882,-0.09730725008444745,-0.09468373756735297,-0.1350285986831269
37,-0.09471158438991933,-0.12146381812618494,-0.11746134474625285,-0.16704389310080472
38,-0.11809292086287111,-0.1502570857184358,-0.14441450342691367,-0.20484260068029328
39,-0.14589183993351187,-0.18428025853519053,-0.17603819782261457,-0.24910200371929037
40,-0.17865700826393557,-0.22414855848001192,-0.212840181009475,-0.30051823484089596
41,-0.21695627384976215,-0.27049111275179566,-0.2553341176920009,-0.35979788093151044
42,-0.2613699819369111,-0.3239416668864532,-0.304031941607384,-0.4276486585319349
43,-0.3124834994491215,-0.3851282627601576,-0.3594355469569357,-0.5047692872043951
44,-0.3708790801906641,-0.45466206237579476,-0.42202795983963604,-0.5918387111416276
45,-0.43712722889268235,-0.5331255340018277,-0.49226415940011925,-0.6895048408353313
46,-0.5117777441450907,-0.6210602475060678,-0.5705617381251209,-0.798373005415495
47,-0.5953506373437564,-0.7189545493305393,-0.6572916053639262,-0.918994321733432
48,-0.6883271360256306,-0.8272314035366376,-0.7527689468539622,-1.0518541978269822
49,-0.791140984608091,-0.9462366930477912,-0.8572446552402034,-1.1973611955538834
50,-0.9041702531208993,-1.0762282742798885,-0.9708974420668465,-1.3558364794594697
51,-1.0277298548523182,-1.2173660687608798,-1.0938268306267374,-1.5275040760199832
52,-1.162064957063525,-1.369703457417729,-1.2260472118409815,-1.7124821590815573
53,-1.3073454455274267,-1.5331802175815756,-1.3674831227391175,-1.9107755635751393
54,-1.4636615744510482,-1.707617210319096,-1.5179658800321068,-2.1222697105832067
55,-1.631020899515149,-1.8927129875110766,-1.6772316707162216,-2.346726102893683
56,-1.809346554711877,-2.0880424453460953,-1.8449211686220124,-2.583779521795542
57,-1.9984768948698943,-2.2930576048077556,-2.020580711298801,-2.832937023695533
58,-2.198166486695105,-2.5070905515585427,-2.2036650365324513,-3.0935787999312403
59,-2.4080883932210235,-2.7293585186200437,-2.3935415430418643,-3.3649609257604083
60,-2.627837661045828,-2.958971046670472,-2.589496006387385,-3.6462199857878574
61,-2.8569358877616766,-3.1949391098516493,-2.7907396497283257,-3.936379523922258
62,-3.0948367194742636,-3.4361860508630753,-2.996417440603721,-4.234358227214886
63,-3.340932105979449,-3.681560128878587,-3.205617460084988,-4.538979715518273
64,-3.594559124571291,-3.9298484483637197,-3.4173811700003376,-4.848983773734138
65,-3.855007173056061,-4.179792006936383,-3.630714387785209,-5.163038831430524
66,-4.12152532866661,-4.430101576552533,-3.844598766967904,-5.479755466722241
67,-4.3933296723505375,-4.679474114884514,-4.0580035742469365,-5.797700688407882
68,-4.669610387261328,-4.926609393002811,-4.269897551305995,-6.115412733228317
69,-4.9495384559224895,-5.170226521442176,-4.479260650630062,-6.431416104386891
70,-5.232271801980498,-5.409080059383243,-4.685095439326509,-6.744236573566253
71,-5.516960749025698,-5.6419754008571665,-4.886437973065904,-7.052415871750943
72,-5.802752699707417,-5.867783147326371,-5.0823679535594355,-7.354525804108312
73,-6.0887959721207405,-6.08545219733653,-5.272017997364473,-7.6491815406162225
74,-6.374242765846428,-6.29402131068117,-5.45458186116319,-7.935053856432774
75,-6.658251265666389,-6.49262893606049,-5.629321488864053,-8.210880123352863
76,-6.939986925451384,-6.68052112683645,-5.795572768717515,-8.475473885115449
77,-7.218623006676371,-6.857057408390352,-5.9527499137668745,-8.727732883760977
78,-7.493340474208464,-7.02171450192001,-6.100348405889956,-8.96664544061583
79,-7.7633273753444225,-7.174087852382456,-6.237946471834722,-9.191295132740818
80,-8.027777845690483,-7.313890951802495,-6.365205088368092,-9.400863742806726
81,-8.285890896769384,-7.440952492455654,-6.4818665423098905,-9.59463249640153
82,-8.536869144833398,-7.555211426657896,-6.587751599246362,-9.771981634886531
83,-8.77991763811385,-7.6567100502492655,-6.6827553616318225,-9.932388403395018
84,-9.014242930780428,-7.745585264575128,-6.766841922382864,-10.075423561861125
85,-9.23905253668062,-7.822058206125663,-6.84003794354769,-10.200746551694706
86,-9.45355487526713,-7.886422463337937,-6.902425310748622,-10.308099471650412
87,-9.656959797023566,-7.939031125830308,-6.954133032335313,-10.397300033473769
88,-9.848479747324362,-7.980282932070186,-6.995328566994097,-10.468233681042424
89,-10.027331597245187,-8.010607796840468,-7.026208774404274,-10.520845066014434
90,-10.19273913866027,-8.030452009662124,-7.04699068996506,-10.555129078534089
91,-10.3439362103284,-8.04026339947877,-7.057902326306983,-10.57112163343222
92,-10.480170392833402,-8.040476759472899,-7.059173701046502,-10.568890410718723
93,-10.600707184334578,-8.031499819050369,-7.0510282819738395,-10.548525744161854
94,-10.704834547063179,-8.013700038100895,-7.033675027659148,-10.510131843580853
95,-10.791867697173869,-7.987392482003922,-7.007301183578664,-10.453818525369613
96,-10.861153998540763,-7.9528290149335445,-6.972065971766657,-10.379693611953439
97,-10.91207781474801,-7.910189024257441,-6.928095286388289,-10.28785614460637
98,-10.94406517294113,-7.859571860639498,-6.8754774794193345,-10.178390535595396
99,-10.956588098172695,-7.800991147241205,-6.8142602909053185,-10.051361765282524
100,-10.949168486979312,-7.734371077574267,-6.744448948249829,-9.90681170795719
101,-10.921381403611786,-7.659544785520501,-6.666005429848492,-9.744756647167542
102,-10.872857700936487,-7.576254833291876,-6.578848861238619,-9.56518601755554
103,-10.803285889747311,-7.484155824207992,-6.482856987684959,-9.368062386067377
104,-10.71241320420751,-7.382819107745424,-6.377868646440859,-9.153322661296247
105,-10.60004583650428,-7.271739505051367,-6.263687145239359,-8.920880496012048
106,-10.466048339724452,-7.15034394474751,-6.140084441108957,-8.670629825047117
107,-10.310342223683985,-7.0180018621369475,-6.006806005462742,-8.402449459053944
108,-10.132903793237732,-6.874037180628504,-5.86357625757013,-8.116208634661646
109,-9.933761301772027,-6.717741663070643,-5.710104448875768,-7.811773403668958
110,-9.712991513561585,-6.5483893935018465,-5.546090884903701,-7.489013728555998
111,-9.47071578703253,-6.36525212732187,-5.3712333791644795,-7.147811139188421
112,-9.20709580644318,-6.16761523076826,-5.185233843793909,-6.788066796498425
113,-8.922329101873219,-5.954793919440598,-4.98780493360435,-6.409709803457848
114,-8.616644506511186,-5.726149500882018,-4.778676672738871,-6.012705602003696
115,-8.290297705858713,-5.481105328107388,-4.557603005160473,-5.597064296785727
116,-7.943567035448434,-5.2191621793873955,-4.324368220949783,-5.162848752558962
117,-7.576749681820172,-4.939912794186866,-4.078793219249189,-4.7101823214466645
118,-7.1901584356102655,-4.643055315267765,-3.82074157534963,-4.239256068705346
119,-6.784119135478745,-4.328405411741435,-3.5501253837263955,-3.7503353804848754
120,-6.358968927142514,-3.9959068863043816,-3.2669108507747984,-3.2437658538085947
121,-5.915055443155388,-3.6456406009919338,-2.9711236106379006,-2.7199783870416354
122,-5.4527369867369435,-3.2778315885473144,-2.6628537349765184,-2.179493407978909
123,-4.972383777618386,-2.8928542500343415,-2.342260402975642,-1.6229241959625034
124,-4.47438029045766,-2.491235572857328,-2.009576191531431,-1.0509792738096306
125,-3.9591286879324925,-2.0736563362815486,-1.6651109377044602,-0.46446386453840605
126,-3.42705332231353,-1.6409503034165211,-1.3092551165362534,0.13571957330598014
127,-2.878606252334296,-1.1941014291142449,-0.9424826677067062,0.7485716997320414
128,-5.827413313245434e-14,-7.520534792319604e-14,-2.0379677347159697e-15,-1.0677591926320452e-13
129,-1.210706684389563e-12,-1.653228008590779e-12,9.855339174239263e-15,-2.36844015937911e-12
130,-1.4586443865069872e-11,-1.9690888004826554e-11,2.5383363152475504e-13,-2.812018231146159e-11
131,-1.1835999050775303e-10,-1.5695202348705397e-10,2.7413558061415535e-12,-2.2327425080798062e-10
132,-7.267931068590346e-10,-9.424309625467673e-10,1.933529581698882e-11,-1.3349477277007037e-09
133,-3.6096982637975826e-09,-4.559753036556598e-09,1.0099738297756461e-10,-6.428898763646761e-09
134,-1.5134271636445252e-08,-1.8568755229298824e-08,4.167812862960016e-10,-2.604994500592083e-08
135,-5.518032918524873e-08,-6.56313885384082e-08,1.4120462737188514e-09,-9.158719538853203e-08
136,-1.788192869983343e-07,-2.05994300633154e-07,4.015889528379149e-09,-2.8587701102861995e-07
137,-5.237289834554671e-07,-5.843685223720946e-07,9.664555539533928e-09,-8.063987651950629e-07
138,-1.4047684755109487e-06,-1.5194908149697358e-06,1.9454167440373343e-08,-2.084852007692315e-06
139,-3.4880383883838493e-06,-3.6628681370371297e-06,3.093920619217147e-08,-4.997137530776263e-06
140,-8.089471393970762e-06,-8.26248763908943e-06,2.991819660306723e-08,-1.1209088456175782e-05
141,-1.7656456466937452e-05,-1.7576805787472438e-05,-2.6947701922498115e-08,-2.3714637449029024e-05
142,-3.6503807477995587e-05,-3.549306283211954e-05,-2.4450828547639715e-07,-4.7633125914750383e-05
143,-7.188595794284134e-05,-6.841072069975082e-05,-8.439682149342987e-07,-9.133970869380309e-05
144,-0.00013549394273961024,-0.00012645439764225148,-2.2491353164897684e-06,-0.00016800587703931304
145,-0.0002454669413898435,-0.00022507999018430252,-5.214151338670875e-06,-0.00029762480422954854
146,-0.0004290026042674466,-0.00038713188496143733,-1.1003583353698329e-05,-0.0005095876212175629
147,-0.000725637202580597,-0.0006453977617507753,-2.163624158704099e-05,-0.0008458613820229407
148,-0.0011912454994548528,-0.0010456903753365283,-4.020431357928337e-05,-0.0013647973958235832
149,-0.0019027813362616783,-0.0016504632212432137,-7.127939269356859e-05,-0.002145570320941278
150,-0.002963743994599635,-0.0025429399096726117,-0.00012141672836175756,-0.003293214964400161
151,-0.004510313683842766,-0.0038317065371129694,-0.00019976852685379764,-0.004944190554791724
152,-0.0067180537627522996,-0.00565568378265375,-0.0003188163946806936,-0.00727236310740474
153,-0.009809029676746751,-0.008189362473254675,-0.0004952320690294249,-0.01049525732539471
154,-0.014059147477740137,-0.011648154646234348,-0.0007508744248922139,-0.014880392318526992
155,-0.01980547070146993,-0.016293683368401445,-0.0011139293131397748,-0.0207514823022168
156,-0.027453235827505723,-0.022438810346752477,-0.0016201968789927004,-0.028494256280376818
157,-0.037482255963034374,-0.030452182123677986,-0.0023145283366692933,-0.038561631206889144
158,-0.05045238195912993,-0.04076206459826782,-0.0032524103692403473,-0.05147796263684338
159,-0.06700768166174834,-0.053859232668615774,-0.004501690033634852,-0.06784209641301162
160,-0.08787900264972053,-0.07029868752714015,-0.006144426042988474,-0.0883289550643589
161,-0.11388460224502303,-0.09069998878400636,-0.008278843549735623,-0.11368941346957426
162,-0.14592856081660321,-0.11574601200726353,-0.01102135932836851,-0.1447482496766158
163,-0.18499673984521023,-0.14617997396803595,-0.014508633122084742,-0.18239999786680225
164,-0.2321501036672048,-0.1828006070559697,-0.0188995896644442,-0.22760258022029836
165,-0.2885152914933331,-0.2264554098835106,-0.024377345388492355,-0.2813686514469393
166,-0.35527240198357385,-0.2780319516854594,-0.03115096488254104,-0.34475465227288243
167,-0.4336400338496026,-0.33844726221618854,-0.03945696533837656,-0.4188476342729673
168,-0.5248577100079941,-0.40863539480521144,-0.04956048293554432,-0.5047499860096464
169,-0.6301658970139539,-0.48953330634849895,-0.061756013514657496,-0.6035622573093932
170,-0.7507839131725341,-0.5820652525842779,-0.07636764113183642,-0.7163643425234696
171,-0.8878860952720755,-0.6871259483766238,-0.09374867226958336,-0.8441953427410153
172,-1.0425766629634519,-0.805562789354811,-0.11428060075164016,-0.9880324792995888
173,-1.2158637793717528,-0.9381574717173531,-0.13837133893146264,-1.1487694749784894
174,-1.4086333548255279,-1.0856073800608759,-0.16645266462271024,-1.3271948536593206
175,-1.6216231761458062,-1.2485071376793164,-0.1989768505375029,-1.52397063298871
176,-1.855397965548367,-1.4273307290480484,-0.23641246353092976,-1.7396118969465688
177,-2.1103259799934553,-1.6224146095404064,-0.27923934429305547,-1.9744677357209364
178,-2.386557753236237,-1.8339422124603213,-0.32794280355032435,-2.2287040286452062
179,-2.6840075587152756,-2.0619302481443644,-0.3830070973120373,-2.502288522107215
180,-3.0023381319339317,-2.3062171644194644,-0.4449082699901676,-2.7949786184667906
181,-3.340949136680069,-2.5664541026174317,-0.5141064790218834,-3.106312244562524
182,-3.6989697912539277,-2.842098639414642,-0.5910379366973717,-3.4356021100981926
183,-4.075255990244305,-3.1324115529678904,-0.6761066232108397,-3.7819335981614097
184,-4.468392166112151,-3.436456793310245,-0.7696759387714669,-4.144166453786663
185,-4.876698034982107,-3.753104773052941,-0.8720604715119064,-4.520940353637961
186,-5.298240264827521,-4.08103902653208,-0.9835180617786253,-4.9106843526842825
187,-5.730848993965352,-4.4187662151741405,-1.1042423422717225,-5.311630114557265
188,-6.172139015826052,-4.76462938565178,-1.2343559276847458,-5.721828743639739
189,-6.61953533479171,-5.116824317040851,-1.37390441737566,-6.139170951375021
190,-7.070302690068837,-5.473418725364925,-1.5228513606793925,-6.561410209237622
191,-7.521578542738482,-5.832374030280948,-1.6810743173085387,-6.986188468470666
192,-7.970408928017829,-6.191569330778903,-1.8483621254417126,-7.411063963975592
193,-8.413786493065498,-6.548827186038916,-2.024413468087719,-7.833540568201543
194,-8.84868997295506,-6.901940755195248,-2.208836804602509,-8.25109812176263
195,-9.272124306119004,-7.248701816626094,-2.4011517092369523,-8.661223141750243
196,-9.681160557757265,-7.586929164179283,-2.60079163266032,-9.06143929697119
197,-10.07297480721102,-7.914496864847379,-2.8071080758165428,-9.449337042021039
198,-10.444885164524697,-8.22936185995531,-3.0193761384349784,-9.822601819289309
199,-10.794386113227747,-8.52959039980932,-3.2368013772160027,-10.17904026944495
200,-11.119179430940028,-8.81338281964541,-3.458527881378629,-10.516603936053318
201,-11.4172010160415,-9.079096192085986,-3.6836474462451982,-10.83341000772376
202,-11.686643045659377,-9.325264427498718,-3.9112096993421877,-11.127758710190792
203,-11.925971004920013,-9.550615437875328,-4.140233008734956,-11.398147039247744
204,-12.133935256227957,-9.754085031258564,-4.369715980702605,-11.643278611427657
205,-12.309576956067515,-9.934827261420244,-4.598649334187569,-11.862069500455508
206,-12.452228270887675,-10.09222102045466,-4.826027923567,-12.053650021291839
207,-12.561506988276344,-10.225872729169017,-5.05086267003372,-12.217362517483302
208,-12.637305760131929,-10.335615050561557,-5.272192156002904,-12.352755299005205
209,-12.67977634641625,-10.421501624187963,-5.489093637052243,-12.459572964452684
210,-12.689309347306532,-10.483797892715526,-5.7006932322856025,-12.537743421171024
211,-12.66651001479211,-10.522968165315262,-5.9061750667518735,-12.587361987836195
212,-12.612170819351801,-10.539659134577173,-6.104789158498583,-12.608673024497655
213,-12.527241511398337,-10.534680133155387,-6.295857867664091,-12.602049583839635
214,-12.41279745948474,-10.508980482125091,-6.47878075522884,-12.56797161334398
215,-12.270007067344228,-10.463624343798042,-6.653037734010166,-12.507003260391869
216,-12.100099069917777,-10.399763546212693,-6.8181904333721475,-12.419769840713563
217,-11.90433048555395,-10.318608893408852,-6.973881740918508,-12.306935024966117
218,-11.683955959112913,-10.221400513692581,-7.119833527960747,-12.1691787790013
219,-11.440199170864574,-10.109377826282824,-7.2558426095049295,-12.007176561415251
220,-11.174226911374015,-9.983749724063486,-7.381775032533906,-11.821580238463758
221,-10.887126335894331,-9.845665575907656,-7.497558827173988,-11.613001122909878
222,-10.57988581622665,-9.696187645696773,-7.603175392743597,-11.381995481613501
223,-10.25337970669427,-9.53626550648509,-7.698649723678087,-11.129052788634437
224,-9.908357236853877,-9.366712997285655,-7.784039708106608,-10.854586928404517
225,-9.545435639713595,-9.188188226977191,-7.859424753832547,-10.558930479306442
226,-9.165097523253614,-9.001177075443135,-7.924894012248252,-10.242332133949164
227,-8.767692397460317,-8.805980577142757,-7.980534480089207,-9.904957240625913
228,-8.353442181151115,-8.602706498079627,-8.026419261848636,-9.546891382801785
229,-7.9224504345453965,-8.39126533506729,-8.062596272200443,-9.168146851733598
230,-7.474714996487744,-8.171370878039097,-8.089077648086079,-8.768671813003948
231,-7.010143650809108,-7.942545383844792,-8.105830124460775,-8.348361922129744
232,-6.528572405500264,-7.704129315575576,-8.112766606405856,-7.907074108394216
233,-6.029785941571324,-7.455295507076089,-8.109739143839944,-7.444642220015689
234,-5.513539775258869,-7.195067520056492,-8.09653348396845,-6.960894207342639
235,-4.979583676227625,-6.922341873191472,-8.07286534159203,-6.455670512777001
236,-4.427685893299981,-6.635913740777235,-8.038378489256097,-5.928843334686688
237,-3.857657755107197,-6.334505644761169,-7.992644728853223,-5.380336435328511
238,-3.2693782327316963,-6.016798599908366,-7.935165764631301,-4.810145167325518
239,-2.662818071925945,-5.6814651189159635,-7.865376955591993,-4.218356397354417
240,-2.038063121421777,-5.327203443526828,-7.782652883998809,-3.6051680077917414
241,-1.3953364995576707,-4.95277233990294,-7.686314637182895,-2.970907656301187
242,-0.735019253282542,-4.557025782145738,-7.575638663048025,-2.3160504697511786
243,-0.05766917192802029,-4.138946847031263,-7.449867026540628,-1.6412353433901348
244,0.6359625755044065,-3.6976801556155743,-7.30821886555855,-0.9472795108002751
245,1.3449173037069533,-3.2325622229575552,-7.1499028207322555,-0.23519104770887558
246,2.0680174875895565,-2.743149115176233,-6.97413019435546,0.49382102293530994
247,2.803858543663475,-2.2292408625755766,-6.780128579436377,1.2383393417401696
248,3.5508039733817243,-1.6909021376118154,-6.567155690348796,1.9967338256704905
249,4.3069840733566815,-1.1284787758508181,-6.334513121983313,2.767160519096055
250,5.070298345519647,-0.5426097954068134,-6.081559764919913,3.5475638484761234
251,5.838421648884921,0.06576534584111127,-5.807724610393911,4.335682354630016
252,6.608814026205036,0.6954044273261669,-5.512518691157331,5.129057867264692
253,7.3787340183722705,1.3447651575016508,-5.195545923059756,5.925047964459569
254,8.145255153832288,2.012012867446585,-4.8565126373025205,6.720841432268367
255,8.905285177810812,2.6950331009927795,-4.495235624463122,7.513476314948308
256,-1.3050637109569735e-13,-7.987492854258127e-14,4.4168800209725744e-14,-4.932515233108764e-14
257,-3.1471569782607795e-12,-1.7472173469707143e-12,1.0536437172918541e-12,-1.23465875956429e-12
258,-3.7507577012953285e-11,-2.0804055010542252e-11,1.2480148403468743e-11,-1.4435974227733363e-11
259,-2.972420539131289e-10,-1.6580585581668055e-10,9.861349687337642e-11,-1.1228011616525292e-10
260,-1.769100790669419e-09,-9.955242462148124e-10,5.872205723453828e-10,-6.57657471441379e-10
261,-8.460274642103052e-09,-4.816029100889538e-09,2.818488243869203e-09,-3.1045107940316192e-09
262,-3.3961862435115934e-08,-1.960728168777711e-08,1.138633590504276e-08,-1.2337924709915287e-08
263,-1.180280425581632e-07,-6.927008856484511e-08,3.991181158921927e-08,-4.2564641641143695e-08
264,-3.6341158147353786e-07,-2.1726132587560468e-07,1.2415976322761423e-07,-1.3039795654049577e-07
265,-1.009332960349748e-06,-6.157323791820442e-07,3.488315946391986e-07,-3.6098083561719474e-07
266,-2.565215507156954e-06,-1.5990710958765183e-06,8.975395803171053e-07,-9.155168117307043e-07
267,-6.035835416771505e-06,-3.84904059242234e-06,2.1389975554517683e-06,-2.150926630520054e-06
268,-1.3275627099679003e-05,-8.667974171181896e-06,4.765861008438298e-06,-4.7237779779441305e-06
269,-2.751412930245627e-05,-1.8405936445248335e-05,1.0005261873735282e-05,-9.770261135342994e-06
270,-5.409493407965533e-05,-3.709645221479617e-05,1.9921156946713575e-05,-1.9150926119161006e-05
271,-0.00010146560655149671,-7.13623486450623e-05,3.7827425996354825e-05,-3.5762459288219335e-05
272,-0.00018244485498496643,-0.00013165751935061357,6.882670408571036e-05,-6.390861035181232e-05
273,-0.0003157753203682784,-0.0002339111840780237,0.00012048305440753236,-0.00010970861249946574
274,-0.0005279459811845389,-0.00040163780128924057,0.00020362703065555097,-0.00018150472926917126
275,-0.0008552382643201904,-0.0006685676455916342,0.00033328002778657613,-0.00029021206185386776
276,-0.0013459160483853844,-0.0010818397860811958,0.0005296718420568932,-0.00044953495984050755
277,-0.002062443877941509,-0.0017057805824054935,0.0008193118275363756,-0.0006759569509937474
278,-0.00308358227914452,-0.002626266891829679,0.001236060618061527,-0.0009883966619588123
279,-0.004506176665515799,-0.003955644317941447,0.001822136650272233,-0.0014074121989686582
280,-0.006446429532892062,-0.0058381377734565525,0.0026289802224813206,-0.001953832130991672
281,-0.009040426910668321,-0.008455655516617016,0.0037178881653805824,-0.0026466935566335325
282,-0.012443681572566707,-0.012033850160271036,0.005160325082626063,-0.0035003774611630624
283,-0.016829459171142806,-0.016848262747135096,0.00703781327769556,-0.004520849092097323
284,-0.02238567058749083,-0.023230340829101668,0.009441303606235133,-0.0057009364560818765
285,-0.029310145036880758,-0.03157309064885611,0.012469934153090004,-0.007014612928810519
286,-0.037804143723742425,-0.042336099012667806,0.016229093259454402,-0.008410289628208428
287,-0.04806403220418758,-0.05604964410519399,0.020827718276021402,-0.009803168480476094
288,-0.06027109947547162,-0.07331760789474948,0.026374781523234945,-0.011066756282757599
289,-0.0745795908598655,-0.09481890710789431,0.032974940026375174,-0.012023691676636255
290,-0.09110310702512872,-0.12130717578270049,0.04072335504913685,-0.012436088672153114
291,-0.1098996094821311,-0.15360846043590295,0.04969972035784814,-0.011995649909274722
292,-0.1309553597750086,-0.19261672870355823,0.05996157337520543,-0.010313847851948539
293,-0.1541682013664227,-0.23928704323387812,0.0715369996589464,-0.00691251026465497
294,-0.17933066602787415,-0.29462631341157197,0.08441687711755717,-0.001215175471689328
295,-0.20611344670353235,-0.35968160646727787,0.09854684064168734,0.007460398824667223
296,-0.23404982303436936,-0.4355260745207426,0.11381917892602193,0.019908183476450934
297,-0.2625216512896845,-0.5232426326061344,0.130064901696414,0.03703790035506118
298,-0.29074753539443654,-0.6239056019635358,0.14704623587881868,0.05987675850746947
299,-0.31777377897299747,-0.7385606099555535,0.16444982209084022,0.08956857842018295
300,-0.3424686796458259,-0.8682031099855256,0.18188088704787336,0.12737002738900968
301,-0.36352066685690615,-1.0137559489862136,0.19885866221883378,0.17464374982731148
302,-0.3794407047228371,-1.1760464638964159,0.21481330393470827,0.23284824790311176
303,-0.3885692839807312,-1.3557836298923176,0.22908454524675026,0.30352444824351177
304,-0.38908821492369755,-1.5535358102899197,0.24092227577384645,0.3882789773048485
305,-0.3790373095977102,-1.7697096698048003,0.249489203668156,0.4887642588129379
306,-0.356335910170396,-2.0045308086146867,0.25386570512223966,0.6066556386568799
307,-0.3188090851634012,-2.258026654336394,0.2530569132140335,0.7436258329029193
308,-0.26421818018722065,-2.5300121130371678,0.24600204108982912,0.9013170803437486
309,-0.19029527897661777,-2.8200784296583628,0.23158587624872726,1.081311459527903
310,-0.0947810078162612,-3.1275856440525276,0.2086523246632204,1.2850998990838725
311,0.024534994492449842,-3.45165895288791,0.17601982719292775,1.5140504672408395
312,0.16977171488489626,-3.791189201915209,0.1324984176530201,1.7693765699987423
313,0.3429133643272594,-4.144837639734648,0.07690814330138965,2.052105716071418
314,0.5457658458114928,-4.511044965679411,0.008098525612740859,2.3630495195987984
315,0.779914037498244,-4.888044603351929,-0.07503129689859277,2.702775608189863
316,1.0466808489445876,-5.273880030431037,-0.17351213040194388,3.0715820839945662
317,1.3470889969270639,-5.666425897362212,-0.2882843984223688,3.4694751494613736
318,1.6818264120206108,-6.0634125751421974,-0.4201783425251594,3.896150457849058
319,2.0512161284219537,-6.462453688145837,-0.5698951692281009,4.350978682451824
320,2.455191428730937,-6.861076114096746,-0.7379895528811673,4.832995719278491
321,2.8932769143583594,-7.256751871798656,-0.9248538862744855,5.34089784738183
322,3.3645760532906044,-7.646931269675888,-1.1307046436068322,5.873042071289826
323,3.86776562291586,-8.029076655651748,-1.355571184738698,6.427451763486382
324,4.401097319638871,-8.400696092120828,-1.599287286126491,7.0018276143279845
325,4.962406652509016,-8.759376279005274,-1.8614856334060927,7.593563785047184
326,5.549129078772518,-9.102814062957204,-2.1415954543076596,8.199769049534954
327,6.158323179083555,-9.428845901101196,-2.438843409590892,8.817292605317036
328,6.786700513143383,-9.73547469234882,-2.7522577952422407,9.442754136289151
329,7.430661646836584,-10.020893446979306,-3.080676042610079,10.07257762183784
330,8.086337703423052,-10.283505334315752,-3.4227554358586043,10.703028311082576
331,8.749636667714638,-10.521939727177822,-3.77698689948516,11.33025221884148
332,9.416293566745122,-10.735063948462509,-4.14171164401475,11.95031745278319
333,10.081923566016336,-10.921990517709318,-4.515140396636839,12.559256649817183
334,10.74207695905341,-11.082079791808804,-4.895374886696106,13.153109784326931
335,11.3922949910233,-11.214937992041824,-5.280431204762954,13.727966611119681
336,12.028165445086056,-11.320410707298253,-5.668264609649877,14.280008021284136
337,12.645376932746403,-11.398572058529863,-6.056795321351229,14.805545618503952
338,13.23977086584951,-11.449709800194782,-6.443934810567706,15.301058865514845
339,13.80739014646332,-11.474306718696406,-6.827612078233859,15.763229203918174
340,14.344523689625456,-11.473018763797938,-7.205799412138597,16.188970614007843
341,14.847745990344611,-11.446650415077706,-7.576537112946687,16.57545615314865
342,15.313951057653716,-11.396127840265912,-7.9379566990640456,16.920140090086832
343,15.74038016208751,-11.322470444591147,-8.288302128889223,17.2207753369093
344,16.124642975740393,-11.226761439153957,-8.625948619709492,17.47542596872218
345,16.464731822995766,-11.110118071236911,-8.949418694033085,17.682474711987986
346,16.75902890201558,-10.973662160110742,-9.257395145248045,17.84062537430571
347,17.00630647910471,-10.8184915684399,-9.548730683521015,17.948900279668425
348,17.205720197196303,-10.645653212339107,-9.822454097886109,18.00663286231184
349,17.356795773162215,-10.456118173346805,-10.077772849465921,18.013455657635422
350,17.45940948384866,-10.250759424222533,-10.314072091611726,17.969284008853034
351,17.513762955350817,-10.03033261895315,-10.53091019335577,17.874295881609022
352,17.520352872084217,-9.795460327269728,-10.728010920876619,17.728908244469917
353,17.479936310039896,-9.546620017087822,-10.90525250566765,17.53375052978757
354,17.393492470894227,-9.284136006440344,-11.062653895830149,17.289635735930936
355,17.2621816493739,-9.008175521575854,-11.200358546609655,16.997529767541423
356,17.087302304815804,-8.718748911839235,-11.318616156469075,16.65851963480757
357,16.8702471290207,-8.415713986574687,-11.417762794554832,16.273781145598672
358,16.612459006534607,-8.098784356343893,-11.498199893721688,15.844546725753398
359,16.315387751042135,-7.767541581874943,-11.560372600092338,15.372073993258823
360,15.980448473539985,-7.421450860863528,-11.604747975474623,14.857615692057974
361,15.60898239551763,-7.059879916396446,-11.631793543036965,14.30239156149511
362,15.202220864819845,-6.682120692532816,-11.641956649753617,13.707562678709794
363,14.761253264649397,-6.287413413406939,-11.635645091737839,13.074208764392862
364,14.286999428803222,-5.874972522791535,-11.613209411411805,12.40330888800889
365,13.780187090263627,-5.444013991776541,-11.574927229608857,11.695725947714696
366,13.241334797249724,-4.993783463191839,-11.520989922628074,10.952195233679737
367,12.670740632350254,-4.523584692505601,-11.45149189569161,10.173317312327834
368,12.068476967950016,-4.032807745854113,-11.366422642018495,9.359555394185437
369,11.434391386260863,-3.520956426169764,-11.265661712602293,8.5112372705633
370,10.76811378614615,-2.987674417546905,-11.14897665740672,7.628561825238779
371,10.069069592732832,-2.4327696654159947,-11.016023935567572,6.711610047681638
372,9.336498880651995,-1.8562365450990823,-10.866352731674185,5.76036039523353
373,8.569481118789765,-1.2582754131181864,-10.699411558571157,4.774708274096299
374,7.766965144893495,-0.639309183360139,-10.514557475569783,3.7544893341251058
375,6.927803883562,3.377067414562314e-06,-10.311067705606526,2.69950620140649
376,6.050793232457366,0.6587578807050415,-10.08815339671329,1.6095582065903724
377,5.134714460551354,1.3357982699833908,-9.844975242905937,0.4844736070842934
378,4.178379390534582,2.0297146116892093,-9.580660657630052,-0.6758562513969263
379,3.180677576876805,2.7388447996501175,-9.294322179163244,-1.871441432784266
380,2.1406246430326052,3.4612801666561026,-8.985076781357872,-3.1021572021395385
381,1.057410907321715,4.194874944452582,-8.652065763944846,-4.36770776990101
382,-0.06955059181491102,4.937259450139521,-8.294474903194933,-5.667590662702404
383,-1.240577563386883,5.685856819353355,-7.9115545548452735,-7.001062398073174
384,-8.012903116833816e-14,-4.9406728195781617e-14,-6.763807500138335e-14,-4.856002855131978e-14
385,-1.860812313196388e-12,-1.065790451968878e-12,-1.4970341095507163e-12,-1.0452907624259099e-12
386,-2.254326428482742e-11,-1.2442236695453298e-11,-1.770326695284456e-11,-1.2337267283398991e-11
387,-1.8177336445701092e-10,-9.725270780519121e-11,-1.4028493477034599e-10,-9.751367607198279e-11
388,-1.0988918448994127e-09,-5.728250214257888e-10,-8.386563526787827e-10,-5.810409402066925e-10
389,-5.3277576331044715e-09,-2.720047167527655e-09,-4.044971165512287e-09,-2.7917281393940615e-09
390,-2.16416415938939e-08,-1.087908726658038e-08,-1.6436200820640132e-08,-1.1298439481847458e-08
391,-7.597112798794126e-08,-3.7800003963779755e-08,-5.7998357690679326e-08,-3.9717632560583776e-08
392,-2.3589942349211337e-07,-1.1675578368859208e-07,-1.8176995321699865e-07,-1.2407720160381995e-07
393,-6.598203755006351e-07,-3.263557514450079e-07,-5.148113905415318e-07,-3.505988347771198e-07
394,-1.6869161558547203e-06,-8.372887964895574e-07,-1.335884795261312e-06,-9.087029816357422e-07
395,-3.989599030752951e-06,-1.9943499184017407e-06,-3.211698069566877e-06,-2.1849933456610937e-06
396,-8.815493108667886e-06,-4.451916504168799e-06,-7.220236201175864e-06,-4.919727128074249e-06
397,-1.8350883488348173e-05,-9.386269455920794e-06,-1.529587308506161e-05,-1.0453447911140469e-05
398,-3.624128786442126e-05,-1.8813391881310697e-05,-3.073579795846474e-05,-2.1097532143290385e-05
399,-6.830687907692229e-05,-3.6045598311827137e-05,-5.891006079385547e-05,-4.066774678307113e-05
400,-0.00012349045734000639,-6.632394461788633e-05,-0.00010821766748244838,-7.522383587137196e-05
401,-0.00021507322835732633,-0.00011766521737300114,-0.00019132826998994424,-0.00013405994534929923
402,-0.0003621886217807689,-0.00020196181995528874,-0.00032674293154922983,-0.00023098972560171984
403,-0.0005916567304834757,-0.00033636958367014855,-0.0005406982052167945,-0.0003859657298574277
404,-0.0009401517122537009,-0.0005450121124967839,-0.0008694254775563948,-0.0006270649549823756
405,-0.00145670183975936,-0.0008610205927120304,-0.0013617624357527085,-0.000992860967254849
406,-0.0022055071123018807,-0.0013289151581494976,-0.002082095968063261,-0.0015351881538454959
407,-0.003269042859547955,-0.002007318218577926,-0.0031135963078601,-0.00232228558423755
408,-0.004751400042706149,-0.0029719721595691325,-0.004561681479671068,-0.003442287289006042
409,-0.006781794527927524,-0.004319014208163144,-0.006557630020632112,-0.005007003172622455
410,-0.009518159121926321,-0.006168440867575555,-0.009262239648629583,-0.007155911130366152
411,-0.013150714430576305,-0.008667674096268802,-0.012869411262498996,-0.010060257234032855
412,-0.017905398567328517,-0.011995122349340736,-0.017609522618810245,-0.013927138212397917
413,-0.024047022381817936,-0.016363612747637826,-0.023752445328497927,-0.01900342010666222
414,-0.03188200714081888,-0.02202355700620564,-0.03161005331408617,-0.025579330201397688
415,-0.04176055632889853,-0.029265704277028248,-0.04153807112773495,-0.03399154735033966
416,-0.054078113181713065,-0.03842332954762974,-0.053937116795424754,-0.04462560972977595
417,-0.06927596127108235,-0.04987370730740493,-0.06925280604854071,-0.057917459727446385
418,-0.0878408371973876,-0.06403872723963032,-0.08797480256800953,-0.07435395368071958
419,-0.11030344214185375,-0.08138452185111393,-0.11063472160630086,-0.09447217973321655
420,-0.1372357622995207,-0.1024199950666407,-0.13780282132917604,-0.11885745002807743
421,-0.1692471364066931,-0.12769416545932605,-0.17008344661505004,-0.14813986326864492
422,-0.20697904083121937,-0.15779226725322817,-0.208109223008527,-0.18298936948583328
423,-0.2510985979218619,-0.19333058556709884,-0.25253403314305756,-0.22410930950424415
424,-0.3022908501882299,-0.2349500384157976,-0.30402484324335466,-0.2722284457179361
425,-0.36124987987878976,-0.28330855546111494,-0.3632524821965524,-0.3280915468118531
426,-0.4286688890197131,-0.3390723410566198,-0.4308815089298614,-0.392448635308788
427,-0.5052293873988768,-0.4029061454223793,-0.5075593341618078,-0.46604305155183334
428,-0.5915896639453305,-0.4754627015508022,-0.5939047887188799,-0.5495985292804861
429,-0.688372739387065,-0.5573715155459824,-0.6904963513592327,-0.6438055148252062
430,-0.7961540142644299,-0.6492272235584051,-0.7978602634745817,-0.7493069928526517
431,-0.9154488360277482,-0.7515777485016334,-0.916458765520139,-0.8666841054938472
432,-1.0467002121341547,-0.8649125037298329,-1.0466786902895349,-0.9964418677470706
433,-1.190266893196148,-0.9896508984145987,-1.188820641333167,-1.1389952896506967
434,-1.346412042002847,-1.1261314002797607,-1.3430889714091552,-1.2946562144868907
435,-1.5152926914867175,-1.2746014056161763,-1.509582756679057,-1.4636211720808545
436,-1.6969501783562448,-1.4352081542720099,-1.6882879385141225,-1.6459605272531714
437,-1.8913017200108342,-1.6079909089414985,-1.8790707775803484,-1.8416091761122961
438,-2.0981332811886078,-1.792874594060955,-2.081672735793878,-2.0503590079029723
439,-2.317093854066675,-1.9896650606050714,-2.2957068723211043,-2.2718533086393324
440,-2.5476912515964125,-2.198046109808063,-2.520655811526831,-2.505583236131283
441,-2.789289489050722,-2.417578372145299,-2.755871314945042,-2.750886445885881
442,-3.041107803488836,-2.6477000986993326,-3.000575466927237,-3.0069478955225866
443,-3.302221335586258,-2.8877298812481205,-3.2538634651472185,-3.2728028036502117
444,-3.571563473550209,-3.1368712760401865,-3.5147079926674962,-3.5473416894703047
445,-3.8479298351755724,-3.394219265271399,-3.7819651374177847,-3.829317373455899
446,-4.129983842046125,-3.6587684507627527,-4.054381816960051,-4.117353778896746
447,-4.416263820021724,-3.9294228372446396,-4.330604660313534,-4.409956340263289
448,-4.705191543004257,-4.205007028915836,-4.60919029318761,-4.705523798309702
449,-4.995082122940881,-4.48427863341975,-4.8886169668833475,-5.002361144384873
450,-5.284155138306377,-4.765941642814884,-5.167297462995585,-5.298693467968299
451,-5.57054688591161,-5.048660542121091,-5.443593194615457,-5.592680462015932
452,-5.8523236366329385,-5.33107488303839,-5.715829409060082,-5.882431349885109
453,-6.127495774179612,-5.611814053703438,-5.982311376799133,-6.166020014582232
454,-6.3940326967406085,-5.889511974898915,-6.241341426338792,-6.441500134633915
455,-6.64987836353812,-6.162821458779356,-6.491236656044891,-6.706920159493132
456,-6.892967371147208,-6.430427977546873,-6.730347122376473,-6.960337989285735
457,-7.121241447145598,-6.691062606066833,-6.957074271248205,-7.199835256955546
458,-7.332666250554132,-6.943513923500582,-7.169889347006444,-7.423531143503682
459,-7.5252483690289464,-7.186638683914451,-7.367351483761755,-7.6295956871322534
460,-7.697052401369782,-7.419371093721506,-7.548125158682085,-7.816262572966828
461,-7.846218010244697,-7.64073056394203,-7.71099666843764,-7.981841410199606
462,-7.970976823930461,-7.849827836878389,-7.854889280260653,-8.124729516879903
463,-8.069669057395716,-8.045869419202052,-7.978876709648981,-8.24342323851344
464,-8.140759712492804,-8.228160286034242,-8.082194588715028,-8.33652882491734
465,-8.182854204839584,-8.396104852840338,-8.16424961310788,-8.402772880696862
466,-8.194713251811375,-8.549206243391215,-8.22462609129151,-8.441012389009549
467,-8.175266842761628,-8.687063912257447,-8.263089667171377,-8.450244287109852
468,-8.123627100149024,-8.809369708902985,-8.279588044522315,-8.429614546978986
469,-8.039099829748096,-8.915902497051498,-8.274248607757698,-8.378426686807146
470,-7.921194550640654,-9.006521467241555,-8.247372906170996,-8.296149610983045
471,-7.769632792270958,-9.08115830203167,-8.199428045325185,-8.182424649354637
472,-7.584354447510501,-9.139808371886849,-8.131035106930407,-8.037071642594206
473,-7.365521978368841,-9.18252115518291,-8.042954794422815,-7.860093901151678
474,-7.113522285508102,-9.209390087890622,-7.936070572768757,-7.6516818519644785
475,-6.828966074626943,-9.220542057300122,-7.811369635332813,-7.412215181046538
476,-6.512684582340378,-9.216126759603945,-7.669922085983274,-7.142263282273937
477,-6.16572356137808,-9.196306143280285,-7.512858769469929,-6.842583833784861
478,-5.789334469465202,-9.16124415902076,-7.341348216481623,-6.514119343742535
479,-5.384962857534563,-9.111097032442066,-7.15657319111094,-6.157991536735071
480,-4.954234009986341,-9.046004268010352,-6.959707337581951,-5.775493490389037
481,-4.498935951235255,-8.966080581474094,-6.751892420292338,-5.3680794780453684
482,-4.020999997130628,-8.87140894362257,-6.534216637086639,-4.937352526385814
483,-3.5224790951293876,-8.762034900352846,-6.307694461098466,-4.485049755142271
484,-3.0055242612814546,-8.637962312878603,-6.073248432556081,-4.0130256276055185
485,-2.4723594829363917,-8.499150637565553,-5.831693279824936,-3.5232333034953105
486,-1.9252555113196663,-8.34551383754026,-5.583722699874618,-3.017704347656148
487,-1.3665030155537912,-8.176920988202207,-5.329899073491671,-2.498527106755444
488,-0.798385607335014,-7.993198606483493,-5.070646331054602,-1.9678241194759771
489,-0.22315327165751248,-7.79413469965511,-4.806246121646855,-1.4277289715303358
490,0.35700324760316066,-7.579484494275842,-4.5368373728016085,-0.8803630433079648
491,0.9399765586958005,-7.348977770206197,-4.2624192613586,-0.3278126235018129
492,1.5237646954596538,-7.10232768922139,-3.9828575489109,0.22789312461163846
493,2.106490647722168,-6.839240973455043,-3.6978941693038263,0.7848028573452192
494,2.686418885451785,-6.559429256512331,-3.407159891815224,1.3410619317221677
495,3.261968468801638,-6.262621400426508,-3.1101898231942484,1.8949290271169337
496,3.8317224033547372,-5.948576545486015,-2.8064414558342063,2.444790101386407
497,4.394432977526081,-5.617097638065137,-2.495314919097437,2.9891693283783725
498,4.94902290549776,-5.268045164600821,-2.176175047166994,3.5267367279133675
499,5.494582192289178,-4.901350808320466,-1.848374840584306,4.056312273236921
500,6.030360735417821,-4.517030739672517,-1.5112798704911317,4.576866342608124
501,6.555756777769964,-4.115198251955593,-1.1642931550099258,5.087516468954366
502,7.070301426359705,-3.6960754605691393,-0.8068800264843006,5.587520432049926
503,7.573639549123203,-3.260003797666208,-0.43859250659589105,6.076265829072416
504,8.065507454291964,-2.8074530536586138,-0.059092713612838126,6.5532563492807245
505,8.545707841843797,-2.3390287426920575,0.33182515807465307,7.018095064638171
506,9.014082591866568,-1.8554776003426419,0.7342147219221788,7.4704651282646335
507,9.470484018411542,-1.3576910576374825,1.147959550987077,7.910108344516167
508,9.914745267738974,-0.8467065751296711,1.5727579636201696,8.336802136206597
509,10.346650575100478,-0.32370676307205487,2.0081107653137376,8.750335484025713
510,10.765906112914386,0.20998374244332751,2.4533122199816777,9.150484448712483
511,11.172112164266922,0.7529036333865846,2.9074444706575164,9.536987906351554
512,-1.4437631217114373e-13,-4.362533409863011e-14,-6.887476727739679e-14,-1.3448653975879053e-13
513,-3.2566594688000762e-12,-9.38369315966393e-13,-1.5412586407297512e-12,-2.937250563913833e-12
514,-3.9498387137288664e-11,-1.1099404010259971e-11,-1.8517436893800134e-11,-3.492367059497357e-11
515,-3.1956101378965336e-10,-8.810614330442994e-11,-1.486725765880799e-10,-2.7793698396224804e-10
516,-1.942315759767995e-09,-5.280238625320257e-10,-8.979197876460523e-10,-1.66697684034025e-09
517,-9.485835499202611e-09,-2.5555575211238253e-09,-4.36311593807958e-09,-8.05931875478181e-09
518,-3.8884907729256113e-08,-1.0433153890284869e-08,-1.7817095181160754e-08,-3.2809314049501526e-08
519,-1.379886749027061e-07,-3.704274351393767e-08,-6.305405398786971e-08,-1.1597420764353733e-07
520,-4.3381485959758343e-07,-1.1699201483401092e-07,-1.9787585275917325e-07,-3.641764122885735e-07
521,-1.230221591756525e-06,-3.344277896318519e-07,-5.605370907425073e-07,-1.0339756222746388e-06
522,-3.1925299001414075e-06,-8.771569985867623e-07,-1.4537872198494896e-06,-2.6917434069899262e-06
523,-7.671088913459364e-06,-2.1343276337579194e-06,-3.4920181868978137e-06,-6.498253848320862e-06
524,-1.723293846020389e-05,-4.861487775051725e-06,-7.842315518501307e-06,-1.4683676338553117e-05
525,-3.6488178325767856e-05,-1.0443728474287272e-05,-1.6597067715624605e-05,-3.12969560816369e-05
526,-7.331356434270812e-05,-2.129401576315777e-05,-3.3321275541326946e-05,-6.333078111196916e-05
527,-0.00014058809238602318,-4.142879644567876e-05,-6.382095448828452e-05,-0.00012233723333384718
528,-0.0002585616939378976,-7.726558597748274e-05,-0.0001171793800475246,-0.00022665747432061207
529,-0.00045797660335419535,-0.00013868669355184305,-0.00020710500091829456,-0.00040438923107222505
530,-0.0007840497712681079,-0.0002404089024528496,-0.00035362852509520607,-0.0006972066024956592
531,-0.0013014027072068262,-0.00040369048180918007,-0.0005851770688360786,-0.0011651265796974483
532,-0.0020999918109837613,-0.0006583943625483926,-0.0009410405924150636,-0.0018922851900573614
533,-0.003302047878454863,-0.0010454100019797845,-0.001474230463420168,-0.0029937436990071795
534,-0.005069979208933077,-0.0016194170358437298,-0.0022547122958070064,-0.004623293018759214
535,-0.007615130614969965,-0.0024519521875371202,-0.0033729757097001505,-0.0069821643167113185
536,-0.011207223350667081,-0.0036347181851363627,-0.004943882957319921,-0.010328488355706844
537,-0.01618423175406245,-0.005283050864605068,-0.00711071720305465,-0.014987278388895917
538,-0.02296238480751579,-0.0075394394929417735,-0.010049330466373038,-0.02136064484242061
539,-0.03204591861466475,-0.01057697687481068,-0.013972271710103963,-0.029937888049898543
540,-0.044036152747384004,-0.014602601151008837,-0.019132758133001526,-0.04130506141173937
541,-0.059639423107769166,-0.019859981324477416,-0.025828338182565153,-0.05615355479465456
542,-0.07967337956301666,-0.02663189419848373,-0.03440408383771271,-0.0752872196811094
543,-0.10507115077739206,-0.035241942050145976,-0.04525514294305473,-0.09962754598033102
544,-0.13688289334291726,-0.046055468164955704,-0.05882848036806572,-0.13021640740930038
545,-0.1762742786359332,-0.059479541202450664,-0.07562364001732458,-0.16821591916391354
546,-0.22452152897564262,-0.07596189885301749,-0.09619236866742721,-0.21490499870527488
547,-0.2830026937534452,-0.09598876574942383,-0.1211369575926716,-0.27167228755248984
548,-0.35318495433434005,-0.12008148930182933,-0.1511071791629312,-0.3400051778254353
549,-0.43660786088708076,-0.14879196909465092,-0.18679572304347872,-0.4214747898894098
550,-0.5348625312929164,-0.1826968897068502,-0.22893207002532306,-0.517716863984005
551,-0.6495669776794111,-0.222390802247331,-0.27827478030005504,-0.6304086556190261
552,-0.7823378651848543,-0.268478135479133,-0.3356022163100016,-0.761242057655327
553,-0.9347591452270793,-0.32156425209422335,-0.40170176703066696,-0.9118933067899249
554,-1.1083481366978432,-0.3822456984695128,-0.4773576893244846,-1.0839897638099105
555,-1.3045197481435729,-0.45109982608801974,-0.5633377313006641,-1.2790743805881146
556,-1.5245496374393241,-0.5286739887893454,-0.6603787507561286,-1.4985685776386752
557,-1.7695371884739564,-0.6154745412195005,-0.7691715870397047,-1.7437343497725073
558,-2.0403692433003657,-0.7119558794610664,-0.8903454853949979,-2.015636490172869
559,-2.3376855602107254,-0.8185097741348815,-1.0244524074296617,-2.315105871916232
560,-2.6618469713405677,-0.9354552487222224,-1.1719515884337368,-2.642704748242862
561,-3.0129071867442034,-1.0630292511097632,-1.3331947206390231,-2.9986950272507316
562,-3.3905891354686903,-1.2013783543022551,-1.5084121502011894,-3.38301044258281
563,-3.7942666490449746,-1.3505517030601546,-1.6977004739206027,-3.795233479497779
564,-4.222952181090741,-1.5104953973867066,-1.9010119088955948,-4.234577826807762
565,-4.675291121443635,-1.6810484720908123,-2.118145784004879,-4.699877011802108
566,-5.14956310832815,-1.8619405951195138,-2.3487424661614447,-5.189579740558545
567,-5.643690572071479,-2.0527915672079162,-2.5922799868136592,-5.701752313799356
568,-6.15525456384057,-2.2531126629731077,-2.848073575765629,-6.234088323071571
569,-6.6815177380801085,-2.4623098102642214,-3.11527824114221,-6.783925658288977
570,-7.219454173217198,-2.679688561726989,-3.3928944578928437,-7.348270680530959
571,-7.7657855371125635,-2.9044607714096884,-3.6797769448212354,-7.92382923841687
572,-8.317022936738216,-3.1357528509495816,-3.974646424419954,-8.507044037187029
573,-8.869513640242909,-3.3726154453858217,-4.276104173783398,-9.094137711356758
574,-9.419491727986067,-3.6140343387155225,-4.582649091731753,-9.681160808606036
575,-9.963131620754147,-3.85894237453122,-4.892696930156504,-10.264043768061486
576,-10.496603351078692,-4.106232157860628,-5.20460126949104,-10.83865187339469
577,-11.016128389509566,-4.354769290907331,-5.516675761830609,-11.400842082653623
578,-11.518034813258069,-4.603405887821774,-5.8272171228979275,-11.946520584265777
579,-11.998810610423947,-4.850994111797557,-6.134528327612791,-12.47169990331875
580,-12.455153948900614,-5.096399481410698,-6.436941454736586,-12.972554384471009
581,-12.884019304088993,-5.338513701789977,-6.732839634501281,-13.445472907439472
582,-13.282658432061282,-5.576266789427584,-7.020677579086827,-13.887107747101341
583,-13.648655292387796,-5.808638276665216,-7.299000218226062,-14.294418571411446
584,-13.97995416443037,-6.034667302559548,-7.566459019235875,-14.66471067461724
585,-14.274880358951622,-6.253461420384884,-7.821825639891367,-14.995666668191957
586,-14.532153099417549,-6.464203977929225,-8.064002640861991,-15.285370994573224
587,-14.750890330041168,-6.6661599544669645,-8.292031068846406,-15.532326785836398
588,-14.930605395799216,-6.858680167363815,-8.505094809060049,-15.735464757138098
589,-15.071195728558713,-7.041203791241716,-8.702521693497609,-15.894143999146086
590,-15.1729238583078,-7.213259163102839,-8.883781436769755,-16.008144710567922
591,-15.236391244730365,-7.3744628774262,-9.04848055187241,-16.07765308709919
592,-15.262505587744357,-7.524517205688146,-9.19635447180001,-16.10323875251949
593,-15.252442422284483,-7.6632059047204,-9.327257167582912,-16.085825277363057
594,-15.207601929160804,-7.790388507507376,-9.44114860762738,-16.026654476969846
595,-15.129561997428828,-7.905993218116116,-9.538080446156272,-15.927245310529809
596,-15.02002865212234,-8.01000855908821,-9.61818035957383,-15.789348313139554
597,-14.880785012795478,-8.102473944396431,-9.681635468637742,-15.614896581567164
598,-14.713639972067027,-8.183469373527638,-9.728675291689077,-15.405954399603234
599,-14.52037777887257,-8.253104461911471,-9.759554670376218,-15.164664629412803
600,-14.302709678733104,-8.311507039264413,-9.774537095004176,-14.893196010661802
601,-14.062228704120248,-8.358811559952423,-9.773878832704161,-14.593691499441512
602,-13.800368623724554,-8.39514757770667,-9.757814229092014,-14.268218744790866
603,-13.518367952533483,-8.42062854052302,-9.726542514195664,-13.918723743097425
604,-13.217239798065096,-8.435341159990163,-9.68021639757389,-13.54698863151425
605,-12.89774817535048,-8.439335602404437,-9.618932687213487,-13.154594482882251
606,-12.56039126819773,-8.432616736776062,-9.542725113493443,-12.742889848996901
607,-12.205391951067208,-8.415136657313493,-9.451559484678402,-12.312965669239883
608,-11.832695718794563,-8.386788675449441,-9.345331245343312,-11.865637020709695
609,-11.441976004595457,-8.347402949338976,-9.22386545495909,-11.401432037333933
610,-11.032646704289272,-8.296743887522624,-9.086919151559163,-10.920588172441368
611,-10.603881570257862,-8.234509428695176,-8.934186015831912,-10.423055825334439
612,-10.154639995734732,-8.160332261911638,-8.765303204944784,-9.908509200870363
613,-9.68369858156153,-8.073783011807004,-8.579860183620928,-9.376364125105995
614,-9.189687765970026,-7.97437537226886,-8.377409343043833,-8.825802402637144
615,-8.671132705105872,-7.861573130289179,-8.157478166464339,-8.255802175032384
616,-8.126497519217105,-7.734798980287367,-7.919582674151026,-7.665173627056364
617,-7.554231967446971,-7.593444988923906,-7.66324185965241,-7.052599290155742
618,-6.952819583196477,-7.436884532214144,-7.387992814273174,-6.4166781125037256
619,-6.320826291713143,-7.264485491504318,-7.093406227262414,-5.755972402906123
620,-5.656948541127147,-7.0756244634641945,-6.779101945560648,-5.0690567127645805
621,-4.960060006454323,-6.869701712514906,-6.444764279156173,-4.354567696311759
622,-4.229255971701812,-6.6461565728038225,-6.090156746247896,-3.6112539842676705
623,-3.4638945564594463,-6.404482991613862,-5.715135966531188,-2.838025119274266
624,-2.6636340283038655,-6.144244897470023,-5.319664430948936,-2.033998631932192
625,-1.8284655288687293,-5.865091074543185,-4.903821901950216,-1.1985443826653892
626,-0.9587406373625554,-5.566769230439943,-4.46781522920758,-0.331325355425282
627,-0.055193298475054116,-5.249138957123769,-4.01198640110609,0.5676658372749648
628,0.8810442501227853,-4.912183304378932,-3.5368186911004815,1.4980753940804024
629,1.8484318041899268,-4.556018711573055,-3.0429407990027224,2.459162271739608
630,2.845017914427437,-4.1809030759861265,-2.5311289290900962,3.4497781007019435
631,3.86844303281754,-3.787241773957251,-2.0023067883426733,4.468353424103488
632,4.915949004655088,-3.3755914936730558,-1.4575435280138316,5.512890504378513
633,5.9843947225469964,-2.9466617845242067,-0.898049689209015,6.58096282931882
634,7.070277659972649,-2.501314276370983,-0.32517124751840326,7.669721337011109
635,8.169760910808717,-2.0405595714423073,0.259618117470033,8.775907268663705
636,9.278705278976421,-1.5655518605276328,0.8547263751140267,9.895871451807915
637,10.392705890289363,-1.0775813621813302,1.4584539438324076,11.025599715555183
638,11.507132737612794,-0.5780647274854755,2.069005744923884,12.160744046171704
639,12.617174521264285,-0.06853359228844268,2.6845043030562183,13.296659006632936
640,-4.2015621317020485e-14,-4.3824514568913905e-14,-3.336275094635252e-14,-4.2380178479072146e-14
641,-9.92688015353702e-13,-9.491785922998062e-13,-6.697611116439925e-13,-9.06323229098686e-13
642,-1.2720965156337902e-11,-1.134021618703738e-11,-7.671779437108302e-12,-1.0699427913172381e-11
643,-1.081746153742752e-10,-9.083195253445228e-11,-5.900833783113432e-11,-8.471249614028268e-11
644,-6.867827723070097e-10,-5.483995458349361e-10,-3.4255520251885164e-10,-5.060833696896568e-10
645,-3.4829519173463117e-09,-2.6688870112981806e-09,-1.606061306009327e-09,-2.4406229372335983e-09
646,-1.4744401175105834e-08,-1.0934452192495608e-08,-6.356017304577271e-09,-9.926222868889021e-09
647,-5.3757415057937834e-08,-3.8883079488426455e-08,-2.1904967668354814e-08,-3.510875115403224e-08
648,-1.7282408127783966e-07,-1.2276730178055694e-07,-6.728589403452612e-08,-1.1047698554272473e-07
649,-4.990350273598526e-07,-3.502538310057425e-07,-1.8754947413125613e-07,-3.1472334214924414e-07
650,-1.3135942956385402e-06,-9.156152663525816e-07,-4.811425691981796e-07,-8.229025669310512e-07
651,-3.1906288955897195e-06,-2.2180888236016956e-06,-1.1490692625766922e-06,-1.996717941082097e-06
652,-7.223719842473247e-06,-5.025977653883743e-06,-2.578453167492426e-06,-4.536723796238163e-06
653,-1.5374032357001514e-05,-1.0735117870438537e-05,-5.4779618880464815e-06,-9.724441256755895e-06
654,-3.097802398456797e-05,-2.1755867595427254e-05,-1.1088202453264503e-05,-1.978811743160361e-05
655,-5.9454419965308166e-05,-4.206708468267701e-05,-2.149635894001585e-05,-3.843032769545913e-05
656,-0.00010924878485623904,-7.797797796274195e-05,-4.009053100342064e-05,-7.1558074034199e-05
657,-0.00019304919786494103,-0.0001391386839410558,-7.2194764051813e-05,-0.00012825583450322092
658,-0.00032929818747665454,-0.00023983753252246727,-0.00012592982052009175,-0.00022203870673820288
659,-0.0005440144021481591,-0.0004006169916936077,-0.00021334646954178956,-0.0003724161108506716
660,-0.0008729229056513611,-0.0006502311690490429,-0.0003518766816898905,-0.0006067864564111846
661,-0.0013638761047573876,-0.001027955616922601,-0.000566142982456205,-0.0009626699566897007
662,-0.002079528961343726,-0.0015862453212032322,-0.0008901569468373108,-0.0014902708387339238
663,-0.0031002132886545834,-0.002393719589247806,-0.00136992428838805,-0.0022553421972189205
664,-0.0045269376216224766,-0.0035384336666887967,-0.0020664564026598143,-0.003342307481124678
665,-0.006484422386002143,-0.005131377006495425,-0.0030591670896332416,-0.0048575730069924826
666,-0.009124065794401837,-0.0073101179909229414,-0.004449609331348238,-0.006932946939387283
667,-0.012626724917250282,-0.01024249545518566,-0.006365481512768719,-0.009729062845089183
668,-0.017205189469456966,-0.014130239521373747,-0.008964806577636004,-0.013438691138407392
669,-0.023106223615667873,-0.019212388975505243,-0.012440162610208437,-0.01828981032848589
670,-0.03061205388745758,-0.025768360626315878,-0.01702282053473385,-0.024548302672548154
671,-0.04004118921146983,-0.03412051859693639,-0.022986625292192912,-0.03252013618727162
672,-0.051748471897147895,-0.044636089001274346,-0.03065144219101673,-0.04255289732242174
673,-0.06612427581279275,-0.057728268435004074,-0.04038598125515013,-0.05503654605888061
674,-0.08359278923263244,-0.07385638343161756,-0.05260981030130493,-0.07040327760140407
675,-0.10460934408381836,-0.09352497252718871,-0.06779437294268865,-0.08912639180012505
676,-0.1296567795353293,-0.11728168265202911,-0.0864628411801818,-0.111718092368682
677,-0.15924085500361118,-0.14571389683422564,-0.10918865370447166,-0.13872616215661648
678,-0.19388475472538955,-0.17944404009220435,-0.13659262000506717,-0.1707294874023416
679,-0.2341227521766937,-0.2191235441724194,-0.16933850591196464,-0.208332432256676
680,-0.280493126975483,-0.26542548854752696,-0.2081270569618463,-0.2521580941714314
681,-0.33353044874744464,-0.3190359737721818,-0.2536884604262517,-0.30284050027671083
682,-0.39375736114834425,-0.3806443227288692,-0.3067732933173729,-0.36101583393752645
683,-0.4616760143924707,-0.4509322442584836,-0.3681420505893398,-0.4273128086166308
684,-0.5377593059785564,-0.5305621309248926,-0.43855339359915274,-0.5023423323235836
685,-0.6224420966964483,-0.620164697000526,-0.5187513023686215,-0.586686629667722
686,-0.7161125723900132,-0.7203261930201964,-0.6094513551362906,-0.6808880092452745
687,-0.8191039213867328,-0.8315754583447613,-0.7113263940476974,-0.7854374811998535
688,-0.9316864931275646,-0.9543710921239197,-0.8249918655830778,-0.900763442775255
689,-1.0540605955668,-1.0890890350188724,-0.9509911474424343,-1.0272206580960959
690,-1.1863500776217457,-1.236010858406382,-1.0897811890858287,-1.1650797619616564
691,-1.3285968286199707,-1.395313054131982,-1.2417188000315322,-1.3145175159668163
692,-1.4807563096557304,-1.5670576060565948,-1.4070479176221669,-1.4756080387549215
693,-1.6426942124509265,-1.7511841047434649,-1.5858881739044208,-1.6483152207567564
694,-1.814184320210743,-1.947503638996446,-1.7782250596158016,-1.8324865175594056
695,-1.9949076225720468,-2.1556946631474845,-1.9839019526138857,-2.0278482953331847
696,-2.1844527135409404,-2.3753009977791684,-2.202614239448232,-2.2340028768428346
697,-2.3823174777751412,-2.605732074949926,-2.4339057135284556,-2.450427407858323
698,-2.5879120471888157,-2.8462654881646334,-2.67716738305824,-2.6764746316962755
699,-2.8005629871738384,-3.0960518536865154,-2.9316387682626006,-2.911375624672714
700,-3.0195186502578464,-3.3541219348429214,-3.196411712141297,-3.1542445080351555
701,-3.243955615208306,-3.6193959263425572,-3.4704366737187726,-3.404085113187126
702,-3.4729861118282574,-3.890694742912889,-3.752531419139895,-3.659799537553432
703,-3.7056663163050403,-4.166753107352502,-4.041391975450613,-3.9201984891785493
704,-3.9410053892375947,-4.4462341888465335,-4.335605665756212,-4.184013280071217
705,-4.177975118542183,-4.727745504448601,-4.633666003623505,-4.4499092923828885
706,-4.415520022342707,-5.009855766152325,-4.933989189698218,-4.716500708681376
707,-4.6525677625930575,-5.291112333912627,-5.234931924811707,-4.982366268717042
708,-4.888039718395628,-5.570058922029854,-5.534810231342816,-5.246065790902551
709,-5.120861568586077,-5.845253202874495,-5.831918958108559,-5.5061571777822715
710,-5.349973735927826,-6.115283958055386,-6.124551633380623,-5.761213611398672
711,-5.574341549928005,-6.378787442493435,-6.411020325644033,-6.00984063682593
712,-5.792964991550954,-6.634462650760535,-6.689675172447751,-6.250692830237076
713,-6.004887890694752,-6.8810852064514725,-6.95892324427039,-6.482489751588684
714,-6.209206455998577,-7.117519632981394,-7.21724642287398,-6.7040308911682835
715,-6.405077026184887,-7.342729806565495,-7.463217992158703,-6.914209333646327
716,-6.59172294252978,-7.5557874376693395,-7.69551766385424,-7.112023882688392
717,-6.768440453017174,-7.755878474339952,-7.912944790023164,-7.296589413382653
718,-6.93460357013545,-7.942307368038599,-8.114429548625258,-7.46714524845971
719,-7.089667816059256,-8.114499188541823,-8.29904192647756,-7.6230613872089075
720,-7.233172801111205,-8.271999618003193,-8.465998364978734,-7.7638424527318035
721,-7.364743593900074,-8.414472894451785,-8.614665977113422,-7.889129263230078
722,-7.48409085435746,-8.541697811163642,-8.744564288750466,-7.998697975807279
723,-7.591009714063516,-8.653561910034652,-8.855364502389744,-8.092456796073728
724,-7.685377401884203,-8.75005403407536,-8.946886326586863,-8.170440292905086
725,-7.767149627252577,-8.83125542638951,-9.019092458513084,-8.232801404196692
726,-7.836355748665307,-8.897329580581014,-9.072080849614201,-8.279801265556848
727,-7.893092771354763,-8.948511060651489,-9.106074924181074,-8.311797038790226
728,-7.937518235795649,-8.985093517362932,-9.121411956931544,-8.329227959952576
729,-7.969842077772318,-9.00741713303775,-9.118529847655545,-8.332599866924525
730,-7.990317561067968,-9.015855728156227,-9.097952558025817,-8.322468503052471
731,-7.999231405116318,-9.010803761192015,-9.06027449747374,-8.299421925613062
732,-7.996893251632467,-8.992663448201473,-9.006144161396879,-8.264062374829049
733,-7.983624635612866,-8.96183222105076,-8.936247335832256,-8.216987980048751
734,-7.959747646402409,-8.918690733118373,-8.851290188084715,-8.158774693668672
735,-7.925573482985733,-8.863591609127857,-8.751982562673765,-8.089958849660993
736,-7.881391123453247,-8.796849121695622,-8.639021796431726,-8.011020741508503
737,-7.827456340871238,-8.718729961433029,-8.51307735576853,-7.922369603462362
738,-7.763981305728069,-8.629445250194316,-8.374776583161193,-7.824330359054732
739,-7.691125018028699,-8.529143928463109,-8.224691818979567,-7.717132471727772
740,-7.608984809428723,-8.41790762806391,-8.06332913899229,-7.600901194602443
741,-7.517589147165568,-8.295747120518715,-7.891118917526944,-7.475651470462287
742,-7.416891956743006,-8.162600409596568,-7.708408391620879,-7.341284679938052
743,-7.306768659325402,-8.018332514085118,-7.515456363102154,-7.197588376882607
744,-7.187014092801331,-7.862736963706153,-7.312430134094421,-7.04423908644489
745,-7.0573424529304996,-7.695539007563024,-7.0994047278499615,-6.880808174925089
746,-6.917389353537503,-7.516400510703199,-6.876364402143767,-6.706770732710405
747,-6.7667160631347105,-7.324926490456858,-6.643206417877197,-6.5215173440317615
748,-6.604815930504888,-7.120673220319605,-6.39974698226835,-6.324368551467925
749,-6.431122964599519,-6.903157805433402,-6.145729245262843,-6.11459176047966
750,-6.245022485643581,-6.67186911035812,-5.880833190704389,-5.8914202711066554
751,-6.045863715678695,-6.426279897041934,-5.604687231284714,-5.654074071542791
752,-5.832974129067212,-6.165860008994369,-5.316881288993002,-5.401781982794604
753,-5.605675337914549,-5.8900904170327015,-5.016981121027298,-5.133804706127699
754,-5.363300245205374,-5.598477923078046,-4.70454363492636,-4.849458296527307
755,-5.105211160976453,-5.290570301831376,-4.379132925800854,-4.548137566817698
756,-4.830818545272889,-4.965971646265746,-4.040336762608625,-4.229338919105541
757,-4.539600016963292,-4.6243576721776645,-3.6877832489939486,-3.8926821033247965
758,-4.231119250462964,-4.265490729904556,-3.3211573868604396,-3.537930417103903
759,-3.9050443735013913,-3.889234267985602,-2.940217277153155,-3.1650088868897206
760,-3.561165478490816,-3.4955664941677544,-2.544809701875422,-2.7740200068690157
761,-3.199410867774154,-3.0845929838001616,-2.134884843742076,-2.3652566590281476
762,-2.8198616687730964,-2.656557994318532,-1.710509914659687,-1.9392118936847798
763,-2.42276447833387,-2.211854257143834,-1.2718814810344858,-1.496585313734165
764,-2.0085417257769786,-1.751031034806799,-0.81933629238647,-1.0382858761487295
765,-1.577799480650714,-1.2748002513153007,-0.3533604395778519,-0.5654309992121185
766,-1.131332473286786,-0.7840405275131115,0.1254033101341438,-0.07934194165316603
767,-0.6701261432200044,-0.27979898019944616,0.6161501322698835,0.4184645017336489
768,-4.0858130200204225e-14,-6.550126775478439e-14,-3.483459065592667e-14,-3.774560690811952e-14
769,-8.923868894310239e-13,-1.448671980832611e-12,-7.432237369064582e-13,-7.538930724784852e-13
770,-1.1418609113173807e-11,-1.724604074281727e-11,-9.220136078832014e-12,-8.891246589856048e-12
771,-9.732293512789929e-11,-1.3734860139316213e-10,-7.668895180016008e-11,-7.053747894173171e-11
772,-6.199619226513501e-10,-8.235368217687555e-10,-4.800740462016793e-10,-4.2233430383643985e-10
773,-3.1562084898161524e-09,-3.976239773859346e-09,-2.4184518893859458e-09,-2.0407946394710535e-09
774,-1.3415573348702486e-08,-1.6147852934522626e-08,-1.0240042503405567e-08,-8.313103287652412e-09
775,-4.911161915284037e-08,-5.687801758245581e-08,-3.757479137225487e-08,-2.9433520673286293e-08
776,-1.585075373257293e-07,-1.7778717362606836e-07,-1.2223973729266745e-07,-9.266177216907158e-08
777,-4.593804187315081e-07,-5.019726944920718e-07,-3.5882785332487915e-07,-2.6395763910811026e-07
778,-1.2133193534366244e-06,-1.2984016599923797e-06,-9.63768633511802e-07,-6.898432013445125e-07
779,-2.956219074907252e-06,-3.112145239950721e-06,-2.3953498745680216e-06,-1.6726152472307993e-06
780,-6.711993170887451e-06,-6.977985071701011e-06,-5.5602877114353825e-06,-3.7970338089397873e-06
781,-1.4322221070333983e-05,-1.475149960310747e-05,-1.2148043288920765e-05,-8.131967667564625e-06
782,-2.8928892966082884e-05,-2.9597465111885866e-05,-2.514295146978983e-05,-1.6535657620353843e-05
783,-5.564985025937587e-05,-5.667952250499898e-05,-4.957090239915477e-05,-3.209764851545489e-05
784,-0.00010248626691745746,-0.00010409687047612471,-9.354040424342851e-05,-5.9753400516711466e-05
785,-0.00018149813555594157,-0.00018411268266778897,-0.00016963623934661184,-0.00010710851094104665
786,-0.00031027703909303824,-0.00031471462501286396,-0.0002967169381566778,-0.00018550784150828256
787,-0.0005137355707391507,-0.0005215400902920867,-0.0005021548027565337,-0.0003113802791112114
788,-0.0008262198606402368,-0.0008401876035681998,-0.000824539620678643,-0.000507882180964846
789,-0.0012939361995511125,-0.0013189215228352163,-0.0013168453882241393,-0.0008068518098265395
790,-0.0019776653437472845,-0.0020217600918076236,-0.002050034490314395,-0.0012510735265722035
791,-0.0029557195751611313,-0.003031917697924519,-0.0031170471662721475,-0.0018968346796161945
792,-0.0043270789618034084,-0.004455551602506772,-0.004637096996820457,-0.0028167407271866753
793,-0.006214625560746258,-0.006425742316684402,-0.0067601667261719825,-0.004102736031983602
794,-0.008768378558830822,-0.009106616142964513,-0.009671574021358417,-0.00586925995976978
795,-0.012168620517347673,-0.012697499142627902,-0.013596454759491106,-0.008256451387791179
796,-0.016628795811283154,-0.01743697481837953,-0.018803993139803233,-0.011433300410986528
797,-0.02239805765027388,-0.02360670390000314,-0.025611214411792732,-0.01560063472268196
798,-0.029763340068763765,-0.03153485442623149,-0.03438614837268628,-0.02099382048444085
799,-0.03905083601637425,-0.04159898432472254,-0.04555017098832482,-0.027885053957923983
800,-0.05062677197575128,-0.05422821727783659,-0.05957933825001329,-0.03658512104253118
801,-0.06489738302690173,-0.0699045560959006,-0.07700454103429248,-0.04744450725557204
802,-0.08230800946059533,-0.08916318627666572,-0.09841033217531789,-0.06085375053587389
803,-0.1033412562632839,-0.11259163597530984,-0.12443230663919834,-0.0772429433019112
804,-0.12851417927569295,-0.14082767717692937,-0.15575295167126452,-0.09708030804270687
805,-0.15837448574725835,-0.1745558762314936,-0.1930959248384102,-0.12086979180652423
806,-0.19349576158937196,-0.21450272969525389,-0.23721876257212063,-0.14914764860726928
807,-0.2344717621670862,-0.26143035308206647,-0.288904068576564,-0.18247800425656768
808,-0.2819098273288031,-0.31612872498508604,-0.3489492787048176,-0.221447424706169
809,-0.3364235040002895,-0.37940652628646576,-0.41815514506488777,-0.2666585359267799
810,-0.39862448061027,-0.45208065292679284,-0.4973131257257469,-0.318722769952843
811,-0.46911395653321225,-0.5349645199559094,-0.5871919060983003,-0.378252337290119
812,-0.5484735863674368,-0.6288553132450249,-0.6885233126262781,-0.4458515497123455
813,-0.6372561529513968,-0.7345203821526144,-0.8019879077051002,-0.5221076388714733
814,-0.7359761342566261,-0.8526830004131497,-0.9282005757435762,-0.6075812344518423
815,-0.845100337367626,-0.9840077523715501,-1.0676964231530706,-0.7027966802084731
816,-0.9650387773871419,-1.1290858262804557,-1.2209173191741456,-0.8082323766184549
817,-1.0961359800648631,-1.2884205146784575,-1.3881993994827346,-0.9243113446234866
818,-1.2386628840512344,-1.4624132330007165,-1.5697618403967333,-1.0513922057696257
819,-1.39280951177689,-1.6513503708770936,-1.7656971884615824,-1.1897607698406085
820,-1.558678566989768,-1.8553912856376311,-1.9759634987453025,-1.3396224118910298
821,-1.7362801020406589,-2.0745577342378434,-2.200378496107955,-1.501095406643834
822,-1.9255273793796572,-2.308725018287185,-2.4386159280771804,-1.6742053699196517
823,-2.1262340298806657,-2.5576150875449173,-2.6902042270542825,-1.858880934685723
824,-2.3381125861939704,-2.820791810837568,-2.954527544897471,-2.0549507642036713
825,-2.5607744431835933,-3.097658580793173,-3.2308291661294093,-2.2621419775485654
826,-2.7937312707097597,-3.3874583712226642,-3.5182172487967276,-2.4800800345479153
827,-3.036397877839467,-3.6892763147013232,-3.8156727860226702,-2.708290099150199
828,-3.288096503386814,-4.002044814295772,-4.122059628065949,-2.946199873677045
829,-3.5480624868763777,-4.324551148859747,-4.4361363555888085,-3.193143872717821
830,-3.815451257899855,-4.655447477279287,-4.756569751043588,-3.448369086010138
831,-4.089346571598431,-4.993263094817904,-5.081949577667994,-3.7110419658959755
832,-4.368769914633502,-5.33641874553883,-5.410804345472282,-3.980256668057157
833,-4.652691010087591,-5.683242749802119,-5.741617721616253,-4.2550444750623955
834,-4.940039361237199,-6.031988666075679,-6.072845229358963,-4.534384341092082
835,-5.229716792281461,-6.380854172668104,-6.402930875744227,-4.817214512601925
836,-5.520610967324634,-6.728000828266291,-6.730323353499996,-5.102445202340674
837,-5.811609894860108,-7.071574350971246,-7.053491477076323,-5.388972320851962
838,-6.101617450661887,-7.409725044328639,-7.37093853576244,-5.675692297341036
839,-6.389569973787113,-7.740627995904968,-7.6812152775086115,-5.961518046905219
840,-6.674454004486706,-8.062502679312809,-7.98293127427247,-6.245396159575681
841,-6.955325235451148,-8.373631604071175,-8.2747644621052,-6.526325394337837
842,-7.2313287356761,-8.672377678922787,-8.555468695463386,-6.8033765545794775
843,-7.501720476764397,-8.957199982643564,-8.823879204136723,-7.075713797265298
844,-7.7658901431249046,-9.226667671211324,-9.078915891631016,-7.342617384588866
845,-8.02338513991604,-9.479471790530672,-9.319584464912658,-7.603507823195125
846,-8.273935626693124,-9.714434808701217,-9.544975436309837,-7.857971252957916
847,-8.517480302948895,-9.930517729954287,-9.754261088356785,-8.105785846796254
848,-8.754192557817557,-10.126824702731858,-9.946690540760667,-8.346948868531445
849,-8.984506475027807,-10.30260508581233,-10.12158310473769,-8.58170391197945
850,-9.20914206154609,-10.457252987801743,-10.27832015293136,-8.810567717054312
851,-9.429128950729735,-10.590304345653585,-10.416335772158941,-9.034355834145162
852,-9.645827725096657,-10.701431656155984,-10.535106500466627,-9.254206293413343
853,-9.860947916949273,-10.790436519601757,-10.634140478531846,-9.471600338045448
854,-10.076561683653555,-10.857240196291963,-10.712966367475413,-9.688379206747861
855,-10.29511212423437,-10.901872413379587,-10.77112239982139,-9.906755907124124
856,-10.519415209939352,-10.924458691217882,-10.808145936903683,-10.129320913339736
857,-10.752654347103977,-10.92520648435103,-10.823563903769765,-10.359040752719437
858,-10.998366678089607,-10.904390452218742,-10.816884460980923,-10.599248519253342
859,-11.260420355668675,-10.862337188327729,-10.787590251236773,-10.853625468415252
860,-11.542982196656615,-10.79940974398636,-10.73513352729798,-11.126173006523953
861,-11.85047532878399,-10.715992283742455,-10.658933426439264,-11.42117458666841
862,-12.187526686098607,-10.612475204540738,-10.5583756062475,-11.7431472577973
863,-12.558904476428182,-10.489241039525437,-10.432814398060467,-12.096782878100035
864,-12.969446032085255,-10.346651450594429,-10.281577569229466,-12.486879290927845
865,-13.423976753338133,-10.185035591528472,-10.103973715547118,-12.918262062596588
866,-13.927221153600106,-10.004680096070908,-9.899302232672348,-13.395697686905718
867,-14.483707305712928,-9.805820913078884,-9.66686574230103,-13.92379946096121
868,-15.09766625994864,-9.588637174261283,-9.40598477715248,-14.50692752060972
869,-15.772928246555814,-9.353247239636392,-9.11601446037614,-15.14908478144683
870,-16.512817679621605,-9.099707022387392,-8.796362851383645,-15.853810753571892
871,-17.320049136542067,-8.828010649088272,-8.446510572951274,-16.624075376633446
872,-18.196626591732816,-8.538093464229508,-8.06603128526963,-17.462175149124256
873,-19.143748229310315,-8.229837340567443,-7.654612532996342,-18.36963389674624
874,-20.161719144139017,-7.9030782100626045,-7.212076462800017,-19.347110535100985
875,-21.24987416262581,-7.557615685078137,-6.738399892714753,-20.394316129973056
876,-22.40651287471013,-7.193224597077658,-6.233733211902523,-21.50994244402271
877,-23.628848769413782,-6.80966824123459,-5.6984176007701866,-22.69160398370469
878,-24.912974112788543,-6.406713080984537,-5.133000086945523,-23.93579532847954
879,-26.253841905583947,-5.984144637316027,-4.538245992020161,-25.23786524143229
880,-27.645265916384965,-5.5417842640134065,-3.915148376396309,-26.592008733381846
881,-29.079939413494987,-5.079506492445677,-3.26493415377816,-27.991277889899646
882,-30.549472825592332,-4.5972566179427305,-2.5890666211588154,-29.427611881853796
883,-32.0444501580032,-4.095068194261223,-1.8892442324685972,-30.891886175384176
884,-33.55450358950013,-3.5730801029515384,-1.1673955318662048,-32.37398054724494
885,-35.06840528495183,-3.031552870360979,-0.42567025316688095,-33.86286510697439
886,-36.57417509246743,-2.4708839162625464,0.33357331780587385,-35.34670313887421
887,-38.05920245945496,-1.8916214343399373,1.1077845339110537,-36.81296921421412
888,-39.510380608436456,-1.2944766255749218,1.8942398647504497,-38.2485806964021
889,-40.91425076710271,-0.6803340304847876,2.6900653225980187,-39.64004047682673
890,-42.2571540527307,-0.050259734590607355,3.4922614324632746,-40.97358854298841
891,-43.52538847166018,0.5944927471453743,4.29773028921939,-42.23535979810799
892,-44.70536841112496,1.2524790675224362,5.1033042030923355,-43.41154542571197
893,-45.78378397264905,1.9220632512196807,5.905775405187508,-44.4885550252238
894,-46.74775752108187,2.6014195946357264,6.701926267075164,-45.45317673534296
895,-47.58499489735269,3.2885373130829967,7.488559482542125,-46.29273260966721
896,1.191517130425769e-13,-5.915925402285911e-14,-9.648962889170738e-14,9.219167813578596e-14
897,2.603457916297919e-12,-1.2622916605796017e-12,-2.13703996634603e-12,2.036572011659562e-12
898,3.0162086855341516e-11,-1.5038489389522434e-11,-2.5192883654432248e-11,2.433234049906602e-11
899,2.3363125337283756e-10,-1.2021520500674412e-10,-1.9831941015500706e-10,1.9467847322724268e-10
900,1.36339233340719e-09,-7.248955760529973e-10,-1.1738584474081117e-09,1.1737830184357873e-09
901,6.416287664081534e-09,-3.526173822544305e-09,-5.588773745121517e-09,5.70372980681564e-09
902,2.545382657811373e-08,-1.4451808256801956e-08,-2.236049199502407e-08,2.3329619929648642e-08
903,8.782615232811161e-08,-5.1451200986985176e-08,-7.754517291997897e-08,8.28166625767749e-08
904,2.697880447786439e-07,-1.627688271260205e-07,-2.385612174033493e-07,2.6102093883061957e-07
905,7.511883174056493e-07,-4.656310937408428e-07,-6.628966998594583e-07,7.434064562978935e-07
906,1.9228393090214496e-06,-1.2213030161012433e-06,-1.6879132233705589e-06,1.9402056655914947e-06
907,4.576322771058694e-06,-2.9701609756879614e-06,-3.984819841679584e-06,4.693187016495382e-06
908,1.0219937829013707e-05,-6.759398305961746e-06,-8.80699488438187e-06,1.062048571150391e-05
909,2.1577370391847676e-05,-1.4505521540676969e-05,-1.8370146716961773e-05,2.2659926896604494e-05
910,4.3338219169229895e-05,-2.9542929951920296e-05,-3.640876332466247e-05,4.588334555839532e-05
911,8.324028532160408e-05,-5.7417465323236285e-05,-6.895920124926679e-05,8.866399906251276e-05
912,0.00015357096400288417,-0.0001069887156570811,-0.00012542379365792754,0.00016428464993927707
913,0.0002731776339689854,-0.00019190600559816214,-0.00021997167658519855,0.000293073785182435
914,0.0004700732503718297,-0.0003325195641314784,-0.00037332988859600054,0.0005051505621391405
915,0.000784712359512933,-0.000558279756889577,-0.0006150121311866964,0.0008438446964917066
916,0.0012739939156418295,-0.0009106632483626697,-0.000986022089118634,0.0013698354130242212
917,0.0020160206088258776,-0.001446645596266739,-0.001542053407615441,0.0021660240884581496
918,0.003115610504996362,-0.002242715500679967,-0.002357189609860723,0.00334311919268487
919,0.004710516783168971,-0.003399397507672706,-0.003528084969791046,0.005045870947114328
920,0.006978266839849222,-0.005046218505783264,-0.005178582368511605,0.0074598485510977254
921,0.010143485032540795,-0.0073470202479045486,-0.007464697307751274,0.010818606968541117
922,0.014485516143477959,-0.010505486989923497,-0.010579869457904272,0.015411045387422335
923,0.02034612165229047,-0.014770725885773769,-0.014760355385603042,0.02158871790223545
924,0.028136980448852305,-0.020442709747220032,-0.02029060952783159,0.029772821018556692
925,0.03834669188271578,-0.027877368793873498,-0.027508476227787994,0.04046055437898401
926,0.05154695402028385,-0.03749110151783042,-0.036809994947024645,0.054230532532019135
927,0.06839757538369241,-0.04976446593147404,-0.04865360485706947,0.07174691811594824
928,0.08964997563094028,-0.06524481210095485,-0.0635635250946902,0.09376195158153175
929,0.11614884050979969,-0.08454762548938334,-0.08213208413048076,0.12111657012369716
930,0.14883161940271591,-0.10835636839031369,-0.10502077682873144,0.15473883891526474
931,0.18872558982776635,-0.13742063343094682,-0.13295984141964445,0.1956399605822455
932,0.23694226185292447,-0.1725524582510148,-0.1667461709139331,0.24490768314555278
933,0.29466895550441424,-0.21462069319435043,-0.20723940419902542,0.3036969908939431
934,0.36315745439493313,-0.2645433630664541,-0.2553560805266268,0.37321803493156286
935,0.4437097170173017,-0.32327801831227265,-0.31206178639448523,0.4547213381978282
936,0.5376607111765357,-0.391810128704648,-0.37836127477968556,0.5494803910774811
937,0.6463585243876087,-0.4711396319608641,-0.4552865919644316,0.6587718356520124
938,0.7711419911154306,-0.5622658086578076,-0.54388330532138,0.7838535165062722
939,0.9133161637388476,-0.6661707113976549,-0.6451949847420686,0.9259407511854715
940,1.074126035311738,-0.7838014284439125,-0.7602461490788776,1.086181241445614
941,1.2547289958812218,-0.9160515082034908,-0.890023945073999,1.2656291051203719
942,1.4561665677856264,-1.0637419093965539,-1.0354588777565579,1.4652185557639053
943,1.679336016685724,-1.2276018712416632,-1.1974049562392375,1.6857377915522465
944,1.9249624720123333,-1.4082501175287332,-1.3766196554411865,1.9278036749304184
945,2.1935722112850913,-1.6061768174445858,-1.5737441209875367,2.191837789305857
946,2.485467766057284,-1.8217267241833286,-1.78928406024903,2.478044448323288
947,2.8007054923263364,-2.055083899760474,-2.0235917664962333,2.7863912070391823
948,3.139076215003116,-2.3062584113817115,-2.2768497152225904,3.1165923832853246
949,3.500089504961497,-2.5750753517695677,-2.5490561520399,3.4680960427933325
950,3.882962079395008,-2.8611664938167243,-2.8400130607258625,3.8400748347853013
951,4.286610733372329,-3.163964839804044,-3.1493168588341347,4.231420987589112
952,4.7096501148268075,-3.4827022683683904,-3.4763521177881778,4.64074568850834
953,5.15039554938941,-3.816410419775751,-3.8202885457522697,5.066382980903312
954,5.606871008416882,-4.163924893344234,-4.180081406136288,5.506398216523636
955,6.076822196373842,-4.523892761675071,-4.554475473834542,5.958601004882509
956,6.55773461558191,-4.894783336351367,-4.94201255687584,6.42056250614455
957,7.046856350470353,-5.274902050615006,-5.341042534870934,6.889636821791865
958,7.541225203021353,-5.662407257839141,-5.749737789381068,7.362986150295095
959,8.037699709092024,-6.055329681890863,-6.1661108270208205,7.837609295050264
960,8.532993474414555,-6.451594198118762,-6.588034825618372,8.31037304066913
961,9.02371219167306,-6.849043572947863,-7.013266768814833,8.77804585284123
962,9.506392638108728,-7.245463746994276,-7.439472776603505,9.237333307700196
963,9.977542908183919,-7.638610212104323,-7.8642551897311535,9.684914619955942
964,10.433683109045731,-8.02623500745304,-8.285180925562159,10.117479615766515
965,10.871385738459923,-8.406113844269901,-8.6998105926461,10.531765486917
966,11.28731497562469,-8.77607286315152,-9.10572783134357,10.924592667566376
967,11.678264144442505,-9.134014532327837,-9.500568338833169,11.292899193547393
968,12.041190655586867,-9.47794220953766,-9.882048038917148,11.63377293659132
969,12.373247796709565,-9.805982914040335,-10.247989870410475,11.944481151224528
970,12.67181281753005,-10.116407888290045,-10.596348692518745,12.222496829471934
971,12.93451084600672,-10.407650570332574,-10.925233841232096,12.465521426642363
972,13.15923427065102,-10.678321647314906,-11.232928916835506,12.671503598833596
973,13.34415732944392,-10.927220916742428,-11.517908438260603,12.838653677616733
974,13.487745754774513,-11.153345744241449,-11.778851063919214,12.965453697690307
975,13.588761433335245,-11.355895973402806,-12.014649149286216,13.050662887049187
976,13.646262147057497,-11.534275213470657,-12.224414487043354,13.093318624234273
977,13.659596563274922,-11.688088502754699,-12.40748015416424,13.092732961341603
978,13.628394737036066,-11.817136418146571,-12.563398470030037,13.048484902535085
979,13.552554473939873,-11.92140577242172,-12.69193514870883,12.96040871378547
980,13.432223976532036,-12.001057109504279,-12.793059805214972,12.828578618553786
981,13.267781260074681,-12.05640927200145,-12.866933048318062,12.653290304437498
982,13.05981087368704,-12.087921373604473,-12.91389045985685,12.435039725891233
983,12.809078500126311,-12.096172560088556,-12.934423821218523,12.174499736731782
984,12.516504031802466,-12.081839985515412,-12.929160000471358,11.872495122212124
985,12.183133732158849,-12.045675463993016,-12.898837957509995,11.529976623280922
986,11.81011209060632,-11.988481281394366,-12.844284358548938,11.147994554856
987,11.398653966229327,-11.911085665472939,-12.766388314630612,10.727672615507302
988,10.950017591130827,-11.814318416785767,-12.666075770986652,10.270182468177829
989,10.46547896937092,-11.698987196925325,-12.544284074876895,9.776719641107528
990,9.946308162948988,-11.56585495513486,-12.401937239020697,9.248481255910074
991,9.393747903284206,-11.41561894996278,-12.2399223963516,8.686646037024465
992,8.808994906437905,-11.248891789835826,-12.059067910332082,8.092356995015352
993,8.193184204376932,-11.066184876018573,-11.860123564536131,7.466707107136114
994,7.547376734569405,-10.867894584160128,-11.643743206990266,6.810728244066005
995,6.8725503578915035,-10.654291467340544,-11.410470170390258,6.1253835137608235
996,6.1695944019428195,-10.425512705116338,-11.160725730385503,5.411563113921164
997,5.439307755050769,-10.181557960507268,-10.894800802193997,4.670083705625596
998,4.68240046696678,-9.922288741250256,-10.612851012269173,3.9016912439894313
999,3.8994987467813433,-9.647431294173083,-10.314895217778677,3.1070671288613507
1000,3.0911531879064174,-9.356582993514442,-10.000817483294497,2.286837470878915
1001,2.2578499948128363,-9.049222116811018,-9.670372462254845,1.4415852067447357
1002,1.4000249370784121,-8.724720836981898,-9.323194071323535,0.5718647432166651
1003,0.5180797135922254,-8.382361197828246,-8.958807289621374,-0.32178123729245556
1004,-0.38759962619841093,-8.021353783620722,-8.576642862789237,-1.2388032148970192
1005,-1.3166225860626302,-7.640858742939984,-8.176054644732227,-2.1786249491352647
1006,-2.2685728556287503,-7.240008783485907,-7.756339268298828,-3.140622729957365
1007,-3.2429860902940573,-6.817933719010588,-7.316757800452926,-4.124104229277736
1008,-4.239327264147357,-6.373786122469137,-6.856559007842057,-5.128287421186334
1009,-5.25696802191382,-5.9067676212911016,-6.375003834979296,-6.152280031107884
1010,-6.295164449378509,-5.416155361476134,-5.871390679342888,-7.195059957208758
1011,-7.353035668815565,-4.901328166894312,-5.345081035353472,-8.255457081646194
1012,-8.429543647228169,-4.361791928400586,-4.795525072316156,-9.332136855535603
1013,-9.52347458135187,-3.7972037736544584,-4.222286710076898,-10.423586000727848
1014,-10.633422195082058,-3.2073945922345937,-3.6250677605429056,-11.528100624826664
1015,-11.75777325298656,-2.5923895210137764,-3.0037307136153633,-12.643776994729489
1016,-12.89469555863754,-1.9524260309966899,-2.3583197626976036,-13.768505159879563
1017,-14.042128669436343,-1.2879692980517357,-1.6890796878764425,-14.899965560968715
1018,-15.19777752112779,-0.5997245852832761,-0.9964722440976786,-16.035628704584116
1019,-16.35910911586621,0.11135358673618866,-0.2811897370119519,-17.17275793066673
1020,-17.523352387907135,0.8440556549593191,0.4558344896070132,-18.30841524883209
1021,-18.687501321037796,1.59691473518473,1.2134188842389568,-19.439470172501398
1022,-19.848321351939255,2.3682079184465668,1.9901300134271196,-20.562611437019356
1023,-21.002359053956692,3.1559611593453742,2.7842825046598865,-21.674361449858377
1024,9.479191305044158e-16,-3.7991756240121015e-14,-3.2881881566465886e-14,-2.8374278718511132e-14
1025,3.683928754710776e-14,-8.237932153039487e-13,-6.823253171256494e-13,-5.95638231757227e-13
1026,-4.0499770168728636e-13,-9.8473524720242e-12,-8.156560430214703e-12,-6.850784461809102e-12
1027,-1.0518217886007195e-11,-7.887507925047362e-11,-6.553066804875654e-11,-5.267640552856286e-11
1028,-1.0765294641283164e-10,-4.760007182863944e-10,-3.9755885867361946e-10,-3.047578827807094e-10
1029,-7.336416551622988e-10,-2.314896261485307e-09,-1.9480828296130885e-09,-1.4200262351304464e-09
1030,-3.823126821120901e-09,-9.47637132775299e-09,-8.053941682306714e-09,-5.5712935176901185e-09
1031,-1.629382472471497e-08,-3.3671667781897075e-08,-2.896491934802328e-08,-1.8996023058886145e-08
1032,-5.9180697819148674e-08,-1.0624512193692728e-07,-9.267940777315345e-08,-5.763926485264524e-08
1033,-1.8847451149466697e-07,-3.0298899888465784e-07,-2.6842149195671336e-07,-1.5853518904723448e-07
1034,-5.375511762520807e-07,-7.919291074564701e-07,-7.132502257698483e-07,-4.010851142885549e-07
1035,-1.3957541707889206e-06,-1.9186505012353454e-06,-1.757781517922775e-06,-9.44409987374217e-07
1036,-3.3428445782942573e-06,-4.348981799822804e-06,-4.053561435189232e-06,-2.089498833367823e-06
1037,-7.464165151208005e-06,-9.294263597094525e-06,-8.811720692428915e-06,-4.3778719404629335e-06
1038,-1.567588374490092e-05,-1.8849360841838497e-05,-1.816940694181202e-05,-8.741753211335894e-06
1039,-3.1192930862556784e-05,-3.647733682488195e-05,-3.572625598180586e-05,-1.6724027005285396e-05
1040,-5.9173587661788505e-05,-6.76766008389501e-05,-6.729692976624993e-05,-3.078919583500317e-05
1041,-0.00010757361665536404,-0.00012086579375931033,-0.00012192669518633681,-5.474877217292323e-05
1042,-0.00018823908743940572,-0.00020851828574099156,-0.00021321446400835272,-9.432563924493492e-05
1043,-0.00031826059484573284,-0.0003485717490054152,-0.0003609811962694536,-0.00015788153946980668
1044,-0.0005216025318692766,-0.0005661288886704165,-0.0005933109084840024,-0.0002573296969774582
1045,-0.0008310097304182567,-0.0008954533372555922,-0.0009489768956416602,-0.00040925045260014036
1046,-0.0012901805136860376,-0.001382250410131569,-0.0014802477145385866,-0.0006362216105430178
1047,-0.001956180539254231,-0.002086206511391157,-0.0022560468636692835,-0.0009683670350053064
1048,-0.002902056364397054,-0.00308374423175113,-0.00336541805601366,-0.0014451171179527113
1049,-0.004219592064756921,-0.004470933430537059,-0.004921225764228592,-0.0021171634477950567
1050,-0.006022137093291971,-0.006366482704494111,-0.007063999558428106,-0.0030485778620896963
1051,-0.008447419488075036,-0.008914721451506945,-0.009965811747862933,-0.004319053688706335
1052,-0.01166024618177941,-0.012288471006988445,-0.013834061836100123,-0.006026215053939865
1053,-0.015854982241426015,-0.016691694742635998,-0.018915028887543896,-0.008287929363651496
1054,-0.02125769409091579,-0.022361812131591653,-0.02549704441449758,-0.011244549109765432
1055,-0.028127838811860234,-0.02957156101031475,-0.03391313397671981,-0.015061002588690638
1056,-0.03675938307530226,-0.03863029583039977,-0.04454297538463546,-0.01992864935706779
1057,-0.04748124161459266,-0.04988461760832934,-0.057814025224401204,-0.026066815520720432
1058,-0.06065693671101693,-0.06371824335066031,-0.07420167340335102,-0.033723926291192904
1059,-0.07668339693958834,-0.08055103856809816,-0.09422829760733091,-0.04317815852396356
1060,-0.09598883505619006,-0.10083715555403093,-0.1184611060601833,-0.054737543922089564
1061,-0.11902967068165932,-0.12506224174311514,-0.14750867788194352,-0.06873946390396317
1062,-0.14628649234676136,-0.15373970596657907,-0.18201613571333955,-0.08554948938037261
1063,-0.1782590842841677,-0.18740605502668775,-0.2226589150344272,-0.10555953240829874
1064,-0.21546057471395821,-0.2266153379484837,-0.27013512844680104,-0.12918529142522545
1065,-0.25841079280677104,-0.27193275975597464,-0.32515656049475966,-0.15686298708540258
1066,-0.3076289495891833,-0.32392754990103906,-0.3884383684286392,-0.18904540123424002
1067,-0.3636257825008703,-0.3831651918208891,-0.46068760544371035,-0.22619724693303975
1068,-0.42689532308551503,-0.4501991388491224,-0.542590723961201,-0.2687899123852832
1069,-0.4979064616227926,-0.5255621572824409,-0.6348002559896794,-0.31729563584625503
1070,-0.5770944908711332,-0.6097574493595718,-0.7379209040906944,-0.3721811818663619
1071,-0.6648528132525302,-0.7032497169433405,-0.8524953086682011,-0.43390110128111603
1072,-0.7615249918417072,-0.8064563306838916,-0.9789897840712022,-0.5028906679722882
1073,-0.867397315792035,-0.919738769421671,-1.117780336396388,-0.5795585943325153
1074,-0.9826920359404478,-1.0433944907496464,-1.2691392891363302,-0.6642796343124584
1075,-1.1075614070346815,-1.177649386293432,-1.433222848326656,-0.7573871876729008
1076,-1.2420826501813251,-1.322650964758493,-1.6100599361067245,-0.8591660214061924
1077,-1.3862539236977545,-1.4784623925516884,-1.7995426102270315,-0.9698452241134345
1078,-1.5399913636370826,-1.6450575062442307,-2.001418366744013,-1.0895915064130413
1079,-1.7031272279452898,-1.8223168937375678,-2.2152845938730072,-1.2185029553206053
1080,-1.8754091515498248,-2.010025122142774,-2.440585406951741,-1.3566033432062394
1081,-2.0565004946114254,-2.207869170493644,-2.676611048288701,-1.5038370827353553
1082,-2.24598174353858,-2.4154381048851405,-2.9224999822907183,-1.6600649085435908
1083,-2.443352904912606,-2.6322240128692482,-3.1772437569660474,-1.8250603547510795
1084,-2.6480368168019,-2.8576241933651074,-3.439694639225432,-1.9985070852786488
1085,-2.8593832904321945,-3.0909445783572007,-3.7085759650887775,-2.1799971217913496
1086,-3.0766739879287366,-3.3314043436376792,-3.9824950788199245,-2.369030002451665
1087,-3.299127938703851,-3.5781416481052757,-4.259958669123886,-2.565012893962045
1088,-3.5259075976681236,-3.830220424887454,-4.539390247873183,-2.7672616699822
1089,-3.7561253522496374,-4.086638132933674,-4.819149459411498,-2.9750029611757127
1090,-3.9888503914909643,-4.346334364774184,-5.097552858275206,-3.1873771759855685
1091,-4.223115858398363,-4.60820019481173,-5.37289575197126,-3.403442486702645
1092,-4.457926215338936,-4.87108814272285,-5.643474674765359,-3.6221797722333875
1093,-4.692264760778632,-5.133822618180707,-5.9076100393740845,-3.842498506768978
1094,-4.925101243300453,-5.395210706080402,-6.1636685066201,-4.063243581738253
1095,-5.155399525025897,-5.65405314571227,-6.410084618545435,-4.2832030463323605
1096,-5.382125250777808,-5.909155352932006,-6.645381257696252,-4.5011167488369175
1097,-5.604253481207091,-6.159338331456039,-6.868188523359609,-4.715685856338863
1098,-5.820776247488441,-6.403449318187107,-7.077260653196773,-4.9255832234955435
1099,-6.030709982108135,-6.6403720082206465,-7.271490664533549,-5.129464571470563
1100,-6.233102774934393,-6.8690362081721945,-7.449922442003676,-5.325980425500141
1101,-6.427041396541736,-7.088426771928583,-7.611760055746375,-5.513788743673321
1102,-6.611658022181517,-7.297591681004778,-7.756374155398344,-5.69156815040883
1103,-6.786136580569049,-7.495649142426928,-7.883305348172018,-5.858031666045781
1104,-6.949718642679074,-7.681793590405912,-7.992264532861267,-6.01194079945818
1105,-7.101708757972033,-7.8553004938824795,-8.083130224179513,-6.152119844470249
1106,-7.241479139854723,-8.015529890134195,-8.155942962010087,-6.2774701941913325
1107,-7.368473599558233,-8.161928584828509,-8.210896956672235,-6.386984461539455
1108,-7.482210628715724,-8.29403098096028,-8.248329173086427,-6.479760170664877
1109,-7.582285536298563,-8.411458522774051,-8.268706102851134,-6.555012764244634
1110,-7.668371555539843,-8.513917765735812,-8.272608513008151,-6.612087657163036
1111,-7.7402198510565094,-8.601197109499742,-8.260714493192308,-6.650471059228592
1112,-7.797658375289136,-8.673162257115536,-8.233781148710102,-6.669799289367275
1113,-7.840589546086078,-8.72975048983663,-8.192625305905466,-6.669866311921735
1114,-7.868986743068609,-8.770963872124414,-8.13810360817224,-6.650629242672899
1115,-7.882889648505491,-8.7968615250682,-8.071092386459052,-6.612211598030822
1116,-7.882398487886679,-8.807551127745263,-7.992467687330738,-6.554904095235968
1117,-7.8676672552731395,-8.80317982439712,-7.90308583473971,-6.479162853791233
1118,-7.838896037906432,-8.783924730168756,-7.8037648886690185,-6.385604897851663
1119,-7.796322582654919,-8.74998323913344,-7.695267344776992,-6.275000914811226
1120,-7.740213272858237,-8.701563345097172,-7.578284394215816,-6.148265285486933
1121,-7.6708537071982414,-8.638874188031773,-7.4534220321659514,-6.006443464554986
1122,-7.588539091539475,-8.56211703680875,-7.321189267727399,-5.850696854534089
1123,-7.493564669444515,-8.471476912186846,-7.1819886471942995,-5.682285380817691
1124,-7.386216426578444,-8.367115042843608,-7.036109258099933,-5.502548037146872
1125,-7.266762307895967,-8.249162331845907,-6.883722333552829,-5.312881728596123
1126,-7.135444183902064,-8.117713991634488,-6.7248795261725745,-5.114718790784582
1127,-6.992470793086175,-7.972825482750911,-6.55951386932807,-4.909503607929007
1128,-6.838011871758526,-7.814509865630739,-6.387443391410813,-4.698668787024674
1129,-6.6721936601504925,-7.642736646354273,-6.208377297664036,-4.483611369638338
1130,-6.495095945243622,-7.457432166868531,-6.021924584851542,-4.265669575593878
1131,-6.3067507670591905,-7.258481558502807,-5.8276049080601355,-4.046100573646235
1132,-6.107142876945383,-7.0457322452657,-5.624861477436799,-3.826059762862015
1133,-5.896211994780804,-6.818998951132028,-5.413075726794996,-3.6065820250126617
1134,-5.673856868163292,-6.578070134000444,-5.191583466702617,-3.388565373346912
1135,-5.439941091860617,-6.322715738893609,-4.959692212535743,-3.1727573774816897
1136,-5.194300601348478,-6.052696134888196,-4.716699363405523,-2.959744688973482
1137,-4.936752711346221,-5.767772074733094,-4.461910900906708,-2.749945928807941
1138,-4.66710652996455,-5.467715493598145,-4.194660277069745,-2.5436081281835436
1139,-4.385174542381963,-5.152320944295454,-3.914327168198726,-2.3408068393211545
1140,-4.090785125746708,-4.821417450994826,-3.6203557846277254,-2.141449955443151
1141,-3.7837957300064033,-4.474880552249661,-3.312272444771086,-1.9452852003979537
1142,-3.4641064381985145,-4.1126442973559145,-2.989702143988017,-1.75191117049037
1143,-3.1316736048716627,-3.7347129579201783,-2.6523838735432292,-1.5607917356580232
1144,-2.786523263144646,-3.341172219161678,-2.300184471264653,-1.3712735358152386
1145,-2.428763989749373,-2.932199622951894,-1.933110812517962,-1.1826062424080686
1146,-2.05859892338373,-2.5080740468043814,-1.551320177200727,-0.9939651962542649
1147,-1.6763366447220984,-2.0691840197141262,-1.1551286551807127,-0.8044759816709505
1148,-1.2824006461361759,-1.6160346965000205,-0.7450174787208621,-0.613240454629235
1149,-0.8773371449810922,-1.1492533365686286,-0.3216371958566673,-0.41936370992984123
1150,-0.4618210254248538,-0.6695931601123952,0.11419037654396333,-0.22198144966439864
1151,-0.03665972929663431,-0.17793548391085978,0.5614724570606447,-0.020287202789271524
1152,1.3126975071475025e-15,-4.0602081830004504e-14,-2.1980163457644894e-14,-4.601181783862242e-14
1153,4.894376971295652e-14,-8.846381531924178e-13,-4.3055768673618556e-13,-1.0051460143801158e-12
1154,-1.1970960760575354e-13,-1.0549738514646389e-11,-5.131890331337888e-12,-1.1901518527317394e-11
1155,-7.10165982717494e-12,-8.427333721049502e-11,-4.119464365317004e-11,-9.419096872837829e-11
1156,-8.048298285020631e-11,-5.071117473854871e-10,-2.495225022858941e-10,-5.605145367381022e-10
1157,-5.717473313600371e-10,-2.458531173671149e-09,-1.2197413811723907e-09,-2.6830106667717652e-09
1158,-3.049241495920211e-09,-1.0030532309940604e-08,-5.027117581418612e-09,-1.079321204272629e-08
1159,-1.3190800500882125e-08,-3.551177141202859e-08,-1.8014941421490464e-08,-3.763885520134584e-08
1160,-4.8407251040957215e-08,-1.1161979679518465e-07,-5.742781812522375e-08,-1.1645356849548039e-07
1161,-1.5530212579349546e-07,-3.1703259746690057e-07,-1.657313306451232e-07,-3.2548129892686006e-07
1162,-4.452616093228577e-07,-8.251982296883429e-07,-4.39019528659607e-07,-8.336732506360147e-07
1163,-1.160287001868081e-06,-1.9908906352060593e-06,-1.0794064559549754e-06,-1.97983027429044e-06
1164,-2.785268319462844e-06,-4.494062920606377e-06,-2.48569007859127e-06,-4.401379983604251e-06
1165,-6.22682036703945e-06,-9.565799350481535e-06,-5.401677414381278e-06,-9.232938246787325e-06
1166,-1.3082094029292264e-05,-1.9326033398733968e-05,-1.1147015961095191e-05,-1.83984205314689e-05
1167,-2.6023140608298545e-05,-3.726655729717211e-05,-2.1960696729067425e-05,-3.5023329376914266e-05
1168,-4.9322961594357444e-05,-6.891505972478801e-05,-4.149199266515174e-05,-6.399557285851789e-05
1169,-8.954793489971522e-05,-0.0001227159011994155,-7.547684934467309e-05,-0.00011270346110131943
1170,-0.00015643767148519857,-0.00021116058881942175,-0.0001326390455939601,-0.00019197816816449373
1171,-0.00026398753720045196,-0.00035219512584629706,-0.00022585425548557055,-0.0003172648094848857
1172,-0.0004317412675150659,-0.0005709224789515606,-0.00037361106530573064,-0.0005100413312935775
1173,-0.0006862916422001663,-0.0009016064559240757,-0.0006017958117776878,-0.0007994976768903689
1174,-0.0010629765363550268,-0.0013899686964423648,-0.0009458178165582599,-0.0012244792876871455
1175,-0.0016077464118447965,-0.0020957538681467803,-0.0014530784287952456,-0.001835689066516954
1176,-0.002379168132487867,-0.0030955203687287364,-0.0021857716785377923,-0.0026981306769748316
1177,-0.0034505195613508677,-0.004485595873873086,-0.0032239868586065984,-0.0038937637391330605
1178,-0.0049119203639734635,-0.006385120051349138,-0.004669064652120628,-0.005524328459201615
1179,-0.006872437366624472,-0.0089390817956431,-0.006647139221943621,-0.007714283953947529
1180,-0.009462098209836975,-0.012321246433262802,-0.009312779724092345,-0.01061379156473194
1181,-0.012833745304356717,-0.016736860317148997,-0.012852626769432484,-0.014401662463919844
1182,-0.017164663484083176,-0.02242501662241441,-0.017488903220432152,-0.0192881785712934
1183,-0.022657919285434504,-0.02966056724431498,-0.02348266515520027,-0.025517687973185953
1184,-0.02954335728297281,-0.03875547147177146,-0.03113664862173966,-0.03337087137250871
1185,-0.038078209033004976,-0.05005948229438415,-0.040797561659273486,-0.043166575154080164
1186,-0.04854728243844451,-0.06396008530055632,-0.0528576696302491,-0.05526310976950297
1187,-0.061262713109893126,-0.0808816224643748,-0.06775552573815886,-0.07005891940415168
1188,-0.07656327374680774,-0.1012835529062297,-0.08597570812066907,-0.08799254007599148
1189,-0.09481325175773911,-0.12565782409567164,-0.10804744034588902,-0.10954177794979765
1190,-0.11640091831159696,-0.15452534908909055,-0.1345419935290366,-0.13522205701477252
1191,-0.14173662286412428,-0.18843160744117987,-0.16606879541608793,-0.16558390448381347
1192,-0.1712505551582394,-0.22794140864930798,-0.20327020418886887,-0.20120956236391388
1193,-0.20539022113144212,-0.2736328767315821,-0.2468149417080674,-0.24270873367049078
1194,-0.2446176796704293,-0.3260907322699216,-0.29739022142234317,-0.2907134908668779
1195,-0.28940658362465604,-0.3858989635765273,-0.35569264893506713,-0.34587239162364203
1196,-0.34023906117063996,-0.45363299132797136,-0.42241801665411816,-0.4088438624392846
1197,-0.3976024630820075,-0.5298514409767894,-0.4982501562414039,-0.4802889237988751
1198,-0.46198598854346395,-0.6150876445642136,-0.5838490517830863,-0.5608633413389787
1199,-0.5338771878920847,-0.7098409984077443,-0.6798384507885634,-0.6512092960770764
1200,-0.6137583262896207,-0.8145683057923957,-0.7867932375437605,-0.7519466734046678
1201,-0.7021025791522542,-0.9296752345619718,-0.9052268525700942,-0.863664075541311
1202,-0.7993700195133755,-1.0555080186930277,-1.0355790519972303,-0.986909665814591
1203,-0.9060033505408933,-1.1923455308107918,-1.1782043010787735,-1.1221819557539157
1204,-1.0224233340785889,-1.3403918493809521,-1.333361086920348,-1.2699206477918055
1205,-1.1490238689268424,-1.4997694401072648,-1.5012024172821665,-1.4304976474991047
1206,-1.2861666808968721,-1.6705130659126841,-1.6817677459856573,-1.604208359789782
1207,-1.4341756003933035,-1.8525645337235375,-1.8749765321975376,-1.7912633833861218
1208,-1.5933304219575788,-2.0457683789841687,-2.0806236020558866,-1.9917807169614015
1209,-1.763860363043359,-2.249868580230938,-2.2983764381903664,-2.205778588697588
1210,-1.945937165242236,-2.4645063859638823,-2.5277744771303308,-2.433169018456923
1211,-2.1396679090428985,-2.6892193243072127,-2.768230447807628,-2.673752218341424
1212,-2.345087641738538,-2.9234414524347425,-3.019033737691252,-2.9272119330876527
1213,-2.562151946015335,-3.166504887418846,-3.2793557277922063,-3.1931118164922636
1214,-2.790729602779496,-3.4176426430939477,-3.5482569949988316,-3.4708929338407244
1215,-3.0305955246967025,-3.675992778845866,-3.8246962409800966,-3.759872473036406
1216,-3.281424155644349,-3.940603846160645,-4.107540772126394,-4.059243738682085
1217,-3.54278354488835,-4.210441597573046,-4.3955783254145935,-4.368077493604828
1218,-3.8141303124976598,-4.484396900689327,-4.687530011211471,-4.685324701083926
1219,-4.094805723618275,-4.761294777620859,-4.982064126162842,-5.009820708197629
1220,-4.384033083210945,-5.039904467906664,-5.277810577514423,-5.340290896127347
1221,-4.6809166493995775,-5.318950391322761,-5.573375654310177,-5.675357806851482
1222,-4.9844422426274955,-5.597123866407962,-5.86735688055369,-6.013549737361128
1223,-5.293479699573728,-5.8730954216354405,-6.158357690092047,-6.353310772323627
1224,-5.606787285670793,-6.145527519486402,-6.44500167210922,-6.693012204076965
1225,-5.923018138765844,-6.413087499784741,-6.725946149131792,-7.030965265137285
1226,-6.240728769940272,-6.674460538050833,-6.999894865883461,-7.365435073349352
1227,-6.558389596992064,-6.928362407803155,-7.265609586862059,-7.694655663836264
1228,-6.874397433051921,-7.1735518330822075,-7.521920422999494,-8.016845955550554
1229,-7.187089798851467,-7.408842219297654,-7.767734733152117,-8.33022647412505
1230,-7.494760873989942,-7.63311255699011,-8.002044474401654,-8.633036627562078
1231,-7.795678851929856,-7.8453173042964925,-8.223931906044902,-8.923552307822735
1232,-8.088104417186562,-8.04449506970472,-8.432573585310914,-9.20010357034617
1233,-8.370310022957456,-8.229775936823907,-8.627242627617973,-9.461092125710453
1234,-8.640599614738642,-8.400387296987496,-8.807309239708438,-9.70500836379139
1235,-8.897328421485518,-8.555658083033272,-8.972239569299182,-9.930447621578782
1236,-9.13892242148022,-8.69502132794825,-9.121592948970983,-10.136125401884398
1237,-9.363897085870653,-8.81801500452465,-9.255017643999912,-10.320891252031052
1238,-9.570875009112168,-8.924281135977498,-9.372245242975954,-10.483741019656765
1239,-9.758602052168731,-9.013563201825967,-9.473083855813666,-10.623827217313352
1240,-9.925961650855857,-9.085701897440886,-9.557410305739738,-10.740467248796355
1241,-10.071986977389297,-9.140629338754488,-9.625161519725777,-10.833149278198876
1242,-10.195870687102024,-9.178361835028273,-9.67632533530222,-10.901535557461479
1243,-10.29697203329371,-9.198991381677324,-9.71093095038855,-10.945463069423036
1244,-10.374821189978944,-9.202676051428723,-9.729039246352912,-10.964941390559968
1245,-10.429120683413645,-9.189629485087911,-9.730733212717249,-10.960147729976528
1246,-10.45974389708743,-9.160109702492582,-9.716108694701905,-10.931419157752522
1247,-10.46673067970856,-9.11440746948912,-9.685265672379817,-10.879242095198519
1248,-10.45028014990873,-9.052834467663475,-9.6383002630774,-10.80423920045214
1249,-10.41074085330284,-8.975711519850465,-9.57529761751987,-10.707153843593971
1250,-10.34859848554308,-8.883357125958872,-9.496325855891513,-10.588832424449004
1251,-10.264461447615131,-8.776076560292848,-9.401431163309613,-10.450204841867524
1252,-10.159044545538897,-8.654151773313584,-9.290634135984876,-10.292263474011259
1253,-10.033151184783273,-8.517832327740498,-9.163927440255124,-10.116041073564771
1254,-9.887654439227175,-8.367327581189585,-9.021274817316757,-9.922588018531599
1255,-9.723477394766746,-8.202800305417963,-8.86261143733787,-9.712949387181743
1256,-9.541573178331795,-8.024361906002355,-8.687845578160058,-9.488142343772765
1257,-9.342905084134097,-7.832069376320105,-8.496861576401674,-9.249134329039205
1258,-9.1284272007857,-7.625924086501417,-8.289523972877499,-8.996822545536785
1259,-8.899065926155675,-7.405872472130713,-8.06568275027906,-8.732015212430277
1260,-8.65570273234766,-7.171808649512282,-7.825179539483792,-8.455415037237355
1261,-8.399158512000477,-6.9235789449575496,-7.567854652198893,-8.16760531371883
1262,-8.130179800374048,-6.6609882855257885,-7.293554782463061,-7.8690390061721835
1263,-7.849427126578463,-6.383808358726809,-7.002141208403526,-7.560031121757321
1264,-7.557465702999166,-6.091787409677234,-6.6934983190979125,-7.240754605353308
1265,-7.254758615520488,-5.784661506919355,-6.36754228979255,-6.9112399172667836
1266,-6.941662629472679,-5.462167073399572,-6.024229732189539,-6.571378374573531
1267,-6.618426678117125,-5.12405444778099,-5.663566154796984,-6.220929253842288
1268,-6.285193052619024,-4.770102214097946,-5.285614080829318,-5.859530568455974
1269,-5.942001265375508,-4.400132015423076,-4.890500686926822,-5.486713349777365
1270,-5.588794512667778,-4.014023550261838,-4.478424843930973,-5.101919180094987
1271,-5.2254286182078555,-3.6117294392419357,-4.0496634599647905,-4.704520648695827
1272,-4.851683296606487,-3.193289644639484,-3.604577045079814,-4.293844332520437
1273,-4.467275535562809,-2.7588451266026746,-3.143614434880727,-3.869195841489756
1274,-4.071874858239208,-2.30865042773539,-2.667316627188489,-3.4298864173669195
1275,-3.665120193450258,-1.843084892031412,-2.176319700539781,-2.975260535280093
1276,-3.2466380515707662,-1.3626622449310561,-1.671356795905052,-2.5047239298160053
1277,-2.8160616790444624,-0.8680382882936778,-1.153259153314543,-2.01777145357232
1278,-2.3730508446128953,-0.36001649697298416,-0.622956203053952,-1.5140141755248144
1279,-1.9173118963691143,0.16044865808637815,-0.08147471673926704,-0.9932051394414074
1280,1.7826314122957874e-14,-4.5162135902790375e-14,-4.287959098577553e-14,-4.118978659594776e-14
1281,4.680774290317658e-13,-9.797533609971022e-13,-9.376842952137356e-13,-8.982485301637082e-13
1282,5.011202600295336e-12,-1.168104234306212e-11,-1.1295040607283211e-11,-1.0678129844414437e-11
1283,3.449968113384889e-11,-9.319357523924132e-11,-9.144990490157184e-11,-8.491469130466783e-11
1284,1.7177442356500483e-10,-5.595868800971395e-10,-5.595744962533203e-10,-5.080507676619991e-10
1285,6.518604460757799e-10,-2.7047059016523654e-09,-2.765864496215469e-09,-2.4462453354997473e-09
1286,1.910251083126925e-09,-1.0992304481944602e-08,-1.1525588030386349e-08,-9.902592152129184e-09
1287,4.133294434723704e-09,-3.873847129778506e-08,-4.1714183560854264e-08,-3.4759727309053044e-08
1288,4.9718133341408605e-09,-1.2113288320241102e-07,-1.3403865026657088e-07,-1.0827314996794836e-07
1289,-7.565803367347806e-09,-3.421303032168033e-07,-3.889021719677434e-07,-3.04705714252117e-07
1290,-7.258234868854526e-08,-8.853290428892043e-07,-1.032636657519514e-06,-7.859136380129625e-07
1291,-2.931345435335022e-07,-2.123343974982793e-06,-2.5369139055512907e-06,-1.8795524742035604e-06
1292,-9.057130709764957e-07,-4.765159449306742e-06,-5.819226988052481e-06,-4.2080056841724865e-06
1293,-2.400425338638546e-06,-1.0086182726828082e-05,-1.2559052138857721e-05,-8.889874090637768e-06
1294,-5.7149774661716365e-06,-2.0270787460086986e-05,-2.5669630612898486e-05,-1.7840517382853864e-05
1295,-1.2530370120691513e-05,-3.8901539698341735e-05,-4.99682821557364e-05,-3.420222900557914e-05
1296,-2.570026882208739e-05,-7.163248611528805e-05,-9.30880256411177e-05,-6.293760155319225e-05
1297,-4.984867750925747e-05,-0.00012708529243104537,-0.00016666959596775766,-0.00011162091382191219
1298,-9.217128747037081e-05,-0.0002180061182254744,-0.0002878655857612832,-0.0001914613719406551
1299,-0.0001634742776396062,-0.0003627174571249659,-0.00048117754765010566,-0.00031858828231206134
1300,-0.00027948014052233604,-0.0005868924505179193,-0.0007806328025865328,-0.0005156214072652059
1301,-0.0004624231802631715,-0.0009256692714956006,-0.001232290892259406,-0.0008135397728670082
1302,-0.0007429477203901966,-0.001426110154849501,-0.0018970507056924547,-0.0012538492480324932
1303,-0.0011623100095458007,-0.002149993819482974,-0.002853709067216203,-0.001891033748146797
1304,-0.001774870755730628,-0.003176911904903874,-0.004202200912632209,-0.002795257626272261
1305,-0.0026508497207909138,-0.004607620327556158,-0.006066931149073131,-0.004055268580729937
1306,-0.0038792975062345676,-0.0065675760113244825,-0.00860009001957997,-0.005781432228600221
1307,-0.005571223244196454,-0.009210569215453502,-0.011984828415706493,-0.008108812404154744
1308,-0.007862801109542355,-0.01272234267121582,-0.016438158162656202,-0.011200196225533018
1309,-0.010918564164334373,-0.017324071933807063,-0.02221343571730014,-0.015248950912411269
1310,-0.014934481788995656,-0.023275567693369987,-0.029602286557900887,-0.020481590977545774
1311,-0.02014080751452892,-0.030878051119142266,-0.038935832043529225,-0.027159930350375373
1312,-0.02680457800188076,-0.04047634837316677,-0.050585090570804944,-0.0355826946446708
1313,-0.03523164166547864,-0.052460350824137275,-0.06496044005618702,-0.046086474381621854
1314,-0.04576809734256156,-0.06726559364330047,-0.08251004852922571,-0.05904591053829628
1315,-0.058801029641252715,-0.08537281758715284,-0.10371720324588296,-0.07487301910533158
1316,-0.07475843811796747,-0.10730639683860979,-0.12909649551814484,-0.09401558099260146
1317,-0.09410827198579128,-0.13363153950307008,-0.1591888477384934,-0.1169545470018969
1318,-0.11735650023313716,-0.16495019619596893,-0.19455540023158013,-0.14420043388984918
1319,-0.14504416833029293,-0.20189564533357787,-0.23577030798643048,-0.17628871581332298
1320,-0.17774341652000555,-0.24512576026200175,-0.2834125303821573,-0.21377424461547345
1321,-0.21605246030957284,-0.2953150020765758,-0.33805673001417746,-0.2572247613612427
1322,-0.2605895603844684,-0.35314522162291717,-0.40026342882914934,-0.3072135891771276
1323,-0.31198603588690627,-0.4192953933945014,-0.47056860001073736,-0.36431162278785434
1324,-0.3708784010192204,-0.49443044150044246,-0.5494729013193527,-0.4290787523073424
1325,-0.4378997294748048,-0.5791893522596709,-0.6374307787068177,-0.5020548771510236
1326,-0.513670373561516,-0.6741727980560238,-0.7348396868635865,-0.5837506799166899
1327,-0.5987881844403548,-0.7799305217654656,-0.8420296849081914,-0.6746383394631166
1328,-0.6938183961795032,-0.8969487494189874,-0.9592536699081569,-0.7751423671109543
1329,-0.7992833490425958,-1.0256379100838127,-1.0866785078117018,-0.8856307499542388
1330,-0.9156522364899652,-1.1663209457621107,-1.2243773104489584,-1.0064065808715217
1331,-1.0433310657693116,-1.3192224902061263,-1.37232308860357,-1.137700346221184
1332,-1.182653023733545,-1.4844591839766366,-1.5303839851035452,-1.279663029722968
1333,-1.3338694376949383,-1.6620313741313621,-1.6983202590177415,-1.4323601750419368
1334,-1.4971415157926098,-1.8518164211695847,-1.875783153173316,-1.5957670305097604
1335,-1.672533042631426,-2.0535638040458655,-2.0623157333411517,-1.7697648776828856
1336,-1.8600041939453398,-2.2668921771427906,-2.257355739782147,-1.954138621537528
1337,-2.0594066188047027,-2.49128849212952,-2.4602404417983625,-2.1485756945908507
1338,-2.270479919471416,-2.7261092537700864,-2.670213435017313,-2.352666300736274
1339,-2.4928496375064135,-2.9705839331451056,-2.886433270957595,-2.565904997764575
1340,-2.726026830336687,-3.2238205155583644,-3.1079837605795175,-2.7876935911244956
1341,-2.9694092954563813,-3.484813114719194,-3.3338857495328957,-3.017345286180501
1342,-3.2222844700948086,-3.7524515406761623,-3.563110124037311,-3.254090022748231
1343,-3.483834002949644,-4.0255326674239225,-3.7945917739122734,-3.4970808946537377
1344,-3.7531399620073405,-4.302773408045847,-4.027244214102825,-3.7454015389798334
1345,-4.029192609247776,-4.582825071538668,-4.259974548734794,-3.9980743649028936
1346,-4.310899639935341,-4.864288846829543,-4.491698452647607,-4.2540694808163
1347,-4.597096752030073,-5.145732136537143,-4.721354844646557,-4.512314170872836
1348,-4.886559380803467,-5.425705446178282,-4.947919934371817,-4.771702768107149
1349,-5.178015405830308,-5.702759524031989,-5.170420340498223,-5.031106770728919
1350,-5.470158613004467,-5.9754624428130585,-5.38794500153356,-5.289385050684913
1351,-5.761662673938311,-6.2424163165747,-5.599655631076191,-5.545394008752077
1352,-6.0511953898151445,-6.502273354605991,-5.8047955060510725,-5.797997537760559
1353,-6.337432937099613,-6.753750968152127,-6.002696417964845,-6.046076664547327
1354,-6.6190738489524,-6.995645665124632,-6.192783662269236,-6.288538751405665
1355,-6.8948524690541015,-7.226845492094291,-6.374578988107586,-6.524326148660393
1356,-7.163551623906214,-7.446340811242542,-6.547701478657389,-6.752424201172749
1357,-7.424014275353774,-7.65323323201848,-6.711866379614364,-6.971868522778147
1358,-7.675153936598339,-7.846742552393395,-6.8668819387752436,-7.181751463720563
1359,-7.915963661670485,-8.026211602158078,-7.012644361926622,-7.381227707017742
1360,-8.145523449402958,-8.191108919955118,-7.1491310282342075,-7.569518940413987
1361,-8.363005937482647,-8.341029235920617,-7.276392141166591,-7.745917561260436
1362,-8.567680299158349,-8.475691772142154,-7.394541018079726,-7.9097893824548615
1363,-8.758914293580828,-8.594936412834185,-7.5037432426479835,-8.060575318631901
1364,-8.936174459512248,-8.69871783443619,-7.604204919377579,-8.19779204325783
1365,-9.099024480323427,-8.787097722066896,-7.6961602787771,-8.32103161923971
1366,-9.247121784971828,-8.860235232328563,-7.779858885912052,-8.429960118141256
1367,-9.380212484282918,-8.918375892856618,-7.855552704737459,-8.52431525608346
1368,-9.498124773688977,-8.961839155863048,-7.923483266586742,-8.603903087822673
1369,-9.600760962083138,-8.991004845927879,-7.983869184308104,-8.668593814212182
1370,-9.68808831126337,-9.006298761234795,-8.03689424448346,-8.7183167720819
1371,-9.76012889136228,-9.00817770216987,-8.082696299416819,-8.75305468928469
1372,-9.816948674555881,-8.99711421159155,-8.121357168306814,-8.77283730100068
1373,-9.85864610211067,-8.973581317040404,-8.152893743058812,-8.777734436095221
1374,-9.885340368381275,-8.93803756660169,-8.177250478120168,-8.767848694120186
1375,-9.897159669691343,-8.890912646983471,-8.194293424992471,-8.743307844146491
1376,-9.894229666167785,-8.832593864563211,-8.203805950203943,-8.704257085710726
1377,-9.876662400632313,-8.763413757648602,-8.205486250258481,-8.650851319411215
1378,-9.84454591065283,-8.68363909099338,-8.198946748490775,-8.583247579729242
1379,-9.797934757880109,-8.593461461763482,-8.183715427266412,-8.501597785088167
1380,-9.73684168293244,-8.492989719792277,-8.159239115258904,-8.406041959603058
1381,-9.661230574479214,-8.382244374324541,-8.124888714451567,-8.296702077060901
1382,-9.571010917993373,-8.261154124878352,-8.079966315918469,-8.173676670144085
1383,-9.466033863119051,-8.12955461584278,-8.02371411814103,-8.037036336654696
1384,-9.346090019053696,-7.9871894736175975,-7.955325027307283,-7.886820259582146
1385,-9.210909055242693,-7.833713642267284,-7.873954786287204,-7.72303383953805
1386,-9.06016115066143,-7.66869898969892,-7.7787354482498445,-7.545647516790173
1387,-8.893460299750181,-7.491642112251066,-7.668789982615615,-7.354596836449227
1388,-8.710369447439653,-7.301974222301621,-7.543247775679198,-7.149783785015462
1389,-8.510407390422563,-7.099072962059335,-7.401260766335237,-6.931079400278199
1390,-8.293057347661575,-6.882275948041423,-7.242019939521789,-6.698327630312457
1391,-8.057777070852287,-6.650895815728578,-7.064771886950094,-6.4513503918348025
1392,-7.804010335907435,-6.404236503298504,-6.868835137091431,-6.189953754194918
1393,-7.531199630103081,-6.141610487825149,-6.653615954849001,-5.913935153411985
1394,-7.2387998267873295,-5.86235666741896,-6.418623316329531,-5.623091521404151
1395,-6.92629262083057,-5.565858568862073,-6.163482775920312,-5.317228199239241
1396,-6.593201483530567,-5.251562552602594,-5.887948961470197,-4.996168490030606
1397,-6.2391068856177165,-4.91899568560219,-5.591916458417591,-4.659763697037401
1398,-5.86366153135654,-4.567782957414014,-5.275428874489196,-4.307903485499047
1399,-5.466605345423563,-4.197663525777665,-4.9386859120712305,-3.940526402522605
1400,-5.047779957113687,-3.8085056945784093,-4.582048314274695,-3.5576303876435085
1401,-4.60714243332292,-3.40032034871568,-4.206040591735629,-3.159283107126877
1402,-4.1447780224776904,-2.9732725966385014,-3.8113514790057046,-2.74563194728245
1403,-3.6609116858551247,-2.5276914013339535,-3.3988321108173847,-2.316913505674098
1404,-3.1559182101950545,-2.0640770136632343,-2.9694919485328652,-1.8734624238253381
1405,-2.6303307157196767,-1.5831060573943696,-2.524492524835018,-1.4157194106526632
1406,-2.0848473962230396,-1.085634152385048,-2.0651391094281997,-0.9442383122919308
