,TP9,AF7,AF8,TP10
0,2.995723314550843e-14,-3.0844687994060054e-14,-2.575125459463962e-14,-5.03136926693761e-14
1,7.673660289686235e-13,-6.599871408903906e-13,-5.241997606913332e-13,-1.1057328880618439e-12
2,9.015201069230602e-12,-8.001824580785807e-12,-6.263710165126856e-12,-1.3214455973970086e-11
3,6.991919671891482e-11,-6.497531443097373e-11,-5.031785088555918e-11,-1.0558894150063051e-10
4,4.0496707832055397e-10,-3.9714195108085683e-10,-3.0496437673708306e-10,-6.35200297416147e-10
5,1.8719769620328142e-09,-1.953935407730256e-09,-1.4906948184629772e-09,-3.077171570450574e-09
6,7.204999077070453e-09,-8.082774362288169e-09,-6.136550963348437e-09,-1.2540102887688897e-08
7,2.3784150053006373e-08,-2.8989171938882815e-08,-2.1930809483084544e-08,-4.433270790567319e-08
8,6.883001786902181e-08,-9.223210447260228e-08,-6.95979707782355e-08,-1.391182475543074e-07
9,1.7757563982052176e-07,-2.6497325086924856e-07,-1.9959500297273956e-07,-3.9445076781695477e-07
10,4.137555344173276e-07,-6.97144802649666e-07,-5.245316035027382e-07,-1.0248989454435636e-06
11,8.79377685733548e-07,-1.699085969647302e-06,-1.2776057117562604e-06,-2.4684077431915038e-06
12,1.7171120166732023e-06,-3.872317917731957e-06,-2.9114505322798755e-06,-5.562691419296064e-06
13,3.0938346834779473e-06,-8.317606852794048e-06,-6.256481245008924e-06,-1.1821749713961006e-05
14,5.148162033826053e-06,-1.694978944593751e-05,-1.2762888926980945e-05,-2.3848332839587803e-05
15,7.878582319628044e-06,-3.2953391809003517e-05,-2.485551850436685e-05,-4.592252239441439e-05
16,1.0942587965432207e-05,-6.141621267369316e-05,-4.643550070149645e-05,-8.480870285238467e-05
17,1.333168999114968e-05,-0.0001101791391536354,-8.356605085721166e-05,-0.00015082232471665626
18,1.2883049634589302e-05,-0.00019093898068931207,-0.00014538156963931785,-0.00025919344676269445
19,5.586293360981104e-06,-0.0003206366423540897,-0.00024525835940663573,-0.0004317557902455979
20,-1.5355643673038706e-05,-0.0005231552869459215,-0.0004022813163441277,-0.0006989779342961213
21,-6.07497143155222e-05,-0.0008313422336452797,-0.000643033532252039,-0.0011023376232528364
22,-0.0001469518956374197,-0.0012893544030829426,-0.0010037248173401588,-0.0016970215200640137
23,-0.000297744760350786,-0.0019553105556036777,-0.001532661036651699,-0.002554911944426318
24,-0.0005465633828926901,-0.0029042149943660917,-0.0022930394059404425,-0.0037678001806784956
25,-0.0009390639612160011,-0.004231097605180916,-0.0033660362650009706,-0.005450743946665484
26,-0.0015360115617861906,-0.0060542950044116285,-0.0048541341738101325,-0.007745465751385005
27,-0.00241644359232318,-0.008518778182919606,-0.0068846153210243245,-0.01082367029784855
28,-0.0036810447512086414,-0.011799414436058945,-0.00961312904071939,-0.014890143899047423
29,-0.0054556482264421025,-0.016104036623235885,-0.013227223504527234,-0.020185488024269657
30,-0.00789475785369606,-0.02167618190739171,-0.017949716144830225,-0.026988333342884484
31,-0.011184967811989235,-0.028797355946374635,-0.024041764789795594,-0.035616880504772706
32,-0.015548141144797618,-0.0377886776912637,-0.03180549257759073,-0.04642961964615848
33,-0.021244196728028318,-0.04901176486577403,-0.04158601521772592,-0.059825092223049055
34,-0.028573346985444437,-0.06286873093838573,-0.05377271982892526,-0.07624057600448052
35,-0.03787762637596976,-0.07980118076159617,-0.06879965103436854,-0.09614959648603333
36,-0.04954155409888764,-0.10028811361516209,-0.08714487259712464,-0.12005819510036088
37,-0.0639917841223883,-0.124842668540282,-0.10932869160299132,-0.14849991585875627
38,-0.08169561192093859,-0.15400767682954303,-0.1359106566015229,-0.18202950688722158
39,-0.10315823040147871,-0.18835001945979135,-0.16748527040588054,-0.22121537109645592
40,-0.12891865735329996,-0.22845382213277238,-0.20467639140332156,-0.26663084020964883
41,-0.15954429295759448,-0.2749125563399759,-0.2481303330991264,-0.3188443876594517
42,-0.1956241075778528,-0.3283201503408472,-0.2985077090362801,-0.3784089373551321
43,-0.2377605059208564,-0.3892612479474787,-0.35647410804610885,-0.4458504657219885
44,-0.2865599620917684,-0.4583007843679078,-0.4226897218690887,-0.5216561322867588
45,-0.3426225692684834,-0.5359730759754191,-0.49779808245715707,-0.6062622079012875
46,-0.40653069579969003,-0.6227706437833523,-0.5824140986998326,-0.700042097927859
47,-0.4788369845441983,-0.7191330078449865,-0.6771116109593049,-0.8032947788778645
48,-0.5600519722775584,-0.8254357012143679,-0.7824107058217142,-0.9162339797433854
49,-0.6506316391674236,-0.9419797571660413,-0.8987650521841579,-1.0389784424172828
50,-0.7509652230390147,-1.0689819219532413,-1.02654953266841,-1.1715435882545315
51,-0.8613636480473456,-1.206565837539277,-1.1660484510045543,-1.3138348994332847
52,-0.9820489213405784,-1.3547544246746481,-1.3174445962094945,-1.4656432942040352
53,-1.1131448435517075,-1.5134636767583876,-1.4808094379476076,-1.6266427347183396
54,-1.2546693591128157,-1.6824980495804183,-1.65609471435035,-1.7963902557296947
55,-1.4065288405518084,-1.8615476018590866,-1.8431256538548753,-1.9743285433298245
56,-1.5685145576929311,-2.0501870071131294,-2.041596046519439,-2.1597911266844654
57,-1.740301529055222,-2.2478765195533863,-2.251065348183482,-2.352010174441799
58,-1.9214498901322155,-2.453964936110362,-2.4709579633270713,-2.5501268133120027
59,-2.111408843447514,-2.6676945542391732,-2.7005648102479722,-2.753203811605426
60,-2.3095231805146326,-2.8882080816157205,-2.9390472260256875,-2.960240397664061
61,-2.515042288590436,-3.1145574101474636,-3.1854432195990308,-3.170188914483685
62,-2.7271314780445617,-3.345714123789403,-3.4386760301714463,-3.38197294964721
63,-2.9448853919120213,-3.580581568426044,-3.697564896177269,-3.5945065260340114
64,-3.1673431903154383,-3.8180082735192604,-3.960837888313028,-3.806713895449522
65,-3.3935051413768984,-4.056802480310857,-4.227146609753337,-4.017549445839891
66,-3.6223501992128098,-4.295747501083781,-4.4950825186936045,-4.2260172142685475
67,-3.852854110479595,-4.533617609263829,-4.7631945838699785,-4.43118949309145
68,-4.084007565089448,-4.769194141831086,-5.0300079438515475,-4.632224026119011
69,-4.31483389500158,-5.0012814843113045,-5.2940432069323755,-4.8283793149177985
70,-4.544405827798756,-5.228722605051815,-5.5538360016978725,-5.01902759230189
71,-4.771860819027732,-5.4504138098622095,-5.807956370120153,-5.203665069637986
72,-4.996414518540141,-5.665318400504246,-6.0550275865381575,-5.381919125662745
73,-5.21737197044422,-5.872478940814405,-6.2937439880143025,-5.553552175635237
74,-5.4341362025809286,-6.071027862089869,-6.522887414849399,-5.718462039144189
75,-5.646213928272871,-6.260196174213958,-6.74134188454453,-5.876678710884534
76,-5.853218158901968,-6.43932009009394,-6.9481061578418295,-6.028357529169133
77,-6.054867608891665,-6.607845417397074,-7.142303900892745,-6.1737688296573205
78,-6.250982862875929,-6.765329622185833,-7.3231912020165515,-6.313284264437845
79,-6.441479365931547,-6.911441522597196,-7.490161263564216,-6.447360056766357
80,-6.626357389220476,-7.04595862578853,-7.642746157469214,-6.576517546936334
81,-6.805689212590724,-7.168762176519861,-7.780615605283904,-6.701321462496471
82,-6.979603849892577,-7.279830039490114,-7.903572817834716,-6.8223564140003345
83,-7.148269719253763,-7.379227588483619,-8.011547503964639,-6.94020217362556
84,-7.311875726724203,-7.467096822215571,-8.104586230032929,-7.0554083366160425
85,-7.470611285267866,-7.5436439683504695,-8.182840379788523,-7.16846899327407
86,-7.624645830222405,-7.609125872539956,-8.246552025831592,-7.279798051289665
87,-7.774108415747013,-7.663835497701432,-8.296038077114558,-7.389705844121014
88,-7.919067983598411,-7.708086879526962,-8.331673109988685,-7.498377640965506
89,-8.059514885465612,-7.742199896932873,-8.353871321693868,-7.605854638059814
90,-8.19534421323628,-7.766485220555503,-8.36306806390702,-7.712017960512796
91,-8.32634144869801,-7.781229798350269,-8.359701419549037,-7.816576139883166
92,-8.452170886538894,-7.786683224899428,-8.344194278603638,-7.919056456865326
93,-8.57236721374677,-7.783045320378979,-8.316937348859645,-8.01880045259796
94,-8.686330546577937,-7.770455216650395,-8.27827350635833,-8.11496381829947
95,-8.793325135431466,-7.748982212187715,-8.228483849405807,-8.206520773312652
96,-8.89248185075088,-7.718618615293521,-8.167775771073671,-8.292272938421826
97,-8.982804462205499,-7.679274747278692,-8.096273310105317,-8.370862606733679
98,-9.063179621680586,-7.630776225169506,-8.014009981072439,-8.440790210748407
99,-9.132390360817705,-7.572863588429831,-7.920924223454561,-8.500435683763678
100,-9.189132818743385,-7.50519427765248,-7.816857547888783,-8.548083318734724
101,-9.23203582789249,-7.427346916776597,-7.701555397795638,-8.581949640441438
102,-9.259682908034847,-7.33882779575066,-7.574670687280521,-8.60021372953529
103,-9.270636153069434,-7.239079399277789,-7.435769922638992,-8.601049371907704
104,-9.263461443839164,-7.127490780854932,-7.284341765597814,-8.582658355811667
105,-9.23675438472612,-7.003409541096834,-7.119807851937591,-8.543304203972859
106,-9.189166343256447,-6.866155136446025,-6.941535639513184,-8.481345609854829
107,-9.119429970983184,-6.715033219660477,-6.7488530250035375,-8.39526884712454
108,-9.026383600479459,-6.549350697471883,-6.541064439119234,-8.28371843948456
109,-8.90899394663742,-6.368431183712809,-6.317468105688767,-8.145525414099449
110,-8.766376589327047,-6.171630527883863,-6.077374131298801,-7.979732514980314
111,-8.597813777123982,-5.958352109128887,-5.820123079217987,-7.7856158215148845
112,-8.402769166306545,-5.728061603199729,-5.545104674338776,-7.562702300003095
113,-8.180899193465498,-5.480300954298112,-5.251776284857361,-7.3107829103709685
114,-7.932060871479351,-5.214701313599812,-4.939680831303283,-7.0299209936859794
115,-7.65631589474621,-4.930994740612743,-4.608463784163325,-6.720455775958968
116,-7.35393103783464,-4.629024501064813,-4.257888927476823,-6.383000937123345
117,-7.025374929516312,-4.308753834517919,-3.8878525870782337,-6.018438308105998
118,-6.671311378851682,-3.97027310513788,-3.4983960481965557,-5.627906870642445
119,-6.292589518977916,-3.613805288818289,-3.0897159173697277,-5.212787341130628
120,-5.890231114906631,-3.239709787994535,-2.662172217524771,-4.774682718696464
121,-5.465415451565959,-2.848484600865619,-2.216294042044589,-4.315395266288951
122,-5.019462275384223,-2.4407669032970443,-1.7527826331643475,-3.836900469811708
123,-4.553813305105637,-2.017332128436795,-1.272511791624305,-3.341318582122398
124,-4.070012853799521,-1.5790916502180137,-0.776525567667483,-2.8308844046502326
125,-3.569688113148738,-1.1270891918373043,-0.26603322771573584,-2.3079159882612603
126,-3.054529642591346,-0.6624960886406974,0.257598464094519,-1.7747829461497175
127,-2.5262725798588197,-0.18660553657257783,0.7928555653199063,-1.2338750647265317
128,3.1235617655528444e-14,-4.808874232490062e-14,-1.695521745021878e-14,-5.133165183603772e-14
129,7.762381621054208e-13,-1.0455105373436136e-12,-3.601500247936292e-13,-1.0869694441926362e-12
130,9.072617645218312e-12,-1.25023359752426e-11,-4.56760390326905e-12,-1.29760376889837e-11
131,6.96650535654135e-11,-1.0012404816078594e-10,-3.84913426314387e-11,-1.0358485962779362e-10
132,3.982495028694588e-10,-6.039324176361467e-10,-2.418778100412491e-10,-6.230397367796705e-10
133,1.8109683147342687e-09,-2.934464626125864e-09,-1.2134584208225445e-09,-3.0193547789407238e-09
134,6.828589050798239e-09,-1.1997205669150527e-08,-5.083513100931341e-09,-1.2314060488887186e-08
135,2.1968876090454572e-08,-4.255669380356525e-08,-1.8363654598065884e-08,-4.358014190772782e-08
136,6.153891411731671e-08,-1.340028572583633e-07,-5.8605289866301515e-08,-1.369282615188131e-07
137,1.5225286739077045e-07,-3.812346231822485e-07,-1.683934025902243e-07,-3.88766781184835e-07
138,3.35743572030615e-07,-9.938038550240805e-07,-4.4228235938711883e-07,-1.0115313901785299e-06
139,6.621717713362308e-07,-2.400949012012643e-06,-1.0749554593383316e-06,-2.439568400443244e-06
140,1.1625946719498028e-06,-5.4263716918017e-06,-2.4420771685661137e-06,-5.505090103361573e-06
141,1.7807603271952052e-06,-1.1563071533028188e-05,-5.228804417668715e-06,-1.1714602627722743e-05
142,2.2370194881233753e-06,-2.338463063380211e-05,-1.0624414442342041e-05,-2.3662298995865506e-05
143,1.7887957773935986e-06,-4.5134335162108135e-05,-2.0604610075091497e-05,-4.562189507679773e-05
144,-1.1555533736878822e-06,-8.353673493458093e-05,-3.8325414154503366e-05,-8.436152635209169e-05
145,-9.618545747200464e-06,-0.00014887700736951882,-6.865388590223713e-05,-0.00015022692285656772
146,-2.8883198567066633e-05,-0.0002563912362261048,-0.00011886101373142504,-0.00025853553047717695
147,-6.762194007508004e-05,-0.0004280050052637676,-0.00019950095640479303,-0.0004313180863609982
148,-0.00013937114358919067,-0.0006944482993949904,-0.0003254982088384613,-0.0006994341136789717
149,-0.0002643876136426528,-0.0010977615899506184,-0.0005174601015918242,-0.0011050738511337937
150,-0.0004719084241925792,-0.0016941914044639396,-0.0008032261050347472,-0.0017046415211274598
151,-0.0008028160418705893,-0.002557454160961793,-0.0012196575211916966,-0.0025719940947560357
152,-0.0013126875348822605,-0.003782325346470076,-0.00181466122957947,-0.0038019866111142653
153,-0.0020751811692396333,-0.005488488203091403,-0.0026494292996045877,-0.0055142506413494085
154,-0.0031856873738067538,-0.007824553041255266,-0.00380086279317682,-0.007857107786801197
155,-0.004765145515190157,-0.010972136258656354,-0.00536413347592792,-0.011011496373389454
156,-0.006963904697821677,-0.015149868201888813,-0.007455322142493987,-0.015194767973263783
157,-0.009965487284255314,-0.020617182173389943,-0.010214057686246206,-0.020664192230014457
158,-0.013990099185950386,-0.027677724042287286,-0.013806067823165702,-0.027719994790304545
159,-0.0192977220420026,-0.036682213802805196,-0.018425541432024614,-0.036707744941066184
160,-0.026190619631912476,-0.048030587624258526,-0.02429719464705559,-0.04801990765796789
161,-0.03501509435091763,-0.062173251881936585,-0.031677928830773944,-0.062096379835476424
162,-0.046162339158418685,-0.0796112896168275,-0.04085796883208406,-0.07942384291606272
163,-0.06006824576260577,-0.10089547493889908,-0.052161374701803626,-0.10053378412975272
164,-0.07721205045362292,-0.12662397196779465,-0.06594582925150061,-0.12599906597537217
165,-0.09811372432681872,-0.1574386216932979,-0.08260161726677132,-0.15642895798544643
166,-0.12333004394925595,-0.19401975211890937,-0.10254972944783533,-0.1924625854547
167,-0.15344931110493354,-0.23707948349785607,-0.1262390447624516,-0.23476079558601445
168,-0.18908472540936055,-0.28735354045702355,-0.15414256827143727,-0.2839964910369269
169,-0.2308664505589402,-0.34559162522891124,-0.18675272693984601,-0.3408435325185269
170,-0.2794324528901049,-0.4125464498294252,-0.22457575269804797,-0.40596436413181214
171,-0.335418228742035,-0.4889615684901449,-0.26812520920542654,-0.4799965656683201
172,-0.399445573748923,-0.5755581936020594,-0.3179147454769331,-0.5635385832957897
173,-0.47211058154812213,-0.6730212174990016,-0.37445018482507564,-0.6571349321243269
174,-0.5539710904163969,-0.7819846973109504,-0.438221080554195,-0.7612611994817079
175,-0.645533822997799,-0.9030170896506529,-0.509691889739967,-0.8763092049042264
176,-0.7472414855808575,-1.0366065449816977,-0.5892929326378787,-1.002572690707208
177,-0.8594601085112149,-1.1831465872249822,-0.6774113174184597,-1.1402339246812767
178,-0.9824669177458725,-1.3429225117566026,-0.7743820178640142,-1.2893515934763247
179,-1.1164390290148933,-1.5160988339279515,-0.8804792953631254,-1.4498503515117842
180,-1.2614432505326179,-1.7027081103578097,-0.995908656039597,-1.6215123661302726
181,-1.4174272678592623,-1.9026414365555344,-1.1207995291787551,-1.8039711659030049
182,-1.5842124657001404,-2.115640897279657,-1.2551988442798419,-1.9967080564919304
183,-1.7614886166748425,-2.341294211049819,-1.3990656711094296,-2.19905131846641
184,-1.9488106370471705,-2.579031768301066,-1.5522670701803214,-2.410178345266535
185,-2.145597574772119,-2.828126214897299,-1.714575280376192,-2.629120818458539
186,-2.351133956655565,-3.08769468035699,-1.8856663463511592,-2.854772952887805
187,-2.5645735795914693,-3.3567036945365576,-2.065120261321369,-3.085902777603402
188,-2.784945786401854,-3.6339767790563915,-2.2524226714662445,-3.321166350744091
189,-3.011164220412589,-3.9182046418305565,-2.4469681569556445,-3.5591247391313017
190,-3.242038005144575,-4.2079578460234455,-2.648065072255763,-3.798263527288074
191,-3.4762852469004413,-4.501701769883998,-2.854941895548064,-4.0370145571818155
192,-3.7125487090579328,-4.797813622392097,-3.066755004598027,-4.273779540379968
193,-3.949413458035649,-5.094601232585579,-3.282597765059881,-4.506955129713267
194,-4.185426232701946,-5.390323288814307,-3.5015107878353287,-4.7349589891312
195,-4.419116242006186,-5.683210668878039,-3.7224931855152166,-4.956256359316334
196,-4.649017050462319,-5.971488473821829,-3.944514634839492,-5.169386583848646
197,-4.873689168665418,-6.2533983577287495,-4.166528033118176,-5.372989037292576
198,-5.091742927506824,-6.527220733660404,-4.387482522123587,-5.565827883542081
199,-5.301861181828673,-6.791296432280839,-4.60633664335352,-5.74681509115636
200,-5.5028213639114085,-7.044047394825001,-4.822071383790987,-5.9150311433209835
201,-5.693516391535695,-7.28399599594229,-5.033702871111855,-6.069742904470847
202,-5.87297393143838,-7.509782614410056,-5.240294481291746,-6.210418144278397
203,-6.040373528512098,-7.720181100466179,-5.440968129248679,-6.3367362729720185
204,-6.195061135264775,-7.9141118270822295,-5.634914524106917,-6.448594909519621
205,-6.336560615298135,-8.090652058229116,-5.821402184625105,-6.546111985088352
206,-6.464581848498563,-8.249043419222348,-5.999785027246556,-6.629623176679701
207,-6.579025133123536,-8.388696311528966,-6.169508359221648,-6.6996745676859035
208,-6.679981659326701,-8.509191175758541,-6.330113132541631,-6.757010540718786
209,-6.767729917860133,-8.610276570592646,-6.481238341221001,-6.802557020713498
210,-6.842728004486095,-8.69186410067475,-6.622621474868353,-6.837400300381911
211,-6.905601882666073,-8.754020291481964,-6.754096975391637,-6.8627617931460785
212,-6.957129771987872,-8.796955572438511,-6.87559268075883,-6.879969168443912
213,-6.9982229351963365,-8.821010589570635,-6.987124279437371,-6.890424428543939
214,-7.029903240269113,-8.826640124482312,-7.088787840769146,-6.895569582417081
215,-7.05327797322215,-8.814394946068298,-7.1807505292892415,-6.896850658256529
216,-7.069512469377086,-8.784901963994884,-7.263239653923643,-6.895680869067624
217,-7.079801212415803,-8.73884308754197,-7.336530244988581,-6.893403802222761
218,-7.085338118187083,-8.67693321911635,-7.400931391665258,-6.8912575406960155
219,-7.087286770467602,-8.599897828101616,-7.456771608721808,-6.890340637746872
220,-7.086751405604811,-8.508450557490436,-7.5043835322699515,-6.891580855629236
221,-7.084749449684388,-8.403271313028702,-7.544088268924308,-6.895707541031724
222,-7.082186393906234,-8.284985272784247,-7.576179739669087,-6.9032284452795585
223,-7.079833750571267,-8.15414323488286,-7.600909368037674,-6.91441170704186
224,-7.078310763890048,-8.011203693735181,-7.618471461210094,-6.929273601755216
225,-7.078070458120948,-7.856517001791921,-7.628989622100851,-6.947572528513418
226,-7.079390492528793,-7.690311936219259,-7.632504510697031,-6.968809555793587
227,-7.082369161193449,-7.512684949346318,-7.628963244508629,-6.992235686488836
228,-7.086926729246378,-7.32359233958565,-7.618210692068186,-7.016865834724316
229,-7.092812139639632,-7.122845536776009,-7.599982871343442,-7.041499335999888
230,-7.0996149603859156,-6.910109653203484,-7.573902618397141,-7.064746642078426
231,-7.10678227592902,-6.684905409176884,-7.539477642615817,-7.085061686183068
232,-7.113640062734773,-6.446614499790404,-7.496101035461478,-7.100779245918857
233,-7.119418433480929,-6.194488426841019,-7.443054252029192,-7.110156484531999
234,-7.123279991839676,-5.927660775949565,-7.3795125404460284,-7.111417719552874
235,-7.124350416383529,-5.6451628728293715,-7.304552754536578,-7.102801355497459
236,-7.121750292958794,-5.345942703508747,-7.217163450835686,-7.082607827837709
237,-7.114627144609044,-5.0288869305872295,-7.116257142043715,-7.049247341965741
238,-7.10218657030613,-4.692845781215395,-7.000684555063251,-7.001286155511491
239,-7.083721400451246,-4.336660522973209,-6.869250722177272,-6.937490146268368
240,-7.058637809013174,-3.9591931823423643,-6.720732717805617,-6.856864431498383
241,-7.0264773887532535,-3.5593580986703284,-6.55389883943296,-6.758687857524993
242,-6.986934295885864,-3.136154846308916,-6.3675290183784545,-6.642541261326779
243,-6.939866701781818,-2.6887020008969573,-6.160436232718152,-6.50832851857959
244,-6.885301949431411,-2.216271174336419,-5.931488679788738,-6.356289535560312
245,-6.823434998103801,-1.7183206985341963,-5.679632448718311,-6.187004515369998
246,-6.754619946758201,-1.1945283020597817,-5.403914414362588,-6.001389030823344
247,-6.679354649942428,-0.6448220982025376,-5.103505053374183,-5.800679664197228
248,-6.598258672735832,-0.06940918934595716,-4.77772086168012,-5.586410223003076
249,-6.512045066385541,0.5311988069900825,-4.426046031314326,-5.360378804337645
250,-6.421486675444093,1.15616398891279,-4.0481530244596335,-5.124606249976498
251,-6.327377901554033,1.8043048029684432,-3.6439216651587927,-4.881286801054998
252,-6.230493039344667,2.474083673286285,-3.2134563563736402,-4.632732015364273
253,-6.13154245739274,3.163600152693082,-2.7571010241648324,-4.381309242416227
254,-6.031128014262734,3.870590035793734,-2.2754513940040693,-4.129376152319489
255,-5.929699170627205,4.5924307725745885,-1.7693642185203342,-3.8792129757699723
256,4.227782678990864e-15,-1.4767613395520213e-13,8.705025957381897e-14,4.6680738055089466e-14
257,1.262615228686722e-13,-3.396181806172133e-12,2.067549024095131e-12,9.906738039925739e-13
258,1.4245544365170664e-12,-4.034251102398606e-11,2.3738938849625652e-11,1.0137283731905263e-11
259,1.1764716030665125e-11,-3.198116918577137e-10,1.806874969966129e-10,6.927138935020979e-11
260,7.851118715663726e-11,-1.906943186252108e-09,1.0303465164811955e-09,3.5927622134717255e-10
261,4.3173645528077005e-10,-9.146008548657484e-09,4.7086271327478484e-09,1.5201606695783275e-09
262,1.9772420358214923e-09,-3.684577338024538e-08,1.800989580850293e-08,5.499188823659919e-09
263,7.650517729071767e-09,-1.2854406889632394e-07,5.9439574465618205e-08,1.7560794634029573e-08
264,2.5430894914794485e-08,-3.972981244728909e-07,1.731523259614828e-07,5.060081332418542e-08
265,7.382224132966481e-08,-1.1073373890607439e-06,4.530770798328617e-07,1.335483251973029e-07
266,1.8987554071539227e-07,-2.823029343166152e-06,1.079801921880988e-06,3.261716347740952e-07
267,4.378861201754068e-07,-6.660071201548754e-06,2.3704407396906705e-06,7.425846898436685e-07
268,9.13383021105061e-07,-1.4681625734031261e-05,4.837540964690436e-06,1.5845883325802092e-06
269,1.7317391712972486e-06,-3.0488265822431013e-05,9.247311094555522e-06,3.1830603348376347e-06
270,2.9836652878946424e-06,-6.0054113548432265e-05,1.666054390378995e-05,6.040394199376094e-06
271,4.631336215122204e-06,-0.00011286155223433893,2.8432263406555138e-05,1.0859159341554942e-05
272,6.309776570275185e-06,-0.0002033826180552815,4.613909090348894e-05,1.8531818783976352e-05
273,6.989793372721854e-06,-0.0003529462361649662,7.139737910164288e-05,3.005428222427189e-05
274,4.4528880714156685e-06,-0.0005920168902996688,0.00010553100988409432,4.6313899752105315e-05
275,-5.473186834611577e-06,-0.000962892577571659,0.0001490459451372131,6.769249078793281e-05
276,-2.9966045804290337e-05,-0.001522808800257853,0.00020086948796926222,9.341966702263012e-05
277,-8.058577460250923e-05,-0.0023474118600364568,0.00025731580643737037,0.00012061327161894797
278,-0.0001750000722007576,-0.0035345398733448294,0.0003107453873099198,0.0001429537351024976
279,-0.00033905823511443117,-0.005208224735232686,0.00034789434310912234,0.00014895808608864696
280,-0.0006091880923696581,-0.007522803731288445,0.0003478594815799892,0.00011984667355208202
281,-0.0010350603668597693,-0.010667006659327048,0.0002797364610389449,2.7029559859525634e-05
282,-0.001682435308484146,-0.0148678642182037,9.992107820843367e-05,-0.00017072296656142768
283,-0.0026360802795268048,-0.020394267070551003,-0.0002509022055031495,-0.0005303241738803255
284,-0.004002627629524276,-0.02755999335046436,-0.000851044949558375,-0.001127494898701544
285,-0.005913232258774466,-0.03672601636326258,-0.0018013163555747394,-0.002059809733854453
286,-0.008525889059154967,-0.048301904659305915,-0.0032286679204524484,-0.003449494453111425
287,-0.012027281829492777,-0.06274613432488314,-0.005289889377764423,-0.005445802938639197
288,-0.016634055933245358,-0.08056514881922215,-0.008175247038310521,-0.008226812680760533
289,-0.022593434729292393,-0.10231102530072107,-0.012111940158806487,-0.012000498845756281
290,-0.030183132189276023,-0.12857763803014874,-0.01736723804930679,-0.017004976042943744
291,-0.03971054871926151,-0.15999524855854486,-0.024251151036712524,-0.02350783227223395
292,-0.0515112718487326,-0.19722349799121436,-0.03311848274528723,-0.03180451912748415
293,-0.06594693612424095,-0.24094282724200902,-0.044370109907304826,-0.04221580415884701
294,-0.08340252532539356,-0.2918444050974029,-0.05845333944320395,-0.05508433320750829
295,-0.10428322319037293,-0.3506186991004515,-0.07586120116338638,-0.07077039019380647
296,-0.1290109346080307,-0.41794287859409635,-0.09713054845975536,-0.08964697685064746
297,-0.15802060651881095,-0.49446729052630733,-0.1228388590927838,-0.11209436294055454
298,-0.1917564759812721,-0.5808012946590146,-0.15359965386480717,-0.13849427665168396
299,-0.2306683622158199,-0.6774987836501881,-0.19005648256319874,-0.1692239139211134
300,-0.27520810104589,-0.7850437433718506,-0.23287546360395026,-0.2046499441707561
301,-0.32582619591095424,-0.9038362283915806,-0.2827364053898494,-0.2451226792771191
302,-0.3829687318088545,-1.0341791357444428,-0.3403225822114747,-0.29097055441057235
303,-0.4470745693515648,-1.1762661563096635,-0.4063092839868626,-0.34249504609204356
304,-0.5185728074603363,-1.3301712670468346,-0.4813513055121046,-0.39996612684463867
305,-0.5978804766197845,-1.4958400992189924,-0.5660695853470499,-0.46361832914486906
306,-0.685400401381153,-1.6730834781108415,-0.6610372451591816,-0.5336474653523849
307,-0.7815191520688223,-1.8615733796220957,-0.7667653155879806,-0.6102080257037277
308,-0.8866049921340265,-2.0608414899026695,-0.8836884629901511,-0.6934112536995631
309,-1.0010057194870738,-2.2702804877875318,-1.0121510515925762,-0.7833238774551893
310,-1.1250462970773936,-2.489148098476335,-1.152393886731197,-0.8799674567964362
311,-1.2590261694167486,-2.7165738932277717,-1.3045419864008108,-0.9833182889508327
312,-1.403216167264942,-2.95156873638517,-1.4685937199627164,-1.0933078005970214
313,-1.5578549123463603,-3.1930367102574246,-1.6444116344996198,-1.209823341122516
314,-1.7231446481847157,-3.4397892824136997,-1.8317152612084626,-1.3327092819996893
315,-1.8992464425688786,-3.6905614206370743,-2.030076156971487,-1.46176832142715
316,-2.08627473224586,-3.944029309586468,-2.2389153908296606,-1.5967628931562368
317,-2.2842912110385445,-4.1988292812545245,-2.4575036328601434,-1.7374165848648375
318,-2.4932980977566315,-4.453577539400264,-2.684963945538301,-1.8834154850931386
319,-2.7132308583761646,-4.706890236867696,-2.920277316725014,-2.0344093983066522
320,-2.9439504960863023,-4.9574034544979675,-3.162290910588962,-2.1900128938531314
321,-3.1852355611082124,-5.203792631478259,-3.409728949625937,-2.3498061843172975
322,-3.4367740680374865,-5.444791009543503,-3.6612060790782057,-2.513335859295487
323,-3.698155540269641,-5.679206677296129,-3.9152430061811687,-2.680115528902383
324,-3.9688634272092305,-5.905937835521772,-4.170284152505033,-2.849626454633389
325,-4.2482681588435875,-6.123985948822574,-4.4247170098193305,-3.0213182615375294
326,-4.535621112555174,-6.332466501818621,-4.676892849650714,-3.1946098340440043
327,-4.83004976787803,-6.530617137908372,-4.9251484047980165,-3.368890498289047
328,-5.130554315886474,-6.717803023257074,-5.1678281177893,-3.54352158719112
329,-5.436005971097496,-6.893519346342931,-5.4033065365532424,-3.7178384719148547
330,-5.745147205681542,-7.057390932070799,-5.6300104312577295,-3.8911531258190144
331,-6.0565940893827355,-7.209169017242852,-5.846440208207914,-4.0627572654543185
332,-6.368840875181003,-7.3487252992409795,-6.051190206831295,-4.23192608861259
333,-6.680266921809148,-7.476043430507773,-6.24296748403998,-4.397922602933899
334,-6.989145991020729,-7.591208186488378,-6.420608716474843,-4.560002511430334
335,-7.293657900991884,-7.694392583148583,-6.583094884939217,-4.7174195947751345
336,-7.5919024582932115,-7.78584326141315,-6.729563446158674,-4.869431505423561
337,-7.881915530365838,-7.865864489574598,-6.859317744141843,-5.015305866325746
338,-8.16168705938664,-7.934801160806235,-6.9718334660828845,-5.154326547574972
339,-8.429180758044572,-7.993021181352725,-7.066762005146782,-5.285799978000687
340,-8.682355169651464,-8.040897655725201,-7.143930653811848,-5.409061335616801
341,-8.919185721175557,-8.078791278189895,-7.203339615829405,-5.523480451244285
342,-9.13768735054951,-8.107033334860237,-7.2451558912563225,-5.628467254010369
343,-9.335937251371591,-8.12590970767636,-7.269704156144006,-5.723476586408549
344,-9.512097251073936,-8.135646250514796,-7.277454824778709,-5.808012220851225
345,-9.664435324590542,-8.136395878847473,-7.269009546060701,-5.881629919751892
346,-9.791345745965407,-8.128227678201927,-7.245084444709133,-5.943939397559926
347,-9.891367396269967,-8.111118293788989,-7.20649147047565,-5.994605066010665
348,-9.96319977821927,-8.084945814845563,-7.154118262554002,-6.033345472981573
349,-10.005716335847977,-8.04948631342583,-7.088906970264906,-6.059931380191361
350,-10.017974740562206,-8.00441313964461,-7.011832493631542,-6.074182464571263
351,-9.999223881057791,-7.949299014933851,-6.923880617849367,-6.075962671196943
352,-9.948907381588546,-7.88362090301803,-6.826026513592537,-6.0651742907698285
353,-9.866663567990939,-7.806767576413419,-6.719214060786797,-6.041750880355431
354,-9.752321900488802,-7.7180497357160975,-6.6043364275818295,-6.005649191101058
355,-9.60589599317035,-7.61671248117352,-6.482218299844264,-5.956840309751382
356,-9.427573438662614,-7.501949882414603,-6.353600110956916,-5.895300260783426
357,-9.217702749540837,-7.372921344058161,-6.219124568692249,-5.821000351664277
358,-8.976777812205869,-7.228769423446349,-6.079325717270747,-5.73389757374935
359,-8.705420321411932,-7.068638723043337,-5.934620710411181,-5.633925394233924
360,-8.404360721783762,-6.891695455020228,-5.785304407294922,-5.520985288872663
361,-8.074418224528984,-6.697147259933497,-5.631546839923841,-5.394939369524539
362,-7.716480491811908,-6.484262855677283,-5.473393539195073,-5.255604453832191
363,-7.331483587296685,-6.252391097263539,-5.310768649693162,-5.10274790572238
364,-6.9203927792175355,-6.0009790423846665,-5.143480710878236,-4.9360855445670895
365,-6.484184752592947,-5.729588641774243,-4.971230935784214,-4.755281877911946
366,-6.0238317410275055,-5.43791170645916,-4.793623777887249,-4.559952858318285
367,-5.540288027647706,-5.125782845190617,-4.610179542466837,-4.349671300263126
368,-5.034479191277072,-4.793190113527226,-4.420348770313593,-4.123975019890611
369,-4.507294390480139,-4.4402831698985015,-4.223528098673203,-3.8823776808577573
370,-3.9595818872853914,-4.067378792014632,-4.0190772865104565,-3.624382246074365
371,-3.392147917021787,-3.67496366759059,-3.8063370783192805,-3.3494968505462883
372,-2.805758913606976,-3.2636944348196257,-3.584647572782589,-3.057252827639202
373,-2.201147003614024,-2.83439500864051,-3.353366759784831,-2.747224542711903
374,-1.5790185901862142,-2.388051286921766,-3.1118888919295045,-2.419050616921953
375,-0.9400657618007013,-1.9258033846895373,-2.859662365173869,-2.072456062560628
376,-0.2849801831642113,-1.4489355931065002,-2.5962067977289585,-1.7072748017076904
377,0.38553094196977067,-0.9588643019678773,-2.321129017023509,-1.3234720041158088
378,1.070727302009312,-0.4571241591836574,-2.0341376910197355,-0.9211656594145838
379,1.7698168115725221,0.05464723251146821,-1.735056371866349,-0.5006467938553438
380,2.4819363865413626,0.5747257628720585,-1.4238347558214133,-0.06239775327147523
381,3.2061327138846525,1.1013180766014594,-1.1005580023630441,0.39289199845477607
382,3.9413435719382717,1.6325793202175538,-0.7654539960785921,0.864313073018295
383,4.686380245405587,2.166631048668535,-0.41889847591691964,1.3507267935311937
384,4.2094037388514576e-14,-2.5505487793087882e-14,-1.542169754578473e-14,-5.131444046526059e-14
385,1.069643754354956e-12,-5.440079811063215e-13,-2.7741842956686067e-13,-1.1268498410397495e-12
386,1.2293364356684584e-11,-6.5505918295956225e-12,-3.3751226342640967e-12,-1.3498011767280148e-11
387,9.312006311954345e-11,-5.289657157051749e-11,-2.7905291388259257e-11,-1.0823834822165639e-10
388,5.257904689933757e-10,-3.2173415456591623e-10,-1.7467646826748094e-10,-6.534469589534832e-10
389,2.3651242155849938e-09,-1.5762688162222673e-09,-8.832132341033137e-10,-3.1766064367225625e-09
390,8.841852682852338e-09,-6.497407497947616e-09,-3.761835084667153e-09,-1.2989221507356403e-08
391,2.8288704390498548e-08,-2.3235720499731225e-08,-1.3899951913958615e-08,-4.607142367338479e-08
392,7.912185121256729e-08,-7.37575817889329e-08,-4.554437249422716e-08,-1.4503556578838517e-07
393,1.9650730879401396e-07,-2.1152908430967083e-07,-1.3461479631129733e-07,-4.125060889157795e-07
394,4.382184011256422e-07,-5.558323771293893e-07,-3.6388755685203297e-07,-1.0750703137298945e-06
395,8.835333922382126e-07,-1.35351818722736e-06,-9.09872368001598e-07,-2.5969740697134437e-06
396,1.613750372549418e-06,-3.083090346838214e-06,-2.124458976112801e-06,-5.86962153856877e-06
397,2.6561636952959162e-06,-6.620365123675599e-06,-4.669265377254256e-06,-1.2510109947323875e-05
398,3.865517718112376e-06,-1.3489092625729167e-05,-9.726140570418092e-06,-2.5308696250001896e-05
399,4.708607091066925e-06,-2.6223332787417665e-05,-1.9313203445711296e-05,-4.887032953455046e-05
400,3.909623065555798e-06,-4.887049674243469e-05,-3.674170073951656e-05,-9.049823552471411e-05
401,-1.0929913264446866e-06,-8.766431125667608e-05,-6.7254206536529e-05,-0.00016136714195200564
402,-1.4932024130460715e-05,-0.00015189518157319095,-0.00011888847029617974,-0.00027802941439718275
403,-4.539464153498729e-05,-0.0002550013254989107,-0.00020361270435274522,-0.0004642887394035252
404,-0.00010485612719582683,-0.0004158976158112226,-0.00033877651410190866,-0.0007534629867622019
405,-0.00021211030438907127,-0.0006605504541318046,-0.0005489164191304111,-0.0011910408031529443
406,-0.0003946311361802341,-0.0010237965095160665,-0.0008679456275136662,-0.0018377159773574664
407,-0.0006912836809165033,-0.0015513912149430961,-0.0013417443013965464,-0.0027727606236689455
408,-0.001155482018727828,-0.002302260048822949,-0.002031149146209672,-0.0040976739582806575
409,-0.001858767870811584,-0.0033509124319751654,-0.003015320187338025,-0.005940019282096146
410,-0.002894757641901913,-0.004789965178699056,-0.0043954387415243885,-0.008457339223366523
411,-0.004383378958145776,-0.00673271049308835,-0.006298664771765779,-0.011841019821436986
412,-0.006475291980388819,-0.009315653102221124,-0.008882255204063171,-0.01631995900678894
413,-0.009356367395953476,-0.012700932792457893,-0.012337718774887405,-0.022163885560393934
414,-0.01325207346960523,-0.0170785427768058,-0.016894859128535757,-0.029686171484080266
415,-0.01843161004467944,-0.02266825124799008,-0.022825537814001883,-0.03924598426459142
416,-0.025211618751547437,-0.029721133306142202,-0.030446974085566104,-0.051249635762866536
417,-0.03395929637798583,-0.03852062321980522,-0.04012439031874029,-0.06615100104511312
418,-0.045094742571510436,-0.04938300262957323,-0.05227281142332658,-0.0844509027190666
419,-0.059092383699936545,-0.06265724872647284,-0.06735783450081792,-0.10669538331227144
420,-0.07648133142500034,-0.07872417748539734,-0.08589520139190261,-0.13347281879107442
421,-0.09784455667428107,-0.09799483052183577,-0.10844903153557799,-0.16540985919114015
422,-0.12381678632330215,-0.1209080698312241,-0.1356286051691371,-0.20316621616450187
423,-0.15508105999805047,-0.14792736226167896,-0.1680836263977069,-0.24742835070129163
424,-0.19236391692189075,-0.17953675468397423,-0.20649794071531402,-0.29890214609179244
425,-0.236429216594829,-0.21623606100119955,-0.2515817304581032,-0.35830468023284967
426,-0.2880706312433696,-0.25853530285718057,-0.3040622624165411,-0.42635523671164405
427,-0.34810288140539564,-0.30694846657157,-0.3646733122700098,-0.5037657149834037
428,-0.41735181783746633,-0.3619866588256378,-0.43414343846512865,-0.5912306158714522
429,-0.4966434824386129,-0.4241507623084281,-0.5131833215942729,-0.689416789237938
430,-0.586792307491628,-0.4939237092875448,-0.6024724224375989,-0.7989531358792814
431,-0.6885886357247128,-0.5717625053212352,-0.7026452411406748,-0.9204204555556543
432,-0.8027857630634279,-0.6580901465869189,-0.8142774804525228,-1.0543416278062467
433,-0.930086721160036,-0.7532875821781714,-0.9378724269474314,-1.201172302231414
434,-1.0711310276659982,-0.8576858769484855,-1.0738478655676862,-1.3612922607874138
435,-1.2264816386472317,-0.9715587309119592,-1.222523834958874,-1.534997597017756
436,-1.3966123394535024,-1.0951155078292087,-1.3841115146012588,-1.7224938368177234
437,-1.5818958076996361,-1.2284949185125333,-1.558703510636491,-1.9238901031422668
438,-1.782592574843344,-1.3717594937890916,-1.746265776717679,-2.139194403894181
439,-1.9988411013242873,-1.5248909682701743,-1.9466313704601883,-2.368310098924454
440,-2.2306491646306914,-1.6877866794670915,-2.159496206463795,-2.6110335794352357
441,-2.4778867402975067,-1.8602570677996528,-2.3844169246985127,-2.867053171787765
442,-2.740280533064517,-2.042024342124774,-2.6208109494818617,-3.1359492583171886
443,-3.017410289664858,-2.2327223530559617,-2.8679587703764104,-3.417195590579368
444,-3.308706996511656,-2.431897693051954,-3.1250084330111907,-3.7101617556191964
445,-3.613453035505974,-2.6390120185428065,-3.3909821858478906,-4.014116743275684
446,-3.9307843398935765,-2.853445565762876,-3.664785188909593,-4.328233552004619
447,-4.259694560096972,-3.0745018089990057,-3.9452161529732366,-4.651594761914795
448,-4.599041217270695,-3.301413188143339,-4.230979743079395,-4.983198996386344
449,-4.9475537905108045,-3.5333478122241786,-4.520700548702407,-5.3219681875150835
450,-5.30384365270062,-3.7694170273749514,-4.812938394733624,-5.666755555501008
451,-5.666415740281828,-4.008683721823649,-5.106204742694222,-6.016354207802819
452,-6.033681814027459,-4.250171227212936,-5.398979910436597,-6.369506260259871
453,-6.403975141262326,-4.492872665109206,-5.68973082117084,-6.724912379281726
454,-6.775566404988733,-4.735760580091754,-5.97692897919856,-7.081241641469841
455,-7.146680622105493,-4.9777966964454015,-6.259068360600295,-7.437141604536148
456,-7.515514831468375,-5.217941634269348,-6.534682902781018,-7.791248481044195
457,-7.880256293123537,-5.455164422758916,-6.802363277787531,-8.142197304322035
458,-8.239100923016455,-5.688451653450426,-7.060772641226632,-8.488631973963894
459,-8.590271673442993,-5.916816124224509,-7.308661061895251,-8.829215066801286
460,-8.932036559290415,-6.139304835675106,-7.54487835717333,-9.162637298288633
461,-9.262726024634345,-6.355006214858361,-7.768385085883439,-9.487626519151535
462,-9.580749344391988,-6.563056457170943,-7.978261483460324,-9.802956133136497
463,-9.884609762231952,-6.7626448948377345,-8.173714163349233,-10.107452824018791
464,-10.172918079383624,-6.953018319818978,-8.354080452690658,-10.400003483884204
465,-10.444404429718105,-7.1334842094369675,-8.518830278396566,-10.679561240290706
466,-10.697928004524556,-7.303412824218661,-8.667565570345127,-10.945150487405835
467,-10.932484525471954,-7.462238168923095,-8.800017200228941,-11.195870835765701
468,-11.147211305712117,-7.609457829091133,-8.916039526266195,-11.430899907064344
469,-11.341389786112055,-7.744631716409184,-9.015602664332441,-11.649494914498977
470,-11.514445485190253,-7.867379776473664,-9.098782654039864,-11.850992985782888
471,-11.665945356277177,-7.977378731983364,-9.165749732933413,-12.034810205057685
472,-11.795592602334676,-8.074357952786574,-9.216754972432485,-12.200439371567596
473,-11.903219056222495,-8.15809456135474,-9.252115564658014,-12.347446496945528
474,-11.988775290425659,-8.228407897867228,-9.272199079197206,-12.475466088974029
475,-12.052318673816435,-8.285153482823194,-9.277407032649556,-12.584195297194427
476,-12.09399964242762,-8.328216626537566,-9.268158131072672,-12.673387024017316
477,-12.114046495012882,-8.35750584359325,-9.244871555903691,-12.742842133145839
478,-12.112749061032842,-8.372946235896945,-9.207950667310678,-12.792400914159703
479,-12.090441617529395,-8.374473010071949,-9.15776749494466,-12.82193398698769
480,-12.047485451343942,-8.362025293265718,-9.09464837437612,-12.831332851731116
481,-11.984251473812805,-8.33554040591322,-9.018861067737124,-12.820500307012491
482,-11.901103296200406,-8.29494874056017,-8.930603678955478,-12.789340972983378
483,-11.798381165701324,-8.240169382618184,-8.829995637405743,-12.7377521627593
484,-11.67638714410634,-8.171106592133837,-8.71707097916828,-12.665615347933215
485,-11.535371884699003,-8.087647245675072,-8.591774103263425,-12.572788459668027
486,-11.37552332835581,-7.989659314768352,-8.453958122635392,-12.459099256536993
487,-11.196957598011032,-7.876991432566928,-8.303385868177218,-12.32433997376703
488,-10.999712322540832,-7.749473574290248,-8.139733540886002,-12.168263445994961
489,-10.783742567744326,-7.606918850197671,-7.9625969446001115,-11.990580867381329
490,-10.548919494608642,-7.449126383224092,-7.771500171923558,-11.790961319431801
491,-10.295031804712654,-7.275885217681905,-7.565906560907161,-11.569033158835028
492,-10.021789970787992,-7.086979181362084,-7.345231691512914,-11.324387315923532
493,-9.728833188494532,-6.882192601632444,-7.108858150062752,-11.056582510071275
494,-9.415738924814514,-6.661316757339157,-6.856151757461971,-10.76515234268039
495,-9.08203488061368,-6.424156932967986,-6.586478933155139,-10.449614182691803
496,-8.727213131321554,-6.170539929976329,-6.299224851228652,-10.109479715114936
497,-8.350746161662716,-5.900321882660703,-5.993812037217006,-9.744266981181331
498,-7.952104469000993,-5.613396222383645,-5.669719053246647,-9.353513700513966
499,-7.530775375953456,-5.309701634266826,-5.326498924386237,-8.936791632083331
500,-7.086282667063211,-4.989229854212056,-4.963796969728691,-8.493721702366598
501,-6.618206646804973,-4.652033160862916,-4.58136771710577,-8.023989606490485
502,-6.126204207083625,-4.298231426320589,-4.179090599733447,-7.527361571502981
503,-5.610028491477293,-3.9280186005188593,-3.7569841558130395,-7.003699960461668
504,-5.069547750441973,-3.5416685166247213,-3.315218477520097,-6.452978391853127
505,-4.504762996173972,-3.139539918217452,-2.8541256833654858,-5.875296051018308
506,-3.9158240874626364,-2.7220806229611485,-2.374208217252874,-5.270890878728272
507,-3.3030439032474805,-2.28983075176577,-1.876144808533699,-4.640151336714563
508,-2.666910298183353,-1.8434249668414817,-1.3607939600103232,-3.983626470571876
509,-2.008095573634627,-1.3835936764433954,-0.8291948653153534,-3.302034016650201
510,-1.3274632423710022,-0.9111631783472431,-0.2825656935828217,-2.596266330843148
511,-0.6260719139363564,-0.4270547280663554,0.2777007820629269,-1.8673939529521635
512,6.20802763722448e-14,-3.337198592406808e-14,-1.3543556641439995e-14,-1.5525868939876193e-14
513,1.5062472673675197e-12,-7.04580809527469e-13,-2.25030598279467e-13,-2.9951466717840316e-13
514,1.7415593810094168e-11,-8.322346917959343e-12,-2.704018785632229e-12,-3.531402763153125e-12
515,1.332172389438898e-10,-6.595162470464718e-11,-2.2338267990029636e-11,-2.797564257123925e-11
516,7.614630393386581e-10,-3.942020975532888e-10,-1.4093433049080098e-10,-1.6699142183237983e-10
517,3.4782475058691174e-09,-1.9007689872366424e-09,-7.233338247016587e-10,-8.032625195309668e-10
518,1.3258809418758137e-08,-7.723024622463728e-09,-3.1440084364600444e-09,-3.2534135200962427e-09
519,4.348781300737831e-08,-2.7264833007742287e-08,-1.1897651553519452e-08,-1.1445114707726076e-08
520,1.2557482500392717e-07,-8.555777028191085e-08,-4.00041666056798e-08,-3.579034777241517e-08
521,3.2498440453561237e-07,-2.4287251440350947e-07,-1.2141297499246886e-07,-1.012908960493842e-07
522,7.646097972847664e-07,-6.324084296277409e-07,-3.368737614589861e-07,-2.631609210749369e-07
523,1.6544380062402097e-06,-1.5275653234616618e-06,-8.635690197672982e-07,-6.349206549349331e-07
524,3.323342260562685e-06,-3.4545888724654296e-06,-2.0636299132525713e-06,-1.4360178870656509e-06
525,6.244752301164612e-06,-7.3709946206138615e-06,-4.6322243414978466e-06,-3.0685423066362194e-06
526,1.1043183388777848e-05,-1.4934728683885536e-05,-9.831782743851795e-06,-6.235436749614665e-06
527,1.8463549857060585e-05,-2.889306187330823e-05,-1.9844542899549394e-05,-1.211564977794335e-05
528,2.9280334542029384e-05,-5.3623252032770594e-05,-3.828029216921145e-05,-2.2614729361467324e-05
529,4.411953846463088e-05,-9.585857127255699e-05,-7.087927777374708e-05,-4.0712185325188774e-05
530,6.316332104956221e-05,-0.0001656329551221779,-0.0001264510882884917,-7.092925819321031e-05
531,8.570564247847451e-05,-0.00027747494960158426,-0.00021808832575258207,-0.00011994220107608818
532,0.00010952720619322467,-0.00045187657917750157,-0.0003646886892022257,-0.0001973664712971402
533,0.0001300597016212159,-0.0007170551291445842,-0.0005928104843777398,-0.0003167360071145773
534,0.00013931288609363558,-0.001111015663988981,-0.0009388745976159693,-0.0004966987249666081
535,0.00012454349242827845,-0.0016839095712968626,-0.00145171089930071,-0.0007624442573947036
536,6.665228105832424e-05,-0.0025006698633415377,-0.0021954293800354793,-0.0011473725858648584
537,-6.169533662879469e-05,-0.003643887868745094,-0.0032525767854452016,-0.0016950025529159864
538,-0.0002982189425756874,-0.0052168789225710025,-0.004727518979270983,-0.0024611073717030413
539,-0.0006934246802842743,-0.007346867445690462,-0.00674996871207751,-0.003516050481925294
540,-0.0013132270368325849,-0.01018820520268105,-0.009478558948844324,-0.004947279910038528
541,-0.002241744991286019,-0.013925521385476364,-0.01310434447946236,-0.006861923324673116
542,-0.00358421233746491,-0.01877669031691516,-0.01785410023795794,-0.009389410008626854
543,-0.005469928092543388,-0.024995492775172753,-0.023993274512789618,-0.012684030851473523
544,-0.008055160151748257,-0.03287384088615526,-0.03182844976042971,-0.01692733408948477
545,-0.011525904474138258,-0.04274343477716941,-0.041709163478160866,-0.022330243755327096
546,-0.016100393841728223,-0.05497672214934039,-0.054028946685994284,-0.029134780470418384
547,-0.022031245339371626,-0.06998703985420021,-0.06922544786289708,-0.03761526106134654
548,-0.02960713471677007,-0.08822782949787836,-0.08777952530276421,-0.048078855153461345
549,-0.03915388904279982,-0.1101908368698665,-0.11021321028068941,-0.06086538390277501
550,-0.05103489664108845,-0.13640322720435183,-0.13708646658693097,-0.07634625869974654
551,-0.06565074511732313,-0.16742357432685961,-0.16899269837690306,-0.09492247608918251
552,-0.08343801410394024,-0.20383671084629199,-0.20655298747545284,-0.11702160905714566
553,-0.10486716871954761,-0.24624745783080773,-0.25040907290679015,-0.143093763642111
554,-0.13043952203210238,-0.2952732848908259,-0.30121511912487775,-0.1736065025857558
555,-0.1606832592422663,-0.3515359842843002,-0.3596283546859374,-0.20903877319427644
556,-0.1961485420213593,-0.4156524745521696,-0.4262986992024401,-0.24987391325916397
557,-0.23740173758791233,-0.4882248792940084,-0.5018575323594172,-0.29659184520155046
558,-0.2850188428024321,-0.569830054051283,-0.586905793352042,-0.349660602971867
559,-0.33957819787675486,-0.6610087579924621,-0.6820016309638905,-0.4095273671690167
560,-0.40165260631557786,-0.7622546864062858,-0.7876478522309734,-0.47660921002006706
561,-0.47180099661144576,-0.8740035942523987,-0.9042794398421761,-0.5512837721768127
562,-0.5505597763236658,-0.9966227496816149,-1.0322514238575426,-0.6338801068737305
563,-0.6384340399416932,-1.1304009591587287,-1.1718274009525345,-0.7246699332408894
564,-0.7358887979349309,-1.275539402383872,-1.323168993486205,-0.823859539119169
565,-0.8433403953569033,-1.432143505548301,-1.486326530859117,-0.9315825644820143
566,-0.9611482842953311,-1.600216065663278,-1.6612312168728398,-1.0478938796771162
567,-1.089607305655137,-1.7796518170087723,-1.8476890195374192,-1.172764748567166
568,-1.2289406228313595,-1.970233603564533,-2.0453764848105727,-1.3060794359360723
569,-1.3792934335687785,-2.1716302891749217,-2.253838634260848,-1.4476333821598313
570,-1.5407275676143077,-2.3833965008871005,-2.4724890600633658,-1.5971330272774624
571,-1.7132170575923868,-2.604974261266223,-2.7006122806713444,-1.75419732258254
572,-1.8966447497963963,-2.8356965235355616,-2.937368368663395,-1.9183609221640578
573,-2.0908000010912677,-3.0747925802114096,-3.181799810385005,-2.089079001000338
574,-2.2953774884540477,-3.3213952726495033,-3.4328405068027963,-2.2657336018066303
575,-2.5099771392135133,-3.5745498867422776,-3.6893267780917873,-2.4476413713628102
576,-2.7341051730246346,-3.833224580016223,-3.9500101922781163,-2.634062509899239
577,-2.967176231217775,-4.096322148617247,-4.213572001808325,-2.8242107255250666
578,-3.20851655556062,-4.3626929100901615,-4.4786389418200265,-3.0172639606563614
579,-3.457368166771394,-4.631148450303678,-4.743800120318121,-3.212375639704788
580,-3.712893983361334,-4.900475961076628,-5.007624713226878,-3.4086861774138804
581,-3.974183813549621,-5.169452879626774,-5.268680165946658,-3.6053344853878477
582,-4.2402611470429505,-5.436861532345377,-5.525550596989406,-3.80146922046781
583,-4.510090669296788,-5.70150348389013,-5.776855097805032,-3.996259532308414
584,-4.782586418239516,-5.96221329830262,-6.02126562533528,-4.18890508816457
585,-5.056620501960788,-6.2178714317269845,-6.257524189516263,-4.378645179641072
586,-5.331032295074657,-6.467415996080981,-6.484459046452557,-4.564766747905566
587,-5.604638030901038,-6.7098531592713035,-6.700999619123821,-4.746611199360845
588,-5.876240705832872,-6.944265979634464,-6.906189881364706,-4.923579921625989
589,-6.144640210849234,-7.169821509437536,-7.099199957826988,-5.095138448406142
590,-6.408643602689226,-7.38577604354886,-7.279335713181203,-5.260819259921267
591,-6.667075423405764,-7.591478433710977,-7.446046128457626,-5.420223241535374
592,-6.9187879717709375,-7.786371435025833,-7.598928291591362,-5.573019855733458
593,-7.162671423483814,-7.969991098022941,-7.737729863196906,-5.718946110523453
594,-7.397663689776231,-8.14196426571041,-7.862348917449716,-5.857804429904069
595,-7.622759896467307,-8.30200427900212,-7.97283110160702,-5.989459548812169
596,-7.8370213585878075,-8.44990503464079,-8.069364105855842,-6.113834565898342
597,-8.039583920291392,-8.585533576101936,-8.152269487235527,-6.230906292889892
598,-8.229665526811392,-8.70882142907122,-8.22199194636176,-6.340700039818014
599,-8.40657289549883,-8.819754918274404,-8.279086212161364,-6.443283971886458
600,-8.569707157047292,-8.918364721285263,-8.324201746029265,-6.53876316724503
601,-8.71856834617364,-9.004714927248605,-8.358065530757147,-6.627273496392467
602,-8.852758633357759,-9.078891874230465,-8.381463259280748,-6.708975434213408
603,-8.971984205609193,-9.140993038302595,-8.395219281940738,-6.784047905364861
604,-9.076055724238557,-9.191116240772729,-8.400175706983639,-6.8526822532233505
605,-9.164887310629867,-9.22934942758955,-8.397171076127922,-6.915076412014473
606,-9.23849403622725,-9.25576125738471,-8.38701905411048,-6.971429351045668
607,-9.29698791951773,-9.270392712440875,-8.370487577401489,-7.021935849049162
608,-9.340572459917341,-9.273249920718998,-8.348278902262107,-7.066781645415777
609,-9.36953576541879,-9.264298347584953,-8.32101097598643,-7.106139003519576
610,-9.384242356934863,-9.243458483685279,-8.289200528006772,-7.140162709444195
611,-9.385123756817507,-9.21060312117051,-8.253248240591873,-7.168986517361987
612,-9.372667991499966,-9.165556274787303,-8.213426313642017,-7.1927200408190055
613,-9.347408158210499,-9.108093767918977,-8.169868686386474,-7.211446077573106
614,-9.309910223001097,-9.037945467159036,-8.122564122467756,-7.22521834486349
615,-9.26076023178316,-8.954799113224652,-8.071352305657655,-7.234059592612758
616,-9.200551127603545,-8.858305661773532,-8.015923032752342,-7.237960054705878
617,-9.12986937606726,-8.748086015791078,-7.955818529272263,-7.236876193785458
618,-9.049281606756837,-8.623739002423424,-7.890438853525983,-7.230729693491687
619,-8.959321481904137,-8.484850422092471,-7.819050296375679,-7.219406654133485
620,-8.860477004602284,-8.331002976953345,-7.7407966285902114,-7.202756953556832
621,-8.75317847761516,-8.161786869606068,-7.65471299584092,-7.180593744380875
622,-8.637787320425517,-7.97681085167757,-7.5597422139548165,-7.1526930714539585
623,-8.51458594661724,-7.775713495547031,-7.454753174689272,-7.11879360875602
624,-8.383768896001149,-7.558174461091921,-7.338561035696203,-7.078596532244332
625,-8.245435405917554,-7.32392553278154,-7.209948838148796,-7.031765563334803
626,-8.099583593584248,-7.07276121055245,-7.067690172305276,-6.977927235734279
627,-7.946106405833684,-6.804548650384716,-6.910572495545269,-6.916671455033273
628,-7.784789473748461,-6.519236766986759,-6.737420699372154,-6.8475524346880965
629,-7.615310987286152,-6.216864331013954,-6.547120521494745,-6.770090102710336
630,-7.4372436787947125,-5.897566916213622,-6.3386414060893,-6.683772079634418
631,-7.2500589742824735,-5.5615825771361385,-6.111058429193785,-6.588056329441115
632,-7.05313333753553,-5.209256164840483,-5.8635729262432275,-6.482374580585444
633,-6.845756795034658,-4.841042215582173,-5.595531484261608,-6.366136603853118
634,-6.627143589720902,-4.457506375036998,-5.306442991391397,-6.238735417430559
635,-6.396444869764685,-4.0593253474601365,-4.995993470514782,-6.099553467541568
636,-6.152763275481184,-3.647285384649038,-4.664058461037409,-5.947969805741297
637,-5.895169244367962,-3.222279353109723,-4.310712752893636,-5.7833682521644665
638,-5.622718811985817,-2.785302438981791,-3.936237318961427,-5.605146498627383
639,-5.334472646189518,-2.337446568762255,-3.541123335797967,-5.412726067622149
640,3.911295783814771e-14,-6.888801062931992e-14,-6.357883276093621e-14,-3.25527967964449e-14
641,8.884560496845875e-13,-1.4795117806780822e-12,-1.3834580672211349e-12,-6.487843957885797e-13
642,9.017074389033604e-12,-1.7574142904970174e-11,-1.658753680632407e-11,-7.710975783471193e-12
643,5.951402165035505e-11,-1.3992707553120743e-10,-1.3312996826855237e-10,-6.173735702034935e-11
644,2.880621952842543e-10,-8.396214688672919e-10,-8.041046846218648e-10,-3.734100578168424e-10
645,1.0871914447568713e-09,-4.060648437307888e-09,-3.909010825804503e-09,-1.8241227024984479e-09
646,3.3045703247649082e-09,-1.653291719345675e-08,-1.5976194072421075e-08,-7.5159192088988e-09
647,8.15846700319095e-09,-5.8433860163357054e-08,-5.6610485596337566e-08,-2.6926653234275e-08
648,1.5895519566443957e-08,-1.8342425862315102e-07,-1.7795676930314758e-07,-8.579154242685291e-08
649,2.102006145798642e-08,-5.204699061081855e-07,-5.051988088675586e-07,-2.473438651344329e-07
650,-1.2484322455391509e-11,-1.3538653013496585e-06,-1.3137101406495709e-06,-6.541998178463946e-07
651,-1.1563355768411439e-07,-3.2653922863454957e-06,-3.1653674991144813e-06,-1.605035060782602e-06
652,-4.915358389572617e-07,-7.371202587601937e-06,-7.1342789945804804e-06,-3.6861683505502937e-06
653,-1.484734109201583e-06,-1.5695176887747727e-05,-1.516011937900531e-05,-7.984937368280986e-06
654,-3.8014990876662864e-06,-3.1729338009752173e-05,-3.057460682183632e-05,-1.6418827281005084e-05
655,-8.74777848045451e-06,-6.123939269144487e-05,-5.885254620386621e-05,-3.222103757933945e-05
656,-1.860688246570618e-05,-0.00011337860154235859,-0.00010864246847278989,-6.062878926105551e-05
657,-3.7184408556216556e-05,-0.0002021749281318667,-0.00019313245066938397,-0.00010982440227682597
658,-7.056392233912894e-05,-0.0003484539284745556,-0.00033180355316668974,-0.0001921802925129182
659,-0.00012811813360964503,-0.0005822524649025738,-0.0005526159634374586,-0.00032585695683943556
660,-0.00022381862471628074,-0.0009457657071860753,-0.0008946611182669433,-0.0005367973085162691
661,-0.00037788217332677916,-0.0014968520029844154,-0.0014112968252930952,-0.0008611511528248291
662,-0.000618783163780149,-0.0023130974068502233,-0.0021737621315788386,-0.0013481501081115364
663,-0.0009856495180192936,-0.0034964146600311705,-0.0032752451900118855,-0.002063436044410119
664,-0.0015310441941465394,-0.005178121249476309,-0.004835351761542324,-0.0030928255194673346
665,-0.0023241159620232404,-0.007524409156411702,-0.007004895527094483,-0.004546469363515255
666,-0.00345408244568725,-0.010742086544847332,-0.009970905320876694,-0.006563341346394662
667,-0.005033986139936647,-0.015084440560164407,-0.013961719868599922,-0.009315963795701258
668,-0.007204641290296776,-0.020857042244359067,-0.01925201860375601,-0.013015252315377234
669,-0.0101386673220901,-0.0284232908900008,-0.026167618510192135,-0.017915337670786173
670,-0.014044484116477497,-0.03820947735955424,-0.03508985249845897,-0.02431820178106347
671,-0.019170127073972743,-0.05070913517661218,-0.04645933532981318,-0.0325779478631031
672,-0.025806726760393847,-0.06648644544902914,-0.06077891929192404,-0.04310451322692485
673,-0.034291490037138606,-0.08617846746600641,-0.07861564439054938,-0.0563666279093604
674,-0.045010017699431616,-0.1104959813014805,-0.10060149732800334,-0.07289382382022441
675,-0.05839779818423481,-0.14022275175541257,-0.1274328103657653,-0.09327730758767326
676,-0.07494072792465213,-0.17621305392317518,-0.15986815537944285,-0.11816952572336621
677,-0.09517452621480423,-0.2193873387491832,-0.19872461966796406,-0.14828227269799754
678,-0.11968293558540613,-0.2707259609967478,-0.24487238757353816,-0.18438322042710387
679,-0.14909462703430643,-0.33126094086096786,-0.2992275944546088,-0.22729078077387038
680,-0.18407876215191424,-0.40206578252681713,-0.36274346542298685,-0.277867250139242
681,-0.2253392002054881,-0.484243426781752,-0.43639979869663464,-0.33701022610709364
682,-0.2736073764701386,-0.5789124687085886,-0.5211909006023213,-0.405642329440223
683,-0.3296339173016201,-0.6871918238538072,-0.6181121245236061,-0.48469930939927164
684,-0.3941790963106331,-0.81018407544916,-0.728145208065228,-0.5751166552379318
685,-0.4680022730973653,-0.9489577797009785,-0.8522426403826816,-0.6778148806430087
686,-0.5518504899150056,-1.104529044442792,-0.9913113242958727,-0.7936836896822286
687,-0.6464464310685418,-1.2778427273830637,-1.146195824935906,-0.9235652714030204
688,-0.7524759737687731,-1.469753622851708,-1.3176615177703008,-1.068237004596763
689,-0.8705755767405917,-1.681008019733745,-1.5063779633821264,-1.228393883528903
690,-1.0013197635389248,-1.9122260178434958,-1.712902843795652,-1.4046309988751424
691,-1.145208960902737,-2.1638849852673325,-1.9376667949846509,-1.5974264250350916
692,-1.302657948511578,-2.436304525335344,-2.180959462211527,-1.807124874834836
693,-1.4739851654388203,-2.7296332992024266,-2.4429170890474996,-2.033922484877732
694,-1.6594031009153947,-3.043838019014686,-2.7235119276360784,-2.2778530890624222
695,-1.8590099734123622,-3.378694887946897,-3.022543727581153,-2.5387763238073355
696,-2.072782873373748,-3.733783717816533,-3.339633524597693,-2.8163678862337385
697,-2.3005725122189697,-4.108484903466482,-3.6742199087601324,-3.1101122361088747
698,-2.5420996846839117,-4.501979376776198,-4.025557906919406,-3.4192979941059902
699,-2.7969535144407747,-4.913251603262578,-4.3927205657411275,-3.7430162434963417
700,-3.0645915154291963,-5.341095622129863,-4.774603271878242,-4.0801618905665205
701,-3.344341464512715,-5.784124067760884,-5.1699307949319735,-4.429438181875498
702,-3.6354050458757943,-6.24078004848737,-5.577266987819612,-4.789364415134793
703,-3.9368631947924313,-6.709351698513994,-5.995027028580616,-5.158286816370093
704,-4.247683038655402,-7.187989162536741,-6.421492038109101,-5.53439249057551
705,-4.566726306879997,-7.674723721238084,-6.854825860488688,-5.91572628784482
706,-4.892759058730657,-8.16748872066816,-7.293093747394276,-6.3002103635253075
707,-5.22446255940198,-8.664141930558765,-7.734282646487032,-6.685666150842629
708,-5.560445119915929,-9.16248892668144,-8.176322757069126,-7.0698384091920525
709,-5.899254705629825,-9.660307071043865,-8.617109985696489,-7.45042096229294
710,-6.2393921113541415,-10.155369651392544,-9.054528911059453,-7.825083698928741
711,-6.579324498130135,-10.645469738322095,-9.486475852102656,-8.191500376117533
712,-6.917499087443919,-11.12844332426228,-9.910881626672037,-8.547376741110797
713,-7.252356812879348,-11.6021913235262,-10.325733590280127,-8.890478475165253
714,-7.5823457367349665,-12.064700036088583,-10.729096555926883,-9.218658458873847
715,-7.905934049653197,-12.514059709280819,-11.11913221608487,-9.529882866023671
716,-8.221622484412642,-12.948480870432528,-11.494116716478059,-9.82225561028129
717,-8.527955990214815,-13.36630814879696,-11.852456067461711,-10.094040696073131
718,-8.823534530538575,-13.76603135588449,-12.192699121785273,-10.343682061199463
719,-9.107022885426247,-14.14629364851301,-12.5135478963045,-10.569820543161274
720,-9.377159357377987,-14.505896657331204,-12.813865068698872,-10.771307652878573
721,-9.632763298331174,-14.843802524118981,-13.092678537225877,-10.947215897269524
722,-9.872741393026171,-15.159132852661273,-13.349182990672723,-11.09684545475273
723,-10.096092651109409,-15.451164639282812,-13.582738495533798,-11.219727073762618
724,-10.301912076486543,-15.719323309094998,-13.792866166617086,-11.315621132446152
725,-10.489392997734965,-15.963173041537669,-13.979241044389422,-11.384512866497133
726,-10.657828057909448,-16.1824046228211,-14.141682356161073,-11.426603840331271
727,-10.806608875978053,-16.376821112348296,-14.280141387616878,-11.44229980337083
728,-10.935224405629837,-16.546321654149697,-14.394687235362877,-11.432195137064621
729,-11.04325803057177,-16.690883801902263,-14.485490749414273,-11.39705415849491
730,-11.130383448935149,-16.810544756467262,-14.552807006416941,-11.337789602185872
731,-11.19635941321778,-16.905381937450038,-14.596956679515513,-11.255438652281416
732,-11.24102340640153,-16.9754933246158,-14.618306688903395,-11.151136941936803
733,-11.2642843495651,-17.0209780108163,-14.617250528041588,-11.026090974977118
734,-11.266114451476717,-17.04191740527903,-14.594188664226293,-10.881549456101059
735,-11.246540326215394,-17.038357514713358,-14.549509408643742,-10.71877403970881
736,-11.205633520594539,-17.010292709855577,-14.483570640436596,-10.5390100234501
737,-11.143500608677241,-16.957651357104528,-14.39668275195434,-10.343457520557953
738,-11.060273025546762,-16.880283659231438,-14.289093158784146,-10.133243644792765
739,-10.956096826272168,-16.77795200639361,-14.160972689037033,-9.909396233299299
740,-10.831122568178206,-16.650324089622504,-14.012404132496812,-9.672819615870166
741,-10.685495524473263,-16.496968974540785,-13.84337319249134,-9.424272914047688
742,-10.519346444299238,-16.317356274379218,-13.653762042584155,-9.164351320241808
743,-10.332783077614353,-16.110858499608142,-13.443345647223959,-8.893470765699062
744,-10.125882682333662,-15.876756597928345,-13.211790961045686,-8.61185633690921
745,-9.898685725242402,-15.614248634269606,-12.958659076170177,-8.319534743197204
746,-9.651190976864639,-15.322461497096825,-12.683410341019332,-8.016331074311784
747,-9.383352183351855,-15.000465455962322,-12.385412428105932,-7.701870016492259
748,-9.095076475427293,-14.647291337050957,-12.0639512820933,-7.375581619700996
749,-8.786224645658923,-14.26195002955532,-11.718244833201137,-7.036711628610204
750,-8.456613391306481,-13.843453987124649,-11.34745931482506,-6.684336306904354
751,-8.106019581397462,-13.390840346297932,-10.950727978208475,-6.31738160007006
752,-7.734186564421703,-12.903195248592684,-10.527171951508494,-5.934646397792152
753,-7.340832488161262,-12.379678925485944,-10.07592294620225,-5.534829575120116
754,-6.925660556912462,-11.819551086453957,-9.596147471274397,-5.116560413462061
755,-6.488371104994591,-11.222196139928988,-9.08707217597647,-4.678431929881867
756,-6.0286753201984284,-10.587147775701398,-8.548009906248485,-4.219036577676743
757,-5.546310407793616,-9.914112444961031,-7.978386029306921,-3.737003724202492
758,-5.041055945851463,-9.202991290645702,-7.377764556597617,-3.231038264620873
759,-4.512751146841637,-8.45390010565037,-6.745873578392877,-2.6999596937022377
760,-3.9613127095602754,-7.667186929163297,-6.082629514783406,-2.142740932852942
761,-3.386752920181485,-6.843446931186508,-5.388159688557501,-1.5585461967531464
762,-2.7891976422156106,-5.983534281294363,-4.66282273619175,-0.9467671837571178
763,-2.1689038229337547,-5.088570748928472,-3.9072263943833634,-0.3070568866678037
764,-1.526276138848657,-4.159950838019504,-3.122242231379546,0.3606396544159929
765,-0.8618824055152824,-3.199343317450806,-2.3090169345240517,1.0560582980195423
766,-0.17646738746659377,-2.208689069812034,-1.468979817224362,1.77859303740281
767,0.5290353374429473,-1.1901952429971407,-0.6038462688517537,2.527278057503637
768,-1.0314329310673579e-13,-6.241368877703806e-14,-6.020792667023338e-14,-3.621364252162244e-14
769,-2.3853260015938292e-12,-1.3420300920555483e-12,-1.300015464085728e-12,-7.69015873592729e-13
770,-2.8638779484597264e-11,-1.599121139210824e-11,-1.539942078858074e-11,-8.924622253072599e-12
771,-2.2876278927821674e-10,-1.2767841869184797e-10,-1.2233729538436127e-10,-6.936338621688041e-11
772,-1.3697716109437738e-09,-7.681493696216056e-10,-7.332176545560764e-10,-4.0617219291887987e-10
773,-6.5777203726858274e-09,-3.7244954371849125e-09,-3.5457752038853793e-09,-1.917231465697425e-09
774,-2.6468589210996905e-08,-1.520268280818935e-08,-1.4450393295954663e-08,-7.622604018112647e-09
775,-9.207417288596205e-08,-5.386909815463882e-08,-5.11688100038803e-08,-2.633168634826918e-08
776,-2.8344029246645274e-07,-1.6953123309350773e-07,-1.610401970146268e-07,-8.08844190691675e-08
777,-7.864078580321179e-07,-4.823011754656974e-07,-4.5841172623970254e-07,-2.249343387902817e-07
778,-1.9956080633179212e-06,-1.2578556003546003e-06,-1.1966891655710022e-06,-5.744334818170968e-07
779,-4.687674517122168e-06,-3.0416705316723065e-06,-2.897161829400645e-06,-1.3627522020102982e-06
780,-1.0294561186080929e-05,-6.883497162583625e-06,-6.56485810852887e-06,-3.0316452224704724e-06
781,-2.131203560259257e-05,-1.469221132979157e-05,-1.4030261995033334e-05,-6.373886250734618e-06
782,-4.188220489272124e-05,-2.976964639750537e-05,-2.8463852097636596e-05,-1.2747060260051081e-05
783,-7.859065061930257e-05,-5.757910436803961e-05,-5.511708993795331e-05,-2.4381357997853014e-05
784,-0.00014151784603823564,-0.00010680889997035976,-0.00010234761500084512,-4.4806842236123276e-05
785,-0.00024558065805895316,-0.00019079257281791255,-0.00018298700474627804,-7.942713200540262e-05
786,-0.00041219274760273024,-0.0003293445230701025,-0.00031610572559226987,-0.0001362664186342371
787,-0.0006712625935883699,-0.0005510622582900596,-0.0005292213265682214,-0.0002269149281227491
788,-0.001063534866597341,-0.000896133957392465,-0.0008609823624038296,-0.0003676942519153103
789,-0.0016432653759102785,-0.0014196727594119832,-0.0013643422200695736,-0.0005810583962216105
790,-0.0024812024475170933,-0.0021955774804245506,-0.0021102145827333,-0.0008972390912099413
791,-0.0036678291645294327,-0.0033208940414236137,-0.003191576639387072,-0.0013561351017160885
792,-0.005316802274877042,-0.004920623675967586,-0.0047279585028361425,-0.0020094353066897803
793,-0.007568505595904189,-0.007152894086611449,-0.0068702289104203345,-0.002922954519996567
794,-0.010593619266190813,-0.010214379379594287,-0.009805559436177938,-0.004179149777523245
795,-0.014596592051085822,-0.014345825168195393,-0.01376242336565449,-0.005879773475847401
796,-0.01981889287708094,-0.01983750808481271,-0.019015462213671893,-0.00814860865742446
797,-0.0265419104734604,-0.027034435463808414,-0.02589003365518678,-0.011134221210956835
798,-0.03508936685648132,-0.03634107247418593,-0.034766240375016126,-0.01501265408289518
799,-0.04582911163970651,-0.04822537169181029,-0.04608223094568733,-0.019989980053030754
800,-0.05917416989008382,-0.06322187501853746,-0.060336562162741164,-0.026304622497244017
801,-0.07558292641808508,-0.08193366075061354,-0.07808941804384867,-0.034229348154882856
802,-0.09555834374770725,-0.10503291995499725,-0.09996249449792274,-0.04407283258687694
803,-0.11964612913281424,-0.13325996629843312,-0.12663738077619194,-0.05618069813400704
804,-0.14843178734860624,-0.16742051193416774,-0.1588522991045759,-0.07093592614734183
805,-0.18253652007200943,-0.20838107850648754,-0.19739710174391334,-0.08875855041408866
806,-0.22261195898297934,-0.2570624559938028,-0.2431064690170787,-0.11010454731484913
807,-0.2693337477577498,-0.31443117188803066,-0.296851301077168,-0.13546385048183068
808,-0.32339401729439854,-0.38148898773445084,-0.35952834864472266,-0.16535743359738994
809,-0.3854928281398492,-0.4592604977172785,-0.43204818183148413,-0.20033342432290394
810,-0.4563286834525639,-0.5487789629592441,-0.5153216497651585,-0.24096223483202603
811,-0.5365882441629023,-0.6510705735641196,-0.6102450354031911,-0.2878307194916903
812,-0.6269354044355229,-0.7671373861722154,-0.7176841581209339,-0.3415353971507968
813,-0.7279999091883886,-0.8979392359573829,-0.8384577198615085,-0.40267480336313627
814,-0.840365715403595,-1.0443749667274353,-0.9733202273297668,-0.47184106567853323
815,-0.9645593145399891,-1.2072633594582838,-1.122944851434905,-0.5496108218221628
816,-1.1010382439803155,-1.3873241668253802,-1.287906604613858,-0.6365356250976705
817,-1.2501800207357028,-1.5851596780445967,-1.4686662257531575,-0.7331320027270944
818,-1.4122717303421928,-1.8012372438994533,-1.6655551605007355,-0.8398713502511943
819,-1.587500497933507,-2.0358731858811536,-1.878762011579901,-0.9571698579132192
820,-1.7759450569898994,-2.2892184959392825,-2.108320809475005,-1.08537867270103
821,-1.9775686145842268,-2.561246704830138,-2.354101419160887,-1.2247745022032839
822,-2.1922131905444346,-2.851744258182478,-2.6158023544119238,-1.3755508636205727
823,-2.419595582338463,-3.1603036911905287,-2.8929462190582496,-1.5378101733093725
824,-2.659305078185997,-3.4863198365333226,-3.184877936109106,-1.711556859408848
825,-2.9108030084702565,-3.8289892371176424,-3.4907658629472995,-1.8966916627923576
826,-3.1734241905676015,-4.187312867069773,-3.809605825954845,-2.093007270256116
827,-3.446380285352537,-4.5601021926516285,-4.140228043074248,-2.300185399028779
828,-3.7287650454746175,-4.945988531091906,-4.481306839877601,-2.5177954239389853
829,-4.0195613966658525,-5.34343559138469,-4.831373005327795,-2.7452946085537024
830,-4.317650254547852,-5.750755008627003,-5.188828578804896,-2.9820299699954353
831,-4.6218209415341285,-6.166124614156961,-5.55196381097749,-3.2272417747092432
832,-4.930783032427416,-6.587609119295861,-5.91897599824768,-3.4800686299673718
833,-5.2431794241617,-7.01318283248809,-6.28798985411496,-3.739554104167758
834,-5.557600395760181,-7.440753979545877,-6.65707905114138,-4.004654778768791
835,-5.872598399867615,-7.868190155851579,-7.024288544527332,-4.274249606694382
836,-6.186703308034957,-8.293344408865755,-7.3876572729409835,-4.547150426817773
837,-6.498437819064368,-8.7140814300283,-7.745240824529388,-4.822113462151855
838,-6.806332733755347,-9.128303327761564,-8.095133656292107,-5.097851610998876
839,-7.108941800674062,-9.533974458145392,-8.435490463445845,-5.373047325822794
840,-7.4048558462046845,-9.929144806981672,-8.764546312118059,-5.646365864211006
841,-7.692715918032787,-10.311971446126787,-9.080635173532423,-5.916468690128483
842,-7.971225194044674,-10.680737627545884,-9.382206530394857,-6.1820268018074715
843,-8.239159437850043,-11.033869129618923,-9.667839765819775,-6.441733765062041
844,-8.495375816962303,-11.36994753059895,-9.936256090994094,-6.694318237504603
845,-8.738819939146541,-11.687720152327048,-10.186327818813147,-6.938555779943186
846,-8.968531005525842,-11.986106491688112,-10.417084845719765,-7.173279765961949
847,-9.18364502460829,-12.264201036049046,-10.627718261569333,-7.397391219076737
848,-9.383396078250138,-12.521272440178095,-10.817581066052703,-7.609867428578945
849,-9.567115677391502,-12.756759123986685,-10.986186028511339,-7.809769219809027
850,-9.73423029083323,-12.970261430956295,-11.13320078438521,-7.996246781597367
851,-9.884257173047816,-13.16153056444614,-11.258440314681025,-8.168543982320983
852,-10.016798655796233,-13.330454591428925,-11.361857003575166,-8.326001135696906
853,-10.13153510200662,-13.477041868884712,-11.443528512667614,-8.468056207264366
854,-10.2282167479334,-13.601402305547868,-11.503643747850823,-8.59424448170935
855,-10.30665468025444,-13.703726919582293,-11.542487225891955,-8.704196739055892
856,-10.366711208010601,-13.784266189910682,-11.5604221725314,-8.797636013735934
857,-10.408289895056042,-13.843307724467728,-11.557872702256704,-8.874373034281465
858,-10.431325517218825,-13.88115378200228,-11.535305442138146,-8.934300462658916
859,-10.435774200215414,-13.89809918496287,-11.493210968493523,-8.97738607102439
860,-10.421603980337158,-13.894410149536254,-11.43208542595772,-9.003665009941567
861,-10.388786011097382,-13.870304535476217,-11.352412693954728,-9.013231335932405
862,-10.337286616601691,-13.82593398368066,-11.254647455681345,-9.006228977674747
863,-10.267060367548988,-13.761368364553793,-11.139199509476255,-8.982842329227092
864,-10.178044329454293,-13.676582906262144,-11.006419641773368,-8.943286665273051
865,-10.070153605617316,-13.571448310463039,-10.856587354640851,-8.887798577373148
866,-9.94327827003273,-13.445724095470426,-10.68990070920366,-8.81662663134533
867,-9.797281758161997,-13.29905533471598,-10.506468509217925,-8.730022443881094
868,-9.632000756407729,-13.130972883395076,-10.306305007104992,-8.628232371054919
869,-9.44724660424325,-12.940897110011033,-10.08932726848321,-8.511489992261126
870,-9.24280819617316,-12.728145073794808,-9.855355281497449,-8.380009560161565
871,-9.018456344001768,-12.491941015295337,-9.60411484508336,-8.233980570412061
872,-8.773949533357614,-12.231429957347117,-9.335243216917691,-8.073563584341136
873,-8.509040982270564,-11.945694148554557,-9.048297448489707,-7.898887413596403
874,-8.223486884106194,-11.633772022679699,-8.742765282750883,-7.710047748395744
875,-7.917055692695038,-11.294679296024274,-8.418078440301048,-7.507107280898928
876,-7.589538284552367,-10.927431782051109,-8.073628073996765,-7.290097342962689
877,-7.24075881232822,-10.531069468922587,-7.708782129969123,-7.059021043895273
878,-6.870586045817736,-10.104681381992311,-7.322904315899363,-6.813857859621266
879,-6.478944982747531,-9.647430740010071,-6.915374345479981,-6.554569590807613
880,-6.065828501797965,-9.158579911105177,-6.485609101637965,-6.281107574911948
881,-5.631308825472279,-8.637514682474603,-6.033084340571072,-5.993421006701445
882,-5.175548560891703,-8.083767375843847,-5.5573565441322526,-5.691466194404495
883,-4.6988110925764035,-7.497038368645087,-5.058084519747143,-5.375216555065115
884,-4.201470112665369,-6.877215617653399,-4.535050345044328,-5.044673133531634
885,-3.684018090422991,-6.2243918264586515,-3.9881792589393674,-4.699875415353961
886,-3.1470735036334347,-5.538878949325985,-3.417558112287871,-4.340912195053852
887,-2.5913866788214936,-4.821219780241708,-2.8234520096185745,-3.967932257949193
888,-2.0178441143013055,-4.072196435686189,-2.2063187989661053,-3.581154635942574
889,-1.4274711888990836,-3.2928356013273032,-1.566821099341315,-3.180878205226348
890,-0.8214331888199425,-2.4844104748266136,-0.9058355945442654,-2.767490406350663
891,-0.2010346145608681,-1.6484393978204388,-0.2244593671834098,-2.3414748840559008
892,0.4322832418181578,-0.7866812285247252,0.47598690304605623,-1.9034178651030058
893,1.0769464320098143,0.09887243889157628,1.1939589987764725,-1.45401311640514
894,1.7312541577176668,1.006008052058872,1.927692547622008,-0.994065352407647
895,2.393386184136941,1.9323036748158215,2.6752097362530294,-0.524491989214597
896,-1.0126693913827955e-13,-3.0795551243725107e-14,-3.78369796795094e-14,-7.329999170213577e-14
897,-2.2099100323167294e-12,-6.921928186504143e-13,-8.282876683674782e-13,-1.125218624089037e-12
898,-2.6475223957819402e-11,-8.414428154385167e-12,-9.641871548903063e-12,-1.2838819767652613e-11
899,-2.1063132117189388e-10,-6.834995475911211e-11,-7.497227911587609e-11,-9.583175569862533e-11
900,-1.257747999897271e-09,-4.1760872161083814e-10,-4.392128008338563e-10,-5.42314671318497e-10
901,-6.031507472690466e-09,-2.052950813495663e-09,-2.0743234837834734e-09,-2.489684401213446e-09
902,-2.4279814544313877e-08,-8.482595941285796e-09,-8.25278849489678e-09,-9.708514419672086e-09
903,-8.466696122373253e-08,-3.0378869360547414e-08,-2.853102563425539e-08,-3.320364749054102e-08
904,-2.6188913580992646e-07,-9.648023385836312e-08,-8.771174865183706e-08,-1.0195432545494865e-07
905,-7.319552520467966e-07,-2.7656662258950716e-07,-2.440966795592888e-07,-2.8598320211430386e-07
906,-1.875971497745198e-06,-7.256775155834861e-07,-6.23661947066009e-07,-7.423936664929419e-07
907,-4.46201004267958e-06,-1.7627948321989178e-06,-1.4796018957127719e-06,-1.801241418429804e-06
908,-9.945524050167695e-06,-4.001608658130319e-06,-3.2897894960949044e-06,-4.1159930111735336e-06
909,-2.0940346640112914e-05,-8.555200336558586e-06,-6.907774438739942e-06,-8.912303716897071e-06
910,-4.192300630876034e-05,-1.7339912941499766e-05,-1.3785574016459622e-05,-1.837797177322941e-05
911,-8.024091649407981e-05,-3.3505741817309835e-05,-2.6288255926196007e-05,-3.6244978857419126e-05
912,-0.00014749793352110763,-6.202074988702763e-05,-4.81207437121641e-05,-6.862013247948545e-05
913,-0.00026138719318409873,-0.0001104348799185586,-8.488608718506246e-05,-0.0001251226514554959
914,-0.0004480300624749097,-0.00018984380069799858,-0.00014479149021192015,-0.00022038389450414707
915,-0.0007448613329086408,-0.00031606593599924,-0.00023951368593215448,-0.00037595558556880165
916,-0.0012040750746912005,-0.0005110356528850532,-0.0003852288726992694,-0.0006226581665280133
917,-0.0018966141261673231,-0.0008044031003108358,-0.0006038044392131168,-0.0010033808274284737
918,-0.0029166505857609686,-0.0012353170945630706,-0.0009241401466640151,-0.0015763203217670776
919,-0.004386466570967007,-0.0018543527095755171,-0.0013836353664528518,-0.002418618200304041
920,-0.0064616056169330355,-0.002725530902356069,-0.0020297466204322228,-0.003630327028408257
921,-0.00933612728182328,-0.003928364537935926,-0.0029215865495224908,-0.005338607045104019
922,-0.01324776295643356,-0.005559854301996425,-0.004131502407588891,-0.007702027201386205
923,-0.018482741809734294,-0.0077363497087033824,-0.005746560407983605,-0.010914820199215507
924,-0.02538003428831126,-0.010595185109084476,-0.007869853055608042,-0.015210921510185365
925,-0.03433474809741164,-0.014295998656046426,-0.010621541205609621,-0.02086760846038253
926,-0.045800408940797906,-0.01902164401458228,-0.01413954192014784,-0.0282085479869489
927,-0.06028986579118979,-0.024978610676067672,-0.018579777732664456,-0.03760606082405603
928,-0.07837457815761568,-0.03239687942265394,-0.02411591273287251,-0.049482415663361486
929,-0.10068207063135194,-0.0415291549506881,-0.030938515656823477,-0.06430997909987617
930,-0.12789137772147466,-0.052649437712140854,-0.039253609311957025,-0.08261006573981898
931,-0.16072634920666926,-0.06605092104885328,-0.0492805883218509,-0.10495035742226605
932,-0.19994674221218464,-0.08204322659873539,-0.0612495122467663,-0.13194079071788853
933,-0.24633708979363828,-0.10094901926790067,-0.0753978074154115,-0.16422784711116656
934,-0.3006934051543837,-0.12310007105368687,-0.09196643713265625,-0.20248721968723357
935,-0.363807853151015,-0.14883286888311317,-0.1111956253403295,-0.24741487247520697
936,-0.4364515932488448,-0.17848388376572866,-0.13332024257324565,-0.2997165522462464
937,-0.5193560671674441,-0.21238463563471854,-0.15856498460922372,-0.3600958557232153
938,-0.6131930669705012,-0.250856699372594,-0.187139493011206,-0.4292409960357311
939,-0.7185539728156923,-0.29420680224391893,-0.21923358208650867,-0.5078104493890871
940,-0.8359285922989774,-0.34272216124355864,-0.2550127476329242,-0.5964176953458167
941,-0.9656840644621745,-0.39666620097818694,-0.2946141379041757,-0.6956152916049169
942,-1.1080443110139264,-0.4562747791144301,-0.3381431650818241,-0.8058785470983529
943,-1.2630705256984354,-0.5217530278058629,-0.38567092492879607,-0.9275890764838849
944,-1.4306431909096393,-0.5932728966644674,-0.4372325724475287,-1.0610185356168524
945,-1.610446099471911,-0.670971456714187,-0.492826772220793,-1.2063128520194413
946,-1.8019528396223938,-0.7549499963865359,-0.5524163044329986,-1.3634772769023764
947,-2.0044161729772005,-0.8452739110513705,-0.61592986288505,-1.5323625955919338
948,-2.216860698771146,-0.9419733578568757,-0.6832650318048845,-1.7126528403863233
949,-2.4380791529850367,-1.0450446187752926,-0.7542923765630045,-1.9038548526486125
950,-2.666632638173321,-1.154452087689508,-0.8288605323961288,-2.105290037790881
951,-2.900855019015352,-1.2701307731116078,-0.9068021277346816,-2.3160886461663175
952,-3.1388616501022883,-1.3919891877457533,-0.9879403372160611,-2.5351868933387673
953,-3.378562526729179,-1.5199124806386792,-1.072095825959049,-2.7613272036917462
954,-3.617679867245546,-1.6537656580263873,-1.1590938226767817,-2.993061821240838
955,-3.8537700479183936,-1.7933967358477105,-1.2487710457491732,-3.22875998076532
956,-4.084249719726671,-1.9386396705454063,-1.340982204061315,-3.4666187714112016
957,-4.306425842873573,-2.089316925087996,-1.4356058033908516,-3.7046777546802407
958,-4.517529281258815,-2.245241543600345,-1.5325490090537597,-3.940837320521957
959,-4.714751508148229,-2.406218629731037,-1.6317513455554145,-4.1728806808540915
960,-4.895283888435468,-2.572046149789404,-1.7331870528539115,-4.3984993114372255
961,-5.056358924897372,-2.742515010447471,-1.8368659648646608,-4.61532156327908
962,-5.195292788368321,-2.917408391018292,-1.9428328270743136,-4.82094407662386
963,-5.309528397295367,-3.096500340588719,-2.0511650244489847,-5.012965547204305
964,-5.396678272848612,-3.279553679296256,-2.1619687460142725,-5.189022318819569
965,-5.4545663732682685,-3.4663172696707885,-2.2753736664595148,-5.346825211054889
966,-5.48126810636936,-3.6565227473287503,-2.39152627606153,-5.484196938101383
967,-5.475147732274528,-3.8498808198091097,-2.510582036689346,-5.59910943540691
968,-5.434892398975656,-4.0460772576710005,-2.632696582550448,-5.689720385843662
969,-5.3595421000906205,-4.2447687130957075,-2.7580162188509223,-5.754408226155211
970,-5.248514905600423,-4.445578508319187,-2.8866679990144584,-5.791804917285731
971,-5.101626890594422,-4.648092539563288,-3.018749680949871,-5.800825778330114
972,-4.919106272288509,-4.851855442089326,-3.1543198744426344,-5.780695713020306
973,-4.701601360152845,-5.056367158921965,-3.2933886943421964,-5.730971199889626
974,-4.450182026488404,-5.261080049979295,-3.4359092270468254,-5.651557472852066
975,-4.166334513987144,-5.465396669986209,-3.58177010022526,-5.542720388266646
976,-3.8519495114944067,-5.668668332708325,-3.7307894175424945,-5.405092557857522
977,-3.5093035480336923,-5.870194565680613,-3.882710281789623,-5.2396734238614595
978,-3.14103387661295,-6.069223543602133,-4.037198082386346,-5.047823062563747
979,-2.750107141551966,-6.264953569775523,-4.193839668522048,-4.83124962320808
980,-2.3397822438013627,-6.45653565327136,-4.352144469501287,-4.591990438626982
981,-1.9135679353163446,-6.643077204916122,-4.511547561675793,-4.332386978702104
982,-1.4751757831284666,-6.82364684801707,-4.671414619189541,-4.055053954460308
983,-1.0284692435701146,-6.997280310552415,-4.8310486259822545,-3.7628430156860735
984,-0.5774096747806372,-7.162987335281116,-4.989698171216458,-3.458801614827956
985,-0.1260001892749132,-7.319759513987673,-5.146567101445004,-3.146127731158148
986,0.32177169352244134,-7.466578923081931,-5.300825262176755,-2.828121257943194
987,0.7619915934554304,-7.602427411203777,-5.451620030547383,-2.508132948142459
988,1.1908749893070536,-7.72629636641892,-5.59808832068588,-2.1895118873989228
989,1.6048220807670488,-7.8371967719759414,-5.739368734631473,-1.8755525139798614
990,2.0004697735697623,-7.934169346195692,-5.874613534149337,-1.5694422318954544
991,2.374739798813536,-8.016294554436072,-6.003000121692009,-1.274210664850871
992,2.7248820258447557,-8.082702279523781,-6.123741740730829,-0.992681575203657
993,3.048512095061605,-8.132580941635615,-6.236097135169963,-0.7274284248056545
994,3.3436425831100594,-8.165185869221716,-6.339378943004492,-0.48073448497960547
995,3.6087070187332118,-8.179846738939629,-6.432960639440828,-0.2545583124670572
996,3.8425761932126714,-8.175973924361468,-6.516281888245278,-0.05050529844516931
997,4.04456635440863,-8.15306361997505,-6.5888522061738195,0.1301941296933037
998,4.214439036255154,-8.110701638132385,-6.650252893049094,0.28669921700281814
999,4.352392453137491,-8.048565811321449,-6.700137228406214,0.4185662186257671
1000,4.459044576272978,-7.966426969423173,-6.7382289835202105,0.5257482487092574
1001,4.53540820112923,-7.8641485001994464,-6.764319343831597,0.6085876902725263
1002,4.582858504370567,-7.74168453971734,-6.778262380021235,0.6678013814385859
1003,4.603093769043472,-7.599076876316838,-6.779969245001385,0.7044589523074737
1004,4.598090121380029,-7.4364506857829245,-6.769401307749378,0.7199548339339331
1005,4.570051266297522,-7.254009245519071,-6.746562462259715,0.7159745924313066
1006,4.521354327084395,-7.052027800890842,-6.711490870185951,0.6944563541453109
1007,4.454492984696089,-6.8308467768362355,-6.6642504084525,0.6575481800131833
1008,4.37201917130172,-6.5908645417679015,-6.604922097882855,0.6075623170815625
1009,4.276484599783761,-6.332529938296546,-6.533595785524959,0.546927301576937
1010,4.170383405107623,-6.056334796145518,-6.450362341850615,0.4781389102063721
1011,4.05609713507369,-5.76280663682269,-6.355306614609729,0.40371095454190287
1012,3.935843258264715,-5.452501767488372,-6.248501354387632,0.3261268882713945
1013,3.8116282585417594,-5.125998943619417,-6.130002293755986,0.24779315056435838
1014,3.6852062619000425,-4.783893757360293,-5.9998445235741515,0.1709951032870633
1015,3.5580439975190057,-4.426793881848596,-5.858040267995246,0.09785633835930718
1016,3.4312927357362857,-4.055315272347652,-5.704578115679521,0.030302037499154985
1017,3.3057676770489572,-3.6700793937719496,-5.539423720208128,-0.02997303658035534
1018,3.1819350935998814,-3.2717115122029217,-5.362521939181272,-0.0815314474380294
1019,3.059907352972291,-2.8608400562705585,-5.173800340264271,-0.12321453224522812
1020,2.939445787756816,-2.438097023733765,-4.973173964628103,-0.15415814268214445
1021,2.819971216598382,-2.0041193799867836,-4.760551204753624,-0.173802543028977
1022,2.7005817757008037,-1.559551369113428,-4.535840625183624,-0.18189643635056718
1023,2.580077585780905,-1.1050476348740768,-4.2989585320899,-0.17849519332739808
1024,-4.2124236992350947e-13,7.222676199530849e-14,-9.502527980041662e-14,-2.1614799747761582e-13
1025,-9.355175878319264e-12,1.7162334050409148e-12,-2.0702126793606763e-12,-4.4046114458810705e-12
1026,-1.1055310283662644e-10,1.9866952865880377e-11,-2.302424018942248e-11,-5.670058330844195e-11
1027,-8.681285767606004e-10,1.530348843944549e-10,-1.707813253755271e-10,-4.770136638152673e-10
1028,-5.125495212309245e-09,8.86236591646748e-10,-9.537646654892695e-10,-2.998996343006934e-09
1029,-2.4335384207867503e-08,4.128194830117762e-09,-4.29614217528852e-09,-1.506107401638539e-08
1030,-9.706809321181437e-08,1.615644307374861e-08,-1.632513165256326e-08,-6.314112540258804e-08
1031,-3.3545401969015225e-07,5.4778733954154446e-08,-5.40244662364782e-08,-2.2797872502408828e-07
1032,-1.0277943918547166e-06,1.6461074131744993e-07,-1.594276697230491e-07,-7.257927422885256e-07
1033,-2.8422475271576402e-06,4.462122405632595e-07,-4.2723646636767757e-07,-2.075208776699013e-06
1034,-7.196142779815222e-06,1.1064993590936545e-06,-1.0545836283440603e-06,-5.4084550006310465e-06
1035,-1.687588780853236e-05,2.5387950789911568e-06,-2.4249612722827195e-06,-1.3005186783341395e-05
1036,-3.7010754147580626e-05,5.440493051286029e-06,-5.241769469808353e-06,-2.9145082327711132e-05
1037,-7.6516823716698e-05,1.0974071542225352e-05,-1.0729995313738995e-05,-6.138794378389933e-05
1038,-0.0001501317889437065,2.0972771423634785e-05,-2.0926583181448678e-05,-0.000122394518561419
1039,-0.0002811543446942885,3.818557895400478e-05,-3.908047886739933e-05,-0.00023239546825006105
1040,-0.0005049817189883891,6.654747688893433e-05,-7.018165813949444e-05,-0.0004223985578703963
1041,-0.0008735049003337351,0.00011145080052510996,-0.0001216345224731777,-0.0007381950038914256
1042,-0.0014603740848286289,0.00017998277115895684,-0.00020408507547350644,-0.0012451856653062023
1043,-0.0023670888281994516,0.0002810838737165837,-0.00033240384185449914,-0.002033997936118429
1044,-0.003729801447333072,0.00042557279754747157,-0.0005268183351181412,-0.0032268069263888498
1045,-0.005726652432705408,0.0006259772921298828,-0.0008141808329428026,-0.004984212550533649
1046,-0.008585387764837096,0.0008961075501892447,-0.0012293499362402243,-0.007512460782537561
1047,-0.012590945165133963,0.0012503104673402092,-0.001816658241128625,-0.011070736470874025
1048,-0.018092644410549235,0.0017023498678560374,-0.0026314335288740317,-0.01597820108977765
1049,-0.025510580179109746,0.00226386966324962,-0.003741537093373841,-0.02262040597488532
1050,-0.03534079779100404,0.0029424136478436763,-0.005228880093293354,-0.03145468392115408
1051,-0.04815883474742288,0.003738996571846534,-0.0071908771822380485,-0.043014112497327436
1052,-0.06462123491742745,0.004645245255806593,-0.009741796347518535,-0.057909652898199236
1053,-0.08546468687413045,0.005640154499048933,-0.013013965168168714,-0.0768300990188531
1054,-0.11150250117117018,0.006686528826092981,-0.017158796785680806,-0.10053952185232007
1055,-0.14361822001804922,0.007727206024858257,-0.02234760370169444,-0.12987196218067307
1056,-0.18275624285739622,0.008681180322824318,-0.028772173664037462,-0.16572320686198325
1057,-0.2299094483856818,0.00943976052062615,-0.03664508866210067,-0.2090395770561111
1058,-0.2861038932588155,0.009862910433691538,-0.04619977455288291,-0.2608037564395225
1059,-0.352380766137567,0.00977592499569503,-0.05769027423122965,-0.32201778971130146
1060,-0.4297758694937065,0.008966595168065913,-0.07139074086973615,-0.3936834826115627
1061,-0.519296988053979,0.00718300850265715,-0.0875946491860999,-0.47678053072741994
1062,-0.6218995797501154,0.004132120164457732,-0.10661372186075851,-0.5722427923261992
1063,-0.7384612908239924,-0.0005207880481966142,-0.1287765653504313,-0.6809331975555084
1064,-0.8697558498059665,-0.0071516649785141224,-0.15442700493460362,-0.8036178501756293
1065,-1.0164269342917014,-0.016176193544159584,-0.18392210364001238,-0.940939926751104
1066,-1.178962628987377,-0.028047198546094766,-0.21762984463395227,-1.0933940106781983
1067,-1.3576711030245256,-0.04325094715725152,-0.25592645278174264,-1.261301514049251
1068,-1.552658129042495,-0.06230236111942958,-0.2991933293554472,-1.444787839175231
1069,-1.763807046331827,-0.08573918998073576,-0.3478135752699775,-1.643761914215203
1070,-1.9907617360172698,-0.11411522363429251,-0.40216808335388643,-1.8578987046851254
1071,-2.2329131287539914,-0.14799264917242777,-0.4626311892915884,-2.0866252558020597
1072,-2.4893897058303325,-0.18793368102382005,-0.5295658838193493,-2.329110760804747
1073,-2.759052384213618,-0.23449161403214844,-0.6033186049384264,-2.584261078784508
1074,-3.04049409628732,-0.2882014662346043,-0.684213647451886,-2.8507180432807937
1075,-3.3320442873003735,-0.34957039137842333,-0.7725472470020308,-3.1268638112072717
1076,-3.6317784595015628,-0.4190680505196986,-0.8685814159114775,-3.410830401918964
1077,-3.9375327933981827,-0.4971171372906458,-0.9725376275054897,-3.7005144700656056
1078,-4.2469237754767875,-0.5840842525677794,-1.0845904633396786,-3.9935972451589463
1079,-4.557372660044882,-0.6802713213504974,-1.2048613531507475,-4.287569457692636
1080,-4.866134492582091,-0.7859077377457595,-1.3334125497855283,-4.57976095857337
1081,-5.17033132509646,-0.9011434131714643,-1.4702414902983822,-4.867374628081322
1082,-5.466989162395334,-1.0260428883924242,-1.615275699283697,-5.147524065238385
1083,-5.753078093650065,-1.160580651968603,-1.7683683907416798,-5.417274450915831
1084,-6.02555498775479,-1.3046377863334389,-1.9292949197855325,-5.673685890834862
1085,-6.281408065146795,-1.4580000382783576,-2.0977502248223807,-5.913858470118058
1086,-6.517702604303532,-1.6203573834020886,-2.2733473842569865,-6.134978191362121
1087,-6.731626999257405,-1.791305124468902,-2.4556173894134776,-6.334362925033286
1088,-6.92053835623753,-1.9703465320783846,-2.6440102078099113,-6.509507475750783
1089,-7.082006803724296,-2.1568970031565153,-2.8378971791414056,-6.658126861660892
1090,-7.2138576913297365,-2.3502896792258845,-3.03657475166786,-6.77819691723493
1091,-7.31421086928241,-2.5497824330106544,-3.2392695307202484,-6.867991362582131
1092,-7.3815162720446335,-2.754566099590851,-3.445144575361813,-6.926114534549272
1093,-7.414585076603956,-2.9637737980216494,-3.653306845424661,-6.951529045762712
1094,-7.412615767884866,-3.1764911620776575,-3.8628156705778687,-6.9435777262592975
1095,-7.37521451977629,-3.3917672755290336,-4.072692086932193,-6.90199930680083
1096,-7.302409389440343,-3.6086260889573447,-4.281928865841338,-6.826937421331199
1097,-7.194657923483883,-3.826078082260394,-4.489501044598394,-6.718942635756111
1098,-7.052847885585814,-4.043131930158452,-4.69437675986605,-6.578967348449566
1099,-6.878290934275302,-4.258805927458039,-4.895528181754422,-6.408353551456648
1100,-6.672709204548594,-4.472138936590393,-5.09194234894944,-6.208813587010367
1101,-6.438214875563878,-4.68220063184629,-5.282631712410149,-5.982404178480173
1102,-6.177282936457474,-4.888100832414327,-5.466644205965662,-5.731494155064741
1103,-5.892717491108578,-5.088997739272653,-5.643072675705416,-5.458726422538586
1104,-5.5876120681438435,-5.28410491852651,-5.81106351551091,-5.16697485539691
1105,-5.265304522326507,-5.472696905156096,-5.969824372731681,-4.859296896317067
1106,-4.929327225399391,-5.6541133354695345,-6.118630805391506,-4.538882744552057
1107,-4.583353346222454,-5.827761552882209,-6.256831790192827,-4.209002093526546
1108,-4.231140109466856,-5.9931176689331735,-6.3838539989543435,-3.87294943750474
1109,-3.876469997108424,-6.149726098632641,-6.499204780103874,-3.53398900613653
1110,-3.523090915500473,-6.297197625258086,-6.602473801641175,-3.195300402712877
1111,-3.174656391196024,-6.435206083595004,-6.693333332714071,-2.8599260164262024
1112,-2.8346668795868966,-6.563483781484068,-6.771537162611406,-2.5307212506944157
1113,-2.506413270983637,-6.681815806669891,-6.836918178391105,-2.210308559217848
1114,-2.1929236585322,-6.790033388796239,-6.889384645189425,-1.9010362099771845
1115,-1.8969143913822706,-6.888006504581587,-6.92891525601891,-1.604942606584825
1116,-1.6207463752519202,-6.9756359275278,-6.955553039977841,-1.3237268884354156
1117,-1.3663875019912448,-7.0528449319026825,-6.9693982386293,-1.0587264086150387
1118,-1.1353819914005612,-7.119570864252238,-6.970600279232284,-0.8109015543843416
1119,-0.9288273143053688,-7.175756794491279,-6.9593489899524235,-0.5808282323728567
1120,-0.7473592378855256,-7.221343452916574,-6.935865215699893,-0.36869819254901015
1121,-0.5911453949365006,-7.256261649580242,-6.900391003572389,-0.1743272147615256
1122,-0.45988763070904964,-7.280425358707278,-6.853179533987291,0.0028289677206625014
1123,-0.3528332269929693,-7.2937256336475205,-6.794484977679149,0.16365127878377375
1124,-0.2687949458995335,-7.296025497662726,-6.7245524602082645,0.3093268542377425
1125,-0.20617967798922257,-7.287155933133585,-6.643608314914901,0.44131208085196955
1126,-0.16302532347487325,-7.26691306702348,-6.551850802690225,0.5612897786231386
1127,-0.13704538358112633,-7.2350566241747964,-6.4494414726355815,0.6711212913328944
1128,-0.12568059404995913,-7.191309692780869,-6.336497331538146,0.772794342358835
1129,-0.12615679633924032,-7.135359818727502,-6.2130839818524874,0.8683675894956325
1130,-0.1355481161865453,-7.0668614179888225,-6.079209877264516,0.9599128735864194
1131,-0.1508444056088629,-6.985439469437875,-5.934821831720896,1.0494562008332293
1132,-0.16902180473018805,-6.890694424818473,-5.779801901960758,1.1389185277292333
1133,-0.1871151956388369,-6.7822082487149435,-5.61396574515891,1.230057430919813
1134,-0.2022912533090296,-6.659551479602983,-5.437062532482889,1.3244107423218012
1135,-0.2119207498563107,-6.522291183862707,-5.248776476485561,1.4232432130582184
1136,-0.21364873934783551,-6.369999658309974,-5.0487300056949085,1.5274972387083912
1137,-0.20546124228862006,-6.202263723603423,-4.836488593987183,1.6377486336020988
1138,-0.18574706300607022,-6.018694440986322,-4.611567225856857,1.754168383828557
1139,-0.15335341057301022,-5.818937078323669,-4.373438452085803,1.8764912377026435
1140,-0.10763405555341256,-5.602681148321108,-4.121541964143457,2.0039919088793594
1141,-0.04848884122579864,-5.369670342108722,-3.855295590496502,2.135469571400754
1142,0.023606520858409665,-5.119712184901781,-3.5741075944143637,2.2692412178701242
1143,0.10758130551364083,-4.852687246987418,-3.2773901313008644,2.4031443319707737
1144,0.20176205422826704,-4.568557752526116,-2.9645737044272766,2.5345491950031804
1145,0.3038768757650824,-4.267375440227614,-2.635122441398225,2.6603810035844275
1146,0.41107216133268976,-3.949288543452581,-2.288549999771326,2.777151822902019
1147,0.5199418916955886,-3.614547772285825,-1.924435898806647,2.88100223809966
1148,0.6265694835099417,-3.2635111962302785,-1.5424420650161088,2.967752397041693
1149,0.7265818828069487,-2.896647943035456,-1.1423293715825071,3.0329619629065205
1150,0.8152153692281875,-2.514540646505274,-0.7239739453377781,3.0719983173979837
1151,0.8873922901112178,-2.1178865936831373,-0.28738300935727,3.080112177998185
1152,-8.550820575843871e-14,-1.566065084669158e-14,-5.989160551940765e-14,1.1231663596033592e-14
1153,-2.0130871403185568e-12,-3.215880186384642e-13,-1.3340964917434383e-12,2.31689086683883e-13
1154,-2.362310295928703e-11,-3.875570192676375e-12,-1.5991960352347852e-11,2.7466819657020166e-12
1155,-1.839339929987059e-10,-3.134312279773403e-11,-1.2807760934543452e-10,2.157747460094207e-11
1156,-1.0725586169458688e-09,-1.9082898436614794e-10,-7.711729964539949e-10,1.275568808831046e-10
1157,-5.0115928951065945e-09,-9.353385443360286e-10,-3.734329517020965e-09,6.068781149788345e-10
1158,-1.960556097455567e-08,-3.85555446786289e-09,-1.5194501017021505e-08,2.4285479247246167e-09
1159,-6.624332136164714e-08,-1.3784715577208715e-08,-5.3585073555868224e-08,8.433212654803207e-09
1160,-1.9788892640398053e-07,-4.3742339118446805e-08,-1.6763545686559688e-07,2.6014877935082355e-08
1161,-5.323063656668946e-07,-1.254136591395602e-07,-4.736743628160785e-07,7.260508645179295e-08
1162,-1.3084141565979288e-06,-3.2951986786115494e-07,-1.2263515357620676e-06,1.8602337070841912e-07
1163,-2.9743587277739647e-06,-8.025922457275334e-07,-2.9431588424304325e-06,4.4275859503748233e-07
1164,-6.315787584581599e-06,-1.829257666448155e-06,-6.610123945101517e-06,9.88511528758529e-07
1165,-1.2631417732871885e-05,-3.932025149857517e-06,-1.4003157281460211e-05,2.086847038287998e-06
1166,-2.3960128584462123e-05,-8.02350267112554e-06,-2.816592466710339e-05,4.193521839328147e-06
1167,-4.335939452178516e-05,-1.5628675872916465e-05,-5.4089907445611305e-05,8.065866277948541e-06
1168,-7.52290595406421e-05,-2.919701764386422e-05,-9.964468408448873e-05,1.4918348115624475e-05
1169,-0.00012566763142357056,-5.2525446181001674e-05,-0.00017680575468704735,2.663691952958969e-05
1170,-0.00020284099169978336,-9.131322685103858e-05,-0.00030322293482423627,4.606567895818784e-05
1171,-0.0003173363089556703,-0.00015386860840354077,-0.0005041641292424988,7.737946594111193e-05
1172,-0.00048246764797189846,-0.0002519841732788024,-0.0008148569868725433,0.00012655494316544426
1173,-0.0007144949069858337,-0.00040199353580533035,-0.0012832345735815736,0.0002019502469451004
1174,-0.0010327148396533136,-0.0006260162042542767,-0.001973071098308428,0.0003149992420548475
1175,-0.0014593824230112627,-0.0009533902832380783,-0.0029674705642865136,0.0004810207694419832
1176,-0.002019422918722381,-0.0014222844615754465,-0.0043726460447526165,0.0007201361281993732
1177,-0.0027398996939487505,-0.0020814717082712642,-0.006321901498801687,0.0010582796032907475
1178,-0.0036492102211289944,-0.0029922376429054017,-0.008979703265953732,0.0015282774386303542
1179,-0.004775992654647801,-0.0042303870476586725,-0.012545706265611153,0.002170960634761846
1180,-0.006147737910356427,-0.005888302840613589,-0.01725858198870918,0.0030362667662625956
1181,-0.007789116995510204,-0.008077003398793994,-0.02339948282288725,0.004184276188887524
1182,-0.009720049956351147,-0.010928136717544036,-0.03129497096698205,0.005686119142928785
1183,-0.011953560508586696,-0.014595843777415678,-0.04131924068212689,0.007624683020360901
1184,-0.014493478296289324,-0.019258418879903805,-0.05389547009148643,0.010095044142071756
1185,-0.01733206774510323,-0.02511969181670148,-0.06949615308711797,0.013204546459075124
1186,-0.020447677481830556,-0.032410055767252095,-0.08864228277741809,0.017072451251809277
1187,-0.023802516108111585,-0.041387065991068,-0.11190128471531059,0.021829087640459342
1188,-0.027340667680422544,-0.05233553788684117,-0.13988363005676138,0.02761444386733896
1189,-0.03098646273557896,-0.06556707896739232,-0.17323809475878044,0.034576153999892154
1190,-0.03464331755650421,-0.08141899780307403,-0.21264566968157392,0.04286685382637719
1191,-0.03819314530973315,-0.1002525439690945,-0.2588121666046801,0.05264090290575705
1192,-0.04149642770390775,-0.1224504463361174,-0.3124596052201703,0.06405049634031675
1193,-0.04439301527859112,-0.14841373240126338,-0.374316504652793,0.07724121892899477
1194,-0.046703699110763205,-0.17855782840550227,-0.44510723857650064,0.09234712471784866
1195,-0.04823256777458871,-0.21330795828330082,-0.5255406442697051,0.10948545512338445
1196,-0.04877013221331211,-0.25309387854337495,-0.6162981018597463,0.1287511370966292
1197,-0.04809716931296603,-0.29834400544655154,-0.7180213196384022,0.1502112274544501
1198,-0.04598920398563733,-0.34947900976383184,-0.8313000740282347,0.17389948879601735
1199,-0.04222152103445221,-0.40690497238982715,-0.9566601581927923,0.1998112948012542
1200,-0.03657457341319663,-0.4710062105816275,-1.0945517914068275,0.22789906695557743
1201,-0.028839633876254777,-0.5421378990362672,-1.2453387324938487,0.2580684400848734
1202,-0.01882452326014976,-0.6206186218935668,-1.4092883255899507,0.2901753402491627
1203,-0.006359241235100902,-0.706723000602243,-1.5865626861425124,0.3240241358032522
1204,0.008698675465943741,-0.800674548058443,-1.7772112104485585,0.35936699156792573
1205,0.026459236607650424,-0.9026389012829821,-1.981164564205442,0.3959045182924792
1206,0.04699568104426111,-1.0127175830492174,-2.1982302753960825,0.43328776649880396
1207,0.07034089775762824,-1.1309424373476102,-2.428090025127126,0.4711215671842474
1208,0.09648470180038461,-1.2572708745401746,-2.6702986974154768,0.5089691736550644
1209,0.12537205430678827,-1.3915820497870761,-2.924285215919336,0.5463581109203104
1210,0.15690228497190375,-1.5336740831653144,-3.189355162728334,0.5827870934946213
1211,0.19092934216881194,-1.6832624122423094,-3.464695142051003,0.6177338309029402
1212,0.22726306130249319,-1.8399793481333648,-3.7493788204784533,0.6506635042437102
1213,0.26567140730014527,-2.0033748846787143,-4.042374546003204,0.68103766824267
1214,0.30588361352539795,-2.172918787726127,-4.342554420677367,0.70832331249806
1215,0.3475941080543033,-2.348003967985735,-4.648704677196803,0.7320018040143298
1216,0.39046709031287574,-2.5279511169128948,-4.959537188178023,0.7515774312906413
1217,0.4341415976673848,-2.7120145609540605,-5.2737019186869025,0.7665852784737742
1218,0.4782368836971566,-2.899389265652532,-5.589800117781936,0.7765981763254167
1219,0.5223579183712574,-3.089218897960608,-5.906398033471117,0.7812325045143483
1220,0.5661008157241612,-3.2806048330514535,-6.222040927581908,0.7801526561568297
1221,0.609057997143478,-3.4726159713707054,-6.535267162732901,0.7730740193561507
1222,0.650822908077653,-3.6642992130043646,-6.844622133121621,0.7597643801772673
1223,0.6909941226380745,-3.854690420045235,-7.148671814529651,0.7400437052168943
1224,0.7291786937237654,-4.042825683892188,-7.4460157170888435,0.7137823176944966
1225,0.7649946351646185,-4.227752703691947,-7.735299037087419,0.6808975367014066
1226,0.7980724559645942,-4.408542074802085,-8.015223821312437,0.6413489028051939
1227,0.8280557038965163,-4.584298282557505,-8.284558978737564,0.595132162608715
1228,0.8546005152255257,-4.754170197045356,-8.542148999148251,0.542272228285797
1229,0.8773742078774547,-4.917360869233875,-8.786921265764088,0.482815364009843
1230,0.8960529954690742,-5.073136437751008,-9.01789187820154,0.4168208783439789
1231,0.9103189377798534,-5.220833968842851,-9.234169932332517,0.34435261923255583
1232,0.9198562780140386,-5.359868069415351,-9.434960233874744,0.26547057576433264
1233,0.9243473472164812,-5.489736134321451,-9.61956445210549,0.1802228882863508
1234,0.923468240200853,-5.6100221138458455,-9.78738074823507,0.08863855601656093
1235,0.9168844841842009,-5.720398715218635,-9.937901939169107,-0.009278890332798622
1236,0.9042469300849371,-5.820627982426765,-10.07071228125474,-0.11355651329367587
1237,0.8851880965890827,-5.910560230971711,-10.1854829799386,-0.2242556900088448
1238,0.8593191885237718,-5.990131347835885,-10.281966549992855,-0.34147427194083885
1239,0.8262279941222106,-6.059358500982148,-10.359990167092821,-0.4653470710441861
1240,0.7854778410983703,-6.11833433637475,-10.419448165053858,-0.5960446092468991
1241,0.7366077600608061,-6.16721977290778,-10.460293843896263,-0.7337701175295511
1242,0.6791339669543103,-6.206235535909649,-10.482530761970422,-0.8787548195683418
1243,0.612552735406549,-6.235652597273336,-10.486203690480762,-1.03125158151253
1244,0.5363446866233119,-6.255781714051095,-10.471389410784239,-1.1915270528853188
1245,0.4499804802979756,-6.266962276981204,-10.438187533816384,-1.3598524629306104
1246,0.3529278462244982,-6.269550695449862,-10.386711517084407,-1.5364932712782025
1247,0.24465985416196873,-6.263908555545571,-10.31708004817032,-1.7216979010606304
1248,0.12466428012886308,-6.250390792993198,-10.229408954979128,-1.9156858062460265
1249,-0.00754610829416388,-6.229334122864636,-10.123803792375515,-2.118635142761386
1250,-0.15242255609252386,-6.201045963185484,-10.00035324258365,-2.33067032490324
1251,-0.31036884862704783,-6.165794080132951,-9.85912345284699,-2.551849754611878
1252,-0.48172961746349285,-6.123797168758439,-9.70015341834984,-2.78215401154585
1253,-0.6667786924779351,-6.075216565422218,-9.523451501317432,-3.021474786714735
1254,-0.8657077758756735,-6.02014926677777,-9.328993158702202,-3.2696048319132256
1255,-1.0786157144087356,-5.958622405603996,-9.116719931288907,-3.5262291815721993
1256,-1.3054986399906532,-5.8905893065103925,-8.886539726922015,-3.7909178831611796
1257,-1.5462412362644038,-5.815927215042665,-8.638328410424302,-4.063120447267732
1258,-1.8006093697993124,-5.7344367625553225,-8.37193269307728,-4.342162199350894
1259,-2.0682442999477364,-5.64584319700177,-8.087174295511383,-4.62724268240242
1260,-2.348658651638656,-5.549799377159458,-7.783855339532031,-4.917436223880964
1261,-2.641234301344094,-5.44589049540881,-7.461764906676293,-5.2116947418622495
1262,-2.945222289013388,-5.333640462659619,-7.120686684024863,-5.508852824928237
1263,-3.25974482877973,-5.212519858974088,-6.760407600949248,-5.807635078466438
1264,-3.583799449478814,-5.081955325423549,-6.380727344176273,-6.106665687346972
1265,-3.9162652532225435,-4.941340247223663,-5.981468623078729,-6.404480101998785
1266,-4.255911237189977,-4.790046555638881,-5.562488042827193,-6.699538712363911
1267,-4.601406581186877,-4.627437456887466,-5.123687430343075,-6.990242332758803
1268,-4.951332762125485,-4.4528808806095475,-4.665025447175402,-7.274949281043706
1269,-5.304197317131082,-4.265763428615282,-4.186529314650555,-7.551993798441197
1270,-5.658449040282408,-4.065504596760746,-3.688306469954195,-7.819705522593686
1271,-6.012494364880491,-3.851571038959772,-3.1705559671522714,-8.076429696714063
1272,-6.364714654434361,-3.6234906424688607,-2.6335794344635843,-8.320547772630801
1273,-6.713484101951001,-3.3808661875014487,-2.0777913982811484,-8.550498045788212
1274,-7.057187919158537,-3.123388371653533,-1.5037287854462993,-8.764795946442337
1275,-7.394240485387214,-2.8508479901911,-0.9120594180984385,-8.962053603984508
1276,-7.723103120311607,-2.563147076542233,-0.3035893201339671,-9.140998301106732
1277,-8.042301145856635,-2.2603088229082413,0.3207313388785731,-9.300489441944508
1278,-8.35043991038845,-1.9424861183150413,0.9598038272083645,-9.439533673877659
1279,-8.646219462803673,-1.6099685602589004,1.6123781145945468,-9.557297826707696
1280,-1.3171372214670851e-13,-3.216551030865284e-14,-7.359058790811006e-14,-4.117572103600186e-14
1281,-2.9863603771307438e-12,-6.963271644451093e-13,-1.6513108565409317e-12,-8.692305735027371e-13
1282,-3.513093588383994e-11,-8.315658122665655e-12,-1.9471717335530113e-11,-1.035738065572139e-11
1283,-2.75401252326752e-10,-6.653827207440052e-11,-1.5327305971292944e-10,-8.282163637989161e-11
1284,-1.6212296294250793e-09,-4.010876114778163e-10,-9.073565413783732e-10,-4.993737770103451e-10
1285,-7.66800941468953e-09,-1.947980457493922e-09,-4.321611963511339e-09,-2.4278293926075635e-09
1286,-3.044767847202499e-08,-7.962157924997613e-09,-1.730136554892183e-08,-9.940353922112317e-09
1287,-1.0470781392420766e-07,-2.8242918928228302e-08,-6.005026799956902e-08,-3.533960356089467e-08
1288,-3.1923064628487634e-07,-8.895042796448996e-08,-1.8492311923830687e-07,-1.1160353391529663e-07
1289,-8.787071730987638e-07,-2.531757970002621e-07,-5.144067319357797e-07,-3.186282272507256e-07
1290,-2.2158008730605016e-06,-6.604313307225894e-07,-1.3112259102842738e-06,-8.339524360717032e-07
1291,-5.179889347352365e-06,-1.5969841250488035e-06,-3.0985084139618487e-06,-2.0237593626367237e-06
1292,-1.1336026458433122e-05,-3.6132522128869134e-06,-6.853128563599599e-06,-4.59595983569338e-06
1293,-2.341421169210614e-05,-7.708958492533913e-06,-1.4300268875467655e-05,-9.843667407767402e-06
1294,-4.595423569401464e-05,-1.561091595091281e-05,-2.8341305527327557e-05,-2.0013810806516656e-05
1295,-8.619431954547519e-05,-3.0171649946570975e-05,-5.3649734188121405e-05,-3.884129269283271e-05
1296,-0.00015525174507555837,-5.5918994002745737e-05,-9.747045210230663e-05,-7.229322589185628e-05
1297,-0.0002696401887459619,-9.978683254452828e-05,-0.00017065585185913382,-0.0001295695993586348
1298,-0.0004531612853510957,-0.00017205494347160143,-0.0002889675722911953,-0.0002244055820148371
1299,-0.000739197069117775,-0.00028752122642226424,-0.00047466530369642585,-0.0003767160721510236
1300,-0.0011734156315295085,-0.0004669224929399561,-0.0007583938908514118,-0.0006146147780243769
1301,-0.0018168851238811864,-0.0007386106302309323,-0.0011813674617775927,-0.0009768280610633962
1302,-0.00274957185958158,-0.0011404796740945538,-0.0017978349381240382,-0.001515508238270883
1303,-0.004074177576699524,-0.0017221266033765937,-0.002677795648334748,-0.0022994325315312206
1304,-0.005920249729489849,-0.0025472150497132173,-0.0039099174760407855,-0.0034175531033557483
1305,-0.008448477757841527,-0.0036959972108304034,-0.005604593609748864,-0.004982841547238579
1306,-0.01185506837737145,-0.0052679356980647905,-0.007897058054185736,-0.007136348836275411
1307,-0.01637607477622632,-0.007384354469831003,-0.010950465152526543,-0.010051380142930244
1308,-0.022291538906458273,-0.010191036999535595,-0.014958825032118386,-0.013937664155504945
1309,-0.02992929347140843,-0.01386068093602469,-0.020149675783523485,-0.01904537946563337
1310,-0.03966826134986169,-0.018595112194929396,-0.02678636504825576,-0.02566888708663116
1311,-0.05194108567609892,-0.024627158035162515,-0.03516980928917155,-0.0341500088396701
1312,-0.06723592421222609,-0.03222207848797626,-0.0456395990770457,-0.04488068672435829
1313,-0.08609724749582563,-0.04167845866511025,-0.058574323860325316,-0.058304858843791565
1314,-0.10912549179086022,-0.05332847100849411,-0.07439100030855612,-0.0749193932200332
1315,-0.13697543511866803,-0.06753742637154965,-0.0935435045709209,-0.09527393202318592
1316,-0.1703531873825803,-0.0847025457480203,-0.11651993046802187,-0.11996951532370582
1317,-0.21001171343295796,-0.10525090019465033,-0.14383882217763588,-0.1496558752977188
1318,-0.25674484027858024,-0.12963648464212368,-0.17604426049997224,-0.18502731854220925
1319,-0.3113797357553731,-0.15833641138412474,-0.21369981515948905,-0.22681714528767538
1320,-0.3747678848423163,-0.19184623054038713,-0.25738141052198693,-0.2757905891470203
1321,-0.44777463037887016,-0.23067440712548093,-0.3076691872100399,-0.3327362987575135
1322,-0.5312673860579672,-0.2753360069196129,-0.3651384760363349,-0.3984564222577769
1323,-0.6261026700860649,-0.32634566552625605,-0.43035003219281165,-0.4737553958830056
1324,-0.7331121466146664,-0.3842099362159405,-0.5038397056540198,-0.5594275778843946
1325,-0.8530878977301258,-0.4494191318120074,-0.58610774741182,-0.6562439072980478
1326,-0.9867671802684166,-0.5224387934121876,-0.677607969814837,-0.7649378026603568
1327,-1.13481694795567,-0.6037009336386147,-0.7787369925021626,-0.8861905475286966
1328,-1.2978184394608812,-0.6935952139070216,-0.8898238129240756,-1.0206164366613149
1329,-1.476252146096625,-0.7924602235247767,-1.0111199420883379,-1.168747978097104
1330,-1.670483478461445,-0.9005750329919743,-1.142790341913526,-1.3310214614299665
1331,-1.8807494488525167,-1.0181511945337327,-1.2849053904575156,-1.5077632106903276
1332,-2.107146675678778,-1.1453253596013653,-1.4374340854711571,-1.6991768409580608
1333,-2.349620997600302,-1.2821526759244801,-1.6002386754894022,-1.9053318308251703
1334,-2.607958959204437,-1.4286011158468896,-1.7730708814548959,-2.1261537079806985
1335,-2.8817813973888673,-1.5845468733763786,-1.9555698412727307,-2.3614161225988908
1336,-3.1705393191023203,-1.7497709499089984,-2.1472618754577186,-2.6107350531961435
1337,-3.473512217695141,-1.9239570282747522,-2.347562134996857,-2.87356535272318
1338,-3.789808927966331,-2.1066907119455407,-2.5557781536079807,-3.1491997996129
1339,-4.118371070210055,-2.297460181336872,-2.771115286648996,-3.4367707702169787
1340,-4.457979082302878,-2.495658292559572,-2.9926839789208612,-3.735254596580586
1341,-4.80726078727998,-2.7005861162401823,-3.2195087643655422,-4.043478617980202
1342,-5.1647023931096445,-2.911457885707792,-3.4505388629878873,-4.360130877322252
1343,-5.528661772688065,-3.127407295591581,-3.6846602049888957,-4.68377235566733
1344,-5.897383826564138,-3.3474950643930073,-3.920708679828275,-5.012851581145176
1345,-6.2690176895455885,-3.570717648622603,-4.157484379446702,-5.345721393729331
1346,-6.641635505969673,-3.796016972351228,-4.393766580813105,-5.6806575961354735
1347,-7.013252467780155,-4.0222910152009925,-4.628329193845367,-6.01587917487812
1348,-7.381847785273278,-4.2484050844803924,-4.859956386980778,-6.349569735608133
1349,-7.745386242933401,-4.473203583802267,-5.087458094530344,-6.679899764499448
1350,-8.101839982429766,-4.695522081394372,-5.309685107643108,-7.005049303727482
1351,-8.449210151639225,-4.9141994765264245,-5.525543454373914,-7.32323061481058
1352,-8.785548062407715,-5.128090061981093,-5.734007784066971,-7.632710399292352
1353,-9.108975510485681,-5.336075284108027,-5.934133487039575,-7.931831152107
1354,-9.417703928373284,-5.537075009445027,-6.125067302291083,-8.219031238814955
1355,-9.710052065247039,-5.730058117831801,-6.306056193486437,-8.492863313199061
1356,-9.984461917139603,-5.914052255999793,-6.476454306456142,-8.75201072564322
1357,-10.239512664481147,-6.088152602394449,-6.635727859420871,-8.995301614203454
1358,-10.473932412336021,-6.251529513062811,-6.783457859374388,-9.221720418080107
1359,-10.686607570469727,-6.4034349394128025,-6.9193405835877835,-9.430416605955209
1360,-10.87658975490543,-6.543207531124863,-7.043185812865058,-9.620710467955586
1361,-11.043100138865343,-6.670276361082064,-7.1549128516684055,-9.792095878409164
1362,-11.185531227832861,-6.7841632334921105,-7.254544418162622,-9.944239995670058
1363,-11.303446079793659,-6.88448356100552,-7.3421985332602935,-10.07697992375471
1364,-11.39657503641888,-6.970945821183143,-7.418078580663213,-10.190316417117778
1365,-11.464810072982306,-7.043349626728538,-7.48246174865555,-10.284404763501492
1366,-11.508196913196816,-7.1015824670922845,-7.535686098175174,-10.359543029477631
1367,-11.526925089158505,-7.145615201030064,-7.578136529814918,-10.41615789831098
1368,-11.521316155737937,-7.175496400157217,-7.610229944387843,-10.454788369547384
1369,-11.49181029288654,-7.191345662239632,-7.632399907184835,-10.476067623913131
1370,-11.438951548484168,-7.193346029678919,-7.645081134883845,-10.480703385545903
1371,-11.363371988740612,-7.181735663190983,-7.64869412624865,-10.469457136264445
1372,-11.265775033111122,-7.156798932842702,-7.643630253477577,-10.443122553632836
1373,-11.14691825662087,-7.118857098193254,-7.63023762069379,-10.40250355613298
1374,-11.00759594487161,-7.0682587560684205,-7.608807980113384,-10.348392344947241
1375,-10.84862168619481,-7.005370238270279,-7.579564975495673,-10.281547832732205
1376,-10.670811281645122,-6.930566142120729,-7.542653957241109,-10.202674845329923
1377,-10.474966246908002,-6.844220174056991,-7.498133584625795,-10.112404472582627
1378,-10.261858170797801,-6.74669648054336,-7.445969398759781,-10.011275929288242
1379,-10.032214182922253,-6.638341631455511,-7.386029515449533,-9.899720266939964
1380,-9.786703768341761,-6.519477409061413,-7.318082550650555,-9.778046251432208
1381,-9.525927149680626,-6.390394541078509,-7.241797852949404,-9.646428691689191
1382,-9.250405437171363,-6.251347499381982,-7.156748077804818,-9.504899469545286
1383,-8.960572724583457,-6.10255046712132,-7.06241409740266,-9.353341482550277
1384,-8.65677028398301,-5.944174556586452,-6.958192198299459,-9.19148566904013
1385,-8.339242984839046,-5.776346338425192,-6.843403477018448,-9.018911239133656
1386,-8.008138033138053,-5.599147720000159,-6.71730530203188,-8.83504918662454
1387,-7.6635060939064825,-5.412617187035427,-6.579104669864491,-8.639189105425084
1388,-7.305304826001224,-5.2167523985191995,-6.427973244249978,-8.430489280767869
1389,-6.933404821500598,-5.01151410041444,-6.263063831294286,-8.207989970402544
1390,-6.547597903927932,-4.7968312994366915,-6.08352801139029,-7.970629735300821
1391,-6.147607700351255,-4.572607614359629,-5.888534621089775,-7.717264623805273
1392,-5.733102362677861,-4.338728699380258,-5.677288756077685,-7.4466899587304
1393,-5.3037092738582325,-4.095070612384285,-5.44905095047728,-7.1576644247117205
1394,-4.859031535991081,-3.8415089808521325,-5.203156178439979,-6.848936104176957
1395,-4.398666000281755,-3.57792879998156,-4.939032321650193,-6.5192700657420515
1396,-3.922222564211765,-3.304234681717672,-4.656217751130719,-6.167477069619772
1397,-3.4293444298256257,-3.0203613601323216,-4.354377683521609,-5.792442921699375
1398,-2.9197289893926017,-2.7262842483540304,-4.033318990625686,-5.393157982132232
1399,-2.3931489814849156,-2.4220298353973955,-3.6930031661413056,-4.968746316237114
1400,-1.8494735422861905,-2.10768570814136,-3.333557184709544,-4.518493965881061
1401,-1.2886887641344347,-1.7834099846754834,-2.955282025151495,-4.041875818619285
1402,-0.7109173662414116,-1.4494399505066855,-2.558658671382478,-3.538580560071351
1403,-0.11643708152936998,-1.1060996988233662,-2.1443514500952965,-3.008533212409455
