,TP9,AF7,AF8,TP10
0,-5.658017305280255e-15,-2.771218329485786e-14,-4.197183926338945e-14,-2.3098292970039563e-14
1,-1.727662109198941e-13,-5.897340152220325e-13,-8.943152790573923e-13,-4.852957043259784e-13
2,-3.3139770963543157e-12,-7.08424830014821e-12,-1.0581637731870832e-11,-5.7414994856275695e-12
3,-3.631243483697262e-11,-5.707029965898777e-11,-8.391014489508884e-11,-4.55348191037329e-11
4,-2.746379678179507e-10,-3.464570112343318e-10,-5.013528007989475e-10,-2.723729655650992e-10
5,-1.5828557149214033e-09,-1.6948470664700931e-09,-2.4141239995163367e-09,-1.314137890887849e-09
6,-7.3814108079077585e-09,-6.9780456537994525e-09,-9.786625841833574e-09,-5.341565444260108e-09
7,-2.9000801417573276e-08,-2.4931414682806093e-08,-3.444626458365269e-08,-1.8858924883018834e-08
8,-9.885176800364246e-08,-7.907844813837953e-08,-1.0771067722773459e-07,-5.916148556477932e-08
9,-2.9892845634301113e-07,-2.266286221810669e-07,-3.045785863176045e-07,-1.6781782003707223e-07
10,-8.162366859713654e-07,-5.951091665704318e-07,-7.899400419905043e-07,-4.3646504170871893e-07
11,-2.041356986038982e-06,-1.4482278427459315e-06,-1.9006682826752216e-06,-1.0526111796612882e-06
12,-4.731047940472565e-06,-3.296858250839854e-06,-4.282649330884542e-06,-2.375905539347787e-06
13,-1.0260049135222695e-05,-7.075809685925204e-06,-9.107499862884172e-06,-5.05828069143096e-06
14,-2.0990486555817328e-05,-1.441177491181584e-05,-1.839950596280542e-05,-1.022424473641573e-05
15,-4.078891525569811e-05,-2.801201538118371e-05,-3.550866931876694e-05,-1.9730114812240735e-05
16,-7.572049047533976e-05,-5.2206342777072597e-05,-6.577008686956932e-05,-3.652280140293629e-05
17,-0.0001349466154906746,-9.367616706433576e-05,-0.00011739259749846778,-6.511953799167153e-05
18,-0.0002318464456448122,-0.0001624032344352757,-0.00020262009852661827,-0.00011222938623145142
19,-0.0003853737961836288,-0.0002728667305010334,-0.00033920661290790725,-0.0001875351782479905
20,-0.0006216494410516175,-0.00044551042216390787,-0.0005522406186697795,-0.0003046506215030021
21,-0.0009757748378771993,-0.0007084914362656926,-0.000876345019786173,-0.00048226154240933847
22,-0.0014938375606987821,-0.001099709354767626,-0.001358266312440321,-0.000745452769101214
23,-0.002235062002185661,-0.0016690990225547903,-0.002059850079267887,-0.0011272131712496262
24,-0.0032740422090234947,-0.0024811535174752955,-0.0030613802763382555,-0.0016701012193198954
25,-0.0047029780637901945,-0.0036176260074209186,-0.004465237473534197,-0.0024280425143387314
26,-0.006633822432402578,-0.005180341714220069,-0.006399807125010123,-0.0034682195398879766
27,-0.009200236345051696,-0.007294034943823078,-0.009023544154876701,-0.004873002898457346
28,-0.012559242710588373,-0.010109112091446685,-0.012529075887711034,-0.006741863032942104
29,-0.01689246727626637,-0.013804230526185325,-0.017147202989448686,-0.009193192429203061
30,-0.02240685907485818,-0.018588575977071784,-0.023150639003246754,-0.01236596106781435
31,-0.029334791672587318,-0.024703717984472087,-0.030857314604454216,-0.016421122930055345
32,-0.037933461069855165,-0.03242492447802351,-0.040633064049640746,-0.021542689100914423
33,-0.048483515762486336,-0.04206182274906576,-0.052893509415763505,-0.027938383819673045
34,-0.06128687860022439,-0.053958304970938134,-0.06810496377781543,-0.03583980399400914
35,-0.07666374771963329,-0.06849159176761063,-0.08678418777319807,-0.045502010393316604
36,-0.0949487937526073,-0.08607038675145244,-0.10949685499934614,-0.057202490004269774
37,-0.11648660136007735,-0.10713207790734797,-0.1368546099749744,-0.07123944373013379
38,-0.14162643356581114,-0.13213896752663962,-0.1695106372169357,-0.08792937143983479
39,-0.17071642610653978,-0.16157354030450854,-0.2081537003103029,-0.107603946871964
40,-0.20409734491285603,-0.19593280831348442,-0.25350065441987807,-0.13060619751030064
41,-0.24209606185685423,-0.2357218008731543,-0.3062874830780434,-0.15728602862619032
42,-0.28501892119620464,-0.28144629582653075,-0.3672589587316991,-0.18799515552165177
43,-0.33314518108912616,-0.3336049153891106,-0.43715707479522126,-0.22308153284675358
44,-0.386720720743667,-0.3926807336027498,-0.516708443144587,-0.2628833939051057
45,-0.4459522039552913,-0.45913256266492863,-0.6066108934174484,-0.307723035272883
46,-0.5110018838869304,-0.5333861013355636,-0.7075195475493172,-0.35790050199609386
47,-0.5819832220654082,-0.6158251397554019,-0.8200326732189752,-0.4136873452605433
48,-0.6589574770702628,-0.7067830210441711,-0.9446776420485771,-0.4753206369369424
49,-0.7419313958703403,-0.8065345608740562,-1.081897331518304,-0.5429974330234811
50,-0.8308561139618151,-0.9152886218943864,-1.232037312919547,-0.6168698800392308
51,-0.9256273402018739,-1.0331815306120544,-1.3953341609095065,-0.697041154260145
52,-1.0260868694187437,-1.1602715103949102,-1.5719052032995342,-0.7835624128706328
53,-1.1320254315112663,-1.2965342859937734,-1.7617400029062407,-0.8764309183566741
54,-1.2431868508817174,-1.4418599927187705,-1.964693827257444,-0.9755894727610802
55,-1.3592734556712054,-1.596051497513366,-2.1804833176466163,-1.0809272670019046
56,-1.479952643245602,-1.7588242100292457,-2.4086845177470284,-1.1922822128520945
57,-1.6048644774274237,-1.929807429867144,-2.6487333652693517,-1.3094447822143356
58,-1.7336301647068972,-2.1085472419656837,-2.8999286897133296,-1.4321633311081963
59,-1.8658612316314898,-2.294510936377976,-3.161437696988912,-1.560150835696319
60,-2.0011692041778204,-2.4870928922001343,-3.4323038594694686,-1.6930929163218837
61,-2.139175572399343,-2.685621829159103,-3.7114570697533886,-1.8306569746852503
62,-2.2795218101360963,-2.8893692953677443,-3.997725859810706,-1.9725022208132905
63,-2.421879210144826,-3.0975592270822396,-4.289851435888712,-2.1182903222317417
64,-2.5659582897490516,-3.3093783869909643,-4.586503234972899,-2.2676963695287378
65,-2.7115175211198244,-3.5239874625831598,-4.886295671961019,-2.42041982194648
66,-2.858371143677512,-3.740532586326785,-5.18780571897041,-2.576195075210607
67,-3.0063958239763386,-3.958157025410443,-5.489590940033134,-2.734801282703041
68,-3.15553594098797,-4.176012781174925,-5.790207596191762,-2.896071061201453
69,-3.305807292183312,-4.393271837368677,-6.088228437712877,-3.05989772429808
70,-3.4572990384323425,-4.609136802076819,-6.382259811490596,-3.2262407104430944
71,-3.610173733576643,-4.822850700440813,-6.6709577321363644,-3.3951289080996245
72,-3.7646653174943285,-5.033705693746133,-6.953042593918268,-3.5666616271064244
73,-3.921074989364864,-5.241050524578836,-7.2273122366037805,-3.7410070219842164
74,-4.079764920338936,-5.444296516879918,-7.492653120213659,-3.9183978382030964
75,-4.241149811458078,-5.642921993101545,-7.74804941045913,-4.099124424659773
76,-4.405686352753818,-5.836475007461213,-7.992589826910052,-4.283525032860841
77,-4.573860692036998,-6.024574333604324,-8.225472158420242,-4.471973503451326
78,-4.746174075805882,-6.2069086858761,-8.446005403731451,-4.664864521515385
79,-4.9231268786330995,-6.383234194880964,-8.653609548253247,-4.862596701180723
80,-5.105201289853611,-6.553370199055098,-8.847813039605832,-5.0655538351292675
81,-5.2928429757333975,-6.717193453579356,-9.028248073535249,-5.274084713342122
82,-5.486442079828043,-6.874630895134244,-9.1946438472798,-5.488481975583228
83,-5.686313962263807,-7.02565113484518,-9.346817978498645,-5.708960511737199
84,-5.8926801086709615,-7.170254881500847,-9.484666323694158,-5.935635961411951
85,-6.105649660150636,-7.308464522105512,-9.608151460020206,-6.16850388777389
86,-6.325202025835763,-7.4403131065485395,-9.71729011796382,-6.407420209357357
87,-6.551171038412718,-7.565832997284664,-9.812139869277134,-6.652083466940611
88,-6.783231099810987,-7.685044453194787,-9.892785384556873,-6.902019480291035
89,-7.020885738943494,-7.7979444191492355,-9.959324578037192,-7.156568911867229
90,-7.263458966080677,-7.904495789257779,-10.011854953672586,-7.414878202062772
91,-7.510089759699586,-8.00461740251722,-10.050460456793218,-7.675894274337522
92,-7.75972996231169,-8.098175014822031,-10.07519912000486,-7.938363330046744
93,-8.011145793038555,-8.18497347145184,-10.086091771171825,-8.200833963752254
94,-8.262923108165111,-8.264750279645831,-10.08311204592874,-8.46166473241216
95,-8.513476458506133,-8.33717075225492,-10.066177917924529,-8.719036208499501
96,-8.761061906375547,-8.401824861335298,-10.035144927648629,-8.970967440399532
97,-9.003793477592101,-8.458225905581573,-9.989801255978882,-9.215336636116065
98,-9.239663037701002,-8.50581105841623,-9.92986475228043,-9.449905781162178
99,-9.466563298853433,-8.543943825114091,-9.8549819897155,-9.672348801269283
100,-9.682313586864419,-8.57191839833283,-9.764729383095041,-9.8802827878502
101,-9.884687928903698,-8.588965862633433,-9.65861636775041,-10.071301721424016
102,-10.071444962753116,-8.59426216077673,-9.53609060208488,-10.243012057606458
103,-10.240359119942914,-8.58693769848851,-9.396545122151858,-10.393069483619007
104,-10.389252498448487,-8.566088430643033,-9.23932734418904,-10.519216112039958
105,-10.51602681684109,-8.530788241006318,-9.063749780823125,-10.619317353794683
106,-10.618694831414816,-8.480102400348072,-8.869102308888165,-10.691397704841352
107,-10.695410601102687,-8.413101864396605,-8.654665801645704,-10.73367469091704
108,-10.74449800186589,-8.328878154289574,-8.419726915784137,-10.744590241913011
109,-10.764476922318536,-8.22655854836297,-8.163593804001904,-10.722838811379104
110,-10.754086614970577,-8.105321305764887,-7.885612507332469,-10.667391616365888
111,-10.712305731636732,-7.964410639810997,-7.585183767749793,-10.577516446993677
112,-10.63836863592761,-7.803151162382183,-7.26177999113415,-10.452792582169431
113,-10.531777658691011,-7.620961529961499,-6.914962083546276,-10.293120445849844
114,-10.392311042028796,-7.417367036869908,-6.544395880140991,-10.098725745020126
115,-10.220026402223573,-7.192010921458709,-6.149867886133363,-9.870157943762214
116,-10.015259629657319,-6.944664175880494,-5.731300053161127,-9.608283044903684
117,-9.7786192326324,-6.675233678918929,-5.288763322265782,-9.314270769148784
118,-9.510976219979662,-6.383768503468477,-4.822489676587912,-8.989576338650417
119,-9.21344970267562,-6.070464284830472,-4.332882462741159,-8.6359171851042
120,-8.887388475834465,-5.735665572222823,-3.820524759656046,-8.2552450091911
121,-8.534348918057658,-5.379866122986107,-3.286185597387725,-7.849713716323421
122,-8.15606961404697,-5.003707136146198,-2.7308238558226723,-7.421643841149379
123,-7.754443167594806,-4.607973458566028,-2.1555897041930714,-6.973484148383345
124,-7.3314857247032075,-4.193587832271924,-1.5618234765407115,-6.507771158756917
125,-6.889304769959987,-3.761603285143702,-0.9510519154289709,-6.027087395019424
126,-6.4300657928387395,-3.3131937985558504,-0.32498175588820066,-5.534019173037987
127,-5.955958443749657,-2.849643414338716,0.3145093366583739,-5.031114776530944
128,-3.243101077469943e-14,-4.0466694393203647e-14,-5.13386273683042e-14,-2.6460661952200295e-14
129,-7.845120082695473e-13,-8.577997949385211e-13,-1.1003251370464324e-12,-5.270706542226254e-13
130,-1.0727254772735742e-11,-1.0269927093671558e-11,-1.305824540621831e-11,-6.336414025271e-12
131,-9.605164889693144e-11,-8.240815300550537e-11,-1.0389637630694212e-10,-5.128823298081685e-11
132,-6.352646209500033e-10,-4.981524978918653e-10,-6.23225825566381e-10,-3.1358749666627687e-10
133,-3.328245452554013e-09,-2.4260114155395023e-09,-3.0146012149830615e-09,-1.5478798651810276e-09
134,-1.4461009630169951e-08,-9.942323194519382e-09,-1.228256136781463e-08,-6.439873323611813e-09
135,-5.383784091288987e-08,-3.53579317549931e-08,-4.346580058692281e-08,-2.327664199228395e-08
136,-1.7602651179379337e-07,-1.1164292588493258e-07,-1.366822770804923e-07,-7.475288799326785e-08
137,-5.152936540365697e-07,-3.185784230881708e-07,-3.8871202117923637e-07,-2.1704147318624726e-07
138,-1.371728475474519e-06,-8.332207332257985e-07,-1.013807092295341e-06,-5.776443059375825e-07
139,-3.363188577336098e-06,-2.0203201450561008e-06,-2.4524170190370463e-06,-1.4251069434583702e-06
140,-7.675271943592608e-06,-4.584296547489948e-06,-5.553520945629881e-06,-3.289378565094978e-06
141,-1.6448776235983394e-05,-9.810845254682647e-06,-1.186377196809488e-05,-7.158187245228447e-06
142,-3.335014532597023e-05,-1.9932656737007697e-05,-2.4064007798046082e-05,-1.4781820259704699e-05
143,-6.437421929907795e-05,-3.8659375872854783e-05,-4.660006290451144e-05,-2.912547956675191e-05
144,-0.00011892922795806033,-7.191602724473152e-05,-8.65593727457097e-05,-5.501408427257803e-05
145,-0.0002112506207029787,-0.0001288359410428155,-0.00015484674983160676,-0.00010001808875345759
146,-0.0003621825133896847,-0.00022305307927155272,-0.00026771118252622906,-0.00017562966380992978
147,-0.0006013530681172961,-0.00037433410495320773,-0.00044866997083869265,-0.0002987756573929347
148,-0.000969753134941015,-0.0006105822955970746,-0.0007308666057292046,-0.0004937065433085303
149,-0.0015227064696668395,-0.0009702334588219166,-0.0011598844344816342,-0.0007942888282077086
150,-0.00233319569318886,-0.0015050485946123367,-0.001797019551399168,-0.0012467122386539402
151,-0.003495482123197637,-0.0022832896344364825,-0.0027229940243378757,-0.0019126029542253548
152,-0.005128931155252157,-0.003393243846851261,-0.004042065290929749,-0.0028725110272989707
153,-0.007381929540221987,-0.004947040270093906,-0.005886460329434557,-0.004229715020968247
154,-0.010435758232904626,-0.007084678765453883,-0.008421035193639157,-0.006114261034355417
155,-0.01450826594077933,-0.00997816999442308,-0.01184803298961722,-0.008687127955338022
156,-0.01985717539462257,-0.013835663836715115,-0.016411787734064733,-0.012144387256543793
157,-0.026782847713891254,-0.018905425488333922,-0.022403199164819153,-0.016721205138711056
158,-0.035630330677294916,-0.02547950365692737,-0.03016378583498505,-0.022695518437021937
159,-0.04679052446402492,-0.03389692477345538,-0.04008911196950033,-0.03039120443056336
160,-0.06070031340427068,-0.044546241727086565,-0.05263137867740146,-0.04018055938269314
161,-0.07784153408462346,-0.05786726592237721,-0.06830097302695926,-0.05248590197215374
162,-0.09873867812179457,-0.07435181788370188,-0.08766677972919311,-0.06778012622967292
163,-0.12395526107975834,-0.09454334438923834,-0.11135507991214229,-0.08658604440706186
164,-0.15408882616394484,-0.11903526914761782,-0.140046889507284,-0.10947438333630481
165,-0.189764591167478,-0.14846796901766443,-0.1744736255430999,-0.1370603279504442
166,-0.23162778832638362,-0.1835242981594315,-0.21541103122917904,-0.16999854209862245
167,-0.2803347879074467,-0.2249236175278846,-0.26367133887737637,-0.208976638648411
168,-0.33654313612742226,-0.27341432584127084,-0.320093701931289,-0.2547071168838609
169,-0.400900675029567,-0.32976492949566016,-0.38553298193380897,-0.30791783385858357
170,-0.474033944980307,-0.3947537316665066,-0.4608470312836749,-0.3693411259154368
171,-0.556536098440739,-0.46915726376507155,-0.546882666181648,-0.43970174517288585
172,-0.6489545757496782,-0.5537376241759552,-0.644460574330065,-0.5197038215069849
173,-0.7517788091239247,-0.6492289284461081,-0.7543594469073746,-0.6100171016080187
174,-0.8654282294068689,-0.7563231105038216,-0.8772996624356194,-0.7112627514206677
175,-0.9902408509878113,-0.8756553448139688,-1.013926879958455,-0.8239990353147228
176,-1.1264627037700743,-1.0077893835105243,-1.1647959192845567,-0.9487072036443731
177,-1.2742383673552158,-1.1532031195599084,-1.3303553160690678,-1.085777929273893
178,-1.4336028422071703,-1.312274696193503,-1.5109329386763426,-1.2354986328790913
179,-1.604474966106395,-1.4852694837563758,-1.7067230418984392,-1.398042026420452
180,-1.7866525525178303,-1.672328237581467,-1.9177751098350646,-1.5734561844668216
181,-1.9798093915672124,-1.873456734634667,-2.1439848070428775,-1.7616564246281023
182,-2.1834942152344747,-2.0885171628906525,-2.385087314240733,-1.9624192420489392
183,-2.397131687205677,-2.317221506357818,-2.640653273551927,-2.175378499718684
184,-2.6200254355733903,-2.559127131255631,-2.9100875099243977,-2.4000240274021785
185,-2.851363104177962,-2.8136347361043192,-3.1926306317008994,-2.6357027285404713
186,-3.0902233567598683,-3.0799887815609672,-3.4873635461889396,-2.8816222378509035
187,-3.3355847281462716,-3.357280465921038,-3.793214857451382,-3.136857113984707
188,-3.5863361792546797,-3.6444532604948177,-4.1089710453238775,-3.4003574929350355
189,-3.841289178495275,-3.940310966729679,-4.433289258683159,-3.670960070393842
190,-4.099191101842418,-4.243528205098184,-4.764712493902527,-3.947401226357712
191,-4.358739718015324,-4.552663195462845,-5.101686872709637,-4.228332054317341
192,-4.618598504349032,-4.8661726408473305,-5.442580683572538,-4.51233501154113
193,-4.87741252335709,-5.182428482203067,-5.785704808335217,-4.7979418673312715
194,-5.133824579764374,-5.499736251697448,-6.1293341219490305,-5.083652593573479
195,-5.3864913728063435,-5.8163547170235255,-6.471729428452956,-5.367954817131746
196,-5.6340993586217625,-6.130516479910853,-6.811159481325177,-5.649343437207365
197,-5.875380042317348,-6.4404491689704075,-7.1459226312870205,-5.926340003075921
198,-6.109124428402849,-6.74439685068669,-7.474367649770391,-6.197511448864503
199,-6.334196371390986,-7.04064127310935,-7.794913291588828,-6.461487792283007
200,-6.5495445850699605,-7.327522554810746,-8.106066185741293,-6.716978423336235
201,-6.754213089043885,-7.603458937070037,-8.406436678393172,-6.962786636672565
202,-6.947349894486254,-7.866965230025744,-8.694752296370538,-7.197822096833522
203,-7.128213757631132,-8.116669603624644,-8.969868552173587,-7.421110968552344
204,-7.2961788593399,-8.351328401419456,-9.230776871499783,-7.631803493582153
205,-7.450737302187601,-8.569838689373706,-9.476609490232102,-7.829178850411427
206,-7.591499353055502,-8.771248292458024,-9.70664123820564,-8.012647192692276
207,-7.718191399375432,-8.9547631184799,-9.920288200021654,-8.181748825260055
208,-7.830651631026345,-9.119751620643282,-10.117103316787025,-8.336150542180675
209,-7.928823507256772,-9.265746306993444,-10.296769064900527,-8.475639218133832
210,-8.01274711837923,-9.392442265205336,-10.459087416860353,-8.60011281130206
211,-8.082548604477571,-9.499692733985798,-10.603967352579476,-8.709569001318979
212,-8.138427846751705,-9.587501816373205,-10.731410246056015,-8.80409174813347
213,-8.180644699799156,-9.656014493964728,-10.841493499866104,-8.883836115159855
214,-8.209504083169257,-9.70550416298789,-10.934352837532943,-8.949011751031806
215,-8.225340295774712,-9.736357971494249,-11.010163690459184,-8.999865466884827
216,-8.228500955013093,-9.749060290109604,-11.069122131307886,-9.036663378662523
217,-8.219330991649327,-9.744174695096252,-11.111425809467384,-9.05967310495191
218,-8.198157149745219,-9.72232488044897,-11.137255336973068,-9.069146519038817
219,-8.165273446558205,-9.6841749440173,-11.146756555801458,-9.065303548318472
220,-8.120928039106312,-9.630409510133768,-11.14002409089199,-9.048317494410385
221,-8.065311921269743,-9.561714157157637,-11.11708655885735,-9.018302313325075
222,-7.998549837762355,-9.478756612305213,-11.077893761465972,-8.975302247383157
223,-7.920693749585215,-9.382169158109505,-11.022306146998858,-8.919284140430564
224,-7.831719120771781,-9.272532665202194,-10.950086772844257,-8.850132696885646
225,-7.7315242199838785,-9.150362625580295,-10.86089595047691,-8.767648865394408
226,-7.619932544970326,-9.016097510182915,-10.754288700447603,-8.671551441792067
227,-7.4966983856971865,-8.870089715819448,-10.62971509123876,-8.561481896324977
228,-7.361515446111864,-8.712599300852844,-10.486523482750494,-8.437012339431087
229,-7.214028348229376,-8.54379063833161,-10.323966643574735,-8.297656451545423
230,-7.053846748799294,-8.363732041413146,-10.14121066177418,-8.142883118004553
231,-6.880561711460644,-8.172398340970597,-9.937346522160823,-7.972132432582782
232,-6.693763899129063,-7.969676321328603,-9.711404179483884,-7.784833664670194
233,-6.49306308523434,-7.755372849233608,-9.462368916774576,-7.580424727492992
234,-6.278108430761589,-7.52922546544941,-9.189199741520003,-7.358372639686798
235,-6.048608938737468,-7.290915149625114,-8.890849539420635,-7.118194441251588
236,-5.804353480185193,-7.040080918899003,-8.566286676238287,-6.859478008381819
237,-5.545229786456046,-6.776335880341338,-8.214517712666927,-6.581902210424906
238,-5.271241822478314,-6.49928432770573,-7.834610875311027,-6.2852558664001545
239,-4.982524993456793,-6.208539454585315,-7.425719908889904,-5.969454987778621
240,-4.679358692838194,-5.903741249133919,-6.987107920998151,-5.6345578377827445
241,-4.362175770225371,-5.584574139857999,-6.518170821569411,-5.280777394045892
242,-4.031568582149216,-5.250783977148715,-6.018459955127683,-4.908490869372822
243,-3.6882913835333664,-4.902193960459707,-5.487703525485991,-4.518246022478391
244,-3.33325892029155,-4.538719155346581,-4.92582642021808,-4.110764074571731
245,-2.9675411904816875,-4.160379286753679,-4.332968056327357,-3.6869391359049892
246,-2.592354449373121,-3.7673095435714212,-3.7094978893052724,-3.2478341362244874
247,-2.209048639268719,-3.359769183070265,-3.0560282553691414,-2.7946733417566376
248,-1.819091524720475,-2.9381477807431753,-2.373424251205412,-2.3288316263553996
249,-1.4240499048567508,-2.502969029731949,-1.6628103970511199,-1.8518207433778773
250,-1.0255683541501412,-2.054892052788157,-0.9255738772965288,-1.3652729156935792
251,-0.6253460087452717,-1.5947102471303911,-0.16336420757137787,-0.8709221222971231
252,-0.2251119656224333,-1.1233477372411025,0.6219107623240204,-0.3705835100168979
253,0.1734001048055069,-0.6418535613841881,1.428092535505497,0.13386860306729878
254,0.5684775161953621,-0.15139376336878801,2.252783303428406,0.6405236401543465
255,0.9584536790811972,0.3467583990557679,3.0933608194978524,1.147458088685944
256,-5.116444221520383e-14,-5.021821361393798e-14,-5.685793173103263e-15,-1.2588161187502868e-14
257,-9.308589319077087e-13,-1.0218612481237284e-12,-1.203255824865274e-13,-3.880018836806941e-14
258,-1.2052324865341605e-11,-1.21025542363596e-11,-1.6151975371565395e-12,-6.603281298769684e-13
259,-1.0410922943479028e-10,-9.611270972116333e-11,-1.4353750460693138e-11,-8.11008058473897e-12
260,-6.689005363197605e-10,-5.753134946969304e-10,-9.638825377880785e-11,-6.748065888421437e-11
261,-3.4206118338782424e-09,-2.7756818064778985e-09,-5.22245168458456e-10,-4.218679146820901e-10
262,-1.456202864773489e-08,-1.1275155230161369e-08,-2.380990781671229e-09,-2.11852434155579e-09
263,-5.3294406760322844e-08,-3.9766044983336484e-08,-9.401216102786793e-09,-8.930996269163171e-09
264,-1.7182129763803827e-07,-1.2459079587946208e-07,-3.2833106558528993e-08,-3.261236405422005e-08
265,-4.974684586453742e-07,-3.5297299653366033e-07,-1.030804473959706e-07,-1.0560195031604259e-07
266,-1.3137591633555643e-06,-9.170666549840349e-07,-2.947142891801887e-07,-3.0880305317729694e-07
267,-3.205537867117136e-06,-2.210189496453306e-06,-7.755767555051234e-07,-8.273832142546915e-07
268,-7.3039070582814145e-06,-4.9878601114477424e-06,-1.8956618706180627e-06,-2.055145055110469e-06
269,-1.568020700325621e-05,-1.06232511997522e-05,-4.336763689850735e-06,-4.77820004649182e-06
270,-3.1954692887639164e-05,-2.1493990601871096e-05,-9.34866340898988e-06,-1.048158668115489e-05
271,-6.220469947399546e-05,-4.154435657927313e-05,-1.910092293216897e-05,-2.1837958377365557e-05
272,-0.00011627815176797277,-7.707320926640816e-05,-3.7180253224671625e-05,-4.3455009907991545e-05
273,-0.0002096399508543084,-0.0001378028349898004,-6.926119676437592e-05,-8.297699477618791e-05
274,-0.00036589919033376095,-0.00023828663549893246,-0.0001239719791335346,-0.0001526541892851082
275,-0.0006201820487490267,-0.0003997137186118199,-0.00021396753311110723,-0.00027151079057638873
276,-0.0010235259488362743,-0.0006521654795936655,-0.0003572077958249841,-0.0004682544891077958
277,-0.0016484724645366288,-0.0010373728540992114,-0.0005784216346816211,-0.0007850776197755597
278,-0.0025960269546055977,-0.0016120128343748723,-0.0009107157445944109,-0.0012824981480359346
279,-0.004004129963679461,-0.002451568928433885,-0.0013972645621324316,-0.0020453768320112453
280,-0.006057747824643758,-0.0036547624276211453,-0.0020929930325419674,-0.0031902233340484255
281,-0.009000637482864124,-0.005348539600889775,-0.0030661406107736293,-0.004873868276102298
282,-0.01314877445288434,-0.007693574293524423,-0.004399574010855853,-0.007303530627440724
283,-0.01890535529162329,-0.010890216060163181,-0.006191699783400134,-0.01074825166185794
284,-0.02677720014599378,-0.01518478133345516,-0.008556817496679794,-0.015551600022059315
285,-0.037392290336875134,-0.020876049970068953,-0.011624751513225862,-0.022145479677363987
286,-0.0515180842234715,-0.028321792924200034,-0.015539605057778332,-0.031064796580298253
287,-0.07008016545794467,-0.03794512020062736,-0.0204574949503388,-0.042962663665972414
288,-0.09418069499555631,-0.050240403342504084,-0.02654314905737542,-0.05862575069381235
289,-0.12511606571181189,-0.065778495467204,-0.03396528081451512,-0.0789893185487328
290,-0.16439309984245484,-0.08521094645866828,-0.04289069536952389,-0.10515142012883782
291,-0.21374308784890536,-0.10927289371679019,-0.053477128945229276,-0.1383857046789028
292,-0.27513294512799197,-0.13878430228201472,-0.06586487557969736,-0.18015223176107595
293,-0.3507727618022783,-0.17464923449505237,-0.0801673117854603,-0.23210568684578536
294,-0.4431190414285745,-0.21785285053087003,-0.09646048786527785,-0.2961003941304053
295,-0.5548729669576828,-0.2694558784090786,-0.11477201231961943,-0.3741915446257158
296,-0.6889730962483606,-0.3305863457735551,-0.13506951047807372,-0.4686320994428865
297,-0.8485819740880165,-0.4024284351404894,-0.15724898762648776,-0.5818648899201107
298,-1.037066252028161,-0.48620840763074885,-0.1811234679992631,-0.7165095177967726
299,-1.2579700303826646,-0.5831776345991649,-0.20641231175699992,-0.8753437597945356
300,-1.5149812772911482,-0.6945928783833764,-0.23273163044827883,-1.0612793010008263
301,-1.8118913361013376,-0.8216940683943502,-0.2595862258685853,-1.2773317590082622
302,-2.152547701735546,-0.9656799225135255,-0.28636346671405444,-1.5265851134334554
303,-2.540800425148511,-1.127681861893949,-0.3123294918230939,-1.8121508194043976
304,-2.9804426872132788,-1.3087367557626512,-0.3366280887906512,-2.137122053527044
305,-3.4751462633108376,-1.5097591081440518,-0.3582825437166551,-2.5045237100839426
306,-4.028392771216776,-1.7315133575586963,-0.37620069361029823,-2.9172589263967112
307,-4.64340175164535,-1.9745870012390019,-0.3891833394343183,-3.3780530619808022
308,-5.323056768013975,-2.2393652753431086,-0.3959360968150951,-3.889396179552706
309,-6.0698308257251785,-2.5260081207400136,-0.395084674907185,-4.453485171429409
310,-6.885712498580028,-2.8344301395678624,-0.38519348366491213,-5.072166737998894
311,-7.772134208555468,-3.164284201113804,-0.36478737781264947,-5.746882452697627
312,-8.729904133310729,-3.51494928766884,-0.33237625420098726,-6.478617138642899
313,-9.75914321220939,-3.88552308373292,-0.28648213019795976,-7.26785173555268
314,-10.859228685845647,-4.274819707802171,-0.22566824665868906,-8.114521753284174
315,-12.028745536305147,-4.681372867962223,-0.14856966233817762,-9.017982293339758
316,-13.265447096599367,-5.103444593987015,-0.053924739877837684,-9.976980476628546
317,-14.56622596943264,-5.539039563219731,0.05939313092570301,-10.989635950399682
318,-15.927096239952462,-5.985924898994923,0.19234426691133505,-12.053429966148595
319,-17.343187787532138,-6.441655182604104,0.3456926007929473,-13.165203330501427
320,-18.808753301940655,-6.903602286552691,0.5199774911328023,-14.321163339839517
321,-20.31718839411537,-7.368989511578401,0.7154881474194625,-15.516899623714169
322,-21.861064966104742,-7.834929395723294,0.9322413556863532,-16.747408648113876
323,-23.43217777346419,-8.298464463424391,1.1699631433536346,-18.007126472275623
324,-25.021603880947605,-8.756610098526286,1.4280749579909162,-19.289969215268172
325,-26.619774482559862,-9.206398659450812,1.70568485446094,-20.589380572667555
326,-28.216558332960318,-9.644923909351643,2.001584089795666,-21.898385629480984
327,-29.801355821206773,-10.069384810476487,2.3142494169791927,-23.209650142060767
328,-31.363202511998885,-10.477127731217621,2.641851249800847,-24.515544407253252
329,-32.89088078620645,-10.86568613682987,2.982267743750826,-25.80821079920342
330,-34.37303803437092,-11.232816880100142,3.3331047055598786,-27.079634030875734
331,-35.79830969751511,-11.576532275111111,3.6917211096668634,-28.32171318663972
332,-37.15544531307528,-11.895127223699472,4.055259866984016,-29.526334572975497
333,-38.43343561464486,-12.187200767784022,4.420683363193464,-30.685444445840105
334,-39.621638657241704,-12.451671558617413,4.784813163752503,-31.79112069531432
335,-40.70990289935511,-12.687786863234534,5.144373173924359,-32.83564260080378
336,-41.688685172443094,-12.895124865976944,5.4960354473302315,-33.811557813082665
337,-42.549161509688574,-13.073590166109842,5.836467758288376,-34.711745772148255
338,-43.28332888898536,-13.223402518464543,6.1623819938478945,-35.52947683097526
339,-43.88409606938724,-13.345079010011059,6.47058238291731,-36.258466423314815
340,-44.34536186383455,-13.439410008497632,6.7580125637942565,-36.892923687272265
341,-44.662079391421784,-13.507429356863973,7.021800498715518,-37.427594034509575
342,-44.83030508661491,-13.550379416017261,7.259300275112985,-37.85779523696227
343,-44.84723150661932,-13.569671675734513,7.468129887802589,-38.17944668861401
344,-44.71120326662043,-13.56684375604541,7.646204173522072,-38.389091588890764
345,-44.421715740201044,-13.543513706870677,7.791762167721941,-38.48391188632257
346,-43.979396482646564,-13.501332579775257,7.903388271417916,-38.461735915848706
347,-43.38596966139938,-13.441936290794118,7.980026750764184,-38.32103875992089
348,-42.64420410356973,-13.36689781630456,8.02098924073538,-38.06093546159398
349,-41.75784588789368,-13.277680764313544,8.025955083262573,-37.68116731605161
350,-40.73153671063684,-13.175595341298898,7.9949644952386345,-37.18208156416129
351,-39.570719534771655,-13.061757690428854,7.928404728598609,-36.56460490602497
352,-38.281533282932806,-12.93705351165714,7.826989548754545,-35.8302113421091
353,-36.87069855147066,-12.80210678942471,7.6917325147281925,-34.98088493220809
354,-35.34539650049972,-12.65725435147438,7.523914690342723,-34.01907813595858
355,-33.71314320926355,-12.502526864873985,7.325047547074157,-32.94766646076434
356,-31.981661874549513,-12.337636745238013,7.096831932214356,-31.769900192094862
357,-30.158755270500063,-12.1619733150529,6.841114067808542,-30.489354016048406
358,-28.252180880234366,-11.97460539992982,6.559839613784179,-29.109875364291163
359,-26.269531053568485,-11.77429140075357,6.255006870731654,-27.635532316971005
360,-24.218120442345988,-11.559496728389616,5.92862021258365,-26.070561890330428
361,-22.104882818172847,-11.32841833910783,5.582644826463733,-24.419319513316648
362,-19.936279190365187,-11.079015966266777,5.218963796666614,-22.686230462797653
363,-17.718218919043935,-10.809049509962753,4.839338503503749,-20.875743981781202
364,-15.45599526448291,-10.516121923947074,4.445373217931112,-18.992290751234943
365,-13.154236534508883,-10.19772683050266,4.0384846625678845,-17.04024432545707
366,-10.816873692989613,-9.851300001069669,3.6198771825463845,-15.023887074706128
367,-8.447124980722288,-9.474273764631084,3.1905240295491213,-12.94738110776495
368,-6.047497782138395,-9.064133348119203,2.7511551134662007,-10.81474457191084
369,-3.6198076539510944,-8.618474113848096,2.302251422423274,-8.629833649149154
370,-1.1652141215472742,-8.13505863833576,1.8440461574467577,-6.396330486519706
371,1.3157274489354138,-7.611872574717853,1.3765324764939917,-4.117737215867627
372,3.8229988759275977,-7.047178256958737,0.8994775974406576,-1.7973761355840117
373,6.357038319098088,-6.439565037779775,0.4124428740108045,0.5616039559958435
374,8.918647039496419,-5.7879954030621645,-0.0851906646808883,2.956215368487845
375,11.50888544860181,-5.091845972699344,-0.5941919289495811,5.383613244298249
376,14.128960318249268,-4.350942580529411,-1.115445247679702,7.8410716592125675
377,16.780105181479993,-3.565588722881061,-1.6499124954744586,10.325954441463784
378,19.463456082597805,-2.7365867749699984,-2.1985927058747703,12.835681136766278
379,22.179924932073924,-1.8652514952364971,-2.762480043149692,15.367688632190033
380,24.930072787735305,-0.9534154679557545,-3.3425210197545496,17.91938903738253
381,27.713985417506656,-0.0034262722442217532,-3.939571842013199,20.488124506974685
382,30.53115350067337,0.9818646910195993,-4.55435674415882,23.071119772219124
383,33.3803597940618,1.9991216359975583,-5.187428132194986,25.66543323175969
384,3.1673131042135324e-14,-3.8822345700665126e-14,-7.236363462130886e-14,2.477832248485886e-14
385,6.20621689697104e-13,-8.43248952579185e-13,-1.6417312672097152e-12,5.622647665666372e-13
386,7.51488121337486e-12,-1.0286153892618218e-11,-1.9612398243531794e-11,6.533536941729438e-12
387,6.021532813136537e-11,-8.388650025502832e-11,-1.5646378073430036e-10,5.0577491719347054e-11
388,3.6483844897579166e-10,-5.14078398297592e-10,-9.3917096174104e-10,2.953168063052288e-10
389,1.7858341675994114e-09,-2.5319137640153225e-09,-4.538243361063159e-09,1.392356117035532e-09
390,7.3744543591179975e-09,-1.0469868688320517e-08,-1.8444783094712148e-08,5.540586909329587e-09
391,2.6475755633632644e-08,-3.749221923078315e-08,-6.502911242209081e-08,1.9195274185539274e-08
392,8.449751373344988e-08,-1.1898786920191404e-07,-2.034977498677975e-07,5.924347452931902e-08
393,2.4383302173723305e-07,-3.407523923780191e-07,-5.753308873503743e-07,1.6577388288521868e-07
394,6.44762982746123e-07,-8.932659702182535e-07,-1.4902809773869988e-06,4.2636525537223304e-07
395,1.5792417358873946e-06,-2.168648135920442e-06,-3.5770418598759038e-06,1.0190216502849873e-06
396,3.614874488610139e-06,-4.922999446760314e-06,-8.029979142303602e-06,2.2832714193138668e-06
397,7.790488064425034e-06,-1.0533393754039264e-05,-1.6989783288445698e-05,4.831139254339997e-06
398,1.5907724210027673e-05,-2.1385161096039018e-05,-3.410038830221384e-05,9.711188608152131e-06
399,3.0944228233599914e-05,-4.143057116934643e-05,-6.528590041813528e-05,1.863905566304396e-05
400,5.7612489099880405e-05,-7.69637952974252e-05,-0.00011978878987991011,3.430634740828999e-05
401,0.00010308366966933828,-0.00013765830418525172,-0.0002115038152230615,6.077611881518417e-05
402,0.00017788772969028335,-0.00023791095187662982,-0.00036063113594827275,0.00010396730462922154
403,0.0002969902137168582,-0.0003985313751349998,-0.0005956573066685206,0.00017222269518274598
404,0.00048103310131806994,-0.0006488057099485802,-0.0009556551234928753,0.00027694583237467706
405,0.0007577131525810996,-0.0010289499824085123,-0.0014928735932980758,0.00043328229526849575
406,0.0011632572501877525,-0.0015929511541645923,-0.002275568711061615,0.0006608110883864209
407,0.00174394121834494,-0.00241177325939198,-0.003391005425295963,0.0009842030848188806
408,0.0025575872106242954,-0.0035768831739677568,-0.004948542357578988,0.0014337964653257206
409,0.0036749655443275627,-0.005204026325348315,-0.007082694709732631,0.0020460344321073074
410,0.005181020171116718,-0.007437158256250657,-0.009956058398368385,0.0028637085749615016
411,0.007175832961769872,-0.010452414672610483,-0.01376197060069543,0.003935952347532687
412,0.009775240690635442,-0.014461981751219119,-0.01872677904864094,0.005317933215522975
413,0.01311102005459834,-0.01971771132934865,-0.025111594722092616,0.007070199055870266
414,0.017330560320532425,-0.026514313299080862,-0.03321340996009931,0.009257644076223632
415,0.022595950322344856,-0.035191951036956604,-0.043365476122158964,0.011948071529092207
416,0.02908241653618456,-0.046138065718283466,-0.055936851303971157,0.015210344346817239
417,0.03697606178930513,-0.059788262311611926,-0.07133104859177795,0.01911212995295819
418,0.046470869724186833,-0.07662610403231002,-0.08998373813997948,0.0237172612736332
419,0.057764958328967636,-0.09718168284754107,-0.11235948110450883,0.02908275171379952
420,0.07105608647590486,-0.12202886075065943,-0.1389474992530937,0.03525551694509867
421,0.08653644015674955,-0.1517811091570683,-0.17025651001624653,0.042268870222720946
422,0.10438674952272554,-0.18708591087176965,-0.2068086820318316,0.0501388701718346
423,0.12476981339426291,-0.2286177294179864,-0.24913279020321283,0.05886061024787333
424,0.14782353401283224,-0.2770695927663474,-0.2977566714445984,0.06840454717593532
425,0.17365359077728545,-0.33314338129765086,-0.35319910230020857,0.07871297148947098
426,0.20232590669360168,-0.3975389518238852,-0.41596123727257145,0.08969672673626201
427,0.23385908428586163,-0.47094226940201184,-0.48651776177872536,0.10123228493866196
428,0.26821700769912804,-0.5540127553137475,-0.5653079259309262,0.11315928442951859
429,0.30530182361633007,-0.6473700918662272,-0.6527266345166619,0.1252786321903074
430,0.344947524386804,-0.7515807516124743,-0.7491157743194026,0.13735126626220226
431,0.38691436147783204,-0.8671445393261692,-0.8547559620074611,0.14909766467325863
432,0.430884315189943,-0.9944814488405558,-0.9698588940438256,0.16019817563737151
433,0.4764578369413529,-1.133919143067855,-1.0945604743552095,0.17029422957749382
434,0.5231520630309621,-1.285681363721145,-1.2289148858434973,0.1789904768871562
435,0.5704006736362979,-1.449877567248924,-1.372889758281093,0.18585787639553472
436,0.6175555381428807,-1.6264940652942694,-1.5263625678016568,0.19043773841936232
437,0.663890248269543,-1.815386921900433,-1.6891183822350049,0.19224670332789073
438,0.7086055947170667,-2.0162768262585464,-1.8608490421678998,0.19078261209015734
439,0.7508369924869233,-2.2287461198287235,-2.0411538401482967,0.18553119985004318
440,0.7896638061794259,-2.452238111172071,-2.2295417302696148,0.17597351789018978
441,0.8241204712963979,-2.6860587619916623,-2.4254350679286922,0.16159396426672487
442,0.8532092527626354,-2.9293807750101344,-2.628174845393502,0.1418887799099918
443,0.8759144295183208,-3.181250059808786,-2.8370273536163815,0.11637484613994788
444,0.8912176460996388,-3.4405944980514085,-3.051192165313212,0.0845986023774092
445,0.8981141304594884,-3.706234876041878,-3.2698112996982207,0.04614489028546638
446,0.8956294434484237,-3.976897801705916,-3.491979396577661,0.0006455234095937841
447,0.8828364005360388,-4.251230376168853,-3.7167546980378323,-0.05221261989279408
448,0.8588717912774739,-4.527816348356292,-3.9431706110244638,-0.1126801776105931
449,0.8229525171444361,-4.805193445576806,-4.170247604955755,-0.18093874582390512
450,0.7743907737820643,-5.081871544782484,-4.3970051862477275,-0.257095350924366
451,0.7126079193454736,-5.356351328849763,-4.622473687142458,-0.34117810038453045
452,0.6371466958516356,-5.627143060233983,-4.8457056101069105,-0.43313313382057067
453,0.5476815047429565,-5.892785100922494,-5.065786281535957,-0.5328229660657853
454,0.4440264802216805,-6.151861812696143,-5.281843589341896,-0.6400262811513174
455,0.3261411533175255,-6.40302048504554,-5.493056607578329,-0.754439201438523
456,0.19413355481613948,-6.644986959233274,-5.698662946414743,-0.8756780206718842
457,0.048260664555429926,-6.87657964534664,-5.897964706041716,-1.0032833544700983
458,-0.11107382355115727,-7.096721664020051,-6.090332956611998,-1.1367256278317135
459,-0.28332438891626166,-7.304450884984796,-6.275210711044072,-1.2754117876991293
460,-0.46781113094542026,-7.498927679803363,-6.452114401265745,-1.418693100561436
461,-0.6637296234102907,-7.679440255073784,-6.620633909162746,-1.565873871421879
462,-0.8701629710909035,-7.845407484002804,-6.780431239289045,-1.7162209019457146
463,-1.0860958152670503,-7.9963792074650755,-6.9312379498824646,-1.8689734927013242
464,-1.3104299936225623,-8.132034029387286,-7.072851481022875,-2.0233537872697402
465,-1.5420015267963396,-8.252174684409818,-7.2051305335389175,-2.1785772544800928
466,-1.7795985786231467,-8.356721107174062,-7.327989659714188,-2.333863108721006
467,-2.021980020297275,-8.445701381166794,-7.441393227637109,-2.4884444765610993
468,-2.2678942203348926,-8.519240789759587,-7.545348916225921,-2.6415781300295484
469,-2.5160976821598644,-8.57754923190145,-7.639900888833355,-2.792553622041597
470,-2.7653731590525368,-8.620907298932208,-7.725122781283745,-2.940701676803217
471,-3.0145468915988314,-8.649651336377277,-7.801110626568539,-3.08540170687789
472,-3.2625046351445586,-8.66415783471021,-7.867975824429123,-3.2260883483701335
473,-3.508206173562627,-8.664827505463158,-7.925838250680987,-3.3622569259527695
474,-3.7506980503047087,-8.652069403472249,-7.974819589125018,-3.4934677799583715
475,-3.9891242875556787,-8.626285452433642,-8.015036958731605,-3.619349408290345
476,-4.222734908579571,-8.587855719507036,-8.04659690070358,-3.739600396361525
477,-4.450892126197932,-8.537124765828164,-8.069589784043934,-3.8539901285297393
478,-4.673074110849812,-8.474389374040461,-8.08408468422771,-3.9623582944452833
479,-4.888876303764124,-8.399887922022655,-8.09012478723661,-4.064613223192875
480,-5.098010293174025,-8.313791634665474,-8.087723370197855,-4.160729096887981
481,-5.300300322848909,-8.216197903705782,-8.076860409735927,-4.25074211321976
482,-5.495677551129034,-8.107125820180993,-8.05747986937936,-4.334745683037646
483,-5.684172223818168,-7.9865140159847146,-8.02948771735499,-4.412884764171443
484,-5.865903964506587,-7.8542208612802495,-7.992750725151076,-4.485349445982938
485,-6.041070420085607,-7.710027014176845,-7.947096094578062,-4.5523679104259065
486,-6.2099345265069,-7.553640269123802,-7.892311955952264,-4.614198904429119
487,-6.372810679708942,-7.384702601959273,-7.82814877184563,-4.671123865053148
488,-6.530050108928674,-7.202799263480467,-7.754321669200391,-4.72343884300143
489,-6.682025754538203,-7.007469730754533,-7.670513707486711,-4.771446371643709
490,-6.829116950528786,-6.798220287068762,-7.5763800723981705,-4.815447427736903
491,-6.971694203440488,-6.574537968225495,-7.471553164153918,-4.855733626541992
492,-7.110104345700032,-6.335905585498472,-7.3556485279108115,-4.892579788104535
493,-7.244656322935338,-6.081817514521026,-7.2282715523032275,-4.926237003196903
494,-7.375607852895181,-5.811795925063095,-7.08902484189619,-4.956926316961882
495,-7.503153169125415,-5.525407119309517,-6.93751615138069,-4.9848331358478575
496,-7.627412036469716,-5.222277645950407,-6.7733667544665614,-5.010102449226944
497,-7.74842019863057,-4.902109864039725,-6.596220109194559,-5.032834941421552
498,-7.866121391178597,-4.5646966439052825,-6.405750674064605,-5.0530840530451515
499,-7.9803610270610825,-4.209934911971592,-6.2016727259238715,-5.070854032933591
500,-8.090881636095387,-3.8378377716102867,-5.983749030646668,-5.086099003867439
501,-8.197320115146065,-3.4485449623616167,-5.751799220712087,-5.098723047142743
502,-8.299206821563267,-3.0423314542821185,-5.505707739161751,-5.108581293219647
503,-8.395966518862014,-2.619614011907087,-5.245431216398356,-5.11548198853742
504,-8.486921160433358,-2.180955602472458,-4.971005154243316,-5.119189492467532
505,-8.571294474184192,-1.7270675647047238,-4.682549800144629,-5.119428143550773
506,-8.648218288329561,-1.2588094967609034,-4.3802751031626315,-5.115886920807316
507,-8.716740516141268,-0.7771868639267612,-4.064484652356633,-5.108224814104998
508,-8.77583469550064,-0.2833463676701204,-3.7355785076787655,-5.096076807346898
509,-8.82441095796961,0.2214308431148248,-3.3940548438677607,-5.079060369602224
510,-8.861328282202713,0.7357380009823823,-3.040510339637654,-5.056782342277699
511,-8.885407868281295,1.2580534373371577,-2.675639258183408,-5.028846105063112
512,-1.3513471275455468e-13,-3.566289169791245e-14,-1.3668695597896583e-14,-4.4275589002536996e-14
513,-3.115160221372876e-12,-7.724540842472556e-13,-2.3152950840922437e-13,-9.601713829042232e-13
514,-3.673147025612073e-11,-9.183775673616033e-12,-3.1964636823005806e-12,-1.1233623897854744e-11
515,-2.8831217788027084e-10,-7.310162233304415e-11,-2.934666351913452e-11,-8.796921995964368e-11
516,-1.698424882347641e-09,-4.3810312883521405e-10,-1.9987604495990516e-10,-5.188938916185023e-10
517,-8.03428505831085e-09,-2.1144952051303845e-09,-1.0813979903660702e-09,-2.4664931601914198e-09
518,-3.1887917960046906e-08,-8.586027719631708e-09,-4.863827419140179e-09,-9.870973513790627e-09
519,-1.0954456297862125e-07,-3.0249447113808454e-08,-1.8782953132938084e-08,-3.4303980374809486e-08
520,-3.3341171012902803e-07,-9.461563318131869e-08,-6.38059451416798e-08,-1.0593699802530628e-07
521,-9.156055402027353e-07,-2.674597642707159e-07,-1.9429087162381683e-07,-2.9595497076535285e-07
522,-2.302034696087859e-06,-6.93030044470215e-07,-5.383585188073304e-07,-7.586578968843087e-07
523,-5.362402111942588e-06,-1.6650553023913134e-06,-1.3741586077078534e-06,-1.8051189582420187e-06
524,-1.1687334157212614e-05,-3.744458460389597e-06,-3.263926939417551e-06,-4.024479076724126e-06
525,-2.4028587939754083e-05,-7.944099933097501e-06,-7.275323608845942e-06,-8.473513355882628e-06
526,-4.6921139701150564e-05,-1.6005156573231285e-05,-1.5327419396371277e-05,-1.69596371405551e-05
527,-8.752610995072793e-05,-3.079342137323565e-05,-3.070613867399388e-05,-3.244654153704224e-05
528,-0.0001567303168551234,-5.684636892250104e-05,-5.880021825078633e-05,-5.961459001068679e-05
529,-0.0002705314488466463,-0.00010110274503824398,-0.000108113072950418,-0.00010560937507445104
530,-0.0004517274012629401,-0.00017384522644237803,-0.00019160767545085012,-0.0001810108777519318
531,-0.0007319145071660903,-0.0002898829895505813,-0.0003284399931868651,-0.00030105205595723446
532,-0.0011537827725520565,-0.00046999463046531044,-0.0005461310469412817,-0.00048710914985707033
533,-0.0017736776588349228,-0.0007426428144599201,-0.0008832177163727661,-0.0007684764975066801
534,-0.002664378538091678,-0.0011459605658118992,-0.0013924076208168374,-0.0011844264209244421
535,-0.0039180248769769156,-0.0017299957290426455,-0.002144243576041281,-0.0017865402362797426
536,-0.005649103630126224,-0.002559185513834011,-0.0032312583732737286,-0.0026412803317553205
537,-0.007997396255674931,-0.003715017963282173,-0.004772571378105056,-0.0038327563547899766
538,-0.011130772066646522,-0.005298822474674828,-0.006918845509282079,-0.005465621743892836
539,-0.01524770699225242,-0.007434617923921384,-0.009857487756440353,-0.007668021028470575
540,-0.020579403696313153,-0.010271935163227223,-0.013817940197841248,-0.01059449435626158
541,-0.027391390552300506,-0.01398852119849689,-0.019076873556311692,-0.014428734348301565
542,-0.03598448312042409,-0.01879282558226624,-0.025963064043558515,-0.01938608225512979
543,-0.04669500228429898,-0.02492616572563469,-0.03486170903616104,-0.02571564599428652
544,-0.05989415780711086,-0.032664467089818135,-0.04621792029198058,-0.03370192237118994
545,-0.07598652444424611,-0.04231947664921907,-0.060539126843876745,-0.043665809899034326
546,-0.09540755950112359,-0.054239353653824124,-0.07839612469713274,-0.05596490729489896
547,-0.11862013534129158,-0.06880855052855886,-0.10042252760930799,-0.07099300594410027
548,-0.14611008722577276,-0.08644690862088292,-0.12731240245995934,-0.08917870221013534
549,-0.1783808053088019,-0.10760790823847283,-0.1598159133408368,-0.11098307702468774
550,-0.2159469288213465,-0.132776029698651,-0.19873284936953634,-0.13689641509923312
551,-0.259327229499257,-0.16246320154502458,-0.24490397084655682,-0.16743396353056553
552,-0.3090367991305536,-0.19720433321748326,-0.2992001749281208,-0.20313075854426854
553,-0.3655786817163976,-0.2375519517945579,-0.3625095533688066,-0.24453557856169789
554,-0.42943511330903417,-0.284069985442795,-0.4357224887072859,-0.29220411059856993
555,-0.5010585513963992,-0.3373267593608117,-0.5197150089013441,-0.34669144415340225
556,-0.5808626901205832,-0.39788729271706974,-0.6153306911175341,-0.4085440312342633
557,-0.6692136670724842,-0.4663050067326186,-0.7233614704228175,-0.4782912720983471
558,-0.7664216714098454,-0.5431129740008332,-0.8445277659531648,-0.556436902837098
559,-0.8727331612455773,-0.6288148566931251,-0.9794583834740437,-0.643450372447917
560,-0.9883238904285098,-0.7238756958063209,-1.1286706871847103,-0.7397584029524036
561,-1.113292930883704,-0.8287127244427716,-1.2925515536483512,-0.8457369260723063
562,-1.2476578566266736,-0.9436863847520954,-1.4713396258034281,-0.9617035837601778
563,-1.3913512296803654,-1.0690917302237049,-1.6651093745841667,-1.087910967511168
564,-1.5442184969925559,-1.2051503923080489,-1.8737574497531766,-1.2245407531031267
565,-1.7060173719850535,-1.3520032828750743,-2.096991760697366,-1.3716988637416863
566,-1.8764187357157707,-1.5097041920101228,-2.3343236732725376,-1.52941176632856
567,-2.055009052107864,-1.678214424507214,-2.585063641897243,-1.6976239738050034
568,-2.2412942507313263,-1.8573985987078345,-2.848320518977092,-1.876196792564329
569,-2.434704990755794,-2.0470217087208145,-3.1230046986650586,-2.0649083192589126
570,-2.634603182507382,-2.2467475262805734,-3.4078351614103433,-2.2634546574952075
571,-2.84028961003238,-2.4561383923124382,-3.7013503923213893,-2.4714522934084817
572,-3.0510124704465746,-2.674656421412242,-4.001923052721576,-2.6884415412548304
573,-3.265976624603768,-2.9016661156003534,-4.307778193027537,-2.9138909469895236
574,-3.4843533394396493,-3.1364383574902743,-4.617014708705036,-3.147202520009769
575,-3.7052902956092466,-3.37815572794131,-4.927629661769645,-3.387717651146311
576,-3.927921634725979,-3.6259190697694677,-5.23754501996533,-3.6347235685487416
577,-4.151377828204931,-3.8787551975057943,-5.544636305867588,-3.887460181952128
578,-4.37479516364478,-4.135625633778031,-5.8467625998855155,-4.1451271692960345
579,-4.597324663872991,-4.395436235858753,-6.141797305385659,-4.406891166963938
580,-4.818140277147801,-4.657047561452744,-6.427659061615752,-4.671892935113112
581,-5.036446203427787,-4.919285811059842,-6.702342181206364,-4.939254381792591
582,-5.251483249938487,-5.1809541754179,-6.963945993898488,-5.208085343040692
583,-5.462534138395312,-5.440844410769375,-7.2107024965446005,-5.477490030328056
584,-5.668927715241054,-5.697748462146024,-7.441001740772191,-5.746573071158437
585,-5.870042044369678,-5.950469955620016,-7.653414433134419,-6.014445083084557
586,-6.065306388425968,-6.197835384540112,-7.8467112771036485,-6.280227735639673
587,-6.254202109366854,-6.438704822078056,-8.019878650811435,-6.543058268534039
588,-6.436262541097917,-6.6719820027721175,-8.17213028785089,-6.802093447696024
589,-6.611071906325887,-6.89662362888382,-8.30291470946647,-7.056512953087928
590,-6.778263366089357,-7.111647772887529,-8.411918243630616,-7.305522203405232
591,-6.937516303608675,-7.316141264803816,-8.499063558216754,-7.548354632477633
592,-7.088552953996302,-7.509265971815822,-8.56450372988505,-7.784273440155097
593,-7.231134497865045,-7.690263897110413,-8.608611965348498,-8.012572846466025
594,-7.365056739921641,-7.858461044644564,-8.631967185142308,-8.232578881765074
595,-7.490145493345484,-8.013270016128196,-8.635335769497464,-8.443649747474348
596,-7.606251787370306,-8.154191325638607,-8.619649848982426,-8.645175782052165
597,-7.713247009328472,-8.280813435772776,-8.585982596863147,-8.836579065340255
598,-7.811018083837606,-8.392811537052454,-8.535521043507963,-9.017312691896402
599,-7.899462781214012,-8.489945109453865,-8.469536983884517,-9.186859740824305
600,-7.9784852350503765,-8.572054321507098,-8.389356586016053,-9.344731966456074
601,-8.04799173568092,-8.639055338457622,-8.296329330503877,-9.490468231443959
602,-8.10788685241673,-8.690934626514265,-8.191796918774854,-9.623632701685908
603,-8.158069923360049,-8.727742355164176,-8.07706278100944,-9.743812821251861
604,-8.198431937699862,-8.749585013771792,-7.9533627946358,-9.850617085236209
605,-8.228852822118208,-8.756617371976338,-7.821837792067719,-9.943672629361396
606,-8.249199130812624,-8.74903392547869,-7.68350839346038,-10.022622657341742
607,-8.259322128152974,-8.727059979336712,-7.539252648214403,-10.087123730633023
608,-8.259056244552948,-8.690942529518294,-7.389786909368028,-10.136842950349388
609,-8.248217880095769,-8.640941109840364,-7.2356502994559,-10.171455067831657
610,-8.226604527125998,-8.577318775228196,-7.077193056358822,-10.190639568465617
611,-8.19399418266269,-8.500333393204238,-6.914568974439678,-10.194077782585639
612,-8.150145024216432,-8.410229413492608,-6.747732080993267,-10.181450087217575
613,-8.094795328296257,-8.307230280529511,-6.576437611735828,-10.152433272436546
614,-8.027663619244747,-8.191531645509626,-6.400247272686549,-10.106698155539538
615,-7.948449046533697,-8.063295523435556,-6.218538700346016,-10.043907534279953
616,-7.856832000633337,-7.922645526577887,-6.030518958618542,-9.963714576289497
617,-7.752474990234298,-7.7696632889400785,-5.8352418405565585,-9.865761744795678
618,-7.635023816048033,-7.604386176950808,-5.631628676811559,-9.749680360250546
619,-7.504109087732434,-7.4268063599430025,-5.41849229167328,-9.615090893143021
620,-7.35934813989938,-7.236871290382737,-5.194563692676393,-9.461604074936057
621,-7.200347410038057,-7.0344856187331155,-4.958521031735636,-9.288822901851665
622,-7.026705345030319,-6.8195145418088,-4.709020335298957,-9.096345590424145
623,-6.838015903305048,-6.591788557071342,-4.444727468637695,-8.883769524801425
624,-6.63387271621809,-6.3511095691223645,-4.164350775598068,-8.650696214234587
625,-6.413873964734735,-6.097258269239026,-3.866673820339475,-8.396737255639971
626,-6.17762801589661,-5.830002684685772,-3.5505876521566786,-8.121521271159462
627,-5.924759847995846,-5.549107772182172,-3.2151220187246654,-7.824701764908396
628,-5.6549182740969375,-5.254345909683325,-2.859474967186252,-7.505965817222512
629,-5.367783950903332,-4.945508122825778,-2.483040296401792,-7.165043509338815
630,-5.063078134481825,-4.622415867219608,-2.08543235715094,-6.801717947213579
631,-4.740572116716249,-4.284933175376517,-1.6665077396440162,-6.415835730735616
632,-4.4000972473578335,-3.9329789675553886,-1.2263834386956118,-6.007317694560217
633,-4.041555417013712,-3.5665393192390145,-0.7654511455009793,-5.5761697297508395
634,-3.6649298472379015,-3.1856794743374635,-0.28438738014213333,-5.122493481886986
635,-3.2702960059793766,-2.79055539250267,0.21584075045140383,-4.646496711702149
636,-2.857832440957153,-2.3814246210480325,0.7339743097640758,-4.14850309897628
637,-2.4278313010003445,-1.9586562867833324,1.2684658678796483,-3.6289612695349938
638,-1.9807082968396486,-1.5227400104818547,1.8174874026902645,-3.0884528289051203
639,-1.5170118390011331,-1.074293556589475,2.378942675758226,-2.5276991944359373
640,-1.3358790700433e-13,-4.734544884691668e-14,-6.356342989800999e-14,-2.5040979520438468e-14
641,-3.038375448684215e-12,-9.741822283657437e-13,-1.377444575704236e-12,-5.415637777487673e-13
642,-3.512720558211186e-11,-1.1516300852106523e-11,-1.6649375819712978e-11,-6.500363761668864e-12
643,-2.70256087484749e-10,-9.146440296384342e-11,-1.3492851974609858e-10,-5.226018531714458e-11
644,-1.5604789208830677e-09,-5.480301768149195e-10,-8.23729686674585e-10,-3.1624167750782985e-10
645,-7.236157109239161e-09,-2.6493641645869208e-09,-4.049641309256183e-09,-1.5402566480170142e-09
646,-2.8160493423966196e-08,-1.0794470792381367e-08,-1.6739620087054143e-08,-6.306308511884778e-09
647,-9.488895909678911e-08,-3.822139291574369e-08,-5.997414660930164e-08,-2.238138943220268e-08
648,-2.834160722501695e-07,-1.2032457412064992e-07,-1.9050502963208203e-07,-7.044915827274613e-08
649,-7.642314083154998e-07,-3.427492151605271e-07,-5.46014832193926e-07,-2.0020040283188687e-07
650,-1.8879708667403972e-06,-8.958122664154382e-07,-1.4320315069195944e-06,-5.209774013756832e-07
651,-4.324512401039765e-06,-2.172497098466611e-06,-3.476319318389241e-06,-1.255903610838833e-06
652,-9.275591520927894e-06,-4.934126446996848e-06,-7.885314964760763e-06,-2.8315423563977394e-06
653,-1.8783548998513005e-05,-1.0575478526909363e-05,-1.6845950727672074e-05,-6.018407639812391e-06
654,-3.616032215314093e-05,-2.1529022255476694e-05,-3.412404945926633e-05,-1.2140823694243281e-05
655,-6.656096804131429e-05,-4.185538634479831e-05,-6.591641456979421e-05,-2.3377366587792538e-05
656,-0.00011772469145910249,-7.807328923006348e-05,-0.00012201688076025228,-4.317504603055021e-05
657,-0.00020090346267219632,-0.0001402860185834359,-0.00021735620075694762,-7.680110621270776e-05
658,-0.000331993790789506,-0.00024366225265763083,-0.0003739711702938873,-0.0001320554691348943
659,-0.0005328810079376748,-0.00041032577411832084,-0.0006234494904046955,-0.0002201641056064989
660,-0.0008329975138273057,-0.0006717008772783223,-0.0010098833897138066,-0.0003568688022826872
661,-0.0012710869699216287,-0.001071347754157719,-0.0015933470481862592,-0.0005637218587560034
662,-0.0018971557207946627,-0.0016683049536985641,-0.0024538906769088053,-0.0008695853498703521
663,-0.0027745811707469343,-0.0025409345826518707,-0.0036960182857755535,-0.0013123240843409222
664,-0.003982334924172071,-0.0037912410142893374,-0.005453587589643533,-0.0019406698293793166
665,-0.00561726673227806,-0.005549606512265485,-0.007895040350271281,-0.00281622244031617
666,-0.0077963842811860674,-0.00797985857534551,-0.011228841165620637,-0.0040155419900828855
667,-0.010659054265201142,-0.011284555300565742,-0.01570897388876653,-0.00563227557732615
668,-0.014369042633368792,-0.01571034803685623,-0.021640319104496614,-0.0077792538545641485
669,-0.019116306869993067,-0.021553256432532697,-0.029383714951886103,-0.010590485965829463
670,-0.02511845101943579,-0.029163670966993974,-0.039360488428661494,-0.01422297786064263
671,-0.03262175512767367,-0.038950883367399596,-0.05205623628199585,-0.018858298050173524
672,-0.04190169497753238,-0.051386936935831885,-0.06802363451044306,-0.02470381685588063
673,-0.053262875427326536,-0.06700958751921941,-0.08788406383714498,-0.031993550020790906
674,-0.06703831113997841,-0.08642417214411251,-0.11232785532323333,-0.040988545044450056
675,-0.08358800169510533,-0.11030419640502159,-0.14211298522337676,-0.05197675847752962
676,-0.10329676363215365,-0.13939047340173122,-0.17806208053927272,-0.06527238426167836
677,-0.12657129946124307,-0.1744886758978783,-0.22105763553455396,-0.0812146065061794
678,-0.15383650259337703,-0.21646519863728533,-0.2720353836052202,-0.1001657642546171
679,-0.18553101683782686,-0.26624126834448314,-0.33197581712330987,-0.12250893016729715
680,-0.22210208884894647,-0.32478528356159,-0.4018938988647342,-0.14864491899635993
681,-0.2639997709623634,-0.39310341368088064,-0.48282706093273026,-0.17898875471334746
682,-0.31167054966901925,-0.47222853477817733,-0.5758216390564547,-0.21396563676864136
683,-0.3655504911347312,-0.5632076275802843,-0.6819179399945399,-0.25400645600593164
684,-0.42605800941923927,-0.6670878086043555,-0.8021341856969832,-0.29954291916839776
685,-0.49358637522443605,-0.7849012077869835,-0.937449618211871,-0.3510023477586681
686,-0.5684960930470804,-0.9176489435240073,-1.0887870826901924,-0.40880222232163815
687,-0.6511072825358645,-1.066284477909517,-1.2569954312255862,-0.4733445470590912
688,-0.7416922056534615,-1.2316966602612647,-1.4428321070030614,-0.5450101120782731
689,-0.8404680848237717,-1.4146927851592788,-1.646946275964167,-0.6241527315309531
690,-0.9475903583976987,-1.6159820018446553,-1.8698628718225687,-0.7110935354432932
691,-1.0631465182454325,-1.836159414761304,-2.111967909912803,-0.806115391248758
692,-1.1871506698421845,-2.0756912102613776,-2.3734954063948064,-0.9094575280575741
693,-1.319538947641617,-2.3349011321443287,-2.654516212383496,-1.0213104327232874
694,-1.4601659076147926,-2.613958608988084,-2.954929038454669,-1.1418110820346932
695,-1.6088020044031492,-2.9128688095253126,-3.274453904648374,-1.2710385701326732
696,-1.7651322425742078,-3.231464869145647,-3.6126282055145067,-1.4090101848124106
697,-1.9287560702136632,-3.56940249166274,-3.968805529829733,-1.5556779810202372
698,-2.099188559036728,-3.926157086625803,-4.342157321206788,-1.7109258948691835
699,-2.275862889048494,-4.301023554657461,-4.7316774097658385,-1.8745674370915375
700,-2.458134128339319,-4.693118782631356,-5.136189387273404,-2.046344001131473
701,-2.6452842707614574,-5.101386858081662,-5.554356739749893,-2.22592381805313
702,-2.8365284669406723,-5.524606959193194,-5.984695593729467,-2.4129015879882343
703,-3.0310223582422338,-5.961403824164286,-6.425589876475943,-2.606798815764717
704,-3.2278703997062497,-6.410260652725802,-6.875308637927456,-2.8070648763461574
705,-3.426135037170954,-6.869534244125859,-7.332025234367282,-3.0130788333978993
706,-3.624846586231989,-7.33747213084644,-7.793838032137426,-3.2241520312573266
707,-3.823013646660125,-7.81223142649838,-8.258792255342971,-3.4395314763978897
708,-4.0196338756538506,-8.291899070444973,-8.724902575474758,-3.6584040187536924
709,-4.213704936951008,-8.774513121359814,-9.190176023999655,-3.8799013357014767
710,-4.404235440347187,-9.25808472771527,-9.65263480172777,-4.103105711858116
711,-4.590255687471762,-9.740620385679888,-10.110338561336546,-4.327056596031837
712,-4.770828044653595,-10.220144084599667,-10.561405751672948,-4.550757902681326
713,-4.945056772260683,-10.694718937612015,-11.004033633953952,-4.773186009255529
714,-5.112097151838937,-11.16246790034613,-11.436516610104096,-4.993298383130468
715,-5.271163767376901,-11.621593194298388,-11.857262541373451,-5.21004275299761
716,-5.421537814624621,-12.070394073331384,-12.264806780044054,-5.422366720095589
717,-5.562573332060526,-12.507282601603201,-12.657823687241207,-5.629227685334168
718,-5.693702268253297,-12.930797148623524,-13.035135464224883,-5.8296029499472555
719,-5.814438322368147,-13.339613351363054,-13.395718181528531,-6.0224998306843895
720,-5.924379516709868,-13.73255234351537,-13.738704948371801,-6.206965616549911
721,-6.02320948176129,-14.108586107057903,-14.063386222358975,-6.382097183503816
722,-6.110697454548756,-14.466839859982667,-14.369207315151938,-6.5470500770253635
723,-6.1866970099005725,-14.806591455172855,-14.65576320231385,-6.701046870566454
724,-6.251143560982636,-15.127267827533746,-14.922790793837123,-6.843384611107018
725,-6.304050680261368,-15.428438588252723,-15.1701588652531,-6.973441171538484
726,-6.345505304776677,-15.709806925055528,-15.397855887210675,-7.090680343546092
727,-6.375661900529065,-15.971198024141891,-15.60597602380429,-7.194655523964364
728,-6.394735670317764,-16.212545281761912,-15.79470359673612,-7.285011871995286
729,-6.4029948980475515,-16.4338746198684,-15.96429633379076,-7.36148684378254
730,-6.40075253087613,-16.63528725983374,-16.11506773636197,-7.4239090440284805
731,-6.388357109043542,-16.81694133993814,-16.247368912187273,-7.472195370863142
732,-6.366183162157356,-16.979032785538507,-16.361570226198634,-7.506346469136242
733,-6.334621200358665,-17.12177585507807,-16.45804312446191,-7.526440547728699
734,-6.294067439279408,-17.245383790202666,-16.537142483304116,-7.532625657353602
735,-6.244913408934354,-17.35004999424168,-16.59918982749683,-7.525110565602212
736,-6.187535608359128,-17.435930150420376,-16.64445774733013,-7.504154404639685
737,-6.122285379402789,-17.503125669797967,-16.673155824256717,-7.470055302906539
738,-6.049479183943107,-17.551668829626493,-16.685418348470076,-7.423138244369414
739,-5.969389478080481,-17.581509926294203,-16.6812940796209,-7.363742426236587
740,-5.882236383571404,-17.592506724084217,-16.660738264544072,-7.292208407600219
741,-5.788180359754407,-17.584416432610546,-16.623607084293447,-7.208865356258972
742,-5.687316077385053,-17.556890393089194,-16.569654657991194,-7.11401870821179
743,-5.579667688162353,-17.509471597774958,-16.498532683990668,-7.007938553385481
744,-5.465185669539846,-17.441595109241263,-16.40979275052331,-6.890849051694303
745,-5.343745403141455,-17.352591388033748,-16.302891299160365,-6.76291916545003
746,-5.21514761649294,-17.241692479899424,-16.17719717583684,-6.624254967692344
747,-5.079120781967953,-17.108040958532758,-16.032001656638055,-6.474893751797223
748,-4.935325524449941,-16.950701467736625,-15.866530789857611,-6.3148001267164195
749,-4.78336104133659,-16.768674659088745,-15.67995985285963,-6.143864235709632
750,-4.622773486678925,-16.56091327849726,-15.471429682911406,-5.9619021860119945
751,-4.453066217275253,-16.32634011810688,-15.240064606264099,-5.76865872422518
752,-4.27371174448258,-16.06386751937268,-14.984991660135055,-5.5638121390299755
753,-4.084165183561462,-15.77241808905067,-14.705360778504097,-5.346981320691392
754,-3.883878944725243,-15.450946272482401,-14.400365595176137,-5.117734857190256
755,-3.6723183687091057,-15.09846041783366,-14.069264506554914,-4.87560200088121
756,-3.4489779762312094,-14.714044960702935,-13.711401632006053,-4.620085298328209
757,-3.2133979763803167,-14.296882360441959,-13.326227311427537,-4.350674640158248
758,-2.965180664492558,-13.846274427227552,-12.913317787484072,-4.066862457939991
759,-2.7040063358065707,-13.361662691913862,-12.472393733622049,-3.7681597715807547
760,-2.4296483470084134,-12.842647488461056,-12.003337308094725,-3.454112773722012
761,-2.1419869731972976,-12.289005440752266,-11.50620743829491,-3.1243196271413836
762,-1.8410217320389497,-11.700705071363009,-10.981253068081003,-2.7784471471708914
763,-1.5268818789854595,-11.077920278854467,-10.428924132743292,-2.41624704346534
764,-1.1998348163879626,-10.421041461978637,-9.849880060987227,-2.037571403878342
765,-0.8602922039453599,-9.730684103385881,-9.244995640014123,-1.6423871174262141
766,-0.5088136069008485,-9.007694661595691,-8.6153641177076,-1.2307889529427183
767,-0.14610757029605081,-8.25315365769225,-7.9622974543911855,-0.8030110345326307
768,-1.1478938771891954e-13,-1.099930093718555e-13,-1.250786553012888e-13,-2.2298614662321634e-14
769,-2.565829676401523e-12,-2.379004812931563e-12,-2.731947181655654e-12,-4.980880477648914e-13
770,-2.92608703939037e-11,-2.8300408054840186e-11,-3.3138724388785966e-11,-5.903667586459161e-12
771,-2.2136062025901876e-10,-2.2546245538528826e-10,-2.694493963273621e-10,-4.646372372379934e-11
772,-1.25574436093238e-09,-1.3531797722644782e-09,-1.6505725114350951e-09,-2.7465899402096964e-10
773,-5.715960241588881e-09,-6.544367393213278e-09,-8.144281636112289e-09,-1.3046631810146417e-09
774,-2.1817870722015727e-08,-2.6642334378706424e-08,-3.380010460495299e-08,-5.2041207633355025e-09
775,-7.205550360862011e-08,-9.415207078063958e-08,-1.2162813986458536e-07,-1.7983234247295833e-08
776,-2.1080980576932305e-07,-2.955217327228077e-07,-3.881674431095994e-07,-5.510570945917694e-08
777,-5.565404605232062e-07,-8.385769527404253e-07,-1.118064474424976e-06,-1.524825078368364e-07
778,-1.3456193753769885e-06,-2.1817113248779562e-06,-2.9472740988147127e-06,-3.865758035718189e-07
779,-3.0159701097131343e-06,-5.263757981033358e-06,-7.191070533859115e-06,-9.085722075650234e-07
780,-6.32930086933516e-06,-1.1887756570798388e-05,-1.6392574912533055e-05,-1.9989859639464202e-06
781,-1.2540725048939472e-05,-2.532706792926872e-05,-3.518700546191853e-05,-4.150398930856093e-06
782,-2.362381761135934e-05,-5.1237065436984645e-05,-7.159402649731326e-05,-8.187174593904336e-06
783,-4.255757733323523e-05,-9.896825395174618e-05,-0.0001388630630240052,-1.5431709273046286e-05
784,-7.367935513257818e-05,-0.0001833853046461494,-0.00025800211516889077,-2.792689996047756e-05
785,-0.0001231046382354213,-0.00032729935721142014,-0.0004611176914828029,-4.8723822876748214e-05
786,-0.00019921072139202005,-0.0005646164563556074,-0.0007956807261506077,-8.224197219506176e-05
787,-0.00031317681020643734,-0.0009442919656121236,-0.0013298100965388076,-0.00013470670055937343
788,-0.00047956805709187077,-0.001535158557437518,-0.0021586316348651533,-0.00021466468400203122
789,-0.0007169455515773036,-0.0024316638383240956,-0.00341172706583897,-0.00033357331687572416
790,-0.0010484785336023043,-0.003760513406783852,-0.0052616355115302806,-0.0005064540030644558
791,-0.0015025292464870416,-0.005688167396027383,-0.007933312062351747,-0.0007525925037062171
792,-0.002113175098905029,-0.00842908517615357,-0.0117143858130141,-0.0010962620829978017
793,-0.002920627466094421,-0.012254556270843792,-0.01696599638569707,-0.0015674375373843186
794,-0.003971501986984239,-0.017501898472025584,-0.0241339261847045,-0.002202460797496646
795,-0.005318892166346738,-0.024583749646238367,-0.03375968844742328,-0.0030446122579646765
796,-0.007022197035119402,-0.03399713092025256,-0.04649118161441095,-0.004144536983245164
797,-0.00914665503751035,-0.046331918801150986,-0.06309248158261256,-0.005560472132332622
798,-0.011762540598031779,-0.06227833503152889,-0.08445231770802143,-0.007358221973554483
799,-0.014943987294839423,-0.08263304785038203,-0.11159076820005256,-0.009610830253828926
800,-0.018767412438327215,-0.10830347847060882,-0.14566371737198144,-0.012397906821575364
801,-0.023309532116288795,-0.1403099229353357,-0.18796464189289794,-0.015804576433018594
802,-0.028644973115925454,-0.1797851322678899,-0.2399233357408542,-0.019920032468902896
803,-0.034843507955824714,-0.2279710424334586,-0.3031012432229532,-0.02483569639386901
804,-0.04196696070184657,-0.28621240885370197,-0.3791831447341742,-0.030643004419469592
805,-0.050065853253252246,-0.3559471762358597,-0.46996502876966245,-0.03743086492205307
806,-0.05917588318999371,-0.4386935009838039,-0.5773380834476006,-0.04528285247247383
807,-0.06931434384114947,-0.5360334377510905,-0.7032688483787346,-0.054274225538086106
808,-0.08047661382680839,-0.6495934007935463,-0.849775679768895,-0.06446887374159242
809,-0.09263285602651018,-0.7810216115201,-1.0189017946203867,-0.07591631586770482
810,-0.10572507407560101,-0.9319628427928844,-1.2126852702170394,-0.08864888065717122
811,-0.11966467762034691,-1.1040308648919077,-1.4331264792215697,-0.10267920810777094
812,-0.13433070530253238,-1.2987790845652962,-1.682153535348818,-0.11799820902993335
813,-0.14956884650973187,-1.5176699443780404,-1.9615864066314772,-0.13457361472123705
814,-0.16519138915702983,-1.7620437120856014,-2.2731004200090488,-0.15234923678770043
815,-0.1809782011793481,-2.033087336798227,-2.6181899299586866,-0.17124503953430573
816,-0.19667882821107166,-2.331804078517698,-2.9981329531968646,-0.19115810437800765
817,-0.21201575951162457,-2.658984628989787,-3.4139575796917327,-0.21196453802018164
818,-0.22668887919935723,-3.015180434057831,-3.8664109565482607,-0.23352234444773187
819,-0.24038108122415064,-3.400679900742347,-4.355931605698298,-0.25567524615858056
820,-0.25276498547304677,-3.815488126589493,-4.882625779454112,-0.27825740339361155
821,-0.26351065039636934,-4.259310725438254,-5.446248481334746,-0.3010989427737928
822,-0.27229413607280634,-4.731542244149522,-6.0461896852925925,-0.32403216984741456
823,-0.27880673221694363,-5.231259570959354,-6.681466177235747,-0.34689830498014923
824,-0.28276462978790873,-5.757220630295774,-7.350719321610636,-0.36955455015380684
825,-0.2839187840709627,-6.307868543802349,-8.052218926033605,-0.3918812669778049
826,-0.28206469277291846,-6.8813413158744465,-8.783873241869083,-0.41378902492759156
827,-0.27705179600602137,-7.475486977347114,-9.543245001578267,-0.4352252647618973
828,-0.2687921970171121,-8.087883996268516,-10.327573257914853,-0.45618031628903893
829,-0.25726840389016636,-8.715866643124755,-11.133800658897188,-0.47669251290512105
830,-0.24253980368710124,-9.356554882514915,-11.958605669163731,-0.4968521579999144
831,-0.22474760170476873,-10.006888256983816,-12.798439135946579,-0.516804120400343
832,-0.20411798937463357,-10.66366313412919,-13.64956449941916,-0.5367488670806331
833,-0.18096334399909123,-11.323572607532721,-14.508100865219335,-0.5569417806276767
834,-0.15568131080982198,-11.983248277493905,-15.370068093690683,-0.5776906553061778
835,-0.12875167128136805,-12.639303090545384,-16.23143301739913,-0.5993513176393577
836,-0.1007309595799669,-13.288374388432965,-17.08815587664942,-0.6223213735944112
837,-0.07224484966011309,-13.92716630831857,-17.93623606219961,-0.6470321429371022
838,-0.04397839695170832,-14.552490686600809,-18.771756274622675,-0.673938900172628
839,-0.016664278975866798,-15.161305648659438,-19.590924249695743,-0.7035095987474492
840,0.00893076307920158,-15.750751115268292,-20.39011125729522,-0.7362123089055747
841,0.03202102626123252,-16.31818052218782,-21.165886655751997,-0.7725016479310712
842,0.05181818761764105,-16.861188130921022,-21.91504787252201,-0.8128045227857653
843,0.0675485407943524,-17.377631403789948,-22.634645283273816,-0.8575055379133316
844,0.07847074872128311,-17.865648023031866,-23.322001572877976,-0.9069324440616353
845,0.08389370844254802,-18.323667248946578,-23.97472528093644,-0.961342016551635
846,0.08319410816249799,-18.750415433501825,-24.590718358896236,-1.020906753038325
847,0.0758332503467808,-19.144915630391132,-25.16817769281132,-1.0857027713777676
848,0.061372718685100955,-19.506481367492633,-25.705590672760042,-1.1556992679804488
849,0.03948848115557217,-19.834704770207075,-26.201725014127,-1.230749866549126
850,0.009983046338793275,-20.129439341584778,-26.655613154832682,-1.3105861472022375
851,-0.027204674777784203,-20.390777814994603,-27.06653166369722,-1.3948135977640452
852,-0.07199210452946529,-20.619025595095806,-27.433976196211486,-1.4829101737753054
853,-0.12414858124624054,-20.814670391092626,-27.757632623075157,-1.5742275930421687
854,-0.18329397677052536,-20.978348721059263,-28.03734503228053,-1.6679954259272773
855,-0.248900468620372,-21.11081002623911,-28.273081365943444,-1.7633279758216451
856,-0.32029751349234675,-21.21287917871426,-28.464897497524582,-1.859233877103141
857,-0.3966799925536976,-21.28541819411124,-28.612900582877586,-1.9546282721902868
858,-0.4771194216378028,-21.329287972783963,-28.717212529351038,-2.0483473668051557
859,-0.5605780432158679,-21.345310888230834,-28.77793442089877,-2.1391651049235856
860,-0.6459255441547,-21.334235020699502,-28.795112714069305,-2.22581165359455
861,-0.7319580760573825,-21.296700797643275,-28.76870798041691,-2.3069933440917683
862,-0.8174191955266357,-21.23321075184412,-28.698566916209057,-2.381413680675757
863,-0.9010222917629542,-21.14410304380912,-28.584398271543296,-2.447795002233862
864,-0.9814740298904441,-21.02952931893449,-28.42575326971044,-2.5049003655466153
865,-1.0574983112692646,-20.88943738357294,-28.22201099570677,-2.5515552119066043
866,-1.1278602373952196,-20.723559089352573,-27.97236913226259,-2.5866683810364526
867,-1.1913895619716404,-20.53140371379969,-27.67584031476725,-2.609252047269687
868,-1.2470031261057524,-20.31225701948447,-27.331254265196385,-2.61844017221684
869,-1.2937257936853572,-20.065186065521708,-26.937265751695474,-2.61350509503431
870,-1.3307094369184476,-19.789049736277402,-26.492368306873608,-2.59387191533047
871,-1.3572495646651948,-19.482514844459896,-25.99491352607372,-2.5591303640591403
872,-1.3727992373004454,-19.144077561224513,-25.443135658832755,-2.509043903815012
873,-1.376979969995595,-18.77208982619427,-24.83518110434723,-2.443555851043896
874,-1.3695893899809408,-18.364790296968582,-24.16914232690733,-2.3627923680054455
875,-1.3506054810109436,-17.920339312203794,-23.4430956217342,-2.267062230961029
876,-1.320187318449353,-17.43685726603319,-22.65514208697728,-2.156853341996397
877,-1.278672269734413,-16.91246572567398,-21.80345109496795,-2.0328260140527483
878,-1.2265697061350325,-16.345330569658454,-20.886305505952095,-1.8958031210270483
879,-1.164551341370484,-15.73370638220281,-19.902147830864347,-1.746757266111209
880,-1.093438379642546,-15.075981310597731,-18.849626526487786,-1.5867951807933351
881,-1.0141857188798957,-14.370721577754846,-17.727641596709148,-1.4171396231035538
882,-0.9278635136044882,-13.61671484150644,-16.535388677676362,-1.239109095739492
883,-0.835636454945837,-12.813011605986464,-15.272400802611614,-1.0540957516502292
884,-0.738741172105043,-11.95896391820266,-13.938587073825902,-0.863541895483326
885,-0.6384621991913336,-11.054260624260673,-12.534267514874841,-0.6689155230062999
886,-0.5361069830558365,-10.09895851390129,-11.060203434210427,-0.47168536624822577
887,-0.4329804308210873,-9.093508748110771,-9.517622702167776,-0.2732959288301946
888,-0.3303595095650653,-8.038778041396236,-7.908239424378709,-0.07514300310148217
889,-0.2294684144528096,-6.936064156499327,-6.234267585131961,0.12144984216336467
890,-0.13145481508342194,-5.787105363275843,-4.49842833199244,0.3152533278023461
891,-0.03736767280639296,-4.594083613465865,-2.703950676203849,0.5051526314847541
892,0.05186290554764814,-3.3596212873038644,-0.8545654900150987,0.6901652364532044
893,0.13544334922907028,-2.0867714745442454,1.045507209924283,0.8694560841761776
894,0.21273145849445138,-0.7790018597099104,2.9915775965202105,1.0423497036834393
895,0.28324806573918887,0.559827612534887,4.978511781947491,1.2083390481024416
896,-1.2006956946785572e-13,-8.265569989583291e-14,-5.5084079794481944e-14,-1.8023526679492464e-14
897,-2.573016104133593e-12,-1.8189211594902617e-12,-1.2128165781151845e-12,-2.9983754405976385e-13
898,-2.9413223377198273e-11,-2.1422191633608607e-11,-1.3911883284321029e-11,-4.2513026904284256e-12
899,-2.2445318983195198e-10,-1.6905288674058558e-10,-1.0619796310986132e-10,-4.0439903282280625e-11
900,-1.2879996424655811e-09,-1.0061792215088198e-09,-6.088018329331726e-10,-2.85147339544898e-10
901,-5.948313301921507e-09,-4.8308348331351495e-09,-2.8059678380992e-09,-1.5930411236053177e-09
902,-2.3110541600813718e-08,-1.954069004567905e-08,-1.0871295290365227e-08,-7.371659644938743e-09
903,-7.795730301018053e-08,-6.86593670620846e-08,-3.654508857656638e-08,-2.916655842970224e-08
904,-2.3379212832111535e-07,-2.143728356864341e-07,-1.0916143849106361e-07,-1.0107303164035021e-07
905,-6.349649428892009e-07,-6.053093427450001e-07,-2.951651039871569e-07,-3.1263423650083325e-07
906,-1.5849042310863466e-06,-1.567417545400309e-06,-7.332550191115394e-07,-8.764594485966496e-07
907,-3.6791272113999645e-06,-3.764507751097225e-06,-1.6938106071612779e-06,-2.2552263837720164e-06
908,-8.019992519470005e-06,-8.46438753923083e-06,-3.6743645003623597e-06,-5.38239031244389e-06
909,-1.654763965158408e-05,-1.7956311613181668e-05,-7.546611804331995e-06,-1.2020820791064268e-05
910,-3.252970354584354e-05,-3.617465272959867e-05,-1.477472009423305e-05,-2.5312570234622997e-05
911,-6.126071193614421e-05,-6.959103195789873e-05,-2.772926278651286e-05,-5.0579965162470424e-05
912,-0.00011103031898595345,-0.00012844126102055437,-5.0125412375967255e-05,-9.644240178148389e-05
913,-0.000194427376954711,-0.00022835304959439428,-8.761727899225731e-05,-0.0001763142300715793
914,-0.0003300537415761562,-0.00039243446291909953,-0.00014858141143684922,-0.0003103469260018106
915,-0.0005447267823996812,-0.0006538709253740189,-0.0002451203648036879,-0.0005278736386593806
916,-0.0008762516896354373,-0.0010590600049509092,-0.00039431090105694616,-0.000870406474553883
917,-0.0013768425116299323,-0.0016712886856662154,-0.0006197102386634734,-0.0013952267473143066
918,-0.0021172630017846045,-0.0025749282635816858,-0.0009531178098381072,-0.0021795958759488142
919,-0.003191743435275059,-0.0038800887103784313,-0.0014365699352623178,-0.0033255994651502727
920,-0.004723706523310357,-0.005727638894063298,-0.0021245220944942507,-0.004965619032974917
921,-0.006872303955083296,-0.008294463105807904,-0.0030861499812834857,-0.0072684045189581725
922,-0.009839725226627955,-0.011798789698724464,-0.00440767841643585,-0.010445695821782524
923,-0.01387919327325104,-0.01650539623506627,-0.00619462842641613,-0.014759313076237825
924,-0.019303508617939478,-0.022730469447969706,-0.008573858937495371,-0.02052860341755202
925,-0.02649394743733316,-0.030845879665995488,-0.011695271589530782,-0.028138097273966135
926,-0.03590926176733407,-0.041282620050598844,-0.015733045637737524,-0.0380451908755781
927,-0.04809447499969739,-0.05453316256216482,-0.020886274899955037,-0.05078763507472481
928,-0.06368911595126571,-0.07115249590080612,-0.027378890097600618,-0.066990575336579
929,-0.08343449311564646,-0.09175763597885973,-0.03545876746862169,-0.08737285561286737
930,-0.10817958003854439,-0.11702543629482105,-0.04539594784776296,-0.1127522716102341
931,-0.138885065701442,-0.14768857274584749,-0.05747991905952085,-0.14404943863893016
932,-0.1766251227433729,-0.18452963316951743,-0.07201594783522121,-0.18228992772009248
933,-0.22258646330987625,-0.22837330396087963,-0.08932048466172195,-0.22860432281092044
934,-0.27806428865616234,-0.28007671184274957,-0.1097157047520426,-0.2842258635547718
935,-0.3444547947999228,-0.34051804550327824,-0.1335232890798445,-0.3504853631927061
936,-0.42324397193793517,-0.4105836465782896,-0.16105758922793184,-0.42880313097251566
937,-0.5159925284203124,-0.4911538196379064,-0.1926183566033067,-0.520677682741688
938,-0.6243168783065877,-0.5830876638471126,-0.22848324832140438,-0.6276710919984904
939,-0.7498662515680685,-0.6872072724325993,-0.2689003468930483,-0.7513909155220174
940,-0.8942961138097325,-0.8042816780052767,-0.31408094719938234,-0.8934687212684863
941,-1.0592382134059768,-0.9350109407220736,-0.3641928709336235,-1.0555353494018618
942,-1.246267703311773,-1.080010781477847,-0.41935456494031403,-1.2391931474591948
943,-1.4568679075146014,-1.2397981537867269,-0.4796302253085957,-1.4459855345097923
944,-1.6923934131206355,-1.4147781264130377,-0.5450261637252943,-1.6773643629376986
945,-1.954032263593874,-1.6052324153814275,-0.6154885970388659,-1.9346556557578822
946,-2.2427681023240393,-1.8113098603677118,-0.6909029964191178,-2.2190243973089987
947,-2.5593431649300906,-2.0330190884906556,-0.7710950807696446,-2.5314391407393564
948,-2.904223041069699,-2.270223550088836,-0.855833482571566,-2.8726372621893175
949,-3.2775641208823165,-2.522639048053936,-0.944834055858908,-3.243091734960039
950,-3.6791846077360413,-2.7898338165756793,-1.037765738343287,-3.6429803142369774
951,-4.108539919109114,-3.0712311386617004,-1.1342578253871827,-4.072158012196806
952,-4.564703213708687,-3.366114426529502,-1.233908464734439,-4.530133703719363
953,-5.046351678623769,-3.6736346269345064,-1.3362941393317453,-5.016051634635617
954,-5.551759089282646,-3.9928197565709223,-1.4409798724351695,-5.52867850873117
955,-6.078795021399841,-4.322586322456395,-1.5475298652546732,-6.066396709021344
956,-6.624930952224082,-4.66175233992377,-1.655518262943617,-6.627204066735764
957,-7.187253342408931,-5.009051627376594,-1.7645397395999696,-7.208720432702521
958,-7.762483643537301,-5.3631490329198686,-1.874219596478622,-7.80820113596217
959,-8.347005032951408,-5.722656233750675,-1.9842230788851012,-8.42255723956363
960,-8.936895539597034,-6.086147745005286,-2.0942636352211976,-9.048382329872883
961,-9.52796709410271,-6.452176780615438,-2.2041098655138525,-9.681985409469977
962,-10.115809915141268,-6.819290624333047,-2.313590935858356,-10.319429310438982
963,-10.695841534267524,-7.186045193785166,-2.422600269129202,-10.956573909404135
964,-11.263359665131695,-7.551018513188875,-2.5310973607255565,-11.589123311850601
965,-11.81359804258147,-7.912822849829574,-2.6391076106531464,-12.212676083750559
966,-12.341784294892292,-8.270115313998357,-2.7467201094123066,-12.82277754479597
967,-12.843198869983212,-8.621606770093274,-2.854083364305938,-13.41497310011303
968,-13.31323401507888,-8.966068956308893,-2.961399004053965,-13.984861575954787
969,-13.747451809112915,-9.302339760131103,-3.0689135519591235,-14.528147538854208
970,-14.141640267610402,-9.629326645229922,-3.1769084100768348,-15.040691616108521
971,-14.491866579455007,-9.946008271039927,-3.285688247481002,-15.518557896969101
972,-14.794526591890213,-10.251434388352626,-3.395568033253311,-15.958057576690209
973,-15.046389732007226,-10.544724131884038,-3.506858997762209,-16.355788107063464
974,-15.244638637360989,-10.825062863443547,-3.6198538428652927,-16.70866723387635
975,-15.386902862841438,-11.091697746512526,-3.734811551892783,-17.01396142992669
976,-15.471286133477394,-11.343932254317737,-3.8519421728890175,-17.269308367532226
977,-15.496386721943987,-11.581119828592879,-3.9713919628789,-17.472733212621915
978,-15.461310644105694,-11.802656915144198,-4.093229286086414,-17.622658659466232
979,-15.365677485024117,-12.007975605318936,-4.217431654247374,-17.717908757293618
980,-15.209618790323358,-12.196536109948383,-4.343874281805453,-17.757706704317417
981,-14.993769081961997,-12.367819284813114,-4.472320502660188,-17.74166689836943
982,-14.719249681103339,-12.521319414683873,-4.602414358597567,-17.66978163412989
983,-14.387645641369506,-12.656537447069855,-4.733675623470362,-17.54240292304311
984,-14.000976210741946,-12.772974847545148,-4.865497472934425,-17.36021998214834
985,-13.561659347391945,-12.870128226577581,-4.997146948715564,-17.124232991599065
986,-13.072470911864555,-12.947484863846848,-5.1277683007572765,-16.835723757600903
987,-12.536499243915186,-13.004519230772267,-5.256389221994238,-16.496223938516028
988,-11.957095906068496,-13.040690585942986,-5.381929920662812,-16.107481498217073
989,-11.337823437116215,-13.055441691828014,-5.503214905658148,-15.671426044205141
990,-10.68240100674236,-13.048198674989115,-5.618987293067958,-15.190133690611754
991,-9.994648896391997,-13.01837202652523,-5.727925378242119,-14.665792059986025
992,-9.278432750170438,-12.965358715222713,-5.828661159228587,-14.100666004259773
993,-8.537608541611208,-12.888545363488076,-5.919800445787242,-13.497064585286266
994,-7.7759691863370355,-12.787312416156132,-5.999944145117849,-12.857309808940226
995,-6.997193696117943,-12.661039215113593,-6.067710282397999,-12.18370755364138
996,-6.2047997164929365,-12.509109878593796,-6.12175629244667,-11.478521074208938
997,-5.402100218872424,-12.330919873092627,-6.16080110911165,-10.743947395846131
998,-4.592165030888941,-12.125883158197583,-6.183646581569206,-9.982096842544713
999,-3.7777877886359383,-11.893439780308082,-6.189197761228906,-9.194975871935306
1000,-2.961458784779915,-11.633063790372553,-6.176481628375794,-8.384473317558019
1001,-2.145344070960889,-11.344271363408689,-6.1446638626603285,-7.552350072336636
1002,-1.331271054921139,-11.026629003542508,-6.093063304507758,-6.700232185638167
1003,-0.5207207156636317,-10.679761727168472,-6.021163803989441,-5.829607291883997
1004,0.28517355355560664,-10.303361127939441,-5.928623208448128,-4.941824241922717
1005,1.0856205722651078,-9.897193239860524,-5.815279299232287,-4.038095769632534
1006,1.8801596680905936,-9.461106127989632,-5.681152550484044,-3.119503995587077
1007,2.6686429308898383,-8.99503714939678,-5.526445648265074,-2.1870085468664975
1008,3.4512118001341916,-8.499019839436526,-5.351539775455302,-1.2414570566431586
1009,4.228268435279217,-7.973190389449355,-5.156987735608602,-0.283597798107813
1010,5.000442385575577,-7.417793691183472,-4.943504055826755,0.6859057965162537
1011,5.768553133882956,-6.83318893001176,-4.7119522731151235,1.666458980986634
1012,6.533569138635478,-6.219854712947672,-4.46332966904586,2.6575181504495946
1013,7.296564039288178,-5.578393718173125,-4.198749772476578,3.658572149528907
1014,8.058670723531725,-4.909536850091582,-3.9194229983773705,4.669122671047994
1015,8.821033979573462,-4.21414687787323,-3.6266358315513645,5.688663979515887
1016,9.584762474207462,-3.4932215264311863,-3.3217289964222676,6.716662190642205
1017,10.350880807578509,-2.7478959774286804,-3.0060750774622305,7.752534336455813
1018,11.120282398655759,-1.9794447251961458,-2.6810560686703604,8.795627445220642
1019,11.89368395134621,-1.189282719398389,-2.348041334266246,9.84519786642474
1020,12.671582239447504,-0.3789657139762467,-2.0083664559994348,10.900391073843528
1021,13.454213928531667,0.44981026881812625,-1.6633134249128299,11.96022218417071
1022,14.241519123459264,1.2952104588554894,-1.3140926069677168,13.02355743492763
1023,15.033109290637258,2.155263948030736,-0.9618268728314526,14.089096873007792
1024,-1.3237786286363904e-13,-5.321043096762685e-14,-3.1140880615282375e-14,-6.968610625600822e-14
1025,-2.943567500082459e-12,-1.1511344415126854e-12,-7.148505119574081e-13,-1.581842241061058e-12
1026,-3.307026112634068e-11,-1.2991650697197472e-11,-8.754378677318365e-12,-1.869033687300275e-11
1027,-2.4769418595204914e-10,-9.766946928793194e-11,-7.140319154369996e-11,-1.4785704491287903e-10
1028,-1.395978900888719e-09,-5.515832733189847e-10,-4.366103564688725e-10,-8.830217711436286e-10
1029,-6.336640077791488e-09,-2.505974096578356e-09,-2.140702670704651e-09,-4.257470032528924e-09
1030,-2.421274164577496e-08,-9.579298988105133e-09,-8.79132117091977e-09,-1.7304682086161607e-08
1031,-8.035675960939858e-08,-3.1810310810417676e-08,-3.1188349188234944e-08,-6.111700228653925e-08
1032,-2.3711765446774894e-07,-9.399989199160655e-08,-9.781835863018194e-08,-1.9181673334729223e-07
1033,-6.335129023349426e-07,-2.518526029897975e-07,-2.761717551250709e-07,-5.442879214674772e-07
1034,-1.55473453935747e-06,-6.210040372682657e-07,-7.121357561429621e-07,-1.4155096751451294e-06
1035,-3.545747295122648e-06,-1.4262126853872768e-06,-1.6971739086210573e-06,-3.411319413011934e-06
1036,-7.5859945730075974e-06,-3.080714319815476e-06,-3.775338053377763e-06,-7.687481532604475e-06
1037,-1.5343918142802118e-05,-6.308934642382022e-06,-7.904120858603828e-06,-1.6321721321487127e-05
1038,-2.9529937098365483e-05,-1.2329276785687111e-05,-1.5684549820902668e-05,-3.285641716357845e-05
1039,-5.436422256095837e-05,-2.3117274267982812e-05,-2.9676593787710508e-05,-6.305057903320825e-05
1040,-9.617081354339965e-05,-4.177265608241816e-05,-5.3815764581905145e-05,-0.00011587366254284819
1041,-0.00016410238425935346,-7.301636391746171e-05,-9.39456228091319e-05,-0.00020476238270961857
1042,-0.000270990574781785,-0.0001238448067589904,-0.00015847864211069267,-0.00034914537456648826
1043,-0.00043430576516595285,-0.00020436815103920894,-0.0002591945161923039,-0.0005762202709940173
1044,-0.0006771983013147041,-0.0003288567928288513,-0.0004121805528085559,-0.000922944964859028
1045,-0.0010295814763193088,-0.0005170150223025087,-0.0006389134025355433,-0.0014381812366496534
1046,-0.0015292061198865978,-0.0007954931176153469,-0.0009674751736468326,-0.0021849064626112977
1047,-0.0022226684626865285,-0.00119963874919863,-0.0014338901622836112,-0.0032423896793337347
1048,-0.003166287874422488,-0.0017754759070600036,-0.002083561169414219,-0.004708213624728057
1049,-0.004426789797267022,-0.002581885059063588,-0.0029727769148769493,-0.00670001595495006
1050,-0.006081732188929625,-0.0036929425609235167,-0.004170254709627274,-0.009356821679084927
1051,-0.00821962128194032,-0.005200361264711597,-0.005758675729651625,-0.012839845473743988
1052,-0.010939674383888556,-0.007215958708800846,-0.007836164436133988,-0.017332656907346256
1053,-0.014351203402918416,-0.009874065166289686,-0.01051765936875405,-0.02304062315031584
1054,-0.018572612128177915,-0.013333772119488484,-0.013936120036700157,-0.03018957142208655
1055,-0.02373002212642856,-0.017780913274369158,-0.018243514091078498,-0.03902364577990534
1056,-0.029955565290324927,-0.023429665746304163,-0.02361153034763264,-0.04980236815292699
1057,-0.03738540423025578,-0.03052365906012788,-0.030231966376250256,-0.06279694987237691
1058,-0.046157563371049516,-0.0393364844214343,-0.03831674405518474,-0.07828593542738034
1059,-0.05640967238743538,-0.05017150641783676,-0.048097512461105565,-0.09655029298038796
1060,-0.06827673826620036,-0.06336089376177527,-0.05982480450874003,-0.11786809471758018
1061,-0.08188907182346304,-0.07926380453004694,-0.07376672167651434,-0.14250895308663145
1062,-0.09737049815070535,-0.09826368401433165,-0.09020712979445818,-0.1707283954010446
1063,-0.11483697766734667,-0.12076465900747865,-0.10944335807585721,-0.20276236850994672
1064,-0.13439575498110806,-0.14718704020483298,-0.13178340319958745,-0.23882206691887745
1065,-0.1561451367246104,-0.1779619733996359,-0.1575426501733653,-0.27908927190730476
1066,-0.18017497741927607,-0.2135253092539804,-0.18704013185498544,-0.3237123761443519
1067,-0.2065679249743592,-0.25431078958439524,-0.22059435935926364,-0.37280324865885855
1068,-0.2354014456678519,-0.3007426742953064,-0.25851876613987385,-0.42643506960197636
1069,-0.26675061364140956,-0.3532279563687473,-0.3011168192870639,-0.4846412340444458
1070,-0.3006916135803384,-0.4121483318144051,-0.34867686242590845,-0.5474153901744091
1071,-0.33730586900085174,-0.4778521064647125,-0.4014667653373496,-0.6147126408528955
1072,-0.37668467409711265,-0.5506462313755602,-0.4597284657709952,-0.6864518996893183
1073,-0.41893417596942945,-0.6307886629359829,-0.5236724985344994,-0.7625193547299173
1074,-0.46418052766885554,-0.7184812423430367,-0.5934726154609127,-0.8427729555695842
1075,-0.512575012079096,-0.8138632817856548,-0.6692606068825411,-0.927047804220757
1076,-0.5642989231960412,-0.9170060316183839,-0.7511214403532143,-1.0151622973935226
1077,-0.619567985502397,-1.0279081843031659,-0.8390888350929873,-1.1069248389256345
1078,-0.6786360941335874,-1.1464925474565946,-0.9331413904896787,-1.2021409168760924
1079,-0.7417981683174664,-1.2726039906394027,-1.0331993835284883,-1.3006203211080642
1080,-0.8093919278135161,-1.4060087393935299,-1.1391223429066901,-1.40218426476085
1081,-0.881798426230794,-1.5463950564204096,-1.2507074967006304,-1.5066721674081947
1082,-0.9594412054078675,-1.6933753147399278,-1.3676891759061778,-1.61394785929749
1083,-1.0427839705372888,-1.84648943226052,-1.4897392383259653,-1.7239049750350308
1084,-1.1323267253344114,-2.0052096025228754,-1.616468556665977,-1.836471321392673
1085,-1.2286003491568316,-2.1689462235090997,-1.7474295919826457,-1.9516120273106212
1086,-1.3321596424032467,-2.3370548963039943,-1.8821200494887445,-2.0693313141902743
1087,-1.4435749114894452,-2.5088443388895656,-2.0199875888851873,-2.1896727605229485
1088,-1.563422208830993,-2.683585038116395,-2.160435536528405,-2.312717975897665
1089,-1.692272385132918,-2.860518445416045,-2.302829522550086,-2.4385836444094307
1090,-1.8306791495540906,-3.0388665094164167,-2.446504943178061,-2.5674169452377176
1091,-1.9791663668004984,-3.217841331466335,-2.5907751275709243,-2.6993894073464704
1092,-2.1382148479067626,-3.396654728214781,-2.7349400699809685,-2.834689304431245
1093,-2.308248912572902,-3.5745274887746437,-2.878295572373106,-2.9735127438857174
1094,-2.4896230148512073,-3.750698122503335,-3.020142629999466,-3.116053648125738
1095,-2.682608730444858,-3.9244309068542016,-3.1597968830281795,-3.2624928665798922
1096,-2.8873824029044437,-4.09502306282137,-3.296597951294839,-3.4129866906353565
1097,-3.1040137378308073,-4.261810907859751,-3.4299184667424947,-3.567655070616685
1098,-3.332455619181749,-4.424174862355718,-3.559172619308516,-3.726569852520586
1099,-3.572535400414556,-4.581543215186823,-3.683824037046263,-3.889743362061544
1100,-3.8239478960913225,-4.7333945859583,-3.803392830206972,-4.057117664222035
1101,-4.086250267485545,-4.879259055339076,-3.9174616418167862,-4.228554817853352
1102,-4.358858959483137,-5.018717969629345,-4.025680563821458,-4.403828427107416
1103,-4.641048806482401,-5.151402460275874,-4.127770797907245,-4.582616765000432
1104,-4.931954382839614,-5.27699075245821,-4.223526963355676,-4.764497709830756
1105,-5.230573629451481,-5.3952043680522115,-4.312817980415916,-4.948945693309859
1106,-5.535773743112612,-5.505803356259209,-4.395586486262958,-5.135330811130431
1107,-5.846299270146328,-5.608580709129403,-4.4718467710914,-5.322920193506799
1108,-6.160782301267323,-5.703356138453842,-4.541681253518239,-5.510881676393619
1109,-6.477754621466078,-5.7899694046134345,-4.605235546282222,-5.698289755201546
1110,-6.795661627709945,-5.868273396725536,-4.662712194151254,-5.8841337435786265
1111,-7.112877789288455,-5.938127166768697,-4.714363194895625,-6.0673280019486935
1112,-7.427723391539795,-5.999389118384438,-4.7604814402062425,-6.246724045692076
1113,-7.738482274243351,-6.05191054394733,-4.801391235851336,-6.421124292707831
1114,-8.043420251787856,-6.095529691541732,-4.837438078824984,-6.589297166040029
1115,-8.340803883881724,-6.130066527045047,-4.868977883727669,-6.749993230514274
1116,-8.6289192535808,-6.155318336041228,-4.896365861356729,-6.901962013930909
1117,-8.906090404247944,-6.171056286328007,-4.919945259804173,-7.043969144084907
1118,-9.170697089114123,-6.177023045010412,-4.940036182565671,-7.174813423279553
1119,-9.421191496642669,-6.172931515382682,-4.956924699449801,-7.293343462376135
1120,-9.656113632049953,-6.158464728877684,-4.970852464508422,-7.398473506827193
1121,-9.874105060140717,-6.1332768972452705,-4.982007050772066,-7.489198107362772
1122,-10.073920746944673,-6.0969956007454815,-4.99051320422287,-7.564605317548076
1123,-10.254438777113188,-6.049225060390388,-4.99642520912586,-7.6238881385372785
1124,-10.414667769976829,-5.9895504169256775,-4.999720543517802,-7.666353976975228
1125,-10.553751868641372,-5.917542916974336,-5.000294987262206,-7.691431933865749
1126,-10.67097323237493,-5.832765888094843,-4.997959325555668,-7.698677798843699
1127,-10.765752021491434,-5.734781369814382,-4.99243776807071,-7.687776683996788
1128,-10.837643924439794,-5.6231572572091375,-4.983368178045824,-7.6585432923860335
1129,-10.886335337145892,-5.497474807391231,-4.970304176656542,-7.610919876830563
1130,-10.911636363000616,-5.3573363572475365,-4.952719156083271,-7.544972002457302
1131,-10.9134718564227,-5.202373102741073,-4.930012200107472,-7.460882280143751
1132,-10.891870781901785,-5.032252795688005,-4.901515874232106,-7.358942285637007
1133,-10.846954202192912,-4.8466872227181215,-4.866505808804407,-7.2395429193916785
1134,-10.778922242376314,-4.645439342592325,-4.824211959139954,-7.103163493912222
1135,-10.688040399564022,-4.428329971613381,-4.773831387063727,-6.950359857838062
1136,-10.574625580267165,-4.195243921923293,-4.714542369570322,-6.781751878760155
1137,-10.439032248430268,-3.9461355134165985,-4.645519603541583,-6.598010609756789
1138,-10.281639056906718,-3.6810333962051374,-4.565950241819892,-6.3998454581684845
1139,-10.102836314072034,-3.4000446364609664,-4.4750504666602895,-6.187991659778855
1140,-9.903014606084811,-3.1033580335060944,-4.372082282921357,-5.963198338162296
1141,-9.68255485513075,-2.7912466497601693,-4.2563701964555705,-5.726217398555388
1142,-9.441820046314293,-2.4640695472692005,-4.127317433966586,-5.4777934694546815
1143,-9.181148802466641,-2.1222727348338,-3.9844213597505393,-5.21865506465561
1144,-8.90085092895661,-1.7663893382029578,-3.8272877525114333,-4.94950709516332
1145,-8.60120499165275,-1.397039012509141,-3.655643621758677,-4.671024815927519
1146,-8.282457932569757,-1.0149266213178265,-3.469348267745603,-4.383849248270105
1147,-7.944826671484969,-0.6208402106488358,-3.268402320786768,-4.088584076687563
1148,-7.588501589806389,-0.21564830942778826,-3.052954534163374,-3.7857939797538394
1149,-7.2136517467792505,0.19970340964556066,-2.8233061486009143,-3.4760043202227235
1150,-6.820431638940169,0.6241960726184723,-2.5799126943316404,-3.159702089954019
1151,-6.4089892824158365,1.0567421119546112,-2.3233831479112004,-2.837337981492203
1152,-5.6837883088241877e-14,-1.727205588282527e-14,-9.99457370740696e-15,-5.790634802477592e-14
1153,-1.1764546306805794e-12,-3.6173942126543877e-13,-1.98942721698754e-13,-1.2619692140567617e-12
1154,-1.3039541499113622e-11,-4.29028835212942e-12,-2.6508409122268953e-12,-1.5027956920983988e-11
1155,-9.655535821047535e-11,-3.4188349975286975e-11,-2.3676920683253042e-11,-1.1979879190654187e-10
1156,-5.383593631518046e-10,-2.056256448923833e-10,-1.5812356816294541e-10,-7.191168848763182e-10
1157,-2.4221510196705546e-09,-9.981339206910732e-10,-8.437154383251406e-10,-3.4766800364195324e-09
1158,-9.205131092170152e-09,-4.0837127902846965e-09,-3.75664805721955e-09,-1.4141707271349274e-08
1159,-3.053758760849908e-08,-1.4518077475939671e-08,-1.4395220552960267e-08,-4.990834658456798e-08
1160,-9.06511159149887e-08,-4.587473420237976e-08,-4.8588501290669185e-08,-1.5636429594175793e-07
1161,-2.454304931263973e-07,-1.3110762004677648e-07,-1.4710618180911344e-07,-4.426943003541156e-07
1162,-6.1504620621608e-07,-3.436266961354485e-07,-4.053628343632364e-07,-1.148685328181032e-06
1163,-1.4429356338385806e-06,-8.352647465470212e-07,-1.028862724188487e-06,-2.7631065144941726e-06
1164,-3.196940411150329e-06,-1.900430664305146e-06,-2.4292736023359916e-06,-6.219870964662319e-06
1165,-6.734238482928956e-06,-4.078632247908003e-06,-5.3804056868930995e-06,-1.3205494715571507e-05
1166,-1.3557860722348286e-05,-8.310479512270179e-06,-1.1257326528534935e-05,-2.6618062860208668e-05
1167,-2.6198460800698802e-05,-1.6164951343613804e-05,-2.238475053947927e-05,-5.1223412088809095e-05
1168,-4.875996551249697e-05,-3.0157784058174352e-05,-4.2522164355203326e-05,-9.455773582122513e-05
1169,-8.767107812717684e-05,-5.4181966142279564e-05,-7.751250381017048e-05,-0.00016812655130564957
1170,-0.00015268563885735152,-9.407116202908655e-05,-0.00013611839835428452,-0.00028894728627196063
1171,-0.00025817295264442714,-0.0001583151491088661,-0.00023106504694469861,-0.0004814761669961913
1172,-0.0004247339566357668,-0.0002589428228526668,-0.00038030184236685047,-0.0007799493704922407
1173,-0.0006811703362700999,-0.0004125828989963553,-0.0006084861837646206,-0.0012311535687703915
1174,-0.001066821448091012,-0.0006417051484735415,-0.0009486828430249345,-0.0018976223740969442
1175,-0.0016342684176352804,-0.0009760360238812708,-0.001444261153095793,-0.0028612334296346928
1176,-0.0024523865434105405,-0.0014541322164640519,-0.0021509605627865434,-0.004227156904611584
1177,-0.0036097069194576817,-0.0021250845015886796,-0.003139083165518434,-0.006128081112912679
1178,-0.005218026989707397,-0.003050312777705617,-0.004495760082045339,-0.008728616209260413
1179,-0.0074161886893854044,-0.00430540213284242,-0.006327227496248236,-0.012229753821117689
1180,-0.010373923047398512,-0.005981919757855939,-0.008761038167034779,-0.016873240390688833
1181,-0.014295642717983028,-0.00818914421828594,-0.011948125849578642,-0.022945706123650156
1182,-0.019424049921476377,-0.011055632584522758,-0.016064633744966222,-0.03078238074181385
1183,-0.026043417622279588,-0.014730547687430604,-0.021313414320113203,-0.04077022242093991
1184,-0.034482397141606,-0.019384667658165995,-0.027925106988134114,-0.05335028777405687
1185,-0.04511620615644496,-0.025211003103611237,-0.036158702491974566,-0.06901917861886438
1186,-0.05836805721954893,-0.0324249537587163,-0.04630150854322251,-0.08832941534438721
1187,-0.07470969834056616,-0.04126394606248872,-0.058668440357957194,-0.11188860648451743
1188,-0.09466095338190049,-0.05198650548370155,-0.07360057210367041,-0.1403573088932243
1189,-0.11878817042381845,-0.06487073209952134,-0.09146290070966612,-0.17444550179164228
1190,-0.14770151002482415,-0.08021216432414828,-0.11264129167634983,-0.21490762988976125
1191,-0.1820510315090691,-0.09832103313888889,-0.13753859703771507,-0.2625362046829368
1192,-0.2225215631136932,-0.11951892698989294,-0.16656995800733274,-0.318153987800331
1193,-0.26982637015785466,-0.14413490498806739,-0.2001573285269106,-0.3826048149209064
1194,-0.32469966355767094,-0.17250111249734096,-0.23872328032125498,-0.456743152365522
1195,-0.38788801827583874,-0.20494796804778745,-0.2826841744469519,-0.5414225102426097
1196,-0.46014079703394334,-0.24179900330173035,-0.332442807928409,-0.6374828653163755
1197,-0.5421996983800141,-0.28336544822756593,-0.38838066606785504,-0.7457372730388668
1198,-0.6347875697404143,-0.3299406615396736,-0.45084993053499395,-0.8669578709943917
1199,-0.7385966452567815,-0.3817945118072859,-0.5201654095582791,-1.001861494979889
1200,-0.8542763848754719,-0.43916781746551536,-0.5965965687231772,-1.1510951437817527
1201,-0.9824211051164883,-0.5022669543652699,-0.6803598484643948,-1.315221539149739
1202,-1.123557602962874,-0.5712587375809128,-0.7716114569419124,-1.4947050333008471
1203,-1.2781329821580791,-0.6462656800755074,-0.870440824420211,-1.6898981173679508
1204,-1.446502895684248,-0.7273617246496124,-0.9768648974755602,-1.9010287804969992
1205,-1.6289204191371383,-0.8145685375562519,-1.0908234383932742,-2.128188960880087
1206,-1.825525766952975,-0.9078524424787432,-1.2121754771285909,-2.3713243171183036
1207,-2.0363370568857606,-1.0071220624965187,-1.3406970404264884,-2.630225531301294
1208,-2.261242317786267,-1.1122267254742244,-1.4760802554772103,-2.9045213345402994
1209,-2.499992921679338,-1.2229556752596225,-1.6179338943276185,-3.193673421935244
1210,-2.7521986034938637,-1.3390381174051635,-1.7657853908704753,-3.4969733976480066
1211,-3.017324210733667,-1.4601441140579143,-1.919084325516818,-3.813541862417787
1212,-3.2946883011566372,-1.5858863284090254,-2.077207334768831,-4.142329725951345
1213,-3.5834636795718033,-1.7158226048822391,-2.2394643651872697,-4.482121795536523
1214,-3.882679935696473,-1.8494593573141693,-2.405106155137173,-4.831542660276979
1215,-4.191228014178686,-1.9862557239942977,-2.573332794663539,-5.189064857792695
1216,-4.507866815874795,-2.1256284358491953,-2.743303185268439,-5.553019277303228
1217,-4.83123179672933,-2.2669573325177197,-2.914145198406892,-5.921607719922701
1218,-5.159845497580274,-2.4095914507844833,-3.0849663150658286,-6.292917503957282
1219,-5.492129905341245,-2.5528556009803762,-3.254864519333625,-6.664937970227143
1220,-5.826420513670338,-2.6960573396174423,-3.422939216483353,-7.035578710182341
1221,-6.16098191974195,-2.8384942407155394,-3.5883019504574776,-7.402689308147096
1222,-6.494024763417629,-2.9794613639305405,-3.750086706109969,-7.76408035880664
1223,-6.823723786379686,-3.1182588145677608,-3.9074595972777355,-8.117545492568874
1224,-7.148236762167618,-3.2541992886793496,-4.059627761763188,-8.46088411534646
1225,-7.465724024114242,-3.3866154955202705,-4.205847307658869,-8.791924546368088
1226,-7.774368297481236,-3.514867349533392,-4.345430181254,-9.108547218625576
1227,-8.072394525195929,-3.6383488246788294,-4.477749854278709,-9.408707592233752
1228,-8.358089364052494,-3.7564943653307825,-4.6022457568495785,-9.690458421959018
1229,-8.629820020618949,-3.86878475024135,-4.7184264116615156,-9.951971016967788
1230,-8.886052093899206,-3.974752309401504,-4.825871254218468,-10.191555133848844
1231,-9.12536609548904,-4.073985398266156,-4.924231152629871,-10.40767715346706
1232,-9.346472327964035,-4.166132040042784,-5.013227668034735,-10.59897620842378
1233,-9.548223818985443,-4.2509026548649755,-5.092651122289692,-10.76427795096885
1234,-9.729627032520956,-4.328071804941905,-5.162357562418911,-10.902605681173267
1235,-9.889850109916203,-4.397478897377159,-5.2222647308238095,-11.013188591948117
1236,-10.028228432310636,-4.459027801367247,-5.272347165917303,-11.095466930840699
1237,-10.14426734173874,-4.512685353879749,-5.312630569422451,-11.149093928019445
1238,-10.237641910559734,-4.558478747495389,-5.3431855840162195,-11.173934394834339
1239,-10.308193706690501,-4.596491815557576,-5.3641211284577555,-11.17005995696287
1240,-10.355924564238707,-4.6268602526482425,-5.375577437136314,-11.137740949373855
1241,-10.380987434002426,-4.6497658321118545,-5.377718947554912,-11.077435065930993
1242,-10.383674454153386,-4.665429706189045,-5.370727173168191,-10.989772923027306
1243,-10.364402446412964,-4.674104897538054,-5.35479369079354,-10.875540762689287
1244,-10.323696105355067,-4.67606811273638,-5.330113362096472,-10.735660584549473
1245,-10.262169206391949,-4.671611028015573,-5.296877897988579,-10.571168056369805
1246,-10.180504209858581,-4.661031214310309,-5.255269863727649,-10.383188607834406
1247,-10.079430682883245,-4.6446228821279885,-5.205457211594587,-10.172912160610961
1248,-9.959702996127268,-4.62266763632713,-5.147588417665909,-9.941566987815502
1249,-9.822077778024843,-4.5954254363370755,-5.0817882896568305,-9.690393226801458
1250,-9.667291624204461,-4.563125958508406,-5.008154504098284,-9.42061658966508
1251,-9.496039563959355,-4.5259605541402825,-4.926754923003097,-9.133422825319037
1252,-9.308954778855751,-4.484074989389741,-4.837625732246409,-8.829933485006967
1253,-9.10659005102124,-4.437563141923273,-4.740770435614942,-8.511183529539322
1254,-8.889401390817211,-4.386461814083311,-4.636159729391271,-8.178101291386092
1255,-8.657734256142085,-4.330746803814481,-4.523732272117813,-7.831491268339122
1256,-8.411812729283394,-4.270330352950313,-4.403396352743053,-7.472020178228846
1257,-8.151731962820952,-4.205060068038919,-4.275032447823216,-7.100206646808547
1258,-7.877454144463498,-4.134719382045923,-4.138496645114144,-6.716414834253122
1259,-7.588808162950844,-4.05902959641288,-3.993624897062504,-6.320852230809442
1260,-7.285493084554642,-3.9776535125202908,-3.8402380536848693,-5.913571770248549
1261,-6.967085473687382,-3.8902006301090886,-3.6781476103520427,-5.49447832239072
1262,-6.633050513179345,-3.7962338582006123,-3.507162092303641,-5.063339534787225
1263,-6.282756801440307,-3.6952776521016957,-3.3270939845651943,-4.619800900496542
1264,-5.9154946265301565,-3.5868274587909,-3.137767103644708,-4.163404835751776
1265,-5.530497442607469,-3.470360322971845,-2.9390242963166577,-3.6936134602099027
1266,-5.126966203653879,-3.3453464779781013,-2.7307353413400945,-3.209834685446124
1267,-4.7040961439705935,-3.2112617201566684,-2.5128049224501394,-2.7114511364260956
1268,-4.261105535797931,-3.067600342982683,-2.2851805356787964,-2.197851357808074
1269,-3.7972659025956235,-2.9138883886033846,-2.0478601911803582,-1.6684626939448737
1270,-3.3119331231226687,-2.7496969603942145,-1.8008997693514617,-1.122785180064713
1271,-2.8045788275027332,-2.5746553310113267,-1.5444198931649853,-0.5604257437838147
1272,-2.2748214628727657,-2.3884635768463505,-1.2786121832287736,0.018868007970439138
1273,-1.7224563937764505,-2.190904472123622,-1.0037447690075527,0.6151751505253794
1274,-1.1474844018321904,-1.9818543843689431,-0.72016693871078,1.228370678839671
1275,-0.5501379608342227,-1.7612929276679083,-0.4283128213018435,1.8580973258195648
1276,0.0690953125015724,-1.5293111508352424,-0.1287040066657697,2.503740629233609
1277,0.7094525956458737,-1.286118063902783,0.17804897604687836,3.164407862850435
1278,1.369879700676143,-1.0320453375463652,0.4912463866791217,3.8389113818805116
1279,2.0490192743453814,-0.7675500453761259,0.8101002574042335,4.525756855103917
1280,-5.5093959427368736e-14,-2.059783199620849e-14,-3.6635618320083205e-14,-8.71267429546317e-14
1281,-1.1020759756535003e-12,-4.276809757045077e-13,-8.270312664620791e-13,-1.910322814757434e-12
1282,-1.2527744724555129e-11,-5.098873206325201e-12,-9.946534118590976e-12,-2.2620915617312496e-11
1283,-9.56107019498059e-11,-4.0807849323744525e-11,-7.993185771833976e-11,-1.7921358014160406e-10
1284,-5.514768786986607e-10,-2.463003533613014e-10,-4.830017240558777e-10,-1.069379662317932e-09
1285,-2.5753801154567464e-09,-1.1991378381264067e-09,-2.346660305569955e-09,-5.1412408245550105e-09
1286,-1.0187644058465492e-08,-4.919996911366175e-09,-9.572803428777907e-09,-2.0804773772914762e-08
1287,-3.524334087088856e-08,-1.754482725578583e-08,-3.380435029600487e-08,-7.307963048921873e-08
1288,-1.0915422849006283e-07,-5.563976999965914e-08,-1.0571757975893423e-07,-2.2799847373923852e-07
1289,-3.0804588077227704e-07,-1.5971748082020563e-07,-2.980269375553152e-07,-6.43090783659872e-07
1290,-8.02815310599124e-07,-4.208388439229749e-07,-7.681638481343633e-07,-1.6631453265613907e-06
1291,-1.952148359191682e-06,-1.0293236608686423e-06,-1.8313707287947846e-06,-3.988881904912298e-06
1292,-4.464862365024096e-06,-2.3585021518371818e-06,-4.077608499882316e-06,-8.955626476706482e-06
1293,-9.667451283923832e-06,-5.100914846237148e-06,-8.547894330370873e-06,-1.8968759547868034e-05
1294,-1.9922637811430857e-05,-1.0479044808069228e-05,-1.698721343950681e-05,-3.815156576799591e-05
1295,-3.925411563067041e-05,-2.0557030502470355e-05,-3.219181260216266e-05,-7.326801426603622e-05
1296,-7.424042103407632e-05,-3.868324525267823e-05,-5.846838710515897e-05,-0.00013498680237297264
1297,-0.00013524587467062747,-7.009548379209316e-05,-0.00010222137962453164,-0.0002395526556535547
1298,-0.00023805768365653125,-0.00012272014186894199,-0.0001726823135173803,-0.0004109255452115501
1299,-0.0004059946747077137,-0.00020819369803202993,-0.0002827917803875055,-0.0006834376055934428
1300,-0.0006725441183804804,-0.00034312868698617395,-0.00045024037000410686,-0.0011050009406187926
1301,-0.0010845684087441832,-0.0005506371238413367,-0.0006986694388878336,-0.001740877449921762
1302,-0.001706102991243437,-0.000862112207019461,-0.001059026166428926,-0.00267799498493757
1303,-0.0026227412077104626,-0.0013192545632468907,-0.001571059943383647,-0.004029763619441159
1304,-0.003946571348989754,-0.0019763129808357204,-0.0022849390142333646,-0.0059413129642735645
1305,-0.005821597290694547,-0.0029024923356581883,-0.0032629578282514673,-0.008595037840009936
1306,-0.008429538124903163,-0.004184464161261859,-0.004581297212880834,-0.012216306920620314
1307,-0.011995865921678887,-0.005928898995226792,-0.006331791755759212,-0.017079158857611715
1308,-0.01679590600342082,-0.008264925181523455,-0.008623652106471516,-0.023511784483871007
1309,-0.02316079276720023,-0.011346407108932985,-0.011585084626463979,-0.03190157340794832
1310,-0.03148304798123861,-0.015353927722417197,-0.015364747154756242,-0.04269948984247672
1311,-0.04222152929498014,-0.020496356241998144,-0.020132977751556105,-0.05642353678930655
1312,-0.055905485834333586,-0.02701188288743929,-0.02608273320349341,-0.07366107035041389
1313,-0.0731374562231353,-0.03516840836377651,-0.03343017586926225,-0.095069737250897
1314,-0.09459475281348222,-0.04526318701213335,-0.04241485115474175,-0.12137682863754871
1315,-0.1210292945936223,-0.05762163872869981,-0.053299403562226455,-0.1533768715451384
1316,-0.1532655800718029,-0.07259526561647368,-0.0663687868456544,-0.19192731552520492
1317,-0.1921966298887345,-0.0905586342459264,-0.08192893322774937,-0.23794221499016635
1318,-0.23877777605119088,-0.11190541255114521,-0.10030485769917145,-0.2923838568090079
1319,-0.2940182292163557,-0.13704348080961487,-0.12183818582919896,-0.35625233638203413
1320,-0.3589704158499933,-0.16638916776949012,-0.14688410689946907,-0.43057314243533606
1321,-0.4347171415746602,-0.20036069465332873,-0.175807768105267,-0.5163828695649981
1322,-0.5223567036252921,-0.23937094030427924,-0.20898013961726766,-0.6147132364288539
1323,-0.6229861418153939,-0.28381966896844374,-0.24677339404992252,-0.7265736445983569
1324,-0.7376828814254901,-0.33408538697191137,-0.2895558569902823,-0.8529325665251226
1325,-0.8674850806114845,-0.39051701476853806,-0.33768659743394547,-0.9946980989203703
1326,-1.013371047100524,-0.4534255755452162,-0.3915097380653328,-1.1526980582686295
1327,-1.1762381321454503,-0.5230761100086715,-0.45134857517888677,-1.3276600266025855
1328,-1.3568815423250635,-0.5996800286376235,-0.5174996065568802,-1.520191776788604
1329,-1.5559735306382956,-0.6833881073806891,-0.5902265726654174,-1.73076251655962
1330,-1.7740434368343123,-0.7742843206715295,-0.6697546219154659,-1.9596853889837902
1331,-2.011459042998666,-0.8723806872097829,-0.756264714216394,-2.2071016540294486
1332,-2.2684096944860936,-0.97761327999813,-0.8498883783542204,-2.4729669518522512
1333,-2.544891609095303,-1.089839523629447,-0.9507029376020356,-2.7570400142162157
1334,-2.840695759929001,-1.2088368699160281,-1.058727314218261,-3.058874147170247
1335,-3.1553986709302406,-1.3343029088316565,-1.1739185169905757,-3.377811757039658
1336,-3.48835641007675,-1.4658569365634477,-1.2961689067147644,-3.7129821343831755
1337,-3.8387020051527503,-1.6030429673343771,-1.4253043225451767,-4.063302648282438
1338,-4.205346442339678,-1.7453341415375034,-1.5610831377260197,-4.427483437621605
1339,-4.586983339909153,-1.89213845047033,-1.703196296634265,-4.804035618258959
1340,-4.982097319341911,-2.042805668299443,-1.8512683667455099,-5.191282956483117
1341,-5.388976025507307,-2.196635355436727,-2.0048596195299493,-5.587376891103621
1342,-5.8057256773671035,-2.3528857747860727,-2.163469133858276,-5.990314720119026
1343,-6.230289962185524,-2.5107835437449935,-2.3265388946791865,-6.3979607042653015
1344,-6.660472020510923,-2.6695338307339687,-2.493458838907849,-6.808069779958154
1345,-7.0939592072434685,-2.828330895565085,-2.663572779991295,-7.218313519220531
1346,-7.5283502568610885,-2.986368768191824,-2.836185122856533,-7.626307925058939
1347,-7.961184429187348,-3.142851860191624,-3.010568262334091,-8.029642608245169
1348,-8.389972166652454,-3.2970053074707977,-3.185970541226376,-8.42591085629913
1349,-8.812226755396367,-3.4480848507889807,-3.361624629597691,-8.812740078286984
1350,-9.225496451329906,-3.5953860723561832,-3.5367561752692454,-9.18782209040737
1351,-9.627396508994263,-3.738252821515898,-3.7105925674917812,-9.548942697739212
1352,-10.015640536393724,-3.8760846799521493,-3.8823716517305886,-9.894010027419858
1353,-10.388070593576861,-4.008343336513032,-4.051350233562203,-10.221081078297503
1354,-10.742685457217847,-4.134557763196994,-4.216812213716891,-10.52838597203935
1355,-11.077666488358226,-4.254328106668729,-4.378076203962519,-10.814349420910707
1356,-11.391400566307905,-4.367328233436509,-4.5345024843410995,-11.077608967919677
1357,-11.682499588846273,-4.473306891139083,-4.685499175726816,-11.317029605485804
1358,-11.949816087461718,-4.572087472912451,-4.830527517297821,-11.53171443875246
1359,-12.192454566273458,-4.66356639624365,-4.969106155911322,-11.721011128390748
1360,-12.40977824404627,-4.747710131824045,-5.100814373235756,-11.884513924249275
1361,-12.60141095960893,-4.824550941469294,-5.225294196559617,-12.022061184247244
1362,-12.767234090987692,-4.894181406961453,-5.3422513601705575,-12.13372836101138
1363,-12.907378436268408,-4.956747853456109,-5.451455105701286,-12.219816530235345
1364,-13.022211107817082,-5.01244279161135,-5.552736831401014,-12.280836627729958
1365,-13.11231759890807,-5.061496521512639,-5.645987621398712,-12.317489654621257
1366,-13.178479290689257,-5.104168058414466,-5.731154706200419,-12.330643200008039
1367,-13.221646775235172,-5.140735554886711,-5.8082369245311085,-12.321304715407718
1368,-13.242909474495951,-5.171486405724202,-5.87727927395343,-12.290592053280385
1369,-13.243462132369343,-5.196707230560154,-5.938366653356756,-12.239701850654923
1370,-13.224568844956009,-5.216673934182322,-5.991616914381541,-12.169876396337736
1371,-13.187525369437282,-5.231642045822792,-6.037173351115021,-12.082369664522659
1372,-13.133620512284315,-5.241837536001657,-6.075196767908423,-11.978413227300853
1373,-13.064097440324938,-5.247448302761263,-6.10585727377636,-11.859182772455885
1374,-12.980115781636732,-5.24861650833933,-6.129325958310256,-11.72576595035753
1375,-12.882715385951833,-5.245431932615393,-6.145766608092626,-11.5791322546018
1376,-12.772782595615443,-5.2379264912708905,-6.155327623991309,-11.420105605687354
1377,-12.651019838263634,-5.226070044901192,-6.158134298298361,-11.249340256385775
1378,-12.517919292085624,-5.2097676007907285,-6.154281606454387,-11.067300572912963
1379,-12.373741295200306,-5.188857982278316,-6.143827661199376,-10.874245169236024
1380,-12.218498074209048,-5.163114012223342,-6.12678796764712,-10.6702157847735
1381,-12.051943255791274,-5.132244227694638,-6.103130606268633,-10.45503120041069
1382,-11.873567502128086,-5.0958961133153515,-6.072772457372232,-10.228286386247953
1383,-11.682600479115862,-5.05366081137219,-6.0355765656537335,-9.989356968927408
1384,-11.478019229041573,-5.0050792384625495,-5.991350727013015,-9.73740899883154
1385,-11.258562879940664,-4.9496495116781185,-5.9398473623248655,-9.471413890004087
1386,-11.02275348553883,-4.886835562612662,-5.880764724398257,-9.19016830041602
1387,-10.768922655734867,-4.816076795273722,-5.81374946506636,-8.89231861931261
1388,-10.495243511111996,-4.736798624655809,-5.738400569228691,-8.57638963394605
1389,-10.199767378811918,-4.648423716623053,-5.654274641643008,-8.24081686205736
1390,-9.880464543787793,-4.550383737120801,-5.560892510235086,-7.883981960886837
1391,-9.53526828114185,-4.442131409780691,-5.457747086606967,-7.504250559876578
1392,-9.162121323756516,-4.323152675802236,-5.3443124003627664,-7.100011813872572
1393,-8.7590238661136,-4.192978748572194,-5.220053699112195,-6.669718937466599
1394,-8.324082170934656,-4.051197857688928,-5.0844384810378465,-6.211929959693807
1395,-7.855556830441654,-3.8974664826573084,-4.936948302364461,-5.725347931819429
1396,-7.351909738588476,-3.7315198852026636,-4.7770911786751915,-5.2088598292885555
1397,-6.811848854159537,-3.55318176057925,-4.604414377528556,-4.661573411673297
1398,-6.23436987642622,-3.362372842077033,-4.4185173809817915,-4.082851340964197
