,TP9,AF7,AF8,TP10
0,-3.1015195884178745e-14,-3.370665247428255e-14,-4.062794323290289e-14,-4.229830263306388e-14
1,-6.330482774540104e-13,-7.02541830584572e-13,-8.520844854502035e-13,-8.914544503072596e-13
2,-7.712762504853217e-12,-8.429824892309162e-12,-1.0131412910839342e-11,-1.0504902695390722e-11
3,-6.323268611972337e-11,-6.79151203404913e-11,-8.078189020190101e-11,-8.302160398103674e-11
4,-3.9084322138309374e-10,-4.123135779594742e-10,-4.854196402632802e-10,-4.946518381340895e-10
5,-1.9461626587948964e-09,-2.0170157636146948e-09,-2.3510132930874654e-09,-2.3769034316431377e-09
6,-8.149502879371799e-09,-8.30459614554851e-09,-9.587039065561648e-09,-9.624036764399783e-09
7,-2.9579720922225754e-08,-2.9674673127134792e-08,-3.394490370569671e-08,-3.3864846413030434e-08
8,-9.518496765966202e-08,-9.415564965323245e-08,-1.0678011268863558e-07,-1.0596521669044486e-07
9,-2.7635592458107535e-07,-2.7001567327830115e-07,-3.0376809677363294e-07,-3.001189332690328e-07
10,-7.341486204678491e-07,-7.097811418605043e-07,-7.925974179511586e-07,-7.802310185437281e-07
11,-1.80502106166733e-06,-1.7298286514705205e-06,-1.9185591481908e-06,-1.8830111940736126e-06
12,-4.146458556046566e-06,-3.945421806017067e-06,-4.348840675699422e-06,-4.257808850591609e-06
13,-8.970415058958522e-06,-8.487465829716814e-06,-9.302909552211407e-06,-9.089376224776541e-06
14,-1.839904087703913e-05,-1.7333886534327975e-05,-1.8903158107999822e-05,-1.8435917645122486e-05
15,-3.598304995023631e-05,-3.379478721006815e-05,-3.668634674156514e-05,-3.5720333424306885e-05
16,-6.742762693026159e-05,-6.319565585663131e-05,-6.832160507863952e-05,-6.64168139902569e-05
17,-0.00012157334860049818,-0.0001138060738262097,-0.00012258404919852212,-0.00011897720833123884
18,-0.00021167963072134992,-0.00019806180956201205,-0.00021263368537858298,-0.0002060412582682289
19,-0.0003570552233032627,-0.00033412516285343083,-0.00035764651402636605,-0.00034597132758302016
20,-0.0005850738589383263,-0.0005478214453564708,-0.0005848380889396475,-0.0005647452736418321
21,-0.0009336030149005372,-0.0008749783005106874,-0.0009319089019398787,-0.0008982304190766389
22,-0.0014538597536439496,-0.0013641792527473444,-0.0014499257733805464,-0.0013948472546325896
23,-0.0022136898692082727,-0.0020799238317591056,-0.0022066341309563125,-0.0021186139182840904
24,-0.0033012454865556503,-0.0031061645508522564,-0.003290173135354356,-0.003152542323490263
25,-0.004829012538125049,-0.004550166898924043,-0.0048131398342769385,-0.004602334961054299
26,-0.006938114166300541,-0.006546613495955373,-0.006916920942504046,-0.006600308934726514
27,-0.009802790310733639,-0.009261848935723797,-0.009776182738141468,-0.009309451840297621
28,-0.013634928954670989,-0.012898138895109585,-0.01360338239067575,-0.01292749379798305
29,-0.018688502218839397,-0.017697797066265182,-0.018653139339874215,-0.01769086238704289
30,-0.02526374213867731,-0.02394701747637649,-0.02522628466052012,-0.02387837339458319
31,-0.033710877776245506,-0.03197923873354139,-0.03367339109957532,-0.03181450099931634
32,-0.04443324823933531,-0.04217786141272848,-0.044397577884118876,-0.04187206687575012
33,-0.05788960580169762,-0.054978140707767666,-0.05785638342801038,-0.054474189091928686
34,-0.07459542989684063,-0.07086808395835587,-0.07456250636190839,-0.07009533869977297
35,-0.09512308624082012,-0.09038819684452584,-0.09508323119158754,-0.08926136445196606
36,-0.12010068540048766,-0.11412994283963435,-0.12003837932662902,-0.11254836377218587
37,-0.15020952120007303,-0.14273280761480553,-0.1500966588356128,-0.14058030042212258
38,-0.18618000069653978,-0.17687989294475795,-0.18597032633746766,-0.17402529558663052
39,-0.22878601315383695,-0.21729200248544012,-0.22840812084021025,-0.21359054860460366
40,-0.2788377245046519,-0.2647202235437169,-0.278186480669428,-0.2600158755505552
41,-0.3371728251209546,-0.31993705337706535,-0.3360991091944527,-0.31406588756142895
42,-0.4046463011663931,-0.3837261641957737,-0.4029450109620296,-0.37652086544545976
43,-0.4821188421585271,-0.45687094631019487,-0.47951517506898245,-0.44816642193220907
44,-0.5704440383702004,-0.5401420121340869,-0.5665781351008365,-0.5297820771241434
45,-0.6704545600858767,-0.634283883407818,-0.6648646827461505,-0.6221289054535926
46,-0.7829475452878047,-0.7400011185218951,-0.7750520534223141,-0.7259364428717299
47,-0.9086694519825804,-0.857944164833021,-0.8977479352942893,-0.841889070239941
48,-1.04830065518126,-0.9886952412002852,-1.0334746765972753,-0.9706121121506618
49,-1.2024400858442605,-1.1327545676994994,-1.1826540791961029,-1.1126579089657382
50,-1.3715902194810643,-1.2905272619639445,-1.3455931682156124,-1.268492133146731
51,-1.5561427253801008,-1.4623112145613304,-1.5224713181334533,-1.4384806285168834
52,-1.7563650836585285,-1.6482862393485078,-1.7133290950879663,-1.6228770526043816
53,-1.9723884666289584,-1.8485047693484749,-1.9180591438136096,-1.8218115974303026
54,-2.204197163636317,-2.062884335252051,-2.1363994063863068,-2.0352810528778895
55,-2.4516198048484314,-2.2912020233732457,-2.367928909947151,-2.263140459092802
56,-2.714322609897727,-2.5330910642507933,-2.6120663031440987,-2.5050965703583046
57,-2.9918048523051293,-2.78803965371557,-2.8680712577838547,-2.7607033228962763
58,-3.2833966909766112,-3.0553920568167134,-3.1350487848961794,-3.0293594635985426
59,-3.588259476636993,-3.3343519931523913,-3.4119564449888102,-3.310308456531276
60,-3.9053885949023486,-3.6239882513884183,-3.697614362700465,-3.602640740109503
61,-4.233618859949635,-3.9232424323959134,-3.990717888341282,-3.905298361210961
62,-4.571632424632412,-4.230938675639283,-4.289852684875094,-4.217081964423246
63,-4.917969125626997,-4.545795183168372,-4.593511960518304,-4.536660066409435
64,-5.271039136925818,-4.8664373206330795,-4.90011551584602,-4.862580498366472
65,-5.62913776276103,-5.191412045822358,-5.2080302313638365,-5.193283855020497
66,-5.990462162727379,-5.51920339286331,-5.515591587878373,-5.527118747732161
67,-6.353129768207234,-5.848248724771191,-5.821125788330978,-5.862358623101811
68,-6.715198120755922,-6.176955458707358,-6.12297203640601,-6.197219877822028
69,-7.074685840274981,-6.503717967068254,-6.4195045242714555,-6.529880976080996
70,-7.429594413737071,-6.826934363161439,-6.709153689086929,-6.858502258033047
71,-7.7779304837847585,-7.145022892254659,-6.990426315024547,-7.181246116981884
72,-8.117728310281082,-7.456437666504021,-7.261924083885112,-7.4962972190331305
73,-8.447072076244083,-7.759683504755563,-7.52236021216171,-7.801882441936867
74,-8.764117711929948,-8.05332966438998,-7.770573854641974,-8.096290219329505
75,-9.067113916618437,-8.336022281083784,-8.005542003242269,-8.377888992071899
76,-9.354422066525904,-8.606495362450763,-8.226388663513328,-8.645144489157323
77,-9.624534709003502,-8.863580211970765,-8.432391148858894,-8.896635585866589
78,-9.87609235769222,-9.10621318954989,-8.622983392654348,-9.131068515506227
79,-10.107898320667902,-9.333441743843109,-8.797756239843158,-9.347289242150056
80,-10.318931313999506,-9.544428678688556,-8.956454740969175,-9.54429383428578
81,-10.508355636809066,-9.738454641443834,-9.098972531766996,-9.721236712176292
82,-10.675528711094318,-9.914918844641242,-9.22534343922816,-9.877436674225745
83,-10.820005820413781,-10.073338054281864,-9.335730509384492,-10.012380638995884
84,-10.941541916082176,-10.213343898440588,-9.430412701855282,-10.125725069235344
85,-11.040090397692857,-10.334678568877855,-9.509769540523864,-10.217295072036498
86,-11.115798816345308,-10.437189006286344,-9.574264047678588,-10.287081194870987
87,-11.169001493557383,-10.520819676867571,-9.624424319861124,-10.335233960796966
88,-11.200209096029775,-10.585604064308924,-9.660824126992587,-10.362056207784061
89,-11.210095255682097,-10.631655017003606,-9.68406293180819,-10.367993317275399
90,-11.199480375119824,-10.659154105492272,-9.694745734179259,-10.3536214364091
91,-11.169312810286046,-10.668340159447212,-9.69346314470672,-10.319633817502005
92,-11.120647673785712,-10.659497166799309,-9.680772084359106,-10.266825418228855
93,-11.05462355339639,-10.632941729492304,-9.657177492316038,-10.196075927063095
94,-10.972437489578832,-10.589010280487654,-9.623115403006066,-10.108331401389142
95,-10.875318602162704,-10.528046274720634,-9.578937726037195,-10.004584730328926
96,-10.764500798466031,-10.450387572473657,-9.524899029749005,-9.88585516048602
97,-10.64119503155734,-10.356354236918685,-9.461145590943605,-9.753167149937777
98,-10.506561606963299,-10.24623696829659,-9.387706930548246,-9.607528843131837
99,-10.361683057872863,-10.120286395313958,-9.304490008248024,-9.44991048599684
100,-10.207538122077148,-9.978703439831053,-9.211276199415542,-9.281223125672806
101,-10.04497735806599,-9.82163096375869,-9.107721126035827,-9.10229796196277
102,-9.874700932668603,-9.64914689720464,-8.993357360934091,-8.913866737111025
103,-9.69723909837017,-9.461259034197722,-8.867599972555137,-8.716543566046978
104,-9.5129358551074,-9.257901666630346,-8.729754826719324,-8.510808619986983
105,-9.321936259198425,-9.038934208255254,-8.579029512849866,-8.296994081370173
106,-9.124177801398753,-8.804141938527303,-8.414546715581277,-8.07527278653279
107,-8.919386227215476,-8.553238970699311,-8.235359808761906,-7.84564996320799
108,-8.707076115876026,-8.285873519805897,-8.040470407984003,-7.607958451703636
109,-8.486556470036035,-8.001635513994819,-7.828847580289292,-7.361857770250619
110,-8.256941496669251,-7.700066557152473,-7.599448376060882,-7.106837345367118
111,-8.017166680767733,-7.380672212064185,-7.351239318887228,-6.842224176142516
112,-7.7660101675645965,-7.042936531695887,-7.083218465079533,-6.567195136368334
113,-7.502119376029507,-6.686338721945514,-6.794437626410594,-6.280794040057062
114,-7.224042666532464,-6.310371772898757,-6.484024338505578,-5.9819535041686125
115,-6.930265779223453,-5.9145628479034364,-6.151203154131368,-5.66952153792519
116,-6.619252647611553,-5.498495171485087,-5.795315846207779,-5.342292672196912
117,-6.289490075321383,-5.061831109244265,-5.41584012018946,-4.999043317071355
118,-5.939535644911113,-4.604336086500457,-5.012406459627925,-4.638570903637902
119,-5.56806810842605,-4.125902948756194,-4.584812761892075,-4.259736230717363
120,-5.17393939311098,-3.62657632728082,-4.133036462503346,-3.8615083028733284
121,-4.756227246025143,-3.1065765385289934,-3.657243895315962,-3.4430108171447387
122,-4.314287442237438,-2.566322518017052,-3.157796690589425,-3.003569337406728
123,-3.847804397165184,-2.0064532690004184,-2.6352550724407595,-2.542758092039853
124,-3.3568389589266174,-1.427847295132164,-2.0903779797311235,-2.0604452474806694
125,-2.8418721156900935,-0.8316394854671901,-1.524119998634788,-1.5568354517291112
126,-2.3038433399730907,-0.21923493078745904,-0.9376251595100987,-1.032508411979837
127,-1.744182310133236,0.4076808268981624,-0.33221771386130106,-0.4884522725217799
128,-4.467089520822568e-14,-6.063189602410853e-14,-1.9579413672080463e-15,-1.654296162627709e-14
129,-9.496787378204482e-13,-1.3051495475269558e-12,2.5090155771145362e-14,-3.1802105296390293e-13
130,-1.100784115987691e-11,-1.5493381204430912e-11,2.668686086808062e-13,-3.642098188205538e-12
131,-8.555620767877542e-11,-1.2326021614183352e-10,1.4033281100679593e-12,-2.8014434525026872e-11
132,-5.018412679098036e-10,-7.390597029628971e-10,2.514165086697724e-12,-1.628857833352667e-10
133,-2.3762847168590665e-09,-3.5721471229607142e-09,-2.3310953013970353e-11,-7.653984786653662e-10
134,-9.488039188608558e-09,-1.453842725078176e-08,-2.6534741274214686e-10,-3.0356093629769743e-09
135,-3.2937903997205734e-08,-5.1379422686499036e-08,-1.6209504459150273e-09,-1.0474871191787115e-08
136,-1.0170179264564102e-07,-1.6131686574573662e-07,-7.440774923949826e-09,-3.216287795194012e-08
137,-2.842458636587079e-07,-4.5800390902062895e-07,-2.8236762063008164e-08,-8.94067353068749e-08
138,-7.29195963076562e-07,-1.19248943872171e-06,-9.276643725553889e-08,-2.2811033195596938e-07
139,-1.7365571900367089e-06,-2.879858885020786e-06,-2.7136740406546933e-07,-5.401487076814126e-07
140,-3.875050543503959e-06,-6.511385821689086e-06,-7.206998739717348e-07,-1.1980765377914665e-06
141,-8.165595392360094e-06,-1.3890903367646263e-05,-1.763028892594591e-06,-2.5086512217269285e-06
142,-1.6355558371747888e-05,-2.8142921241658522e-05,-4.017567295296091e-06,-4.991960205371466e-06
143,-3.131274381081402e-05,-5.444781151345119e-05,-8.605825759484443e-06,-9.494495083298031e-06
144,-5.7571735525111556e-05,-0.00010106507765711778,-1.7456946834696422e-05,-1.7346393179066402e-05
145,-0.0001020675414197742,-0.00018070820550626095,-3.3742211271005895e-05,-3.057529448342956e-05
146,-0.00017509192804288483,-0.00031233287661296203,-6.246991812455724e-05,-5.219175954468343e-05
147,-0.000291505779118791,-0.000523393635863196,-0.00011127232848650994,-8.656374592502766e-05
148,-0.0004722357892258702,-0.0008526119941142939,-0.0001914150288219049,-0.00013989987357163611
149,-0.0007460755023531056,-0.0013532813347916417,-0.0003190556147283879,-0.00022086260782638937
150,-0.0011517990455536483,-0.002097111197746665,-0.0005167727065209173,-0.0003413324577892128
151,-0.001740581079671394,-0.003178586240496264,-0.000815377689919535,-0.0005173422639304915
152,-0.002578698964413613,-0.004719784487357294,-0.0012560100315218673,-0.0007701962199965515
153,-0.003750473659933272,-0.006875566728767944,-0.001892502564945621,-0.0011277812718522011
154,-0.005361385444551006,-0.009839015701133009,-0.002793986117702847,-0.001626069064687561
155,-0.007541280272023883,-0.0138469716630079,-0.0040476839767702825,-0.0023107950299844212
156,-0.010447563754546068,-0.019185481920647996,-0.005761827062711918,-0.0032392880820282
157,-0.014268263550135494,-0.026194957420988593,-0.008068601633748921,-0.004482410457491422
158,-0.019224828459979332,-0.03527481125533616,-0.01112702427043703,-0.006126553317548111
159,-0.025574524742434504,-0.04688734310927343,-0.015125625073273708,-0.008275620733870196
160,-0.033612287759921596,-0.06156063136288703,-0.02028481046307975,-0.01105292349011953
161,-0.04367189057979116,-0.07989020134162601,-0.026858772432092,-0.014602895577638324
162,-0.05612630074811515,-0.10253925439462593,-0.03513681199847082,-0.019092541055935556
163,-0.07138711202395204,-0.13023726787081988,-0.045443951179309515,-0.0247125176173398
164,-0.08990295895781782,-0.16377681010568745,-0.058140720021932865,-0.03167776606026751
165,-0.11215684808694555,-0.2040084562862956,-0.07362202291204341,-0.04022760202763952
166,-0.1386623692290093,-0.2518337392800587,-0.09231501106284487,-0.05062519768349558
167,-0.1699587827413972,-0.30819612269580077,-0.11467591507845734,-0.06315639617014675
168,-0.20660501243453128,-0.3740700399167709,-0.1411858218406608,-0.07812782023413158
169,-0.24917260782375478,-0.45044810081331144,-0.1723454125800746,-0.09586425770165882
170,-0.2982377723603239,-0.5383266254689538,-0.20866871265995723,-0.11670532975527746
171,-0.35437258507506103,-0.638689719711583,-0.2506759371061147,-0.14100147233482457
172,-0.41813557068422147,-0.7524921587716803,-0.2988855480820478,-0.16910928551409768
173,-0.4900617967445425,-0.8806413913510479,-0.35380567022750614,-0.20138632942926657
174,-0.570652695124024,-1.023979015300775,-0.4159250360280367,-0.2381854673137232
175,-0.6603658182501884,-1.1832621067071798,-0.4857036552312146,-0.27984887553425775
176,-0.7596047478753647,-1.3591448054393154,-0.5635634189455636,-0.32670185640993543
177,-0.8687093752587559,-1.5521605713508093,-0.6498788597639974,-0.3790466013298584
178,-0.9879467667660201,-1.7627055258491588,-0.7449682935467834,-0.4371560587278622
179,-1.1175028182553222,-1.9910232832166612,-0.8490855661180786,-0.5012680634770911
180,-1.2574748858321358,-2.2371916549367112,-0.96241261907696,-0.5715798811128189
181,-1.4078655603932553,-2.501111578683451,-1.0850530734651533,-0.6482433120869426
182,-1.5685777297415662,-2.782498582206044,-1.2170270086766934,-0.7313604883241311
183,-1.739411045855111,-3.0808770420195857,-1.3582670874479932,-0.8209804771846155
184,-1.9200598869893133,-3.3955774388390556,-1.5086161468837922,-0.9170967871576333
185,-2.1101128754195075,-3.7257367475725878,-1.6678263411909584,-1.0196458458998205
186,-2.309053982410285,-4.070302031172298,-1.8355598850625112,-1.1285064953272985
187,-2.516265222941942,-4.428037236648856,-2.011391408409604,-1.243500521155718
188,-2.731030914270199,-4.797533120113629,-2.1948118942779136,-1.364394206416421
189,-2.952543444940798,-5.177220157853999,-2.3852341332010587,-1.490900870987528
190,-3.1799104748270497,-5.565384234122938,-2.581999589873943,-1.6226843330400933
191,-3.412163462545575,-5.96018483531185,-2.784386542884217,-1.7593632044881418
192,-3.6482673947229265,-6.359675426019978,-2.9916193263886255,-1.9005159119837118
193,-3.887131572548832,-6.761825636503878,-3.2028784751095896,-2.0456863185544596
194,-4.1276212953562315,-7.164544854070133,-3.417311551765199,-2.1943898093245333
195,-4.36857026902926,-7.565706783864252,-3.634044419700008,-2.3461196983479833
196,-4.608793559126099,-7.963174527631991,-3.852192713427218,-2.5003538126120817
197,-4.8471009047608975,-8.354825722533867,-4.070873256110629,-2.6565611136430514
198,-5.082310209284396,-8.738577285848443,-4.289215175554008,-2.8142082264875192
199,-5.313261027112494,-9.11240932499225,-4.5063704786890915,-2.97276575947983
200,-5.538827871917901,-9.474387795031523,-4.721523858386957,-3.131714315202237
201,-5.757933178939335,-9.822685516834987,-4.933901525079644,-3.290550112241691
202,-5.969559762490688,-10.155601207089635,-5.142778878509299,-3.4487901574365853
203,-6.172762618081939,-10.471576215290888,-5.3474868612170745,-3.605976927931624
204,-6.36667992626503,-10.769208711148378,-5.547416864447961,-3.7616825402189122
205,-6.550543121945092,-11.047265117203665,-5.742024088351316,-3.9155123983026567
206,-6.723685898199223,-11.304688634448365,-5.930829291176881,-4.067108324310514
207,-6.885552017582727,-11.540604762073283,-6.113418896187648,-4.216151181759215
208,-7.03570180667653,-11.7543237650477,-6.289443459885708,-4.362363004131291
209,-7.17381721171442,-11.945340094112066,-6.4586145405339686,-4.505508639699544
210,-7.299705295292521,-12.113328811288161,-6.620700041471057,-4.645396918267424
211,-7.4133000574414885,-12.258139119709654,-6.775518138910596,-4.781881337578739
212,-7.514662469956945,-12.379785139181465,-6.922929938272976,-4.91486025767821
213,-7.603978622103183,-12.478434108256916,-7.062831036023442,-5.0442765816644375
214,-7.68155588978503,-12.554392229737916,-7.195142194780644,-5.17011689227163
215,-7.747817059925134,-12.60808840937167,-7.319799367262776,-5.2924100066853965
216,-7.803292367632558,-12.640056167172713,-7.4367433284443125,-5.41122490793909
217,-7.848609435924004,-12.650914027266841,-7.545909193973549,-5.52666801093857
218,-7.884481145935981,-12.641344715412348,-7.647216115283339,-5.638879725146608
219,-7.911691509004067,-12.612073513308655,-7.740557446826926,-5.7480302844491185
220,-7.9310796596046815,-12.56384613525389,-7.825791677606231,-5.854314827651251
221,-7.943522138640612,-12.497406505346918,-7.902734407071874,-5.957947730062902
222,-7.949913688441665,-12.4134748218171,-7.971151624415006,-6.05915620714882
223,-7.951146832601495,-12.312726298689727,-8.030754520549273,-6.158173234488013
224,-7.948090563799119,-12.195770973289287,-8.08119602444583,-6.255229853471294
225,-7.941568509485949,-12.063134960480953,-8.122069211071897,-6.350546958409464
226,-7.932336987246198,-11.915243520524356,-8.152907678431125,-6.444326687210475
227,-7.921063397367521,-11.752406286504023,-8.173187937771154,-6.536743563763004
228,-7.908305428468419,-11.57480496913247,-8.182333805707337,-6.62793556496267
229,-7.894491571903185,-11.38248382104116,-8.179722731670317,-6.717995308313196
230,-7.87990345128236,-11.175343099427003,-8.164693940544156,-6.8069615766045475
231,-7.86466047411722,-10.953135715377691,-8.136558220317283,-6.89481141363116
232,-7.848707302697969,-10.715467201065827,-8.09460913949874,-6.981453038495502
233,-7.8318046203103355,-10.461799063457065,-8.038135440148768,-7.066719834913673
234,-7.813523636494735,-10.191455526778777,-7.966434320486711,-7.150365675313888
235,-7.79324473149215,-9.90363359746705,-7.878825296640509,-7.232061836853164
236,-7.770160586303963,-9.597416316293204,-7.774664316282293,-7.311395757702163
237,-7.743284082646599,-9.27178899429574,-7.653357787415842,-7.387871867553112
238,-7.711461188444922,-8.925658163331198,-7.514376183015734,-7.460914707095658
239,-7.673388970674968,-8.557872910022656,-7.3572668861232895,-7.529874527698165
240,-7.627638798176749,-8.167248205617279,-7.181665950138541,-7.594035534284278
241,-7.572684710564349,-7.752589796261025,-6.987308465521319,-7.65262689964976
242,-7.506936832142541,-7.312720181181625,-6.774037247434947,-7.704836634373374
243,-7.428779597803354,-6.846505182671159,-6.541809589832153,-7.749828339836748
244,-7.336614427934201,-6.352880603173577,-6.290701870945774,-7.7867608000645445
245,-7.228906340125208,-5.83087847161618,-6.020911843688541,-7.81481027986659
246,-7.104233818464818,-5.279652402569942,-5.7327585020670595,-7.833195292567252
247,-6.961341080954225,-4.698501626170259,-5.426679480500058,-7.841203482626796
248,-6.799191698919464,-4.086893291810113,-5.1032260150782305,-7.838220140420534
249,-6.617022337658541,-3.444482702165368,-4.7630555716692715,-7.823757733384295
250,-6.414395214233106,-2.771131193903861,-4.406922322211084,-7.7974857057188185
251,-6.1912477161928505,-2.066921445253845,-4.035665724308665,-7.7592596745772875
252,-5.947937504409787,-1.3321700562053909,-3.6501975273455125,-7.709149041109908
253,-5.68528134447518,-0.5674373121944919,-3.2514875880884917,-7.647461946829752
254,-5.404585884166395,0.22646589559285726,-2.8405489278849796,-7.574766446139893
255,-5.107668628082855,1.0484739628403237,-2.4184224999697332,-7.4919067406716815
256,-3.8218848615522884e-13,-4.236726815146595e-15,-1.2634777387798088e-13,-3.778609025957888e-14
257,-8.688131487890782e-12,1.542100230131029e-14,-2.7588474104707614e-12,-9.5595666135991e-13
258,-9.705032589316064e-11,-2.979644774101622e-13,-3.145743133732098e-11,-9.709345229271448e-12
259,-7.182286368962254e-10,-7.338875793606541e-12,-2.4031921521720933e-10,-6.111445336021742e-11
260,-3.976068099338355e-09,-7.770394566413778e-11,-1.3870649152587535e-09,-2.577521721374287e-10
261,-1.7619991933867157e-08,-5.545481271439457e-10,-6.47219379724963e-09,-6.791561143817966e-10
262,-6.53152920455954e-08,-3.0387625406720525e-09,-2.550645932518077e-08,-3.53266767694064e-10
263,-2.0893523452241057e-07,-1.363534319783921e-08,-8.754188656675749e-08,7.418182488393472e-09
264,-5.903930919913921e-07,-5.212723335073093e-08,-2.6767473222291215e-07,5.0307303366870334e-08
265,-1.500732584395864e-06,-1.7451645166696422e-07,-7.419798685010633e-07,2.1734008301531414e-07
266,-3.481842282470097e-06,-5.222575276217791e-07,-1.8903172812812489e-06,7.506074565359037e-07
267,-7.4608907047218205e-06,-1.4195783481044042e-06,-4.4753899108390645e-06,2.2297353955344403e-06
268,-1.490978616286047e-05,-3.5501947017153804e-06,-9.935675377219884e-06,5.907752979888903e-06
269,-2.8012551748120363e-05,-8.255726127410448e-06,-2.0838885700088506e-05,1.4273670013408584e-05
270,-4.981344517479026e-05,-1.800914892414584e-05,-4.1550167122979145e-05,3.193039246846912e-05
271,-8.430868740760978e-05,-3.712639943943945e-05,-7.91740473236426e-05,6.688407794311051e-05
272,-0.00013643532651966584,-7.278635865785572e-05,-0.0001448300888626326,0.00013234087086772363
273,-0.00021190259368399325,-0.0001364324837603318,-0.0002553186054154934,0.00024909818087537783
274,-0.0003168047272498026,-0.00024562704887107494,-0.00043522434071962895,0.00044860018568382667
275,-0.0004569501588984895,-0.0004264204592134286,-0.0007194927668874555,0.0007767019547910095
276,-0.0006368403796327444,-0.0007162831230079195,-0.0011564959777296214,0.0012981553256108003
277,-0.0008582327564593135,-0.0011676262189906474,-0.0018115835577041303,0.0021017946957461522
278,-0.001118225285547097,-0.001851911211086874,-0.002771088884542499,0.003306364195335209
279,-0.001406808464250146,-0.0028643173510508615,-0.004146733670073232,0.005066890356040835
280,-0.0017038412595288895,-0.0043289031789200535,-0.0060803438148063355,0.007581466547670039
281,-0.0019754256902684165,-0.006404163878219424,-0.008748758699645294,0.011098276808616062
282,-0.0021696786182303085,-0.00928885303083043,-0.01236878503602139,0.015922647172347443
283,-0.0022119301322830252,-0.013227906524892282,-0.017202016858894307,0.022423872852845195
284,-0.001999414833943819,-0.01851827958397629,-0.023559316937837856,0.031041531327971522
285,-0.0013955640015848915,-0.025514486360606468,-0.03180473366775101,0.042290956993314435
286,-0.0002240508582382086,-0.034633616310275436,-0.04235861323668757,0.056767525856957095
287,0.0017372148211358832,-0.04635959347361793,-0.055699661281629655,0.0751493821828151
288,0.004761905966030556,-0.061246444472608456,-0.07236571279108617,0.09819823634853225
289,0.009180640720443011,-0.07992034884959913,-0.09295298469559586,0.12675787712654424
290,0.01538559362689272,-0.10308026144965811,-0.11811361278610212,0.1617500739008833
291,0.02383404943175229,-0.13149692069283914,-0.14855131301812444,0.2041675957830464
292,0.03505059646367958,-0.16601008834535105,-0.18501505597564952,0.2550641449877186
293,0.04962767509060629,-0.2075239050052935,-0.22829070085158776,0.31554109000331526
294,0.06822423088995581,-0.25700028986803297,-0.2791905999150403,0.3867309879064877
295,0.09156227091335606,-0.31545036203801996,-0.3385412538942912,0.4697780015137047
296,0.12042118306123031,-0.3839239121305811,-0.4071691705064929,0.5658154418718973
297,0.1556297507647055,-0.4634970054936117,-0.48588514973627644,0.6759407948549577
298,0.19805587494735394,-0.5552578503713401,-0.5754672874589958,0.8011887164271997
299,0.2485940989807207,-0.6602911140092287,-0.6766430506813612,0.9425025977836399
300,0.3081511159075389,-0.779660915383779,-0.7900708303334621,1.1007054021501603
301,0.3776295163659509,-0.9143927634324936,-0.9163214189471973,1.2764705531699592
302,0.4579101066779037,-1.0654547431780999,-1.0558598890310698,1.4702937056215246
303,0.5498331866075418,-1.2337382782169648,-1.2090283624372506,1.6824662498532728
304,0.654179223424315,-1.420038816314728,-1.3760301609939667,1.9130513910338252
305,0.7716493919586758,-1.6250367953220608,-1.5569158140643127,2.161863604114732
306,0.9028464687126878,-1.8492792495733954,-1.7515713697369342,2.4284521975086997
307,1.0482565716449277,-2.093162412837255,-1.9597094135720978,2.7120896258645764
308,1.2082322263432232,-2.3569156633105313,-2.1808631430464565,3.0117650783995513
309,1.3829772148382469,-2.6405871396435225,-2.4143837783007895,3.3261837378807106
310,1.5725336267121215,-2.9440313350359357,-2.6594415121975103,3.6537719608499057
311,1.7767714851453091,-3.2668989494772664,-2.915030117137152,3.9926884768000805
312,1.9953812648810234,-3.6086292485970177,-3.1799752349142736,4.340841547678297
313,2.2278695563549804,-3.9684451417070825,-3.4529462815917924,4.695911874115776
314,2.4735580618093027,-4.345351151831656,-3.732471804508071,5.055380885561216
315,2.73158603634365,-4.738134407226673,-4.016958035781737,5.416563911863686
316,3.0009162108517824,-5.145368737534212,-4.304710298824944,5.776647607093325
317,3.2803441560657434,-5.565421908804607,-4.593956844212552,6.132730885219118
318,3.5685109690045143,-5.9964659807199965,-4.8828746214449605,6.481868533836236
319,3.863919086557494,-6.436490717093843,-5.1696164360375185,6.82111659803158
320,4.164950957250766,-6.883319927785822,-5.452338898841438,7.1475785727505885
321,4.469890232885523,-7.334630567320234,-5.729230547809456,7.458451409306817
322,4.776945078033132,-7.787974363584504,-5.998539512159927,7.75107033029805
323,5.084273138572634,-8.24080169995574,-6.258600095051232,8.022951457348176
324,5.390007661833677,-8.6904874270539,-6.507857672974388,8.27183128791413
325,5.692284221841839,-9.134358237049911,-6.7448913473072345,8.495702110953946
326,5.989267475148843,-9.569721195046657,-6.9684338348206545,8.692842526457339
327,6.27917735726496,-9.993892989456578,-7.17738814812611,8.8618423302675
328,6.560314128111916,-10.40422943746656,-7.370840692565663,9.001621142296436
329,6.831081688138583,-10.798154763532862,-7.548070490998177,9.111440291433905
330,7.0900086152531845,-11.173190159256398,-7.708554340117719,9.19090762157516
331,7.335766416416646,-11.526981132708455,-7.851967798850608,9.239975046755095
332,7.567184545899843,-11.857323164883534,-7.978182008336387,9.25892885510392
333,7.783261813521759,-12.162185210783976,-8.087256441289856,9.248372936380001
334,7.983173888796131,-12.439730612736698,-8.179427773561535,9.209205281009714
335,8.166276698503674,-12.688335033642607,-8.255095160079744,9.142588264616874
336,8.332105613129968,-12.906601067391522,-8.31480227895171,9.049913385867447
337,8.480370419032274,-13.09336924178246,-8.359216579453097,8.932761262401918
338,8.61094617523662,-13.247725194864925,-8.389106230284733,8.792857805598704
339,8.72386015360204,-13.369002877346947,-8.405315312379338,8.632027586608304
340,8.819275156074385,-13.45678371011452,-8.408737834547857,8.452145471108684
341,8.897469590488942,-13.510891705347946,-8.400291169625657,8.255087637095832
342,8.958814764764028,-13.531384640468362,-8.380889513281609,8.042683098225867
343,9.00374992655491,-13.51854145439942,-8.351417957590643,7.816666835169558
344,9.032755630002553,-13.472846113548023,-8.312707747619942,7.578635590369722
345,9.04632605190838,-13.39496826867121,-8.26551325277682,7.330007309507663
346,9.044940905617295,-13.285741091633898,-8.210491136888557,7.0719851185422185
347,9.029037611606428,-13.146136741299676,-8.148182153458011,6.805526611605867
348,8.99898437920702,-12.97723995889479,-8.078995926898978,6.531319096002935
349,8.955054834457204,-12.780220333786088,-8.00319900853668,6.24976130005139
350,8.897404795674532,-12.556303809589233,-7.920906419584933,5.960951901680365
351,8.826051752216543,-12.306744017026658,-7.832076814076939,5.664685084632886
352,8.740857544605493,-12.032794023479852,-7.736511314758989,5.360453178691685
353,8.641514677419421,-11.735679079601676,-7.6338559961829375,5.047456294036868
354,8.527536621829636,-11.416570920951603,-7.523607913544189,4.724618720669594
355,8.398252384104879,-11.076564148064003,-7.405124505017055,4.390611734256412
356,8.252805531452012,-10.716655162674915,-7.27763613109779,4.043882331654557
357,8.090157778800585,-10.33772408231923,-7.140261458192237,3.6826873141073144
358,7.909097151076356,-9.940519991692222,-6.992025346462632,3.3051320445110406
359,7.7082506466040295,-9.525649818735936,-6.8318788644636195,2.909213127738393
360,7.486101239957207,-9.093571048170022,-6.658721025637187,2.492864199996176
361,7.241008978234764,-8.644588407017574,-6.471421824220392,2.054003964712624
362,6.971235844757611,-8.17885457747119,-6.268846140162767,1.5905855785683058
363,6.67497398985619,-7.696374914047997,-6.049878083604147,1.1006464720968263
364,6.350376860966488,-7.197016066122936,-5.813445358459449,0.5823576848805501
365,5.995592704771257,-6.680518335151542,-5.558543240639385,0.034071805802581887
366,5.608799863630438,-6.146511529504396,-5.284257788221093,-0.5456313659554852
367,5.188243247999996,-5.594534019862031,-4.9897879272312835,-1.1579022836422614
368,4.7322713368527465,-5.024054645291733,-4.6744660864111,-1.8035830297628068
369,4.239373040107503,-4.43449707487862,-4.337777086324668,-2.483173329557748
370,3.7082137513921913,-3.8252661922796793,-3.979375021600999,-3.1968018429501854
371,3.1376699265067076,-3.195776040761387,-3.599097909378212,-3.944203284186472
372,2.5268615427997556,-2.545478843971578,-3.1969799118121207,-4.724701815332729
373,1.875181827105971,-1.8738946026059045,-2.773260975642509,-5.537201047901096
374,1.1823236843986693,-1.1806407589655041,-2.3283937671602457,-6.380180868054523
375,0.448302315143245,-0.46546141990793444,-1.863047816344614,-7.251701177159348
376,-0.326526424500209,0.2717443663234298,-1.378110819260828,-8.149412513173342
377,-1.1414522901927613,1.0308957725700403,-0.8746870828274591,-9.070573391871593
378,-1.9954018322661005,1.811705270096198,-0.35409313060808256,-10.012074082729908
379,-2.8869346925989183,2.613656072547102,0.18214947779399004,-10.97046641497284
380,-3.8142451212624886,3.43598236835964,0.7323240280064284,-11.94199909742879
381,-4.77516872382562,4.277652727591038,1.29453111492194,-12.92265793395191
382,-5.767194355663161,5.13735702755259,1.8667035407034713,-13.908210226682613
383,-6.787480987516949,6.013497194681738,2.446623468726342,-14.894252584520009
384,-7.626389746564114e-14,-2.8954718024678815e-14,-6.031507259253553e-14,-6.889315328064549e-14
385,-1.675387499970135e-12,-6.027283975019417e-13,-1.2888139132451713e-12,-1.502206769538753e-12
386,-2.003955404229592e-11,-7.194878856270682e-12,-1.4943849617674344e-11,-1.8152479902131318e-11
387,-1.605946458211283e-10,-5.7642344190459515e-11,-1.1601151900881986e-10,-1.4699677049767037e-10
388,-9.70199419300375e-10,-3.4806881705068467e-10,-6.790176082701182e-10,-8.97172416933433e-10
389,-4.7250013192645796e-09,-1.6939690394940262e-09,-3.206979025511994e-09,-4.412607477709401e-09
390,-1.937242533001717e-08,-6.940225854185148e-09,-1.2774310337867318e-08,-1.826269962827715e-08
391,-6.893511887789624e-08,-2.4683230531999302e-08,-4.427390610089174e-08,-6.556929585908445e-08
392,-2.1777637193605595e-07,-7.797043475484203e-08,-1.36645066833871e-07,-2.0889786462413057e-07
393,-6.215873619515245e-07,-2.2266624303924706e-07,-3.8230717206224247e-07,-6.009974630812322e-07
394,-1.6254173757968991e-06,-5.830379056505963e-07,-9.832949595164627e-07,-1.5833258697527053e-06
395,-3.938325265443207e-06,-1.4158574474485308e-06,-2.351069255874478e-06,-3.863182937890847e-06
396,-8.92471501030097e-06,-3.218860704351458e-06,-5.273392424952641e-06,-8.811620432044119e-06
397,-1.9063221340836125e-05,-6.904540603070768e-06,-1.1178467649916195e-05,-1.8936112893699807e-05
398,-3.8633952860636674e-05,-1.4065615132252549e-05,-2.253299753506514e-05,-3.8592931894706644e-05
399,-7.47026302959613e-05,-2.7363588873692896e-05,-4.341610416934352e-05,-7.501271588141585e-05
400,-0.00013847428676484592,-5.1075994286929525e-05,-8.03144337166713e-05,-0.0001397172677792463
401,-0.00024708844700091216,-9.184048259685175e-05,-0.00014318468505814756,-0.0002504046852569399
402,-0.0004259210569051367,-0.0001596343008569136,-0.00024682787953932334,-0.00043337240927024493
403,-0.0007114452708583926,-0.0002690253296337586,-0.0004126146796701283,-0.0007265330267889739
404,-0.0011546833788928634,-0.00044072542763902076,-0.0006705927888379911,-0.0011830556211971347
405,-0.001825256039248594,-0.0007034681942249663,-0.0010619958172161464,-0.0018756366713633987
406,-0.002816003433384416,-0.001096221468682923,-0.0016421580229393127,-0.0029013700655581977
407,-0.004248117268218793,-0.0016707301706489952,-0.0024838212997840654,-0.004387147299911651
408,-0.006276684346946851,-0.002494367859095901,-0.0036808001927731196,-0.006495478294998696
409,-0.009096503601124102,-0.0036532562327776102,-0.005351948278714713,-0.009430582613932195
410,-0.012948001061692858,-0.0052555914621606374,-0.007645345748795412,-0.013444562406559729
411,-0.018123033333097886,-0.0074350956291048854,-0.010742604319088803,-0.01884343431110211
412,-0.024970341756339033,-0.010354491671595438,-0.014863162554013418,-0.025992769853372368
413,-0.033900398482727905,-0.014208882181469212,-0.02026842326702706,-0.035322674376091545
414,-0.045389373758896095,-0.019228897306441364,-0.027265565917374147,-0.04733182462376212
415,-0.059981952125658246,-0.025683465953185602,-0.0362108520270548,-0.06259028577055252
416,-0.07829273480182862,-0.03388205846643779,-0.0475122318657096,-0.08174084040424068
417,-0.10100598659470965,-0.04417624879797978,-0.061631057261131196,-0.10549858481493136
418,-0.1288735180525403,-0.05696045048116813,-0.07908270951669746,-0.13464858154264767
419,-0.16271053653568188,-0.07267169379479389,-0.1004359638750095,-0.1700414008383977
420,-0.20338935226465804,-0.09178833126219335,-0.12631093313971697,-0.21258643651058726
421,-0.2518308856600447,-0.11482758458276035,-0.15737546282603007,-0.26324294227979034
422,-0.30899398857250543,-0.14234187729547707,-0.1943398879284141,-0.3230088016542114
423,-0.37586266220856246,-0.17491393262335167,-0.23795010601247257,-0.3929071155513258
424,-0.4534313263777652,-0.21315065349215898,-0.288978971450594,-0.4739707652146212
425,-0.5426883656509403,-0.25767583999655796,-0.3482160695482309,-0.5672251809484018
426,-0.6445982455693365,-0.30912183696722334,-0.4164559851615619,-0.673669617203777
427,-0.7600825536236548,-0.3681202392794672,-0.49448523615288187,-0.794257298949384
428,-0.8900003728758908,-0.4352918138682066,-0.5830680955537558,-0.9298748605047794
429,-1.0351284385887074,-0.511235824088275,-0.6829315754918125,-1.0813215437889898
430,-1.196141558153337,-0.5965189633966427,-0.7947498887491408,-1.2492886562791479
431,-1.3735937905124975,-0.6916641209394166,-0.9191287383977255,-1.434339808381054
432,-1.567900882242539,-0.7971392113609864,-1.0565898107133833,-1.6368924544114531
433,-1.7793244431638449,-0.913346305076464,-1.2075558602853955,-1.8572012505664977
434,-2.0079583150568956,-1.040611293568941,-1.3723367781351998,-2.095343717220905
435,-2.253717543583244,-1.1791743173007834,-1.5511170234429914,-2.351208652259002
436,-2.516330307114668,-1.3291811719475113,-1.7439447773729457,-2.6244876878676466
437,-2.795333088497117,-1.4906758923113148,-1.9507231441994077,-2.91467031663684
438,-3.0900692987472302,-1.6635946929191139,-2.1712036816209124,-3.2210426355153747
439,-3.399691477466559,-1.8477614204395687,-2.404982490304311,-3.542689970015942
440,-3.7231671057243965,-2.0428846461374244,-2.6514990340497375,-3.878503448159268
441,-4.059287975810859,-2.2485564970697474,-2.910037798335043,-4.2271904963167835
442,-4.406682971181403,-2.4642532930316934,-3.1797328282111725,-4.587289129873187
443,-4.763834021689098,-2.689338022773094,-3.45957511832854,-4.95718581313776
444,-5.129094916348721,-2.923064658132953,-3.748422759913675,-5.335136567901285
445,-5.500712580769382,-3.1645842689314154,-4.04501368330243,-5.71929092114098
446,-5.876850361181682,-3.4129528652684846,-4.347980771597872,-6.107718202154599
447,-6.255612803521719,-3.667140857982156,-4.655869062538694,-6.498435630159078
448,-6.63507137580414,-3.9260439932133386,-4.967154703103372,-6.889437577125448
449,-7.013290556108847,-4.188495584187499,-5.280265276079132,-7.278725349019354
450,-7.388353697618826,-4.45327983333544,-5.593601081057197,-7.664336803016002
451,-7.7583880865987815,-4.719146011555312,-5.905556925179308,-8.044375109642425
452,-8.121588628938456,-4.984823239474197,-6.214543962321107,-8.417035977765691
453,-8.476239635444992,-5.24903559859674,-6.519011113842336,-8.780632687053112
454,-8.820734224573565,-5.5105172887299965,-6.81746560986331,-9.133618316651532
455,-9.153590922409625,-5.768027542463563,-7.10849220726396,-9.474604619509066
456,-9.473467111704629,-6.020365008086971,-7.39077066899274,-9.80237706759839
457,-9.779169062483586,-6.266381319350096,-7.663091128267408,-10.11590568239312
458,-10.069658363755577,-6.50499358396868,-7.92436700997006,-10.414351364962974
459,-10.344054666554277,-6.735195542608144,-8.17364523873928,-10.697067548313795
460,-10.601634740246807,-6.956067175900588,-8.410113527338162,-10.963597108205327
461,-10.841827934173672,-7.166782568319484,-8.633104607921492,-11.213664584630063
462,-11.064208222791086,-7.366615873748753,-8.842097340755595,-11.447163881443583
463,-11.268483092413138,-7.554945267516665,-9.03671470764789,-11.664141723419933
464,-11.454479599553018,-7.7312548126302705,-9.216718768811976,-11.86477725554314
465,-11.622127993241234,-7.8951342130103574,-9.382002730325429,-12.049358266105887
466,-11.771443345375845,-8.046276472729234,-9.532580333175302,-12.21825460085291
467,-11.902505673236627,-8.184473526596912,-9.668572832835876,-12.371889407929318
468,-12.01543906612631,-8.309609952893902,-9.79019388933829,-12.510708911033229
469,-12.110390343307747,-8.421654922546345,-9.897732731068118,-12.635151449542377
470,-12.187507772913072,-8.520652579496927,-9.991535990480577,-12.745616548466407
471,-12.246920371594966,-8.606711083362075,-10.071988636143072,-12.842434787247438
472,-12.28871828304997,-8.679990576648509,-10.139494442684354,-12.925839224487731
473,-12.31293470123515,-8.740690363899029,-10.194456448068047,-12.995939105876399
474,-12.319529762525203,-8.789035608384873,-10.237257845866981,-13.052696535642763
475,-12.308376781858227,-8.825263862810363,-10.268243748728157,-13.09590672897186
476,-12.279251152843836,-8.849611753634536,-10.287704237984565,-13.125182385597043
477,-12.23182217256986,-8.862302133983322,-10.29585908361266,-13.139942635221864
478,-12.165647989982872,-8.863532007899826,-10.292844478957546,-13.139406905783167
479,-12.080173813502473,-8.853461509262624,-10.278702086679507,-13.122593958283401
480,-11.974733449929483,-8.83220419269084,-10.253370637385473,-13.088326219490389
481,-11.848554183424415,-8.799818861916979,-10.216680261896293,-13.03523942870157
482,-11.700764940882074,-8.756303124344928,-10.168349673821744,-12.961797499403904
483,-11.530407628850591,-8.701588819818012,-10.107986252986038,-12.866312383339396
484,-11.336451467698986,-8.635539428064172,-10.035089014233018,-12.746968615413309
485,-11.117810091597535,-8.55794951395252,-9.949054382161716,-12.60185211513337
486,-10.873361128771526,-8.468546223682262,-9.8491846321963,-12.428982725784074
487,-10.601967926334046,-8.366992799418608,-9.7346988036764,-12.226349888126
488,-10.302503038877646,-8.25289403577323,-9.604745842691681,-11.991950772746188
489,-9.973873061100797,-8.125803559978419,-9.458419692153628,-11.723830135816518
490,-9.615044353302048,-7.985232779677225,-9.294776014663364,-11.420121118333757
491,-9.22506918576158,-7.830661308915194,-9.112850210226219,-11.07908618009448
492,-8.803111814834548,-7.661548654982887,-8.911676375529916,-10.699157347607247
493,-8.348474000679884,-7.477346926802219,-8.690306843824791,-10.27897496043154
494,-7.860619484226216,-7.277514309874475,-8.447831943802754,-9.81742412323403
495,-7.339196959093818,-7.061529043420792,-8.183399621677339,-9.313668110911012
496,-6.7840611022301776,-6.828903631970318,-7.8962345824138644,-8.767178030745077
497,-6.1952912641573095,-6.57919902577622,-7.5856566232739535,-8.177758117626013
498,-5.573207464925621,-6.312038511392136,-7.251097854988264,-7.54556612436547
499,-4.918383393892761,-6.0271210647812845,-6.892118532284355,-6.871128367206977
500,-4.231656168912803,-5.724233933739405,-6.508421245367662,-6.155349094574386
501,-3.514132671917855,-5.403264233560078,-6.099863256412825,-5.399513962397245
502,-2.7671923415911297,-5.064209359246375,-5.666466799337828,-4.605287519219106
503,-1.9924863682014615,-4.707186038794026,-5.208427196407734,-3.774704725770643
504,-1.1919332990247082,-4.332437874874614,-4.7261186810479066,-2.91015665372409
505,-0.3677111235346121,-3.940341246464023,-4.220097852358407,-2.0143706239197487
506,0.47775403568585084,-3.5314094674801484,-3.6911047231075087,-1.0903851525993964
507,1.3418024486724929,-3.1062951262164913,-3.1400613594157414,-0.14152017250620852
508,2.2215582969412093,-2.6657905571449563,-2.5680681468358286,0.8286569180677359
509,3.113949922343607,-2.210826425282033,-1.976397753820142,1.816368752770597
510,4.015732509516875,-1.742468432404279,-1.366486899128216,2.817668358187036
511,4.923512878580168,-1.2619121834513398,-0.7399260638042556,3.8284816533129264
512,-1.0175262616363425e-13,-4.1030913479125774e-14,-4.9234627380796275e-14,-8.915752397620948e-14
513,-2.035889001539692e-12,-8.900888517084002e-13,-1.1270643184086997e-12,-1.7549086739850408e-12
514,-2.4092700096098534e-11,-1.0686117358814786e-11,-1.3530762259454703e-11,-2.110423269543713e-11
515,-1.9122684077228809e-10,-8.601410245564492e-11,-1.0832067589398632e-10,-1.699418009761705e-10
516,-1.1457691154067993e-09,-5.218404040201912e-10,-6.513878392802396e-10,-1.0311386601997654e-09
517,-5.542010492288568e-09,-2.5516630751590528e-09,-3.1475100227371904e-09,-5.040800753975634e-09
518,-2.260636190541557e-08,-1.0501905152959411e-08,-1.2766100280884469e-08,-2.0741852118662702e-08
519,-8.019049920801647e-08,-3.750811049510656e-08,-4.48235128968008e-08,-7.408907351454685e-08
520,-2.5307357756863744e-07,-1.1891846593120651e-07,-1.3941909600939954e-07,-2.3507321831238305e-07
521,-7.23150304616549e-07,-3.4060583251755005e-07,-3.9110227016244634e-07,-6.743968234514122e-07
522,-1.8971308108206241e-06,-8.936647592253461e-07,-1.003760520483571e-06,-1.774272825906892e-06
523,-4.620756639317237e-06,-2.1722506818486614e-06,-2.3845918145114857e-06,-4.329881185578207e-06
524,-1.0545191691526601e-05,-4.937247308934966e-06,-5.294708569927011e-06,-9.893526423694256e-06
525,-2.2720568437863287e-05,-1.0574438376404475e-05,-1.10772588436772e-05,-2.133157846885609e-05
526,-4.651251560507959e-05,-2.148120024914943e-05,-2.1986626673793197e-05,-4.3683860733059454e-05
527,-9.095819631343585e-05,-4.1619694166215214e-05,-4.1643998015667823e-05,-8.543479502650495e-05
528,-0.0001706968209491414,-7.727647421696452e-05,-7.56450430479174e-05,-0.0001603234128424036
529,-0.00030862334313026195,-0.00013806784192939203,-0.00013234430188595333,-0.0002898331078988244
530,-0.0005394205782777326,-0.00023822685032176167,-0.00022383764681698642,-0.000506509451864094
531,-0.0009141219479925031,-0.0003982014393322715,-0.0003671585240765768,-0.0008582533746351693
532,-0.001505842496802819,-0.0006465837626750894,-0.0005856952791333205,-0.0014137256900531082
533,-0.0024167884185209696,-0.001022378450698403,-0.0009108257231182821,-0.0022689759912436405
534,-0.0037866144845201074,-0.001577602556796399,-0.0013837515135411342,-0.0035553736110087372
535,-0.005802144743750493,-0.002380192590301558,-0.002057499531341665,-0.0054488705906055295
536,-0.008708405772625064,-0.003517174840562028,-0.002999041114235348,-0.008180567065294705
537,-0.012820845538587526,-0.0050980348384740744,-0.0042914637595487205,-0.012048479500449884
538,-0.018538527307385064,-0.007258201182991332,-0.006036114770774479,-0.017430333818889646
539,-0.026358000337942132,-0.010162539145029318,-0.008354623278751791,-0.024797121345626526
540,-0.0368874612657281,-0.014008731595402914,-0.011390697031593946,-0.034727068986469746
541,-0.05086073634055532,-0.019030410020505685,-0.01531158414472086,-0.04791959001207053
542,-0.06915053949462932,-0.025499887731845527,-0.0203090883775335,-0.06520870247538371
543,-0.09278039892944434,-0.033730341735284566,-0.026600030092973806,-0.08757533303412478
544,-0.12293459957361691,-0.04407728980098824,-0.034426054323925454,-0.11615786909718002
545,-0.16096546389975336,-0.05693921553316785,-0.04405270250678466,-0.15226028577188064
546,-0.20839729206575655,-0.07275720688729287,-0.055767685274813995,-0.19735715956529362
547,-0.26692630627200964,-0.09201349254889667,-0.06987831965539751,-0.2530948910018261
548,-0.3384159948693201,-0.1152287855176279,-0.08670812412689483,-0.321288495249485
549,-0.4248873294190764,-0.14295837351275256,-0.10659259798166432,-0.4039133845274543
550,-0.5285034318397371,-0.1757869305774365,-0.12987424579132775,-0.5030916584963374
551,-0.6515483970731872,-0.2143220624503996,-0.15689694181938454,-0.6210725378965641
552,-0.7964001263658351,-0.2591866386597863,-0.18799976129768023,-0.7602067201560019
553,-0.9654971932765231,-0.31101000549107655,-0.22351043399751144,-0.9229146001552686
554,-1.1612999440811318,-0.37041821449416606,-0.26373859908006564,-1.1116484803974018
555,-1.386246220906394,-0.43802343947387834,-0.30896905761807214,-1.328849087157356
556,-1.6427022838377017,-0.514412789414262,-0.3594552295017407,-1.5768969067943013
557,-1.9329096913235513,-0.6001367540678514,-0.4154130240301912,-1.8580590528844685
558,-2.2589290703227975,-0.6956975417014457,-0.47701532803662183,-2.1744325635937494
559,-2.6225818628702626,-0.8015375836537973,-0.5443873019564601,-2.5278852032498142
560,-3.0253912685038817,-0.9180284871258333,-0.6176026532298005,-2.9199949961388167
561,-3.468523707313898,-1.0454607155178637,-0.6966810285591061,-3.351989848316198
562,-3.9527322019972084,-1.184034264554658,-0.7815866328213499,-3.8246887094232935
563,-4.478303115894485,-1.3338505827060045,-0.872228144084044,-4.3384457866215556
564,-5.045007685230925,-1.494905956714616,-0.9684599525872086,-4.893099343186762
565,-5.6520597464367786,-1.6670865484151505,-1.0700847082366736,-5.48792659255879
566,-6.298080983346434,-1.8501652287423687,-1.1768571176967673,-6.121606133502431
567,-6.981074905226757,-2.0438003103078195,-1.2884888902061442,-6.792189263686277
568,-7.698410617005948,-2.2475362326673105,-1.404654692402307,-7.497081359044792
569,-8.446817260856866,-2.460806205912144,-1.5249989382983575,-8.233034317780982
570,-9.22238979748264,-2.682936769972797,-1.6491432125413399,-8.996150845114903
571,-10.020606560954441,-2.913154180437754,-1.7766941044010574,-9.78190110335627
572,-10.836358768348905,-3.1505924880769616,-1.9072512174792577,-10.5851519779826
573,-11.663991900860253,-3.3943031397984496,-2.040415116375885,-11.4002089212794
574,-12.497358603037291,-3.643265894477779,-2.1757949765283415,-12.220870038403927
575,-13.3298824780474,-3.896400818827001,-2.3130157167142253,-13.040491784425164
576,-14.154631896172054,-4.152581106874416,-2.4517244144276704,-13.852065353013721
577,-14.96440268772469,-4.4106464521797415,-2.591595831341928,-14.648302565871305
578,-15.751808366598217,-4.669416694886617,-2.7323369080039654,-15.421729824158557
579,-16.509376332586033,-4.927705466196913,-2.8736901223288984,-16.16478846588288
580,-17.229648334770538,-5.184333560733076,-3.0154356438999197,-16.869939692355228
581,-17.90528334917008,-5.438141782239349,-3.157392254058952,-17.5297720872761
582,-18.529160935124015,-5.688003029649257,-3.2994170388651414,-18.137109657473314
583,-19.09448308920775,-5.932833417949791,-3.4414038968940535,-18.685118277264902
584,-19.59487261434692,-6.171602260461591,-3.5832809354464255,-19.167408420100895
585,-20.024466065619514,-6.403340774837068,-3.7250068561794696,-19.578132111537247
586,-20.377999422210934,-6.62714941278548,-3.866566453855132,-19.91207213548406
587,-20.650884765175377,-6.842203751728676,-4.007965369401671,-20.164721668601352
588,-20.83927641006523,-7.047758923786753,-4.149224250542009,-20.332352702112946
589,-20.940125148151758,-7.243152592363247,-4.29037247973388,-20.412071831563335
590,-20.9512194850689,-7.427806518060613,-4.431441630148913,-20.401862247698922
591,-20.87121302573139,-7.601226782917372,-4.5724588061727,-20.300611039590418
592,-20.69963743320915,-7.763002764531244,-4.713440015988992,-20.10812121775565
593,-20.436900680399795,-7.912804969322351,-4.854383711061068,-19.825108173552202
594,-20.084270610163077,-8.050381847061235,-4.995264611845581,-19.453180604571607
595,-19.6438441154012,-8.175555717115907,-5.136027922138057,-18.994806247368093
596,-19.118502538885835,-8.288217941090346,-5.276584017325871,-18.453263062028874
597,-18.511854167277274,-8.388323477155707,-5.416803675600837,-17.832576801672705
598,-17.82816494904119,-8.475884948975104,-5.556513906618624,-17.13744616827765
599,-17.072278796739464,-8.550966357261105,-5.695494419573546,-16.3731569992187
600,-16.24952903604274,-8.613676555247702,-5.833474762249374,-15.54548714212294
601,-15.365642733151363,-8.664162601255208,-5.970132154154231,-14.660603855404768
602,-14.42663976628442,-8.702603092607754,-6.105090030075472,-13.72495571509921
603,-13.438728603493217,-8.729201575911333,-6.237917304978035,-12.7451611130428
604,-12.408200807043178,-8.744180119538008,-6.3681283667899375,-11.727895495425582
605,-11.341326303494293,-8.747773125430719,-6.495183799954226,-10.67977951333781
606,-10.244251438546225,-8.740221449306603,-6.618491839380128,-9.607270237952111
607,-9.122901777439816,-8.721766891177271,-6.737410551326767,-8.516557532907205
608,-7.982891516498372,-8.692647111924876,-6.851250734569477,-7.413467576436866
609,-6.829441241075419,-8.653091026491982,-6.9592795317457306,-6.303375387585975
610,-5.667305602121137,-8.603314719982734,-7.060724736915101,-5.191128036843599
611,-4.5007122907162165,-8.543517929454927,-7.154779780990228,-4.080980014698377
612,-3.3333134706982603,-8.473881131133718,-7.240609371714706,-2.9765419956151273
613,-2.1681505878579315,-8.394563269844808,-7.317355759181416,-1.8807439740213865
614,-1.0076332144473457,-8.305700164250231,-7.384145591378717,-0.795813467948194
615,0.146467685414675,-8.20740361756869,-7.440097316773767,0.27673080961269375
616,1.2930119655552372,-8.099761258514272,-7.484329082333021,1.3360697160007473
617,2.431468164091153,-7.982837130911496,-7.5159670655055555,2.3820590924139267
618,3.5618774911427153,-7.8566730426559275,-7.5341541674885875,3.415190341115627
619,4.684804679307877,-7.721290675297636,-7.538058982612996,4.436536976147314
620,5.801276702445789,-7.576694444519555,-7.526884945160106,5.447688236321205
621,6.912710614636577,-7.422875089238673,-7.49987954079152,6.45067110710889
622,8.020831984331382,-7.2598139531469865,-7.456343455707766,7.447862329489749
623,9.127585593686277,-7.087487907517999,-7.395639523514139,8.441892174118102
624,10.235040235423059,-6.905874848443005,-7.317201318560956,9.435541924197672
625,11.345289565543897,-6.714959685849338,-7.220541236271533,10.431637136890908
626,12.46035105695645,-6.514740726295485,-7.105257896634489,11.432938838495014
627,13.582065144591464,-6.305236337285138,-6.9710427074214705,12.442034851510263
628,14.711996655930363,-6.086491768340366,-6.817685429388539,13.461233451605148
629,15.851340582001567,-5.858585993911784,-6.645078597066196,14.492461509789575
630,17.00083416379982,-5.621638435868131,-6.4532206657741344,15.537169191121633
631,18.160677149619165,-5.3758154191609,-6.242217777897121,16.596243158010957
632,19.33046192272329,-5.121336213541904,-6.012284068542957,17.669930066276216
633,20.509115009666772,-4.858478517055172,-5.7637404614582906,18.75777194875859
634,21.6948512616468,-4.587583243465616,-5.497011939268265,19.85855485819289
635,22.885141759254036,-4.309058485749699,-5.212623306426639,20.97027189238863
636,24.076696230003378,-4.023382541039251,-4.911193497488636,22.09010145521671
637,25.265460493408693,-3.731105898579491,-4.593428516422743,23.214401321491604
638,26.44662916562272,-3.432852110757496,-4.260113123890338,24.338718778019988
639,27.614673570380482,-3.1293174873625005,-3.9121014182201987,25.4578168126106
640,-6.129865386183747e-14,-7.642147905853364e-14,-8.202977057227755e-14,-1.6384817652762014e-14
641,-1.3197214099739653e-12,-1.6714296227793945e-12,-1.8956899650022156e-12,-3.3608230777014616e-13
642,-1.4978183769558824e-11,-2.024198880595253e-11,-2.2162213875690602e-11,-4.409571256597196e-12
643,-1.1356996559269665e-10,-1.6403699201777544e-10,-1.7251655025128225e-10,-3.8432037127435364e-11
644,-6.487386375159594e-10,-9.998833115353396e-10,-1.0087059350590554e-09,-2.5006743694137645e-10
645,-2.989265772004909e-09,-4.902479640447081e-09,-4.740193092900595e-09,-1.2997517343520514e-09
646,-1.1617546207532582e-08,-2.0195383694787126e-08,-1.8705772303272145e-08,-5.641247086269783e-09
647,-3.930419739431616e-08,-7.207874507106847e-08,-6.394033674058599e-08,-2.1098499438765686e-08
648,-1.1851565334236427e-07,-2.2806161678667876e-07,-1.937637155508011e-07,-6.961773661390982e-08
649,-3.2435269541247296e-07,-6.512209891679952e-07,-5.300285902362201e-07,-2.064163395818136e-07
650,-8.172940666493794e-07,-1.7022020920426133e-06,-1.3277034201154797e-06,-5.580770899403423e-07
651,-1.9178750335693394e-06,-4.12024683551881e-06,-3.0814295923642797e-06,-1.3924077680278943e-06
652,-4.230073802190308e-06,-9.324150617747962e-06,-6.690103544033767e-06,-3.237889801335998e-06
653,-8.835326415704264e-06,-1.988505996000823e-05,-1.3696934514054605e-05,-7.075903916923107e-06
654,-1.758425484386886e-05,-4.023335033860081e-05,-2.6622447647639965e-05,-1.4634150264848095e-05
655,-3.351771343003425e-05,-7.76702296878255e-05,-4.940631075509552e-05,-2.8814198853557216e-05
656,-6.145188298536002e-05,-0.00014375993141958,-8.797058195355696e-05,-5.428929787816472e-05
657,-0.00010876312738609644,-0.00025617923093059267,-0.00015091205862915246,-9.830982128815947e-05
658,-0.00018640654186537087,-0.00044109661379900656,-0.00025032501834588983,-0.0001717524816920759
659,-0.00031019712794817756,-0.0007361431382945463,-0.00040274804094666666,-0.0002904451822368379
660,-0.0005023741486769043,-0.001194020631140449,-0.0006302201503341088,-0.00047679177103562896
661,-0.0007934575682956637,-0.0018867704684960122,-0.0009614226782366493,-0.0007617098215310626
662,-0.0012243909766347476,-0.0029106983191519178,-0.0014328745813479843,-0.0011868799621307328
663,-0.001848948707314252,-0.004391917700480186,-0.00209014103864151,-0.0018072875764747357
664,-0.0027363668299099967,-0.006492439169563285,-0.00298900860773743,-0.002694017548229246
665,-0.003974139281697381,-0.009416693870360673,-0.004196575523820245,-0.003937241066730617
666,-0.005670902577647698,-0.013418341641097684,-0.005792203199397456,-0.00564931149622223
667,-0.007959316211868617,-0.018807176774261566,-0.007868274719360897,-0.00796786522158834
668,-0.010998831831991303,-0.025955910700622906,-0.010530708005855574,-0.011058804511571898
669,-0.014978233183657761,-0.035306582173497664,-0.013899175099155756,-0.015119023993956746
670,-0.020117821241837388,-0.047376323631544356,-0.018106984367751367,-0.020378731387076545
671,-0.026671115394951112,-0.06276219874077194,-0.023300589143454366,-0.027103207609557513
672,-0.0349259425660246,-0.08214482179027335,-0.029638694031268883,-0.03559385210869213
673,-0.045204792285146025,-0.10629047546546679,-0.037290938755577395,-0.04618836689255543
674,-0.05786432746082547,-0.13605146005731938,-0.04643614869514355,-0.059259947823551186
675,-0.07329395828476888,-0.1723644345583286,-0.05726015110756859,-0.07521537444713583
676,-0.09191341044586754,-0.21624654813564706,-0.06995316641329653,-0.09449191981533397
677,-0.11416924836642696,-0.26878920851180266,-0.08470679485664165,-0.11755303878153436
678,-0.1405303488181078,-0.331149390711893,-0.101710630492741,-0.14488283597464233
679,-0.17148235889364374,-0.4045384538953439,-0.1211485468182051,-0.17697936155401356
680,-0.20752121336552237,-0.4902085036516204,-0.1431947113404667,-0.21434683199386217
681,-0.24914582808025051,-0.5894364100080536,-0.16800939955834152,-0.25748692237729154
682,-0.29685012609922756,-0.7035056651253444,-0.19573469151120843,-0.30688932365809307
683,-0.35111458957215264,-0.8336863368372175,-0.22649014536914094,-0.36302180067391426
684,-0.4123975606333454,-0.981213442440079,-0.260368551585819,-0.42632002203348557
685,-0.4811265369897776,-1.1472641291488803,-0.297431877170012,-0.49717745924552936
686,-0.5576897207437129,-1.3329341012207097,-0.3377075121443181,-0.5759356678892092
687,-0.6424280812645585,-1.539213776893807,-0.38118492901019263,-0.6628752670543528
688,-0.7356281840281675,-1.7669646892231388,-0.4278128610082148,-0.7582079241129476
689,-0.8375160172652626,-2.0168966621784197,-0.4774970962962906,-0.8620696301467816
690,-0.9482520175434265,-2.2895462960162707,-0.5300989731227184,-0.9745155176612538
691,-1.067927455124487,-2.58525728349695,-0.585434645999578,-1.0955164277132259
692,-1.1965622916669927,-2.904163051132409,-0.6432751752491633,-1.2249573798907507
693,-1.33410456860599,-3.2461721780587127,-0.7033474726879797,-1.3626380377096554
694,-1.4804313267343976,-3.6109569905814776,-0.7653361153067517,-1.5082751962295078
695,-1.6353509987903205,-3.99794566464092,-0.828886017299823,-1.6615072505295931
696,-1.79860715999814,-4.406318093397475,-0.8936059293397197,-1.8219005357198792
697,-1.9698834692394687,-4.8350056950761315,-0.959072713145215,-1.988957363995926
698,-2.148809588340225,-5.2826952494653705,-1.0248363196588122,-2.1621255243810107
699,-2.3349678309827895,-5.7478367624152495,-1.0904253810350333,-2.3408089585099137
700,-2.5279002676474915,-6.228655268657911,-1.1553533106876979,-2.5243792830491723
701,-2.7271159998700614,-6.7231663965426645,-1.2191247924273847,-2.712187797673795
702,-2.9320983164962464,-7.229195435974612,-1.2812425297775827,-2.9035775980587837
703,-3.1423114564437884,-7.744399574947173,-1.3412141202878936,-3.0978954067818285
704,-3.3572067260865435,-8.266292902338883,-1.3985589172338304,-3.294502741614196
705,-3.5762277535601434,-8.79227371663899,-1.4528147424156017,-3.4927860601964626
706,-3.798814705382257,-9.319653633233894,-1.5035443185422879,-3.692165551914547
707,-4.024407340713288,-9.84568794777871,-1.5503412974937754,-3.892102290854923
708,-4.252446832991495,-10.36760669061248,-1.5928357711315195,-4.0921035165926565
709,-4.482376345042739,-10.882645797421391,-1.6306991638041601,-4.291725870486133
710,-4.713640399579663,-11.388077824339712,-1.6636484197526018,-4.490576482081151
711,-4.945683139915273,-11.881241651006661,-1.6914494136966565,-4.688311870933883
712,-5.177945623629302,-12.359570642087167,-1.7139195283949777,-4.884634701311653
713,-5.409862333068802,-12.820618775484244,-1.730929358372446,-5.079288498467777
714,-5.640857119509347,-13.26208429279889,-1.742403513885486,-5.272050503205521
715,-5.870338821495471,-13.681830483256968,-1.7483205132905115,-5.462722904048833
716,-6.097696811653846,-14.077903274942079,-1.748711765211445,-5.651122741487694
717,-6.322296729857863,-14.448545375281466,-1.7436596543549798,-5.83707082465551
718,-6.5434766541179465,-14.792206774794467,-1.733294756741366,-6.020380035906872
719,-6.760543944423815,-15.107551502542067,-1.7177922218751371,-6.200843421934119
720,-6.9727729697466065,-15.393460596894666,-1.697367371394641,-6.378222480534349
721,-7.1794038956042705,-15.64903132954909,-1.6722705763574197,-6.5522360496095216
722,-7.379642670370459,-15.8735727926066,-1.6427814886844259,-6.722550189618476
723,-7.5726623044667845,-16.066598026498024,-1.6092027162655862,-6.88876942313664
724,-7.7576054894790305,-16.2278129292869,-1.5718530454179773,-7.050429656468675
725,-7.933588555903907,-16.357102244267928,-1.5310603281880186,-7.206993059789279
726,-8.09970672045191,-16.45451297190178,-1.487154164711925,-7.357845125682546
727,-8.25504052826567,-16.520235593312794,-1.4404585218057622,-7.502294062995979
728,-8.398663353534696,-16.55458352536454,-1.3912844375210185,-7.639572615507298
729,-8.529649785050646,-16.557971251449658,-1.3399229670399027,-7.768842324966708
730,-8.647084692283741,-16.53089158748364,-1.2866385275581265,-7.88920018758461
731,-8.75007274339041,-16.4738925492371,-1.2316627983550055,-7.999687583922946
732,-8.837748129802266,-16.387554285285862,-1.1751893267894,-8.0993012963002
733,-8.909284243109724,-16.27246652987497,-1.1173689812609586,-8.18700636704186
734,-8.963903049040809,-16.129207012392264,-1.0583063781130024,-8.26175049689846
735,-9.000883910429474,-15.958321235562503,-0.9980573910572983,-8.322479637263443
736,-9.01957162593158,-15.760304003610427,-0.936627829230148,-8.368154393804053
737,-9.019383473429302,-15.535583045237798,-0.8739733439791608,-8.39776683387254
738,-8.999815075896223,-15.284505035052712,-0.8100005957419992,-8.410357276402381
739,-8.960444942078416,-15.00732427181203,-0.7445696819382676,-8.4050306413957
740,-8.900937573562839,-14.70419422322285,-0.677497795785263,-8.380971946693645
741,-8.821045072323221,-14.375162095849802,-0.6085640554840186,-8.337460562217352
742,-8.720607227160281,-14.020166535676724,-0.5375154143084839,-8.273882865595297
743,-8.599550101993032,-13.639038510899429,-0.46407353561172776,-8.189742986971485
744,-8.457883192107994,-13.231505374431729,-0.3879424933259407,-8.084671383364977
745,-8.295695254706,-12.797198050241496,-0.3088171387403522,-7.9584310424387885
746,-8.113148956028896,-12.335661235799346,-0.2263919586600899,-7.810921179884292
747,-7.910474507845361,-11.846366463331792,-0.14037023884492264,-7.6421783616127525
748,-7.687962490236767,-11.328727815813561,-0.05047334011432936,-7.452375049307345
749,-7.445956074869681,-10.78212005018398,0.04355010732175445,-7.241815633466177
750,-7.184842873005262,-10.205898840512416,0.14191528315863647,-7.010930079925771
751,-6.9050466354226945,-9.599422818107126,0.24479271527471122,-6.76026537237082
752,-6.6070190275437275,-8.962077054190127,0.35230045258929304,-6.490474983240094
753,-6.291231692892174,-8.293297604087382,0.46449703573283435,-6.202306647819061
754,-5.95816880234083,-7.592596710255574,0.5813754143364994,-5.896588750589769
755,-5.60832026626754,-6.859588245228627,0.7028579436402986,-5.574215658792304
756,-5.242175762739067,-6.0940129650421495,0.8287925755211588,-5.23613235556162
757,-4.860219708205995,-5.295763139177963,0.9589503399873326,-4.883318734027513
758,-4.462927268983172,-4.46490612480939,1.0930241926010185,-4.5167739146182715
759,-4.050761483048347,-3.601706461304535,1.230629281070903,-4.137500940815336
760,-3.6241715334010522,-2.706646075660034,1.371304660330454,-3.7464921941821214
761,-3.183592187269086,-1.7804422107933278,1.5145164598109673,-3.3447158481281125
762,-2.7294443905560843,-0.8240627163152778,1.6596624794934223,-2.9331036521210927
763,-2.2621369845880057,0.1612616246751071,1.8060781630112959,-2.5125403045314063
764,-1.7820694926597231,1.1740280194098869,1.953043867087813,-2.083854633639992
765,-1.289635907039248,2.2124560812448606,2.099793317599456,-1.6478127632826882
766,-0.7852293926532911,3.2744859286382857,2.245523114356545,-1.2051133929281879
767,-0.26924781120051217,4.357780104241091,2.3894031201351793,-0.7563852725816267
768,3.2371324750997784e-15,-5.848308817465276e-15,-6.496935434227362e-15,1.7174999022273803e-14
769,9.261768337630829e-14,1.990086985840086e-14,-2.1532354033970696e-13,3.3281292780984343e-13
770,1.3825719599943008e-12,1.486572556912994e-13,-2.222428094445869e-12,3.950593855566759e-12
771,1.2458836297645749e-11,9.148953493717016e-13,-1.5348338674195963e-11,3.075003774123485e-11
772,8.181895601410727e-11,2.7124361003722865e-12,-7.767075489924358e-11,1.8024935021356216e-10
773,4.211835678347942e-10,-3.889746510047612e-12,-3.06274663483168e-10,8.506185182238874e-10
774,1.7830724574285706e-09,-9.932181432574259e-11,-9.690463743948642e-10,3.376905981105502e-09
775,6.423511472952752e-09,-6.904022035545352e-10,-2.4702065494608685e-09,1.1630229772797947e-08
776,2.020287506962957e-08,-3.3518098690074687e-09,-4.875472524400828e-09,3.55524012616875e-08
777,5.6598701391706234e-08,-1.3147935776472845e-08,-6.080700789780926e-09,9.817754528224223e-08
778,1.4353392525560065e-07,-4.421061266202454e-08,3.1147053144021132e-09,2.4835694949293043e-07
779,3.3387268300464317e-07,-1.316978656864859e-07,4.9920244734432475e-08,5.820536951124638e-07
780,7.201245394201082e-07,-3.551092388815824e-07,2.007147976867521e-07,1.2755772070389346e-06
781,1.453261725276022e-06,-8.802121809524101e-07,5.981418182960304e-07,2.634354919684492e-06
782,2.764516398781104e-06,-2.0293643142984825e-06,1.5210940372854016e-06,5.160657483891134e-06
783,4.98750728438825e-06,-4.392530308871441e-06,3.47542713054664e-06,9.642978781668457e-06
784,8.575984080538188e-06,-8.993463684514313e-06,7.323513643738417e-06,1.7268386123629585e-05
785,1.410986598983578e-05,-1.7527041370154193e-05,1.4460211427751451e-05,2.9756990761304976e-05
786,2.2279127763799833e-05,-3.268434090141778e-05,2.7041334540179542e-05,4.9514691813612094e-05
787,3.383151578782576e-05,-5.858158063766251e-05,4.8268237350693833e-05,7.979656377382386e-05
788,4.946609541242742e-05,-0.00010130743264000937,8.272869796698259e-05,0.00012486881277539894
789,6.965025684113355e-05,-0.00016960047506174616,0.0001367900256950472,0.0001901523019699264
790,9.433308025329843e-05,-0.000275664706326156,0.00021903535199131722,0.0002823254423785195
791,0.00012252302945681143,-0.00043612614442100576,0.0003407285641432031,0.0004093589939710339
792,0.00015169311994542195,-0.0006731276242848665,0.000516287541325963,0.0005804503018850844
793,0.00017697247897027163,-0.0010155520602367226,0.0007637395925849924,0.0008058200470107567
794,0.00019008019272844136,-0.001500356764625566,0.0011051277187517172,0.001096331102531205
795,0.00017795611495084152,-0.0021739930628932387,0.0015668320079168872,0.0014628868930241343
796,0.00012104426465391336,-0.0030938765658469185,0.002179767577484492,0.0019155659312826074
797,-8.812541614611094e-06,-0.004329864157170887,0.0029794193256120626,0.0024624498696452983
798,-0.00025090382507615764,-0.005965684046784008,0.004005674550913455,0.0031081040630472683
799,-0.0006586409086590973,-0.008100255131904639,0.005302417341753267,0.0038516716761024983
800,-0.0013030341171959194,-0.010848821515306707,0.006916853632419197,0.004684544074389742
801,-0.0022766862467127405,-0.014343817751867431,0.008898543165500025,0.005587571045750784
802,-0.0036983324415350606,-0.018735371007645725,0.011298124614303063,0.006527774026340051
803,-0.005717959999310525,-0.024191338912103927,0.014165733191606657,0.0074545240470930635
804,-0.008522545385204807,-0.03089677770207417,0.01754912650614338,0.008295143892969302
805,-0.012342448182543306,-0.039052735429185914,0.021491554243907054,0.008949891361290102
806,-0.017458501164355794,-0.04887427043182996,0.02602943004126632,0.009286277881871379
807,-0.024209830555601466,-0.06058760661141462,0.031189888779115743,0.00913267463715017
808,-0.033002429168601945,-0.07442635482171994,0.03698833808065029,0.008271157702469927
809,-0.044318485371836656,-0.09062675428797955,0.04342613720161162,0.00642954641679099
810,-0.05872644033644424,-0.10942191962838468,0.05048855749345642,0.0032725979120528503
811,-0.07689170219899162,-0.1310351175441521,0.05814319363205816,-0.0016076610962599959
812,-0.09958788675533414,-0.15567214180561986,0.06633900125485906,-0.008702452858702804
813,-0.12770837932742496,-0.18351290441226462,0.07500613237810107,-0.018597557408788178
814,-0.16227792240965278,-0.21470241285589486,0.08405672362623676,-0.031985285289847676
815,-0.20446383135507187,-0.24934135597427495,0.09338676360546201,-0.049676902332188154
816,-0.25558633043244267,-0.2874765713627583,0.10287912544969408,-0.07261519146389339
817,-0.3171273907273382,-0.329091712923674,0.11240780033083896,-0.1018867198721682
818,-0.39073734780620495,-0.3740984749700018,0.12184330990840922,-0.13873325637303457
819,-0.47823848990841994,-0.42232875650474044,0.13105921312311367,-0.18456166235859825
820,-0.5816247457546079,-0.47352816325548186,0.13993955851719794,-0.24095147010178697
821,-0.7030565730775227,-0.5273512436207035,0.1483870706015073,-0.3096592746262144
822,-0.8448501614635071,-0.5833588363885761,0.1563318008646083,-0.39261900923681775
823,-1.009460120977849,-0.6410178722389445,0.16373992386416725,-0.49193715817561634
824,-1.1994549342167706,-0.6997039178538168,0.17062231927375016,-0.6098819887698849
825,-1.4174846045067624,-0.7587066821163709,0.1770425542700315,-0.7488659636018157
826,-1.6662401352048006,-0.8172386204012293,0.18312386925146565,-0.9114206218926089
827,-1.9484047202980725,-0.8744466780824123,0.18905477492869482,-1.1001633971731746
828,-2.266596808399527,-0.9294271113526169,0.1950928909002821,-1.317756061692701
829,-2.6233055124482556,-0.981243215890067,0.20156669469708494,-1.5668547509664372
830,-3.0208191658700696,-1.0289456857179058,0.20887490495171326,-1.8500518166066755
831,-3.461148161004992,-1.0715952197795395,0.21748329111815806,-2.169810072865184
832,-3.94594353438306,-1.1082868962509342,0.22791878272474808,-2.5283903317667304
833,-4.476413072246994,-1.138175748146211,0.24076084069707376,-2.927773452055686
834,-5.053236984704605,-1.1605029017371804,0.25663014867141953,-3.3695784464062952
835,-5.676485424653842,-1.174621584660803,0.27617477996862655,-3.854978486926296
836,-6.345540295871344,-1.1800222758024002,0.3000540923687461,-4.384616908137122
837,-7.059023892741333,-1.1763562559934582,0.32892069437264154,-4.958525516749324
838,-7.814736933474436,-1.1634568284557918,0.36340090979913164,-5.576047666792013
839,-8.609608483382077,-1.141357511156271,0.4040742392090422,-6.23576863655228
840,-9.43966011200912,-1.1103065593127648,0.4514523739931267,-6.9354558421141865
841,-10.299986388383434,-1.070777253767779,0.5059583596568323,-7.67201133586055
842,-11.18475349661557,-1.0234734875317846,0.5679065270585588,-8.44143886549448
843,-12.087217357239489,-0.9693302955135977,0.6374838129721422,-9.238827512106011
844,-12.99976217861151,-0.9095090978353586,0.7147330739594031,-10.058353590243794
845,-13.91395985047783,-0.8453875613403912,0.7995389605082412,-10.893302087628939
846,-14.820650043727161,-0.778544122860861,0.8916168627371498,-11.736108458452549
847,-15.710040313333455,-0.7107373572872303,0.990505366336612,-12.57842107573842
848,-16.571824933585727,-0.6438805092531272,1.095562570016831,-13.41118411036921
849,-17.395320644102974,-0.5800116352815335,1.205966516251254,-14.22474005343784
850,-18.169616969365723,-0.5212599198434119,1.3207198786142897,-15.008950551146457
851,-18.88373830974283,-0.46980883078528735,1.4386589348886263,-15.753333693575595
852,-19.526814602738742,-0.4278568644190345,1.558466738988346,-16.447215405491104
853,-20.088257032041085,-0.3975766963351509,1.6786902903918874,-17.079892143226502
854,-20.557935029431412,-0.3810735994297121,1.7977613909755432,-17.640801719877743
855,-20.92635067883725,-0.38034401504547605,1.9140207793843602,-18.119698773596426
856,-21.184806598066107,-0.39723516634334866,2.0257450453710737,-18.50683117094232
857,-21.325563444317627,-0.4334065853371856,2.131175753204737,-18.79311350706156
858,-21.3419833635272,-0.49029438715599966,2.2285501459430863,-18.970293832282426
859,-21.228655976947348,-0.5690790681790594,2.316132762065943,-19.031109803124355
860,-20.981503864107264,-0.6706575302568076,2.392247273091379,-18.969430624289735
861,-20.597864949439533,-0.7956199432459641,2.4553078451961174,-18.780381413376233
862,-20.076549717677793,-0.9442319549127709,2.503849338870863,-18.460446974902066
863,-19.417871755471662,-1.1164226436259588,2.5365556871214667,-18.00755240460868
864,-18.62365072679525,-1.311778488127394,2.552285833225956,-17.421118446036818
865,-17.697187520326434,-1.5295435030472295,2.5500966619980394,-16.702090074511407
866,-16.6432119411527,-1.7686255616019428,2.5292624223693063,-15.852937373770752
867,-15.467803941063158,-2.0276088007196944,2.4892902124653276,-14.877628382552059
868,-14.178289976647822,-2.304771881072152,2.429931179848984,-13.781574207985434
869,-12.783116638840172,-2.598111757327421,2.351187177791306,-12.571547315602349
870,-11.291704198754182,-2.905372504410085,2.2533127116846856,-11.255574498427144
871,-9.714283151084715,-3.224078645608511,2.13681210618995,-9.842806586607354
872,-8.061717197733698,-3.55157233992699,2.0024319213799986,-8.343367471383548
873,-6.345316392306851,-3.8850537109811816,1.851148742891005,-6.768185470694515
874,-4.576644354623701,-4.221623539647942,1.6841525648186837,-5.128810447418887
875,-2.7673235600531045,-4.558327498935373,1.5028260728417855,-3.4372203960831875
876,-0.9288427109052885,-4.89220108303984,1.308720217071306,-1.7056214330194635
877,0.9276298912467243,-5.220314373719649,1.1035265379411283,0.053754745869573135
878,2.791423227486532,-5.539815795909341,0.8890467728777075,1.8288518381754726
879,4.652527205299085,-5.847974040478199,0.6671603255947092,3.607984291012025
880,6.501739893466962,-6.142217374417357,0.43979022297895154,5.380023133870699
881,8.330795558255375,-6.420169616414902,0.2088682162158181,7.1345686065885685
882,10.13247113999226,-6.679682127366562,-0.023700297244772357,8.862106200448475
883,11.900669275235074,-6.918861249223229,-0.256070846227301,10.554143096476459
884,13.630476462180413,-7.13609071985245,-0.48649327216980875,12.203322407273912
885,15.318195475643046,-7.330048694287486,-0.713343264550088,13.803513096605618
886,16.961351653279905,-7.499719111764634,-0.9351514086967726,15.349873953768984
887,18.55867318780082,-7.644397261150466,-1.1506291491955212,16.838890526961823
888,20.110046062142654,-7.763689512544041,-1.358691123685395,18.26838446113821
889,21.616444747705856,-7.857507297797948,-1.5584733847173895,19.637495231051787
890,23.079840241687524,-7.9260555352142426,-1.7493471009683812,20.946634799323906
891,24.50308744049524,-7.96981580152218,-1.9309274127088556,22.197416252588418
892,25.889794224843012,-7.989524655231102,-2.103077208995437,23.39255796647297
893,27.244174961755157,-7.986147607431075,-2.265905694254208,24.53576531325936
894,28.570891403605252,-7.960849317077257,-2.419761717989051,25.63159234608022
895,29.874884179900462,-7.914960655958609,-2.5652219510913454,26.68528626292044
896,-3.299485150409286e-14,-2.2202007483391516e-14,-3.986600276892977e-15,-4.0582781872215117e-14
897,-7.017963803961729e-13,-4.765073536619056e-13,-7.172736400584457e-14,-8.846308734295456e-13
898,-8.089553299981032e-12,-5.526159871541881e-12,-1.1126694967901156e-12,-1.0373619174516007e-11
899,-6.249678226226335e-11,-4.2855128072696936e-11,-1.1037559739550095e-11,-8.141098498526062e-11
900,-3.642053780794594e-10,-2.5016150214157387e-10,-7.934000331170731e-11,-4.81207116561806e-10
901,-1.7132102186684153e-09,-1.1763343912199526e-09,-4.4693459067121685e-10,-2.2917804202083303e-09
902,-6.797492651404819e-09,-4.657039527453581e-09,-2.07602794301879e-09,-9.187580078477741e-09
903,-2.3464845728952067e-08,-1.6015075403659598e-08,-8.23809538385769e-09,-3.1974497641718476e-08
904,-7.211396891807898e-08,-4.8969911846069986e-08,-2.86615568586231e-08,-9.884353084881067e-08
905,-2.008436092731195e-07,-1.3557105815431735e-07,-8.917441911524992e-08,-2.762732780674933e-07
906,-5.140648206516e-07,-3.4472929265338884e-07,-2.519839630050152e-07,-7.080942607783217e-07
907,-1.2229071016752168e-06,-8.145140148125027e-07,-6.547511105205132e-07,-1.6832798820263484e-06
908,-2.728850926235642e-06,-1.805283365346863e-06,-1.5802611035478257e-06,-3.7463297631797888e-06
909,-5.75543189948523e-06,-3.782837843116439e-06,-3.572321148522992e-06,-7.867369334732273e-06
910,-1.1546345823334232e-05,-7.543001992526458e-06,-7.616857871561857e-06,-1.5691980346466566e-05
911,-2.215153282958542e-05,-1.4391145668807013e-05,-1.540926745449223e-05,-2.9892972442184334e-05
912,-4.082546280245368e-05,-2.6391906559687334e-05,-2.972919395793549e-05,-5.464749393472034e-05
913,-7.256345909659692e-05,-4.670548613487558e-05,-5.494164192392394e-05,-9.626277695788084e-05
914,-0.00012480203249725942,-8.002707628547743e-05,-9.763860509950372e-05,-0.0001639721783823166
915,-0.00020830743287984197,-0.00013314498088104422,-0.00016742853419419028,-0.00027091984404081776
916,-0.00033827264489703007,-0.0002156306383355115,-0.00027787259281973826,-0.0004353472286213802
917,-0.0005356367002044244,-0.0003406699287924903,-0.00044755754427483664,-0.0006819879241666901
918,-0.0008286314842638183,-0.0005260398581511691,-0.000701286065249649,-0.001043669006132093
919,-0.0012545503977367202,-0.0007952280383252737,-0.0010713569683212904,-0.001563107735860291
920,-0.0018617206723873588,-0.0011786845054517737,-0.001598900701711929,-0.0022948823806784647
921,-0.002711647357237415,-0.0017151866054706008,-0.0023352298215603435,-0.0033075455878013313
922,-0.0038812826078306515,-0.002453288302833357,-0.0033431599394454486,-0.004685838647466139
923,-0.005465359638453014,-0.0034528158142515266,-0.004698253840622447,-0.006532955570208498
924,-0.0075787173067018414,-0.004786362512541885,-0.006489939893374101,-0.008972797639305636
925,-0.01035852960271192,-0.006540728224137183,-0.008822455393143996,-0.012152152429027572
926,-0.013966345114774462,-0.008818242001957821,-0.011815566056701523,-0.016242726629670457
927,-0.018589835575760844,-0.011737903775663722,-0.015605014572309157,-0.021442959772016792
928,-0.02444415048734176,-0.015436279416007285,-0.020342654114972363,-0.027979546396936828
929,-0.03177277707508027,-0.020068085962668385,-0.026196227323787836,-0.0361085975620065
930,-0.04084781182303338,-0.02580640909721915,-0.03334875767963592,-0.04611637888011362
931,-0.05196956178102245,-0.032842503214919654,-0.04199752867462155,-0.058319571457398654
932,-0.06546541068800475,-0.04138513529219901,-0.05235263659187152,-0.07306501386301271
933,-0.08168790631673635,-0.0516594466534208,-0.064635114847776,-0.0907288971132566
934,-0.10101205052042372,-0.06390532111673139,-0.07907464122285852,-0.11171539983312762
935,-0.12383180107885722,-0.07837526320865633,-0.09590685332947618,-0.13645476631262976
936,-0.15055582315757055,-0.09533180553953903,-0.11537031169117089,-0.16540084505601405
937,-0.18160255644559523,-0.11504447940730787,-0.1377031632036677,-0.19902811863462563
938,-0.2173946902957646,-0.13778639666417125,-0.16313956992066375,-0.23782826638341234
939,-0.2583531620954839,-0.1638305033074694,-0.1919059785439333,-0.2823063091750199
940,-0.3048908125524519,-0.19344557567111406,-0.22421731428688452,-0.33297638991246137
941,-0.35740584481788457,-0.226892038109256,-0.2602731886443369,-0.3903572445588293
942,-0.4162752419507241,-0.2644176864004803,-0.30025421389737106,-0.4549674168172879
943,-0.4818482990246135,-0.30625340361639086,-0.34431851788752565,-0.52732026557617
944,-0.5544404223489338,-0.35260895490116734,-0.3925985507619088,-0.6079188087031705
945,-0.6343273392067496,-0.40366894465802455,-0.44519827110251975,-0.6972504405599201
946,-0.7217398477804823,-0.459589014331409,-0.5021907921880321,-0.7957815545744457
947,-0.816859219239988,-0.5204923517206026,-0.5636165601599924,-0.9039520971497419
948,-0.9198133430895854,-0.5864665740530008,-0.6294821246429646,-1.0221700757563192
949,-1.0306736836678716,-0.6575610374170205,-0.6997595489977588,-1.1508060427009414
950,-1.149453091119726,-0.7337846151301041,-0.774386492038003,-1.290187576983637
951,-1.276104485276354,-0.8151039776567139,-0.8532669759832283,-1.440593789815458
952,-1.4105204068301667,-0.9014423971413484,-0.9362728370342507,-1.6022498845444593
953,-1.5525334081179973,-0.992679090690105,-1.0232458357153529,-1.7753218085619618
954,-1.7019172367398303,-1.088649108294902,-1.1140003845940731,-1.9599110427698838
955,-1.8583887498857496,-1.1891437637177678,-1.2083268317984261,-2.1560495828443975
956,-2.0216104859933566,-1.293911599650581,-1.3059952205965064,-2.3636951752506543
957,-2.191193813172697,-1.4026598719366123,-1.406759428901846,-2.5827268791626863
958,-2.3667025703059057,-1.5150565315028195,-1.5103615786118019,-2.8129410325688666
959,-2.5476571161770556,-1.6307326768613801,-1.616536593789332,-3.054047706399551
960,-2.733538703606007,-1.7492854445861883,-1.7250167793600175,-3.30566773407079
961,-2.9237940985459043,-1.8702813000730338,-1.8355362885849584,-3.567330405043016
962,-3.117840367777078,-1.9932596861940615,-1.947835348324838,-3.838471909577979
963,-3.315069762709831,-2.1177369832316604,-2.0616641161363685,-4.118434617663895
964,-3.514854630647502,-2.243210729833434,-2.1767860525019604,-4.406467267984197
965,-3.716552288631631,-2.369164051804699,-2.292980704785373,-4.701726132848031
966,-3.919509798832911,-2.495070243488345,-2.410045816448058,-5.0032772123142495
967,-4.12306858859707,-2.6203974453904957,-2.5277986950818825,-5.310099495589879
968,-4.326568862952304,-2.7446133616631547,-2.646076795169227,-5.621089310561978
969,-4.529353762838311,-2.867189962057198,-2.7647374952923673,-5.935065763523582
970,-4.730773228648786,-2.9876081149413287,-2.883657073835933,-6.25077725133064
971,-4.930187535907729,-3.1053621007931844,-3.002728911133258,-6.566909007938465
972,-5.126970477927575,-3.219963958974627,-3.121860968675153,-6.8820916270545345
973,-5.320512178906659,-3.3309476243057556,-3.2409726167679573,-7.194910483015163
974,-5.510221529799288,-3.4378728136213685,-3.3599909004376753,-7.503915953410122
975,-5.695528248062538,-3.54032862581904,-3.478846349177793,-7.8076343298499085
976,-5.875884570678625,-3.6379368216533337,-3.597468449258963,-8.104579287949118
977,-6.050766597336097,-3.7303547515783824,-3.7157809077967845,-8.393263774385952
978,-6.219675307049954,-3.8172779013137768,-3.8336968456487033,-8.672212158055498
979,-6.382137276596696,-3.8984420256628165,-3.9511140614132594,-8.93997248410066
980,-6.537705132804315,-3.973624841707578,-4.067910511090187,-9.19512866420672
981,-6.685957772935111,-4.042647253164684,-4.183940146917804,-9.436312434193155
982,-6.826500388190425,-4.105374078753733,-4.2990292540448225,-9.662214910801618
983,-6.958964324871636,-4.161714259236299,-4.412973414589895,-9.871597583741684
984,-7.083006816101685,-4.2116205206089985,-4.525535215083832,-10.063302586449252
985,-7.198310614405024,-4.255088474990437,-4.636442795412,-10.236262099397617
986,-7.304583552030644,-4.292155146155786,-4.745389315703472,-10.389506752788435
987,-7.4015580518690545,-4.322896913487863,-4.8520333930049455,-10.52217291058075
988,-7.488990607365012,-4.3474268762989405,-4.95600053306845,-10.633508734646737
989,-7.56666124518582,-4.365891649940677,-5.056885555218464,-10.722878946001822
990,-7.6343729798029125,-4.3784676157094395,-5.154255980976736,-10.78976821926337
991,-7.691951264818543,-4.385356658061603,-5.247656330680003,-10.833783166528816
992,-7.739243442046508,-4.386781434803725,-5.33661324735755,-10.854652887552236
993,-7.776118186239986,-4.382980238380071,-5.420641344189724,-10.85222808427117
994,-7.802464941115337,-4.374201518759785,-5.499249651459735,-10.826478759218878
995,-7.81819334106539,-4.36069815031181,-5.571948521546844,-10.777490538948433
996,-7.823232612752851,-4.342721536018147,-5.6382568366865895,-10.70545968504343
997,-7.817530951631508,-4.320515651991345,-5.6977093543979,-10.610686876296636
998,-7.801054870294891,-4.294311143127066,-5.749864020001308,-10.49356986586224
999,-7.773788518240853,-4.264319586479742,-5.794309074717885,-10.354595136269705
1000,-7.735732975899001,-4.230728042305904,-5.830669791430058,-10.194328692749574
1001,-7.686905529221232,-4.193694013463137,-5.858614678082271,-10.013406150975355
1002,-7.627338934334268,-4.153340931847094,-5.87786100051755,-9.812522288666726
1003,-7.55708068423804,-4.109754285721951,-5.888179491812827,-9.592420241126938
1004,-7.476192290932605,-4.062978494114433,-5.88939813341018,-9.353880528323169
1005,-7.384748596475839,-4.013014623881084,-5.8814049141004086,-9.097710105233794
1006,-7.282837125354787,-3.959819031620613,-5.864149495788608,-8.824731627622237
1007,-7.1705574884615295,-3.903302996326754,-5.83764373952566,-8.53577312198802
1008,-7.048020846319298,-3.843333389684907,-5.801961071009503,-8.231658241142723
1009,-6.915349436480814,-3.7797344094676353,-5.757234691024228,-7.913197275746655
1010,-6.7726761676599,-3.7122903780105028,-5.70365466239633,-7.581179077438084
1011,-6.6201442815069065,-3.6407495828594727,-5.641463930297825,-7.236364031214908
1012,-6.4579070822230085,-3.564829111137979,-5.570953356471763,-6.879478193883295
1013,-6.286127734503425,-3.48422060386198,-5.4924558696709855,-6.51120869210327
1014,-6.104979131516607,-3.3985968322684674,-5.406339853895768,-6.132200448284012
1015,-5.914643836513135,-3.307618976142119,-5.313001912614105,-5.743054275768539
1016,-5.715314103827752,-3.2109444649647423,-5.212859160839842,-5.3443263568693125
1017,-5.507191987037204,-3.1082352271526843,-5.106341207535278,-4.936529088885302
1018,-5.290489543420187,-2.9991661811607644,-4.993881998102128,-4.520133254821953
1019,-5.065429144267561,-2.8834337950780564,-4.875911690549656,-4.0955714477991565
1020,-4.832243899767562,-2.76076453860378,-4.752848739157613,-3.663242651786836
1021,-4.591178205038726,-2.6309230529297083,-4.625092356053633,-3.223517857104441
1022,-4.342488410447125,-2.4937198699487015,-4.493015514180476,-2.7767465677956755
1023,-4.0864436148116665,-2.349018522174558,-4.356958644819382,-2.323264040205153
1024,-4.899361229882168e-14,-2.6732049760613002e-14,-6.411454986809985e-14,-4.774986590088725e-14
1025,-1.0236962538496077e-12,-5.658115863607127e-13,-1.377500190703754e-12,-1.0237076623047766e-12
1026,-1.216515192049162e-11,-6.885621416616327e-12,-1.6136844662383535e-11,-1.2166496356496583e-11
1027,-9.709474396422891e-11,-5.6217867679911164e-11,-1.2673793526142823e-10,-9.675277538789211e-11
1028,-5.849737424571975e-10,-3.4579607361668516e-10,-7.511153317724161e-10,-5.791167853570589e-10
1029,-2.8451699409841677e-09,-1.7131480297114028e-09,-3.592963208508029e-09,-2.7903740907090034e-09
1030,-1.1668709932576148e-08,-7.138442160115539e-09,-1.4489620760730462e-08,-1.1306430700363282e-08
1031,-4.160694871378849e-08,-2.5790973152858408e-08,-5.079205314096213e-08,-3.9734019747117106e-08
1032,-1.319441814580851e-07,-8.264586424271816e-08,-1.583124558449328e-07,-1.239359265149634e-07
1033,-3.786850270634457e-07,-2.3903827364146735e-07,-4.4647790073030833e-07,-3.49311980334636e-07
1034,-9.972902494078416e-07,-6.327833890926238e-07,-1.1552018224601113e-06,-9.024335684688531e-07
1035,-2.4369800976004064e-06,-1.5505936451515716e-06,-2.7729852205996304e-06,-2.161911792197398e-06
1036,-5.5760576965567816e-06,-3.5502115937851643e-06,-6.232517019598527e-06,-4.848671577551217e-06
1037,-1.2037379009031669e-05,-7.654526508201586e-06,-1.3216990359816201e-05,-1.0261468690641931e-05
1038,-2.4672966951773212e-05,-1.5644420397295387e-05,-2.661678538981593e-05,-2.062905184721768e-05
1039,-4.8275696717075005e-05,-3.0480611688637404e-05,-5.118133587389637e-05,-3.961526723631843e-05
1040,-9.058264283921818e-05,-5.688677074716094e-05,-9.441418226333586e-05,-7.30170143344179e-05
1041,-0.00016363773615420002,-0.00010212619674138117,-0.00016775981348552215,-0.00012969670118387333
1042,-0.00028557965579700134,-0.0001770020369428624,-0.0002881284515424272,-0.00022279021267336937
1043,-0.0004829135100641568,-0.0002971062399517249,-0.0004797991194035829,-0.00037122803464281805
1044,-0.0007933113540358947,-0.00048433519247560605,-0.00077673196493899,-0.0006016008729152375
1045,-0.0012689668790431333,-0.0007686805006603363,-0.0012253078250504222,-0.0009503918369012926
1046,-0.001980504046327855,-0.001190291993577188,-0.001887496470315642,-0.0014665851274354132
1047,-0.003021408821131603,-0.0018017972029316588,-0.0028444351080858547,-0.002214646398297974
1048,-0.004512918711978378,-0.0026708478119466215,-0.0042003760037707,-0.003277852875967751
1049,-0.006609268117607552,-0.0038828493682034914,-0.006086937248904769,-0.004761932357645725
1050,-0.009503150393114869,-0.005543816386664391,-0.00866756480068516,-0.00679894990438785
1051,-0.013431222106550901,-0.007783281262418536,-0.012142088233559686,-0.009551360041217826
1052,-0.018679443278321623,-0.010757172594050266,-0.016751228616303224,-0.013216121292860315
1053,-0.025588021541665493,-0.014650567046567232,-0.022780896000285513,-0.018028749733467873
1054,-0.03455571001593172,-0.019680209276601718,-0.030566097501003055,-0.024267169811493995
1055,-0.04604319980719128,-0.026096687278271368,-0.04049426599231587,-0.03225520499540693
1056,-0.060575349569610734,-0.03418614638328507,-0.05300781486244144,-0.042365538765128594
1057,-0.07874200709341546,-0.044271424619441425,-0.06860572664695395,-0.055021969101310214
1058,-0.10119720151442362,-0.05671249564077634,-0.08784399288092962,-0.0707007777542504
1059,-0.12865651902664776,-0.0719061132596661,-0.11133473912739436,-0.08993103990589672
1060,-0.16189251900774665,-0.09028456380257134,-0.13974389254066308,-0.1132937108659528
1061,-0.20172809991106427,-0.11231344894748985,-0.17378727906227723,-0.14141934440462503
1062,-0.2490277834786345,-0.13848844209326724,-0.21422507288920417,-0.17498432217362314
1063,-0.30468694986595724,-0.16933098524222398,-0.2618545615765914,-0.21470550507601752
1064,-0.3696191230268108,-0.2053829203119134,-0.31750123527031,-0.26133325484274955
1065,-0.4447414729405251,-0.24720007805044555,-0.3820082570998481,-0.31564281668377087
1066,-0.5309587666714514,-0.29534487846685614,-0.456224422398317,-0.3784241007527145
1067,-0.629146061541107,-0.35037802789417477,-0.5409907655702888,-0.4504699501675696
1068,-0.7401304886639111,-0.4128494283540129,-0.6371260233212491,-0.5325630351584111
1069,-0.8646725217006955,-0.48328844363069423,-0.7454112097483269,-0.6254615650803032
1070,-1.0034471620955898,-0.5621936922928874,-0.866573600688535,-0.7298840608830048
1071,-1.1570254967491012,-0.6500225598661177,-1.001270460119332,-0.8464934783714131
1072,-1.3258570958729006,-0.7471806397042534,-1.1500728689391153,-0.9758810153115312
1073,-1.510253716930667,-0.8540113243035935,-1.3134500350244445,-1.1185499711788554
1074,-1.7103747648347205,-0.9707857755467311,-1.491754472234823,-1.274900055209023
1075,-1.9262149291809962,-1.0976935035529343,-1.6852084344375768,-1.4452125546860974
1076,-2.157594376990319,-1.2348337795061528,-1.8938919783244266,-1.6296367797059912
1077,-2.404151825350005,-1.3822080982102982,-2.117733005714017,-1.8281781920269708
1078,-2.6653407540648666,-1.5397138914502075,-2.3564996023872515,-2.0406886036190617
1079,-2.9404289457910373,-1.7071396738457534,-2.609794946803377,-2.2668587952611934
1080,-3.228501462235639,-1.8841617791532208,-2.8770550091521274,-2.506213857693911
1081,-3.528467082124261,-2.0703428173074734,-3.157549200320013,-2.7581114986501603
1082,-3.839068142132905,-2.2651319513610653,-3.450384063035025,-3.0217434902696247
1083,-4.158893638253091,-2.467867059356831,-3.754510025553094,-3.296140355049676
1084,-4.486395364467176,-2.677778809622107,-4.068731163843754,-3.5801793069752645
1085,-4.819906790386642,-2.8939966396288654,-4.39171784354167,-3.87259538036525
1086,-5.157664311685443,-3.115556589152624,-4.722022040201753,-4.171995594936324
1087,-5.497830448540601,-3.3414108988077147,-5.058095067797909,-4.4768759242857135
1088,-5.838518519404255,-3.5704392460329326,-5.398307382947964,-4.785640759008792
1089,-6.17781828150977,-3.801461453172693,-5.740970077809801,-5.0966244873868565
1090,-6.513822006465106,-4.033251467346017,-6.084357629471954,-5.408114758110919
1091,-6.844650449659498,-4.264552380164062,-6.426731439119095,-5.718376942583447
1092,-7.168478176182271,-4.494092227822845,-6.766363671097011,-6.025679280252219
1093,-7.48355772331627,-4.720600289368834,-7.101560890684735,-6.328318169984037
1094,-7.7882421098060854,-4.9428235836506085,-7.4306870000194465,-6.624643063996227
1095,-8.081005243974626,-5.159543254185509,-7.752184984017922,-6.913080428168717
1096,-8.36045983491875,-5.369590526332693,-8.064597001826904,-7.192156253044862
1097,-8.625372471648394,-5.571861923080265,-8.366582393599941,-7.460516632466023
1098,-8.874675602083958,-5.7653334345659575,-8.656933216327282,-7.716945970205265
1099,-9.107476215108903,-5.949073352120678,-8.934586974957028,-7.960382427571195
1100,-9.323061102219778,-6.122253499927169,-9.198636274928758,-8.189930285039829
1101,-9.520898648689213,-6.284158625914096,-9.448335188181895,-8.404868956837872
1102,-9.700637175756835,-6.434193747687773,-9.683102195317277,-8.604658467414446
1103,-9.86209992367861,-6.571889288436754,-9.902519640444453,-8.788941271375098
1104,-10.005276829295315,-6.696903881033038,-10.106329710856247,-8.95754037230318
1105,-10.130313310209283,-6.809024765136065,-10.294427029497141,-9.110453769662993
1106,-10.237496320003126,-6.908165751076016,-10.46684802264615,-9.247845335474196
1107,-10.327237984698153,-6.9943627746968655,-10.623757296702992,-9.370032292566071
1108,-10.400057169489303,-7.067767118164984,-10.765431324847349,-9.477469532936732
1109,-10.456559356502575,-7.128636421908143,-10.892239805095091,-9.570731077100323
1110,-10.497415238820617,-7.177323661177067,-11.004625104459446,-9.650489032413775
1111,-10.523338453338587,-7.214264306000683,-11.103080248219708,-9.717490459410703
1112,-10.53506288524928,-7.239961924319816,-11.188125947539614,-9.772532599369413
1113,-10.533319980265201,-7.254972523684798,-11.260287181902426,-9.81643695300625
1114,-10.518816497238676,-7.259887956082808,-11.320069864355922,-9.850022728681335
1115,-10.49221312381836,-7.2553187324105535,-11.3679381170435,-9.874080198273171
1116,-10.454104361362365,-7.241876607256338,-11.404292671976632,-9.88934450943714
1117,-10.405000062710993,-7.220157300693382,-11.429450887914292,-9.89647050390086
1118,-10.345308977849022,-7.190723721675166,-11.443628839353446,-9.896009082442518
1119,-10.275324628290088,-7.154090047588806,-11.446925889095596,-9.888385638040296
1120,-10.195213791652542,-7.110706997023164,-11.439312102933913,-9.873881049320554
1121,-10.105007833970538,-7.060948608492032,-11.42061880510119,-9.85261568701286
1122,-10.004597079522622,-7.005100807491988,-11.39053250764578,-9.824536836990973
1123,-9.893728357164672,-6.94335200870812,-11.348592377242595,-9.78940988520746
1124,-9.772005809132075,-6.8757859602564055,-11.294191330430726,-9.746813543191767
1125,-9.638894993787686,-6.802376993394758,-11.2265807742025,-9.69613931875623
1126,-9.493730258511308,-6.7229877949316865,-11.144878934566313,-9.636595356317876
1127,-9.335725303439526,-6.637369771371621,-11.048082642525943,-9.56721468615459
1128,-9.163986801602675,-6.545166024411418,-10.93508237627918,-9.486867833497602
1129,-8.977530886703425,-6.445916907515055,-10.804680291801366,-9.394279648296838
1130,-8.77530226695159,-6.339068083737432,-10.655610912822665,-9.288050126599675
1131,-8.556195672745066,-6.223980956554321,-10.4865640969712,-9.166678906688444
1132,-8.319079298439906,-6.099945298994455,-10.296209848860506,-9.028593039433831
1133,-8.062819854969526,-5.966193862656804,-10.083224514259655,-8.872177554753492
1134,-7.786308811704846,-5.821918708001435,-9.846317863009709,-8.695808276581982
1135,-7.488489373736178,-5.6662889613649305,-9.584260552505945,-8.497886279210498
1136,-7.168383715655388,-5.498469673169794,-9.29591145847635,-8.276873329927403
1137,-6.82511997572556,-5.317641426419424,-8.980244365277102,-8.031327628032553
1138,-6.457958505678105,-5.123020325387501,-8.63637352356551,-7.759939129651703
1139,-6.066316871758536,-4.913877981942444,-8.26357760833985,-7.46156374211532
1140,-5.649793112417647,-4.689561111629521,-7.8613216440814755,-7.135255681363085
1141,-5.208186777468072,-4.449510353786473,-7.429276505040436,-6.780297310863935
1142,-4.741517302710427,-4.19327793976576,-6.967335646378986,-6.396225820481411
1143,-4.250039312900643,-3.920543850767207,-6.475628774667495,-5.982856157758072
1144,-3.7342544941541846,-3.631130131638353,-5.9545322228478135,-5.5402996910603814
1145,-3.1949197338428132,-3.3250130588681404,-5.404675854020923,-5.068978162389089
1146,-2.6330512907913493,-3.0023328992933385,-4.826946379138108,-4.5696325756054765
1147,-2.049924829863366,-2.6634010400083374,-4.2224870348359085,-4.043326761324501
1148,-1.4470712312911809,-2.3087043187338767,-3.5926936283072566,-3.4914454606304957
1149,-0.826268164579511,-1.9389064364652022,-2.9392070153668377,-2.9156868738739425
1150,-0.18952749753712367,-1.554846389514451,-2.2639021348961212,-2.318049725895908
1151,0.4609213091139508,-1.157533914973355,-1.568873776772052,-1.7008150029103846
1152,1.997443305731845e-14,-4.760561659585703e-14,-3.8550247290449356e-14,3.099529173873546e-14
1153,4.3717583000521937e-13,-1.039894945695749e-12,-7.846185332577884e-13,6.390950037133413e-13
1154,5.2165889550456526e-12,-1.2378283335609519e-11,-9.270389312710922e-12,7.882642294923663e-12
1155,4.1417858844557547e-11,-9.866608182298328e-11,-7.364590729282209e-11,6.451856463489465e-11
1156,2.476631559968767e-10,-5.924158175297067e-10,-4.418264644883972e-10,3.981801795357432e-10
1157,1.1931426391843204e-09,-2.8656894259742133e-09,-2.14083191951758e-09,1.9794882753613857e-09
1158,4.839079460151625e-09,-1.1665147203188404e-08,-8.751368542393556e-09,8.275594328439593e-09
1159,1.7042650568621516e-08,-4.1203576260354866e-08,-3.111921271684425e-08,2.998583833075586e-08
1160,5.334241146333921e-08,-1.2920809214821342e-07,-9.84679686791938e-08,9.630846241979698e-08
1161,1.5106411911714377e-07,-3.6613214472181125e-07,-2.821327187560963e-07,2.7900794904920005e-07
1162,3.9264170375811856e-07,-9.508001156408925e-07,-7.421474033994718e-07,7.393103025256385e-07
1163,9.475204921677989e-07,-2.2887526089991868e-06,-1.81230091850342e-06,1.8123443439934964e-06
1164,2.1431057120226266e-06,-5.15519194398352e-06,-4.145966685428042e-06,4.149186979187234e-06
1165,4.57885252919312e-06,-1.0950207015761978e-05,-8.952733859234826e-06,8.942097198326309e-06
1166,9.301538804696338e-06,-2.2079259574528186e-05,-1.8364122029986555e-05,1.8263622260781447e-05
1167,1.8063611374516893e-05,-4.249603431923487e-05,-3.5974723137137645e-05,3.555418524172268e-05
1168,3.3689654520993904e-05,-7.844698277568416e-05,-6.761208793267488e-05,6.629468477127702e-05
1169,6.0577765892876375e-05,-0.00013945659148819218,-0.00012239356989407368,0.00011889973734449404
1170,0.00010536218525884601,-0.00023958909170204628,-0.00021413017394374874,0.00020586276578599336
1171,0.0001777602672403025,-0.0003990157175999397,-0.00036313535316961394,0.0003451757191431132
1172,0.0002916204149323045,-0.0006459066714775834,-0.000598489953014551,0.0005620336393049927
1173,0.0004661777936103447,-0.0010186538824055093,-0.0009608026443705092,0.0008908177689716236
1174,0.0007275117248041165,-0.0015684149122452062,-0.0015054880083565723,0.0013773309770005926
1175,0.0011101831051074183,-0.0023619506433382224,-0.0023065620552099007,0.0020812368511429423
1176,0.0016590127230144197,-0.0034847105052313123,-0.0034609278803527307,0.0030786300462775557
1177,0.0024309428798061526,-0.0050440998838156455,-0.0050930933042663586,0.004464641765719438
1178,0.003496906317973656,-0.00717284595354712,-0.00736022902549342,0.006355962122838956
1179,0.00494360925969245,-0.010032361406802345,-0.01045744166067184,0.00889314214570961
1180,0.006875120500333299,-0.013815991289374567,-0.014623102852244546,0.012242523858616019
1181,0.00941414706655864,-0.018752017169575905,-0.020144045244141116,0.01659763852958146
1182,0.012702869906652477,-0.02510628584823193,-0.027360410363346844,0.02217991187400347
1183,0.016903211259797723,-0.0331843273025302,-0.03666991399671294,0.029238521452940983
1184,0.02219640941111043,-0.04333282892009941,-0.04853128306097574,0.03804926600794004
1185,0.0287817869330487,-0.05594034047779072,-0.06346661556822836,0.04891232890498842
1186,0.036874615440666336,-0.07143709666762207,-0.08206242314831436,0.06214884766534004
1187,0.04670300322904621,-0.09029386094408674,-0.10496913438035281,0.07809623776172678
1188,0.058503761426195726,-0.11301971552644086,-0.1328988670922534,0.09710226010307715
1189,0.07251723858602413,-0.14015874684175691,-0.16662131840978453,0.11951786625356689
1190,0.08898115167655232,-0.17228560274362578,-0.2069576716519091,0.14568890156547837
1191,0.10812348158161796,-0.20999992664073136,-0.25477247755635424,0.17594679210996772
1192,0.13015454172927154,-0.25391970336085734,-0.3109635316594635,0.21059838467968703
1193,0.15525836743312638,-0.3046735813192261,-0.3764498374664572,0.2499151485055244
1194,0.18358360920177244,-0.36289226456064844,-0.45215781363406066,0.2941219812152291
1195,0.21523414402253224,-0.42919909577637927,-0.5390059699585474,0.34338588880300513
1196,0.2502596430804739,-0.5041999768143698,-0.6378883387548143,0.39780482909844916
1197,0.2886463514538762,-0.5884727959427708,-0.7496570026096925,0.4573970198090453
1198,0.3303083443124626,-0.6825565506952208,-0.875104104158486,0.5220910152670637
1199,0.3750795247189098,-0.7869403710769471,-1.0149437565449635,0.5917168503578404
1200,0.4227066203852343,-0.9020526598345119,-1.169794293181547,0.6659985357686552
1201,0.4728434211119028,-1.0282505740145838,-1.340161301520366,0.7445481659414477
1202,0.5250464758598341,-1.1658100748199367,-1.5264218775825915,0.8268618704377316
1203,0.5787724393814323,-1.314916770521666,-1.728810516375751,0.9123178015769182
1204,0.6333772240808849,-1.475657769677125,-1.9474070190049375,1.0001763071608174
1205,0.6881170743566791,-1.648014748998603,-2.1821267516719227,1.0895823880402151
1206,0.7421516391815229,-1.8318584219113703,-2.4327135366431287,1.1795704875806183
1207,0.7945490751591366,-2.026944570283668,-2.698735392699708,1.2690716052423525
1208,0.8442931677800826,-2.2329117733362027,-2.979583274751266,1.356922671064508
1209,0.890292414040782,-2.4492809348602,-3.274472891420786,1.4418780633900283
1210,0.9313909658914398,-2.6754566732872753,-3.582449607629716,1.5226231001920176
1211,0.966381291982621,-2.910730599728313,-3.902396368484011,1.5977892862402607
1212,0.9940183756804276,-3.154286467853945,-4.233044512795107,1.6659710553134996
1213,1.013035231066334,-3.4052071375755437,-4.572987280821757,1.7257437097617712
1214,1.0221594863454615,-3.662483253135051,-4.920695762528492,1.7756822298248733
1215,1.0201307564346704,-3.925023496676336,-5.274536980888415,1.8143806029011096
1216,1.005718504126937,-4.191666241849855,-5.632793760422044,1.8404713089297102
1217,0.9777400727096119,-4.461192399575794,-5.993685995003172,1.8526445924572819
1218,0.9350785627507101,-4.732339220668813,-6.3553929015306645,1.8496671548090742
1219,0.8767002223425481,-5.003814798324494,-6.716075827710064,1.8303999108287103
1220,0.8016710236413819,-5.274312997997058,-7.073901173062833,1.7938144734394912
1221,0.7091721091252323,-5.542528533281284,-7.427062982356145,1.739008055222878
1222,0.5985138084958728,-5.807171904186075,-7.773804779738169,1.6652165086289197
1223,0.46914795129630404,-6.0669839186101,-8.112440229631114,1.5718252645825561
1224,0.32067823067636714,-6.320749528667552,-8.441372236372633,1.4583779723400618
1225,0.15286840974098284,-6.567310730334186,-8.759110128027755,1.3245826906363463
1226,-0.03435179716796077,-6.805578297064647,-9.064284609891526,1.170315530553574
1227,-0.24088329094955374,-7.034542144779679,-9.35566021904162,0.9956217031680746
1228,-0.46645667667523566,-7.253280156022202,-9.632145061920639,0.8007139788604322
1229,-0.7106338996969952,-7.460965324159948,-9.892797671374408,0.5859686190859613
1230,-0.9728124028234608,-7.65687111329187,-10.136830876900419,0.3519188942132734
1231,-1.2522317278732644,-7.840374965067055,-10.363612641114807,0.09924635150087145
1232,-1.5479824356860001,-8.010959919106403,-10.57266387563239,-0.17122995589748186
1233,-1.8590171718696735,-8.168214348402666,-10.763653309618302,-0.45856602612122455
1234,-2.1841636622295013,-8.311829844372076,-10.93638954308786,-0.761706963505246
1235,-2.5221393829463783,-8.441597317689675,-11.090810473429643,-1.0795022143204673
1236,-2.8715676170925106,-8.557401410347103,-11.22697033642733,-1.4107216463261565
1237,-3.2309945818568724,-8.659213341329332,-11.345024651156452,-1.7540721238659815
1238,-3.59890729068618,-8.747082332809853,-11.44521340059084,-2.1082142282541185
1239,-3.9737518020775164,-8.821125785756687,-11.52784281583833,-2.471778780437072
1240,-4.353951502460154,-8.88151839328793,-11.593266161116047,-2.8433828389800135
1241,-4.737925074718915,-8.928480396966206,-11.641863938492488,-3.2216448705606475
1242,-5.124103816407057,-8.96226520539806,-11.674023945732232,-3.6051988213386705
1243,-5.510947992229325,-8.983146605883741,-11.6901216269103,-3.992706854586278
1244,-5.8969619332969465,-8.991405808273834,-11.690501153401643,-4.382870561487402
1245,-6.280707630053918,-8.987318565421479,-11.675457661997324,-4.774440496639488
1246,-6.660816605549205,-8.971142616445356,-11.645221056977798,-5.166223936091373
1247,-7.035999899656389,-8.943105697224189,-11.599941753963382,-5.557090802277142
1248,-7.405056041606575,-8.903394356942899,-11.539678705583292,-5.945977745536019
1249,-7.766876936411722,-8.852143809968105,-11.464390003160457,-6.331890414692149
1250,-8.12045163897185,-8.789429038762055,-11.373926295760976,-6.713903988190169
1251,-8.464868036439439,-8.715257345934232,-11.26802720942046,-7.091162071545605
1252,-8.799312503390222,-8.6295625319429,-11.146320886584448,-7.462874095649201
1253,-9.123067634316852,-8.532200849563507,-11.00832670024662,-7.828311373360481
1254,-9.435508192947571,-8.42294885731587,-10.853461130343206,-8.186801988741484
1255,-9.736095447209104,-8.301503261976508,-10.68104672300792,-8.537724704389287
1256,-10.024370081917263,-8.167482805573632,-10.490323987610461,-8.8805020779926
1257,-10.299943898399157,-8.020432215418746,-10.28046602337669,-9.214592979975498
1258,-10.562490521385675,-7.859828197376432,-10.050595608085523,-9.539484700504003
1259,-10.811735339008761,-7.685087413379963,-9.79980442706563,-9.854684826889851
1260,-11.047444902067367,-7.495576344899683,-9.527174072580955,-10.159713062217097
1261,-11.269416004442459,-7.29062290546925,-9.231798402665957,-10.454093143541746
1262,-11.477464658272401,-7.0695296283407165,-8.912806815384018,-10.737345003985396
1263,-11.671415165980616,-6.831588220782675,-8.569387970071203,-11.00897730824704
1264,-11.851089477364528,-6.576095245381865,-8.200813472066274,-11.26848047638698
1265,-12.01629700477719,-6.30236866186425,-7.806461032327273,-11.51532029719604
1266,-12.166825054203379,-6.009764941264097,-7.385836618701381,-11.748932221117274
1267,-12.302430016100237,-5.697696448468726,-6.938595131774498,-11.968716414571112
1268,-12.422829448580082,-5.365648779792869,-6.4645591652437835,-12.174033653560402
1269,-12.527695178027813,-5.013197739579426,-5.963735448376457,-12.364202135251924
1270,-12.616647539378382,-4.6400256438891345,-5.4363286157481046,-12.538495292117403
1271,-12.689250880320193,-4.245936649865018,-4.882752006169485,-12.696140703916221
1272,-12.74501046029044,-3.8308708258448205,-4.3036352572790335,-12.836320217472752
1273,-12.783370885247805,-3.394916699086231,-3.6998285331815985,-12.9581714013841
1274,-12.803716231143802,-2.9383220443030598,-3.0724032979833735,-13.060790480472882
1275,-12.80537202050556,-2.4615027062771753,-2.4226496261228125,-13.143236910492565
1276,-12.78760922494228,-1.9650492828131076,-1.752070118865636,-13.204539764482941
1277,-12.74965046886056,-1.449731529495007,-1.0623705729188255,-13.243706105282572
1278,-12.690678603401688,-0.9165003844231822,-0.3554476194454881,-13.259731511111562
1279,-12.609847801981505,-0.3664875487614476,0.36662638253102803,-13.251612900234585
1280,-9.492580683862835e-14,-3.096308566041925e-14,-7.450633392987571e-14,-1.0722550387329055e-13
1281,-2.090048614485766e-12,-6.520261162489766e-13,-1.6228655587222558e-12,-2.3505870996246053e-12
1282,-2.5206675716766718e-11,-7.819031239262142e-12,-1.912853693471727e-11,-2.8066971029069688e-11
1283,-2.0355479199204646e-10,-6.304183555467043e-11,-1.5081687590873105e-10,-2.243855465870343e-10
1284,-1.2381073864674844e-09,-3.8372064748495186e-10,-8.952241415362171e-10,-1.3520446021297498e-09
1285,-6.065239536163271e-09,-1.885112306639113e-09,-4.279997292641573e-09,-6.567246450713783e-09
1286,-2.4991372454709403e-08,-7.804822950654874e-09,-1.7220031820832853e-08,-2.6858541811782548e-08
1287,-8.929852276565719e-08,-2.807081088144659e-08,-6.014025309943631e-08,-9.536499585247114e-08
1288,-2.830641772155412e-07,-8.969517521739012e-08,-1.8659233290305488e-07,-3.007386913665927e-07
1289,-8.101354172198322e-07,-2.5907310058917084e-07,-5.236188957053723e-07,-8.572626319260831e-07
1290,-2.1229967545173738e-06,-6.857611486936452e-07,-1.3481173956201888e-06,-2.2398214436040803e-06
1291,-5.1523581012447785e-06,-1.6820791581718877e-06,-3.2214113868599614e-06,-5.4247964412311394e-06
1292,-1.1689853281397782e-05,-3.858497029529295e-06,-7.212423821548804e-06,-1.2292721628311365e-05
1293,-2.4990032222770137e-05,-8.340796704076765e-06,-1.5248795090542357e-05,-2.6263780386733715e-05
1294,-5.06702934741612e-05,-1.710083732649734e-05,-3.064427921907184e-05,-5.325123559943377e-05
1295,-9.799684892720372e-05,-3.3437690790794e-05,-5.8858857328474466e-05,-0.00010302873201071157
1296,-0.00018164961429043493,-6.26492216642586e-05,-0.00010855416747350765,-0.00019111311307785778
1297,-0.0003240576990283571,-0.00011293517544177085,-0.00019300996542359868,-0.0003412631445474572
1298,-0.0005583889288915154,-0.00019657094298734183,-0.00033196635704717237,-0.0005886848866593127
1299,-0.0009322610263259403,-0.0003313859869963889,-0.0005539505718710447,-0.0009840155128656523
1300,-0.0015122186259616342,-0.0005425722604580245,-0.0008991353813439653,-0.0015981289371715893
1301,-0.0023889896168312,-0.0008648358723277707,-0.001422758494579993,-0.002527769264109339
1302,-0.0036834972510459817,-0.001344890070003644,-0.002199108352468729,-0.0039019731655598085
1303,-0.0055535623657202654,-0.0020442698577719217,-0.003326052111629442,-0.005889191855888728
1304,-0.008201184660980134,-0.003042428998570033,-0.004930047207044131,-0.008704969946930574
1305,-0.011880245306099024,-0.004440059639741184,-0.007171540185284174,-0.012619985004167247
1306,-0.016904427439412735,-0.006362554335919404,-0.010250617473187267,-0.017968201073423364
1307,-0.023655108671457037,-0.008963510827940812,-0.014412734725958895,-0.025154844663984013
1308,-0.03258894271806462,-0.012428162591699649,-0.01995431692327758,-0.03466387524344934
1309,-0.04424481784152868,-0.016976603876727017,-0.027227992983901536,-0.047064596426504846
1310,-0.059249859678699675,-0.0228666676180125,-0.03664720864810112,-0.06301704049299375
1311,-0.07832413677984261,-0.030396309011174145,-0.04868995158742057,-0.08327575893657548
1312,-0.10228372988591379,-0.039905347303616966,-0.06390132438595449,-0.1086916661880885
1313,-0.13204184131506955,-0.051776423866971025,-0.08289471473341191,-0.14021161267551677
1314,-0.1686076490161146,-0.06643504601705846,-0.1063513377055715,-0.178875406582107
1315,-0.2130826505703269,-0.0843486031956321,-0.135017961580366,-0.22581006005452103
1316,-0.2666542948547774,-0.10602426459905415,-0.16970267494613844,-0.282221103637999
1317,-0.3305867618867944,-0.13200569444576296,-0.21126860722787918,-0.34938089032035535
1318,-0.40620882277833215,-0.16286855191269659,-0.26062557523177465,-0.42861389530602423
1319,-0.4948987896338953,-0.1992147762871827,-0.3187196927074131,-0.5212791068045607
1320,-0.5980666473228001,-0.24166569295134865,-0.3865210458968538,-0.628749693856469
1321,-0.7171335429748472,-0.2908540113192562,-0.46500960312832074,-0.7523902266539241
1322,-0.8535088924376872,-0.34741482071236945,-0.555159588271609,-0.8935318101219585
1323,-1.0085654434855145,-0.41197572338364763,-0.6579226039787236,-1.0534455700179142
1324,-1.1836127109825743,-0.48514627453857134,-0.7742098390035776,-1.2333149999940112
1325,-1.3798692671503214,-0.5675069263454346,-0.9048737327898203,-1.4342077357250271
1326,-1.5984344281971952,-0.6595976957005045,-1.0506894986225532,-1.6570473664237597
1327,-1.8402599245105644,-0.7619067930840746,-1.2123369231283192,-1.9025859233193458
1328,-2.1061221732116104,-0.874859461458282,-1.390382864460543,-2.1713776978462516
1329,-2.3965957873048516,-0.9988072791938521,-1.5852648643138152,-2.4637550387322906
1330,-2.7120289535927067,-1.1340181790332384,-1.7972762706178846,-2.7798067566989255
1331,-3.052521291299822,-1.2806674259033832,-2.0265532393850734,-3.119359728376317
1332,-3.4179047650218273,-1.4388297800621896,-2.273063946973091,-3.4819642380065603
1333,-3.8077281699983034,-1.608473048976015,-2.536600299327105,-3.8668835276919578
1334,-4.221245636356364,-1.78945320214889,-2.8167723739123414,-4.27308794585301
1335,-4.65740951408192,-1.9815111887848293,-3.113005774294467,-4.699253991053445
1336,-5.114867904806455,-2.184271559793348,-3.424542017829074,-5.143768446583551
1337,-5.591967003239881,-2.3972429545091076,-3.7504420147766098,-5.60473769256342
1338,-6.086758303716777,-2.619820469905946,-4.089592633429024,-6.080002169404442
1339,-6.597010619460649,-2.8512898873380252,-4.4407162815997046,-6.567155851948685
1340,-7.1202267573536115,-3.0908336901505065,-4.802383371215842,-7.063570480268169
1341,-7.653664592529031,-3.337538765969093,-5.173027470951259,-7.566424183746411
1342,-8.194362197886925,-3.5904056510772007,-5.550962893089862,-8.072734032426403
1343,-8.739166606045625,-3.8483591418711867,-5.934404406383182,-8.579391956300077
1344,-9.284765717048133,-4.110260070670859,-6.321488717813906,-9.083203391635406
1345,-9.827722815416772,-4.374918020741205,-6.7102973240989785,-9.580927945710867
1346,-10.364513125270134,-4.6411047386882816,-7.098880299563999,-10.069321319235105
1347,-10.891561811883218,-4.907567991698626,-7.485280561675901,-10.545177690639811
1348,-11.405282831389465,-5.173045612491393,-7.867558139872286,-11.005371749238094
1349,-11.902118035924929,-5.436279476258633,-8.243813968041183,-11.446899565312975
1350,-12.378575957714123,-5.696029161022257,-8.612212726539452,-11.866917504392662
1351,-12.831269720551337,-5.951085055324302,-8.971004276172293,-12.262778429635743
1352,-13.256953558976852,-6.20028069445236,-9.318543253941614,-12.632064489305243
1353,-13.652557462404982,-6.44250412784653,-9.65330643809714,-12.972615854293736
1354,-14.015219501907223,-6.676708145217778,-9.973907537223688,-13.282554851808696
1355,-14.342315439890909,-6.9019192164370695,-10.27910911358423,-13.560305033648016
1356,-14.631485266443796,-7.117245029576569,-10.567831413284592,-13.804604818869832
1357,-14.880656349908918,-7.321880541708086,-10.839157943455808,-14.014515458919574
1358,-15.088062932998595,-7.5151124873152995,-11.09233770795087,-14.189423186292855
1359,-15.252261749531268,-7.6963223186609495,-11.326784086442387,-14.329035523548834
1360,-15.372143581084739,-7.864987580522362,-11.542070415756847,-14.433371846019279
1361,-15.446940618113535,-8.020681747908418,-11.737922405280804,-14.502748407047585
1362,-15.476229537058233,-8.163072579422789,-11.914207588771763,-14.537758147222071
1363,-15.459930254300678,-8.291919060718408,-12.070922081272853,-14.539245716982593
1364,-15.398300369938774,-8.407067031978354,-12.208174970364363,-14.508278243242724
1365,-15.291925369451267,-8.508443610606667,-12.32617072396513,-14.446112463278997
1366,-15.141704709255345,-8.596050535403782,-12.425190040676483,-14.354158931056697
1367,-14.948833972423326,-8.669956571537107,-12.505569601803773,-14.233944070344817
1368,-14.714783342526639,-8.730289126686523,-12.567681205608228,-14.087070903396615
1369,-14.441272705446266,-8.77722523789846,-12.611910773432161,-13.915179321676098
1370,-14.130243749406317,-8.810982095903038,-12.63863771406056,-13.719906784282442
1371,-13.783829490558633,-8.831807278853196,-12.648215117545329,-13.502850328819386
1372,-13.404321703122886,-8.839968870499309,-12.640951223707187,-13.265530757348131
1373,-12.99413677731588,-8.835745638577736,-12.617092574948432,-13.00935981619598
1374,-12.555780563192126,-8.819417447554443,-12.576809219316281,-12.735611122932044
1375,-12.091812782473939,-8.791256075763508,-12.52018227942708,-12.44539550776179
1376,-11.60481160230639,-8.751516600410485,-12.447194147299241,-12.139641331806825
1377,-11.097338963981167,-8.700429504922148,-12.357721505660106,-11.819080223945539
1378,-10.571907245953991,-8.638193651814511,-12.251531314144225,-11.484238544534286
1379,-10.03094781440722,-8.564970250752063,-12.128279835261162,-11.135434742393503
1380,-9.476781977124178,-8.480877935933165,-11.987514711428094,-10.772782625233505
1381,-8.91159480882123,-8.385989049507169,-11.828680042182798,-10.39620041761205
1382,-8.337412259797475,-8.28032720855102,-11.651124351418657,-10.005425338841667
1383,-7.756081896379508,-8.163866212354625,-11.454111279572563,-9.60003329998118
1384,-7.169257552762913,-8.03653032456972,-11.23683278642514,-9.179463197708007
1385,-6.578388101080131,-7.89819594141881,-10.998424607489088,-8.743045176547183
1386,-5.984710471411347,-7.748694632979924,-10.737983671385628,-8.290032142187664
1387,-5.389246977470606,-7.587817519990247,-10.454587157229236,-7.819633739480079
1388,-4.79280692820945,-7.415320924149376,-10.147312849600604,-7.331051960647102
1389,-4.195992431849466,-7.2309332060945755,-9.815260433737153,-6.823517523090178
1390,-3.59920822806705,-7.034362682611525,-9.457573364610413,-6.296326152111908
1391,-3.0026753173296665,-6.8253064937441295,-9.073460940143578,-5.7488739213682925
1392,-2.406448094780497,-6.603460271720346,-8.6622202105891,-5.1806908417338295
1393,-1.8104346405600922,-6.3685284473768125,-8.223257362745032,-4.591471945726776
1394,-1.214419769900055,-6.120235016305287,-7.75610822897589,-3.981105187445639
1395,-0.618090405437795,-5.858334576417908,-7.2604575866331515,-3.3496955645037123
1396,-0.021062801511270827,-5.5826234410972875,-6.736156933108975,-2.697584965906496
1397,0.5770888739947436,-5.292950627545217,-6.183240445027183,-2.0253673553025062
1398,1.1768031102898417,-4.98922851830988,-5.601938856598126,-1.3338990096869827
1399,1.7785012940217924,-4.67144299519147,-4.9926910216015,-0.6243036466992232
1400,2.3825581355910908,-4.339662848764993,-4.356152955553604,0.10202761343777611
1401,2.9892727890666912,-3.994048273632361,-3.693204189178506,0.8434413948771967
1402,3.598841157522258,-3.6348582692949085,-3.0049513011987146,1.5980321597718306
1403,4.211329853212089,-3.262456779334495,-2.292728537533682,2.3636569871317934
