,TP9,AF7,AF8,TP10
0,-4.170082421274962e-14,-3.980926918278246e-14,-4.454586519219247e-14,-4.059796132614315e-14
1,-8.81717410757591e-13,-8.450499655041268e-13,-9.609703544504275e-13,-8.669056473230447e-13
2,-1.0112421136261397e-11,-9.972346939032792e-12,-1.142050851039221e-11,-1.0295995961347448e-11
3,-7.763181048041817e-11,-7.888654812463556e-11,-9.090157071910815e-11,-8.194163342903608e-11
4,-4.490438912879619e-10,-4.703594749829107e-10,-5.449855580627256e-10,-4.912367986971381e-10
5,-2.094835968868696e-09,-2.26130710883679e-09,-2.6325689558659433e-09,-2.372816106833115e-09
6,-8.239412602241512e-09,-9.158115466443665e-09,-1.0703864486397754e-08,-9.647277481316754e-09
7,-2.8195393279823976e-08,-3.222327789933542e-08,-3.7778912697362314e-08,-3.404833503014807e-08
8,-8.593802577322727e-08,-1.0079099486475702e-07,-1.184326717732052e-07,-1.0673567937871972e-07
9,-2.3756484941969424e-07,-2.8527267126317776e-07,-3.3566786499021965e-07,-3.0252551278730285e-07
10,-6.041865014539227e-07,-7.409421903722266e-07,-8.723232820630076e-07,-7.862917241854446e-07
11,-1.4299370601302362e-06,-1.7861591746597733e-06,-2.102428418570991e-06,-1.8955709053883948e-06
12,-3.1786319860797957e-06,-4.03371543732238e-06,-4.743551689200762e-06,-4.278687031203505e-06
13,-6.686974224495398e-06,-8.599807425231938e-06,-1.0097211022806664e-05,-9.113486203547611e-06
14,-1.3396828958024453e-05,-1.7421130933604316e-05,-2.0410298797034992e-05,-1.84375824290383e-05
15,-2.5693563396255124e-05,-3.3716212028194244e-05,-3.939560425835688e-05,-3.5626293130628204e-05
16,-4.7381303807982744e-05,-6.263165971498982e-05,-7.295324744459203e-05,-6.605855824808705e-05
17,-8.432866253984862e-05,-0.00011211679689117559,-0.00013013654273490857,-0.00011801345344335472
18,-0.0001453194724234559,-0.0001940703164670061,-0.00022440493255472145,-0.0002038398260549392
19,-0.00024314179705023955,-0.00032579950470477823,-0.00037520272943578835,-0.00034143857202903564
20,-0.00039594450760563056,-0.000531825634515652,-0.0006098951747902971,-0.000556090714385694
21,-0.0006288837199359154,-0.0008460580977980369,-0.0009660826233906118,-0.0008826544911331585
22,-0.0009760712580445714,-0.001314344804455385,-0.0014942995268855195,-0.0013681411008297153
23,-0.001482824180138274,-0.001997387776530644,-0.002261087540939706,-0.0020746618573755818
24,-0.002208198656955816,-0.002973991489097212,-0.003352411945480974,-0.003082719834441806
25,-0.003227773769413834,-0.004344588396158466,-0.0048773682865108975,-0.00449479746377769
26,-0.004636631956185815,-0.00623496243992215,-0.006972102571787792,-0.0064391690351124015
27,-0.0065524639246321145,-0.008800068457148556,-0.009803844520845557,-0.009073844815165088
28,-0.009118707977590117,-0.012227824532078357,-0.01357493046602544,-0.012590532796587527
29,-0.012507618072537367,-0.016742736681595122,-0.018526671791148867,-0.017218486091114434
30,-0.016923142641832426,-0.022609201842296176,-0.024942907552415208,-0.023228089742442434
31,-0.022603488258103762,-0.030134326841686997,-0.03315306735889321,-0.030934031104708114
32,-0.029823239409489274,-0.0396700985616431,-0.04353456376856541,-0.04069789354531622
33,-0.03889490845216202,-0.05161474430082422,-0.05651433325869387,-0.05293001450153448
34,-0.05016979840381739,-0.06641313162018976,-0.0725693519007869,-0.06809045605528305
35,-0.06403807547611905,-0.08455607364297188,-0.09222596658965318,-0.08668894920034692
36,-0.08092796766258308,-0.10657842852343982,-0.11605790513176241,-0.10928369168790726
37,-0.10130402958674484,-0.13305590996695463,-0.14468285846473755,-0.13647890339478552
38,-0.12566444123471746,-0.1646005584014569,-0.17875756519411676,-0.16892107201232195
39,-0.1545373380138455,-0.20185485859738017,-0.2189713715736893,-0.20729385473181303
40,-0.1884762005040836,-0.2454845280089109,-0.26603828773286403,-0.2523116375106785
41,-0.2280543628999775,-0.2961700396007246,-0.32068761172870586,-0.30471179125343184
42,-0.2738587280372252,-0.3545969821623014,-0.3836532449342217,-0.36524570251681315
43,-0.3264828026708327,-0.4214453988676882,-0.4556618732272234,-0.43466869379372286
44,-0.38651918809729946,-0.49737827995270983,-0.5374202361947605,-0.5137289837412046
45,-0.4545516773350509,-0.5830294167867219,-0.6296017489541562,-0.6031558697141188
46,-0.5311471202816406,-0.6789908513537334,-0.7328327762423565,-0.7036473426411188
47,-0.6168472223077494,-0.7858001763934604,-0.8476788844787525,-0.8158573668162005
48,-0.7121604397286097,-0.9039279564836953,-0.9746314132984553,-0.9403830739411797
49,-0.817554127909965,-1.0337655486087838,-1.1140947127723346,-1.0777521312647793
50,-0.9334470850468795,-1.1756136018474201,-1.2663743858406207,-1.2284105475883182
51,-1.0602026177056858,-1.3296715095033742,-1.4316668575218996,-1.3927111780597516
52,-1.1981222339848356,-1.496028073294772,-1.6100505637978988,-1.5709031790386663
53,-1.3474400476787887,-1.6746536183697867,-1.801479014706487,-1.7631226480576476
54,-1.5083179532442539,-1.865393770460741,-2.0057759394537933,-1.9693846614045014
55,-1.6808416078237414,-2.067965073213605,-2.22263266793672,-2.1895768936798277
56,-1.8650172341957192,-2.2819525856344898,-2.451607844834759,-2.4234549706126844
57,-2.060769238294462,-2.506809557819745,-2.692129511421504,-2.670639669389746
58,-2.2679386176732397,-2.7418592388868244,-2.943499528567016,-2.9306160408675512
59,-2.4862821235017347,-2.98629882549329,-3.2049002541378395,-3.2027344864926115
60,-2.7154721286365797,-3.2392055136457087,-3.4754033311198302,-3.486213780788722
61,-2.9550971479743366,-3.4995445716859512,-3.753980391038782,-3.780145989098832
62,-3.2046629544940153,-3.7661793093374216,-4.039515432074532,-4.083503191025754
63,-3.463594234804763,-4.037882777378337,-4.3308185937284875,-4.395145883715439
64,-3.7312367312368364,-4.3133509957367355,-4.626641020703803,-4.713832906622366
65,-4.0068598230820145,-4.591217475403601,-4.925690488128424,-5.038232701358816
66,-4.289659506956056,-4.870068772317644,-5.226647448430173,-5.366935697139055
67,-4.578761744788945,-5.148460789969775,-5.528181156857477,-5.698467594492862
68,-4.873226156950217,-5.424935532441208,-5.828965537447241,-6.031303307499717
69,-5.1720500467702015,-5.698038001279012,-6.127694463661073,-6.363881317817794
70,-5.474172750555171,-5.966332928188768,-6.423096147350077,-6.6946181921765655
71,-5.778480313559451,-6.22842104096167,-6.713946355532861,-7.021923018607674
72,-6.083810496863487,-6.4829545721564275,-6.999080206039023,-7.344211525288457
73,-6.388958122461614,-6.7286517384655715,-7.277402329727203,-7.659919659211475
74,-6.692680763981784,-6.964309942897524,-7.547895228031318,-7.967516419682625
75,-6.99370478837579,-7.188817481236425,-7.80962569920586,-8.26551576354331
76,-7.290731749804293,-7.401163567893501,-8.06174925384162,-8.552487424569282
77,-7.582445131086501,-7.600446533299398,-8.303512488818692,-8.827066518159825
78,-7.867517420859947,-7.785880084359909,-8.5342534374942,-9.087961833502277
79,-8.144617506394278,-7.95679756009534,-8.753399961135136,-9.333962748056347
80,-8.412418353188775,-8.11265415527867,-8.96046629096695,-9.56394473252542
81,-8.669604933364973,-8.253027124598454,-9.155047870414743,-9.776873447477644
82,-8.914882355685123,-8.377614017615839,-9.336814682095824,-9.971807464441738
83,-9.14698414096188,-8.486229029719073,-9.50550327310217,-10.147899673653065
84,-9.364680577796753,-8.578797585730708,-9.660907714623583,-10.304397466761339
85,-9.56678708507679,-8.65534930030989,-9.80286974783949,-10.440641804939997
86,-9.752172499539553,-8.716009482530067,-9.93126837733552,-10.556065300325512
87,-9.919767199064049,-8.760989370901468,-10.046009176365214,-10.650189451129691
88,-10.06857096527499,-8.79057529970874,-10.14701356549986,-10.722621177913657
89,-10.197660482738357,-8.805117008032516,-10.234208318104573,-10.773048810431042
90,-10.306196366751884,-8.80501530949279,-10.307515533216081,-10.80123767140593
91,-10.393429607879728,-8.79070934391661,-10.366843299374722,-10.807025396065393
92,-10.458707319426615,-8.762663632143573,-10.412077252380037,-10.790317114818738
93,-10.501477674515943,-8.721355152381141,-10.443073206382337,-10.751080611924559
94,-10.521293922818655,-8.66726065122503,-10.459651011747813,-10.689341556171248
95,-10.517817383660194,-8.60084439494123,-10.461589765262508,-10.605178881430552
96,-10.490819322443135,-8.52254655710056,-10.448624468948308,-10.498720376345545
97,-10.440181631116745,-8.432772427359936,-10.420444203489525,-10.370138524271612
98,-10.365896250689511,-8.331882613262225,-10.376691851427434,-10.219646617726378
99,-10.268063294254983,-8.220184392511594,-10.316965374288857,-10.047495156751769
100,-10.146887852302463,-8.097924357371122,-10.240820617119033,-9.853968528351261
101,-10.002675487732258,-7.965282475679376,-10.147775583983128,-9.63938195497301
102,-9.835826455431738,-7.822367674513564,-10.037316099433578,-9.404078694110082
103,-9.646828709861127,-7.669215032739337,-9.90890274430382,-9.14842746853139
104,-9.436249793151738,-7.5057846475848535,-9.761978930090834,-8.87282010730157
105,-9.204727724993015,-7.3319622179922055,-9.59597995521486,-8.577669381292493
106,-8.952961043310928,-7.147561363913776,-9.410342869113677,-8.263407022883168
107,-8.681698170644509,-6.952327676074055,-9.204516956859045,-7.930481927427143
108,-8.391726304438007,-6.745944465207653,-8.977974648074728,-7.579358543190519
109,-8.083860049410708,-6.528040153667372,-8.730222649563943,-7.210515466135853
110,-7.758930025989429,-6.298197225876946,-8.460813101268215,-6.824444265440224
111,-7.417771699771851,-6.055962627740087,-8.169354559892053,-6.421648574302377
112,-7.061214682485681,-5.8008594792225106,-7.855522623504263,-6.002643487773904
113,-6.6900727543721725,-5.532399939359902,-7.519070023285577,-5.56795531446646
114,-6.305134850936403,-5.250099039408482,-7.159836024821572,-5.118121731529193
115,-5.907157243306523,-4.953489278244603,-6.777755000323658,-4.653692391807819
116,-5.496857120943675,-4.642135754904817,-6.372864054211182,-4.175230028197397
117,-5.074907758247343,-4.315651596761583,-5.945309606863529,-3.683312092569116
118,-4.641935413020649,-3.973713428636577,-5.4953528642762715,-3.1785329550890227
119,-4.198518065344287,-3.6160766185368463,-5.023374124030888,-2.6615066742353286
120,-3.7451860609870034,-3.242590030049112,-4.529875889617061,-2.1328703285955495
121,-3.2824246752054145,-2.853210010160774,-4.015484784975722,-1.5932878791337088
122,-2.8106785621283543,-2.4480133448173684,-3.480952278504319,-1.0434545059539677
123,-2.330358003612468,-2.0272089232641095,-2.927154240189469,-0.48410133787472104
124,-1.8418468213721502,-1.5911478664523055,-2.3550893667242505,0.08399953214032767
125,-1.3455117692208298,-1.1403318946741594,-1.7658765173875626,0.6600298758245219
126,-0.8417131802122964,-0.67541973508772,-1.160751008308474,1.2431201522925326
127,-0.3308166079759627,-0.19723140065699285,-0.5410599149157321,1.8323444883473172
128,-1.2061323538466742e-13,-8.754238570011478e-14,1.1484151398501337e-15,-1.1292497376572327e-13
129,-2.6743641359634844e-12,-1.8851877756545498e-12,2.845448747754062e-14,-2.435617844536041e-12
130,-3.200551040239331e-11,-2.253389242799697e-11,8.379716089004368e-14,-2.9089025816927295e-11
131,-2.560260958869547e-10,-1.8058306198928505e-10,-1.4710231969734028e-12,-2.3286541291385353e-10
132,-1.544315115957908e-09,-1.090673440321556e-09,-2.2279759354460718e-11,-1.4049854057690669e-09
133,-7.511017589390182e-09,-5.309443210508789e-09,-1.737409016083359e-10,-6.832537173452668e-09
134,-3.07594889031408e-08,-2.1758915278211498e-08,-9.722014289982816e-10,-2.7972464509399142e-08
135,-1.0933205753229445e-07,-7.740382046216556e-08,-4.332688329478856e-09,-9.940844180473553e-08
136,-3.4495594901653573e-07,-2.445254098255171e-07,-1.6221173307539355e-08,-3.1373702558989747e-07
137,-9.82989135392469e-07,-6.98192769968916e-07,-5.2760846081989926e-08,-8.949936279560835e-07
138,-2.5649003134271485e-06,-1.8272416699297331e-06,-1.5265019077854812e-07,-2.3403088899330794e-06
139,-6.196844012015203e-06,-4.4331512718140005e-06,-3.9988969632537466e-07,-5.673586822609952e-06
140,-1.3990897640393568e-05,-1.0064179970665619e-05,-9.617791810909519e-07,-1.287150024782111e-05
141,-2.974679117451146e-05,-2.154609611630363e-05,-2.147670455186603e-06,-2.7539838123099855e-05
142,-5.9949259588424674e-05,-4.378457797169838e-05,-4.493819679665071e-06,-5.59355480681868e-05
143,-0.00011515740449791798,-8.492636955255832e-05,-8.878748571020805e-06,-0.00010844466764416159
144,-0.00021185602092659516,-0.00015797495648218186,-1.667176156268687e-05,-0.00020163653187600758
145,-0.0003748237576239836,-0.0002829602892983919,-2.9914750319768148e-05,-0.00036101803522427397
146,-0.000640049068144779,-0.0004897595235561134,-5.15343259483131e-05,-0.0006246064278671893
147,-0.0010581928871972338,-0.0008216557645021769,-8.557792907389843e-05,-0.0010474237060682805
148,-0.0016985584208949042,-0.0013397037125519522,-0.000137464215211585,-0.0017069892941102426
149,-0.0026534858014431247,-0.002127944716286422,-0.0002142350260095243,-0.002709850327120055
150,-0.004043045776378673,-0.0032994794073009084,-0.00032479387513802756,-0.004199141150790668
151,-0.006019865719405964,-0.005003364723476196,-0.0004801141898781318,-0.006363107189401304
152,-0.008773886849865254,-0.007432255156169503,-0.0006933994947455679,-0.009444465385824505
153,-0.01253682713620986,-0.010830657379535306,-0.0009801771482616734,-0.013750406915549875
154,-0.01758611276542396,-0.015503615306355016,-0.0013583069983164526,-0.0196629812241608
155,-0.024248044109427432,-0.021825591588191248,-0.001847886342708438,-0.02764953730450866
156,-0.03289998045579404,-0.030249264279864976,-0.0024710329408705717,-0.03827284222813491
157,-0.043971360805950085,-0.04131391643205257,-0.003251528716414336,-0.052200451810398965
158,-0.0579434240565558,-0.05565306420362849,-0.004214308492093616,-0.07021287709375336
159,-0.07534754816667957,-0.07400094784015053,-0.005384780898221203,-0.09321007573317235
160,-0.09676219100210273,-0.09719750128735477,-0.006787972752930572,-0.1222158013628486
161,-0.12280848138665847,-0.12619142155964097,-0.008447493936863698,-0.15837936783593812
162,-0.15414457306804719,-0.16204097899278305,-0.010384327225770203,-0.2029744292072607
163,-0.19145893231849237,-0.20591224434095132,-0.01261545676859305,-0.257394439892992
164,-0.23546277747510874,-0.25907445791161515,-0.01515235984605305,-0.3231445410903316
165,-0.2868819222427236,-0.3228923285641852,-0.017999398971900477,-0.4018297168987409
166,-0.3464482913628012,-0.39881512486044735,-0.021152164837634536,-0.49513917348942693
167,-0.4148913758719001,-0.4883625048579522,-0.024595834340575273,-0.6048270132849446
168,-0.4929298755842796,-0.5931071224523323,-0.028303621033392696,-0.7326893990848887
169,-0.5812637399845866,-0.7146541439386851,-0.03223540665617702,-0.8805385257403692
170,-0.6805667680302857,-0.8546179055028487,-0.03633665069863323,-1.0501738345848883
171,-0.791479866151819,-1.0145960375046268,-0.040537678910172605,-1.2433510137610873
172,-0.914604996551692,-1.1961414715196783,-0.044753450183040125,-1.4617494215814384
173,-1.0504997798719435,-1.4007328281094817,-0.048883893457902915,-1.7069386463964011
174,-1.199672652819207,-1.629743754329366,-0.05281489193136119,-1.9803449720543411
175,-1.3625784277010922,-1.8844118375059844,-0.056419971194122065,-2.2832185506360996
176,-1.5396140618054448,-2.1658077636763258,-0.05956272192422369,-2.616602092291696
177,-1.7311144239480825,-2.4748054136600164,-0.062099957815686904,-2.981301865154334
178,-1.9373478458025026,-2.8120535960090494,-0.06388557724,-3.3778617568369267
179,-2.158511267693707,-3.177950103646145,-0.06477506449936943,-3.806541084218886
180,-2.394724831592048,-3.5726187500841013,-0.06463053513101649,-4.267296752239408
181,-2.646025835645521,-3.9958899925065783,-0.06332620105246953,-4.75977025808767
182,-2.912362040865525,-4.447285683979532,-0.0607541066365407,-5.283279917945839
183,-3.1935844065012895,-4.926008417363644,-0.05682996705109331,-5.836818563115987
184,-3.4894394203799113,-5.430935831155362,-0.05149892613953658,-6.419056814986385
185,-3.7995612778396186,-5.960620144800863,-0.04474104329867319,-7.028351907981723
186,-4.123464241667657,-6.513293080503791,-0.03657631761670901,-7.662761890462131
187,-4.460535579973909,-7.086876212830412,-0.027069063223111464,-8.320064899406978
188,-4.8100295243495514,-7.678996669252378,-0.016331462503360084,-8.997783079332232
189,-5.171062713317876,-8.287007986965252,-0.0045261434830993685,-9.693210602642184
190,-5.54261158368464,-8.908015816704268,0.008132346077047298,-10.403445150554
191,-5.923512144101205,-9.538908055630307,0.02137726328582103,-11.125422133478827
192,-6.312462511569385,-10.176388891342842,0.03489065217792012,-11.855950869413428
193,-6.708028514711308,-10.817016150141608,0.04830560226612478,-12.591751900017057
194,-7.108652570566789,-11.457241266956194,0.06120976161143011,-13.329494607498699
195,-7.512665928628448,-12.093451133679432,0.07315004184947492,-14.065834301421141
196,-7.918304251681152,-12.722011038375214,0.08363841407038734,-14.797447972565154
197,-8.323726373151466,-13.339307880977236,0.09215865933352793,-15.52106795994552
198,-8.727035940660887,-13.941792842235474,0.09817390705837223,-16.23351284515772
199,-9.126305530805665,-14.52602269196302,0.10113476951607979,-16.93171497312165
200,-9.51960270604238,-15.088698949827766,0.10048786193513684,-17.612744097178922
201,-9.90501738561852,-15.626704156352153,0.09568448594286928,-18.273826756253325
202,-10.280689822780658,-16.137134572372883,0.0861892496045978,-18.912361109039804
203,-10.644838423273796,-16.617328700553596,0.07148840035246658,-19.52592707147339
204,-10.99578660781279,-17.06489111089039,0.05109765749399679,-20.112291725592865
205,-11.331987915215217,-17.477711151466487,0.024569348354522395,-20.669410087034933
206,-11.652048563725831,-17.85397623371389,-0.008501324211886837,-21.195421431709352
207,-11.954746735269799,-18.19217949565596,-0.04847102608059366,-21.688641486977584
208,-12.239047919616242,-18.49112176443034,-0.09564415751110639,-22.147550886528954
209,-12.504115750636444,-18.74990785815517,-0.15026991317896293,-22.570780369160815
210,-12.749317882335577,-18.967937384215585,-0.21254057117511893,-22.95709326830569
211,-12.974226584990536,-19.144890303686115,-0.2825910069152522,-23.305365890379225
212,-13.17861388803526,-19.280707637376658,-0.3604993904872581,-23.61456641534159
213,-13.36244125244785,-19.375567785626302,-0.446288991175879,-23.88373297229351
214,-13.525843917123087,-19.42985901948999,-0.5399309819263456,-24.111951546955265
215,-13.669110226537262,-19.444148773708132,-0.6413481102549241,-24.298334367353828
216,-13.792656406141575,-19.41915043047968,-0.7504190812038689,-24.44199939005179
217,-13.896997402496885,-19.35568832652759,-0.8669834827366176,-24.542051473040775
218,-13.982714542585224,-19.25466174345665,-0.9908470746418084,-24.5975657744726
219,-14.05042088707435,-19.117008652394343,-1.1217872585466067,-24.60757386059296
220,-14.10072525264538,-18.943669978065717,-1.2595585488028007,-24.57105294402449
221,-14.13419595698975,-18.735555124787872,-1.4038978713056354,-24.486918607903615
222,-14.151325395761706,-18.49350946777931,-1.554529528965041,-24.354021305482785
223,-14.152496593002214,-18.218284458599264,-1.7111696876025189,-24.17114686142152
224,-14.137952874450667,-17.910510925077617,-1.8735302534554616,-23.937021141794002
225,-14.107771795172027,-17.570676066185626,-2.0413220322398287,-23.65031900506667
226,-14.0618444066356,-17.199104554121348,-2.214257078990649,-23.30967759470076
227,-13.999860870737505,-16.795944063169344,-2.3920501670143857,-22.913713983200125
228,-13.921303316166833,-16.361155451473262,-2.5744193229023393,-22.461047124297938
229,-13.825446683677447,-15.89450773118687,-2.761085392734863,-21.950324011435903
230,-13.71136812048651,-15.395577877249286,-2.9517706228727194,-21.38024987402432
231,-13.577965261408016,-14.863755447075256,-3.1461962579689535,-20.74962216615236
232,-13.42398347876688,-14.298251913726205,-3.344079180052986,-20.057368014201685
233,-13.248051899895055,-13.69811455392069,-3.545127636571213,-19.302584689741064
234,-13.048727686963918,-13.062244679381827,-3.7490361325295005,-18.48458256242688
235,-12.824547757169537,-12.389419955073693,-3.9554795922434587,-17.60292986538168
236,-12.5740868010208,-11.678320510241035,-4.164106928980092,-16.65749847447463
237,-12.2960201430127,-10.92755851699247,-4.3745341948003045,-15.648509766045263
238,-11.98918969406992,-10.135710885256154,-4.586337516652988,-14.576579479461875
239,-11.652670982100883,-9.301354700698536,-4.799046056464884,-13.442760377926351
240,-11.285839030210653,-8.423105011778267,-5.01213526072701,-12.248581381335299
241,-10.888430696176224,-7.499654551648792,-5.225020686955701,-10.99608174824402
242,-10.460601005238082,-6.529814958539971,-5.437052708484322,-9.687838820018072
243,-10.002971012290706,-5.512559033479703,-5.647512403531186,-8.326987818786497
244,-9.516664826909986,-4.447063546359291,-5.855608927864106,-6.917232220629192
245,-9.003333628972195,-3.332752070686145,-6.060478651516813,-5.46284331394372
246,-8.465164793140985,-2.1693372948009606,-6.261186308319394,-3.9686477056028835
247,-7.9048746220056305,-0.9568622242643456,-6.456728362547904,-2.4400017571063772
248,-7.325683650515396,0.3042603416665347,-6.646038740562985,-0.8827522187455441
249,-6.7312740147356305,1.613210704987042,-6.827997008400989,0.696817322845908
250,-6.125728958302645,2.968728203725597,-7.001439001054384,2.2920541681514606
251,-5.513455159807253,4.369080870061335,-7.165169828268218,3.8960179426867363
252,-4.8990891813149045,5.812039500351558,-7.317979098002286,5.501574826055914
253,-4.287389939131138,7.294856818493785,-7.4586581152727485,7.101503173152409
254,-3.6831196597732614,8.814252392686512,-7.586018733866638,8.68860866198115
255,-3.0909162851159753,10.366403928434835,-7.698913464295866,10.25584666374412
256,3.300931231645913e-13,-1.100055634235501e-13,-5.088724328949973e-14,3.8137120613190877e-13
257,7.603853918431067e-12,-2.4538811828863116e-12,-1.1941364605575771e-12,8.919465473817328e-12
258,8.800591848634428e-11,-2.8860182901718536e-11,-1.486187978598926e-11,1.0478298751297344e-10
259,6.791939112813235e-10,-2.2674269161832404e-10,-1.2273035849484603e-10,8.189946690875787e-10
260,3.944434606503891e-09,-1.3399594382484601e-09,-7.579171666068014e-10,4.806019578544507e-09
261,1.843969764304883e-08,-6.370094297382458e-09,-3.7474909317390985e-09,2.2657160611741022e-08
262,7.247584826035003e-08,-2.544590555954435e-08,-1.551130665841903e-08,8.965938033442017e-08
263,2.4693930550631276e-07,-8.808455726929294e-08,-5.5469815457371133e-08,3.0720068486052167e-07
264,7.461567952816874e-07,-2.704186959781042e-07,-1.754791832103726e-07,9.327161513592124e-07
265,2.0349721491467396e-06,-7.496615718800592e-07,-5.001614302509782e-07,2.5549884782264246e-06
266,5.079914607935789e-06,-1.9039892315815736e-06,-1.3032618737151772e-06,6.405657300532461e-06
267,1.173989408009943e-05,-4.482896125747121e-06,-3.141262361382473e-06,1.487052578410736e-05
268,2.535492519856659e-05,-9.880603978677429e-06,-7.071719871179157e-06,3.227290114242154e-05
269,5.1578224211226184e-05,-2.0552880486352728e-05,-1.4989302946484491e-05,6.600320422236998e-05
270,9.948690152188048e-05,-4.062516713682719e-05,-3.0116354378191205e-05,0.00012806260661815566
271,0.00018298970660949798,-7.674659851878038e-05,-5.76862510329319e-05,0.00023707279190943997
272,0.0003225280700787275,-0.00013924953666203803,-0.00010585634045190283,0.00042077964374831803
273,0.0005470408635088387,-0.0002436767343735976,-0.00018688256356618502,0.0007190474272156896
274,0.0008961360693815679,-0.00041273720488368385,-0.00031858003127678043,0.0011873042855337235
275,0.0014223862387855528,-0.0006787463488847601,-0.0005260830261832232,0.0019003622942704356
276,0.002193641388514782,-0.0010865950429930784,-0.0008439045143823111,0.0029564983872537483
277,0.003295234677922336,-0.0016972756901685703,-0.0013182797276008425,0.004481648319449943
278,0.004831944183795221,-0.0025919705966125422,-0.0020097612149689408,0.0066335363120071785
279,0.006929569236963792,-0.003876679952092933,-0.002996014531165794,0.009605539877580489
280,0.009735982431836883,-0.005687334173101907,-0.00437474508948334,0.013630074196613566
281,0.0134215282785748,-0.008195299868523366,-0.006266668452508184,0.01898127459137372
282,0.018178655666875855,-0.011613151923128544,-0.008818419350379804,0.02597675972297509
283,0.024220692705639882,-0.016200548021784306,-0.012205279963051608,0.034978271965184805
284,0.03177969816962126,-0.022270008278581468,-0.01663359647777442,0.04639101437191238
285,0.04110335336670866,-0.03019237344636078,-0.022342745665816965,0.06066153507105088
286,0.05245089191387391,-0.0404016924292406,-0.029606511235594355,0.07827404925863092
287,0.06608810297111462,-0.053399275410557986,-0.03873373392969144,0.09974513578418748
288,0.08228148580111003,-0.0697566445456581,-0.05006811040326817,0.1256167989499683
289,0.10129167907140708,-0.09011712114001351,-0.06398703410163468,0.1564479453653092
290,0.12336633491846413,-0.1151958071819327,-0.0808993963737051,0.19280438845795797
291,0.14873265217056594,-0.14577774987128095,-0.10124229709875748,0.2352475566689298
292,0.17758982131661738,-0.1827141194123231,-0.12547664989038007,0.28432214202028694
293,0.2101016618915897,-0.22691628116505322,-0.15408170590598388,0.3405429801630055
294,0.24638974784821738,-0.27934770116313384,-0.18754856075390544,0.4043814981497473
295,0.28652731652868274,-0.341013686681079,-0.22637274928195825,0.4762520997690417
296,0.33053424190754244,-0.41294902861652655,-0.2710460715282651,0.5564988788718674
297,0.37837332399261586,-0.49620367768102225,-0.3220478282447216,0.6453830579256973
298,0.42994810558875074,-0.5918266496505014,-0.37983567465617807,0.7430715416845699
299,0.4851023773233547,-0.7008484142841114,-0.4448363250906723,0.8496269542800798
300,0.543621474139819,-0.824262076236063,-0.5174363575761854,0.9649994923699214
301,0.6052354034081057,-0.9630037027878476,-0.597973375483339,1.0890208777516854
302,0.6696237781904635,-1.117932191093818,-0.6867277822203639,1.221400631215471
303,0.7364224607883109,-1.2898090956112087,-0.7839154147519147,1.3617248174273284
304,0.8052317533856355,-1.4792788534827712,-0.8896812626937263,1.5094573313553425
305,0.8756259066064545,-1.6868498512386787,-1.0040944726960606,1.6639437140215407
306,0.9471636557085095,-1.9128767701389298,-1.1271448037876017,1.8244174034125589
307,1.019399440865658,-2.1575446301503365,-1.258740659469641,1.9900082493204794
308,1.0918949256523038,-2.4208549247669096,-1.3987087778767147,2.1597530523044983
309,1.1642303994318512,-2.7026142018071173,-1.546795613564366,2.332607829698495
310,1.2360156373673834,-3.0024254003057704,-1.7026703948063886,2.507461467621747
311,1.3068997977927757,-3.3196822020305623,-1.8659297900906247,2.6831503883792003
312,1.3765799610351288,-3.6535665992546424,-2.0361040682623166,2.8584738476712093
313,1.4448079554009539,-4.003049819292649,-2.212664590011978,3.032209474992625
314,1.5113951725576948,-4.3668966818568915,-2.3950324257266375,3.203128682001124
315,1.576215142563753,-4.743673398267504,-2.5825878577083152,3.370011585356278
316,1.6392037143754157,-5.131758752667887,-2.774680494931982,3.5316611201229136
317,1.700356766857473,-5.529358535479545,-2.970639707233538,3.6869160548904767
318,1.7597254547855496,-5.934523029483979,-3.1697850742151212,3.8346626583089862
319,1.8174090716082762,-6.345167280640792,-3.3714365430377526,3.9738448074932093
320,1.8735456843347857,-6.759093820926337,-3.5749239990476696,4.103472371141894
321,1.9283007650145867,-7.174017451246064,-3.779595973789881,4.222627744245307
322,1.9818541073553089,-7.587591641017736,-3.9848272458186202,4.330470457121994
323,2.0343853754685783,-7.997436059333819,-4.190025129701786,4.42623982933235
324,2.0860586835992647,-8.401164722312476,-4.394634296107435,4.5092556885070865
325,2.1370066496151234,-8.796414223477017,-4.598140018790256,4.5789172245830825
326,2.1873143992879904,-9.180871509381275,-4.800069800282397,4.634700100178227
327,2.237004021072687,-9.552300671325355,-4.999993384593706,4.676151986306917
328,2.286019980313701,-9.908568245511352,-5.197521219722595,4.70288673754438
329,2.3342159959946014,-10.247666547582702,-5.392301482957382,4.714577460214727
330,2.3813438611974753,-10.567734612034862,-5.584015825860383,4.710948759406752
331,2.4270446499247904,-10.867076361062251,-5.772374031997255,4.691768474041617
332,2.470842698167711,-11.144175689402152,-5.957107807944158,4.656839222596785
333,2.5121426771746305,-11.397708219901412,-6.137963946427745,4.605990084632643
334,2.550229993605439,-11.626549557044392,-6.314697109647449,4.539068734656544
335,2.5842746571225317,-11.829779940686846,-6.487062481320649,4.455934325287241
336,2.613338653961064,-12.006685277890789,-6.654808528536312,4.3564513868262855
337,2.6363867585151524,-12.156754605246153,-6.817670100105715,4.240484971299892
338,2.6523006075893045,-12.27967410568431,-6.975362067917809,4.107897222230855
339,2.6598957574090014,-12.37531787097095,-7.127573693060862,3.9585454985050657
340,2.6579413454371568,-12.443735662438986,-7.2739638703557645,3.792282123549946
341,2.6451818910023546,-12.485137976944092,-7.414157374564821,3.6089557715987173
342,2.620360693896978,-12.499878771605315,-7.547742199855779,3.4084144430988723
343,2.5822442311852365,-12.488436239005456,-7.6742680519157265,3.1905099233709824
344,2.5296469116417675,-12.451392053804764,-7.793246020077818,2.9551035644219974
345,2.4614555260202406,-12.389409532048237,-7.90414942550079,2.702073181236937
346,2.3766527305050977,-12.303211155915841,-8.006415811354827,2.4313208126131602
347,2.274338920266474,-12.193555919548276,-8.099450012680677,2.142781064125134
348,2.153751889357379,-12.061216946283674,-8.182628217739012,1.8364297282943176
349,2.0142837309594066,-11.906959814661832,-8.255302909962634,1.5122923653403484
350,1.8554945063266117,-11.731522010455748,-8.316808560806148,1.1704525275015194
351,1.677122299323477,-11.535593895386805,-8.366467929559887,0.8110593209377748
352,1.479089373412491,-11.319801550721568,-8.40359881713959,0.43433402134171883
353,1.2615042562058614,-11.084691816325309,-8.427521117358362,0.0405754917948911
354,1.024659689932602,-10.83071980368118,-8.437564011339449,-0.3698358071172886
355,0.7690265009747876,-10.558239115612015,-8.433073158344515,-0.7964353759956083
356,0.49524355461241143,-10.267494956697588,-8.413417748884225,-1.2386739107038032
357,0.2041040690399261,-9.958620267370877,-8.377997302810133,-1.6959182604130947
358,-0.10346133744325443,-9.631634962070319,-8.32624811522324,-2.167454098771647
359,-0.4264044031450657,-9.28644829826176,-8.257649275377691,-2.6524902385885523
360,-0.7635812448832283,-8.922864349254555,-8.171728207055482,-3.1501644643229545
361,-1.1137760458684842,-8.540590500176089,-8.068065701763196,-3.6595507051293
362,-1.4757257668338168,-8.13924883393244,-7.946300437124547,-4.1796673259470225
363,-1.8481452123539261,-7.718390223205186,-7.8061329906783925,-4.709486276627506
364,-2.229751777907897,-7.277510896275637,-7.647329372863507,-5.247942810576933
365,-2.6192892159307077,-6.816071199492998,-7.469724111600718,-5.793945465746978
366,-3.01554979043524,-6.333516238267186,-7.2732229243591835,-6.346385992543146
367,-3.41739423873077,-5.829298042296298,-7.0578050121654545,-6.904148915459718
368,-3.8237690237275754,-5.30289887002178,-6.8235250043237485,-7.46612042771176
369,-4.23372043921597,-4.753855242665959,-6.570514573586275,-8.031196340171428
370,-4.646405220848736,-4.18178228019264,-6.298983730232068,-8.598288836570688
371,-5.061097414519935,-3.5863979005843074,-6.009221791133361,-9.166331824996632
372,-5.477191358367599,-2.9675464402711604,-5.701598007552083,-9.734284719786244
373,-5.894200741530479,-2.3252212575605014,-5.3765618241826285,-10.301134536508673
374,-6.311753808818538,-1.6595858925310545,-5.0346427327652545,-10.865896234232043
375,-6.729584882462072,-0.9709933759468508,-4.676449677147066,-11.427611292134506
376,-7.147522467166357,-0.2600033060273299,-4.302669963411892,-11.985344560225904
377,-7.565474290261522,0.4726036550410318,-3.9140676288259457,-12.538179475107723
378,-7.983409702702913,1.225814173703823,-3.5114812268418647,-13.085211780099298
379,-8.401339927467914,1.9983737907922179,-3.0958209921331212,-13.625541933688044
380,-8.819296688478676,2.7887818348896167,-2.6680653593751815,-14.158266430322678
381,-9.237309785063557,3.595289864266121,-2.2292568219311373,-14.682468292453862
382,-9.655384194147128,4.415903741838441,-1.7804971312663322,-15.197207021984694
383,-10.073477285224184,5.248389389098995,-1.3229418541408686,-15.701508322579224
384,-4.567892761309107e-14,-4.910957533808719e-14,-2.8159698186154053e-14,-7.544322746413568e-14
385,-9.761179498843847e-13,-1.0698373087122369e-12,-5.626299611794077e-13,-1.6423499694039395e-12
386,-1.1791077689801901e-11,-1.2727778514989325e-11,-6.779373227689394e-12,-1.9416750519581993e-11
387,-9.558781503979834e-11,-1.0142510227568977e-10,-5.495754346909735e-11,-1.5376513065816574e-10
388,-5.843286111724464e-10,-6.091457356352132e-10,-3.3598255346938057e-10,-9.17728250851631e-10
389,-2.8794356693081863e-09,-2.948960417418409e-09,-1.6559902611343573e-09,-4.415480304047396e-09
390,-1.1942909757773739e-08,-1.2019716461416799e-08,-6.872458959442669e-09,-1.788898606670864e-08
391,-4.2977886556099516e-08,-4.253058834638056e-08,-2.476097280835464e-08,-6.293126666462502e-08
392,-1.372506275368888e-07,-1.3365607204027016e-07,-7.923587404097468e-08,-1.9666855708347714e-07
393,-3.9582443338158717e-07,-3.796701583877625e-07,-2.2920982719313937e-07,-5.557122262285566e-07
394,-1.0453176275494153e-06,-9.88622900225491e-07,-6.07841384024584e-07,-1.4397557349449175e-06
395,-2.5565869190429538e-06,-2.3866265892290122e-06,-1.4946127780814488e-06,-3.4591576274718266e-06
396,-5.84512402400389e-06,-5.391607106390104e-06,-3.4396058870841827e-06,-7.779234210293068e-06
397,-1.2590312341945236e-05,-1.1486941111110733e-05,-7.466341663089775e-06,-1.6502547244406863e-05
398,-2.5718659003542186e-05,-2.3231567221496123e-05,-1.5387253886515615e-05,-3.323828021971459e-05
399,-5.0102663728051845e-05,-4.484815029813586e-05,-3.0273686226860034e-05,-6.391381652115834e-05
400,-9.353100806475859e-05,-8.303389290618779e-05,-5.712939991025911e-05,-0.00011788682453730499
401,-0.00016800620449673728,-0.00014803889882432833,-0.00010382192752872991,-0.00020941557557146493
402,-0.00029142188980593964,-0.0002550540197671993,-0.0001823285670419237,-0.0003595401309196206
403,-0.0004896630595288551,-0.0004259434792635414,-0.00031035226860159774,-0.0005984170125934743
404,-0.0007991586057771741,-0.0006913471186324345,-0.0005133562112090458,-0.0009681350088289417
405,-0.0012698968662821083,-0.001093162948986925,-0.0008270539434533414,-0.0015260203105045321
406,-0.0019688922656993135,-0.0016874031707292865,-0.0013003745033486054,-0.0023484161065797948
407,-0.0029840656318690763,-0.002547396527887543,-0.0019988994059626846,-0.003534896296390523
408,-0.0044284737472605265,-0.003767287595926125,-0.0030087417765503974,-0.005212846510694427
409,-0.006444796618511302,-0.00546576031687757,-0.004440808614532056,-0.007542319630910761
410,-0.009209965279098158,-0.007789889858313538,-0.006435356884929375,-0.010721048836919362
411,-0.012939790029986738,-0.010919004793001766,-0.009166724656330174,-0.014989480088857024
412,-0.01789343001747466,-0.01506842177901757,-0.01284809160824122,-0.02063566878708407
413,-0.024377530837558385,-0.020492898426551946,-0.01773610050375008,-0.027999872799515668
414,-0.03274984806218568,-0.02748963786395472,-0.024135153962143736,-0.03747866647344459
415,-0.0434221715706712,-0.03640067157845726,-0.032401190010688086,-0.04952839781694477
416,-0.05686236849525421,-0.047614446224679474,-0.042944736015358,-0.06466781373421812
417,-0.07359537144766089,-0.06156644594832943,-0.056233043912564874,-0.08347968590055886
418,-0.09420295335530685,-0.07873869485503797,-0.07279112012591142,-0.10661128235107857
419,-0.11932215046334799,-0.09965800479632746,-0.09320148087576366,-0.13477354685111897
420,-0.1496422205015928,-0.12489286154556799,-0.11810248735470576,-0.16873886926950477
421,-0.1859000532009738,-0.15504887720304864,-0.14818514493530527,-0.20933735506817228
422,-0.22887398467618317,-0.19076277738863587,-0.1841882855996271,-0.2574515301513725
423,-0.27937600494286985,-0.2326949371378263,-0.2268920924096274,-0.3140094481065829
424,-0.3382423881456864,-0.2815205277564171,-0.27710996816945344,-0.37997619968359864
425,-0.40632281692988,-0.33791938630681423,-0.3356787963433091,-0.4563438585297353
426,-0.4844681146591616,-0.40256476785713,-0.4034476894674003,-0.5441199320426177
427,-0.5735167406483219,-0.4761111860710798,-0.4812653672873873,-0.6443144210292243
428,-0.6742802430018876,-0.5591815882082707,-0.5699663521871043,-0.7579256259953161
429,-0.7875278998377488,-0.6523541444200033,-0.6703562117224924,-0.8859248706869625
430,-0.9139708115407629,-0.7561489569638522,-0.783196115904885,-1.0292403443553795
431,-1.0542457333102986,-0.8710150116038583,-0.9091870090732636,-1.188740292536252
432,-1.2088989579111022,-0.9973177003985071,-1.0489537216624938,-1.3652158113563622
433,-1.3783705726989697,-1.1353272420767853,-1.2030293649665813,-1.5593635219417916
434,-1.5629794223658655,-1.2852083133767624,-1.3718403613466834,-1.7717684188584235
435,-1.7629091093000178,-1.447011182484612,-1.5556924626952973,-2.00288719916191
436,-1.9781953569811908,-1.6206646047425344,-1.754758101028841,-2.253032386122726
437,-2.208715048517329,-1.8059707020067957,-1.969065396771392,-2.5223575636383475
438,-2.454177232428002,-2.0026020015551858,-2.1984891227961922,-2.8108440334301403
439,-2.7141163613019312,-2.2101007595670215,-2.442743886074691,-3.1182891971040494
440,-2.987887996279141,-2.427880639372455,-2.7013797446224928,-3.4442969488921937
441,-3.2746671718103446,-2.655230757447602,-2.9737804264223597,-3.7882703423942163
442,-3.5734495713330743,-2.8913220521531113,-3.2591642605212843,-4.1494067660936755
443,-3.8830556160321157,-3.135215873149312,-3.5565878701273936,-4.526695828223205
444,-4.202137516522754,-3.385874634928472,-3.8649526149859725,-4.918920112247914
445,-4.5291892820336805,-3.642174327557651,-4.183013707365131,-5.324658920501143
446,-4.862559624481778,-3.9029186329453758,-4.509391864423644,-5.7422950760675455
447,-5.200467636786217,-4.166854356934669,-4.842587301352756,-6.170024802610866
448,-5.541021066955406,-4.432687857220439,-5.18099581621019,-6.605870649236557
449,-5.882236953005161,-4.699102125127645,-5.5229266703741,-7.047697373426155
450,-6.2220643297491165,-4.964774165996487,-5.866621929329944,-7.493230640376627
451,-6.558408668077233,-5.22839231833567,-6.21027689796559,-7.9400783425643375
452,-6.889157661654884,-5.488673155803798,-6.5520612631637825,-8.385754289917259
453,-7.212207936185737,-5.744377628039634,-6.890140544338973,-8.827703969550416
454,-7.525492223612198,-5.994326115812399,-7.222697449481377,-9.263332025556371
455,-7.827006518920204,-6.237412102222144,-7.547952739890224,-9.690031064812686
456,-8.114836721474123,-6.472614193979142,-7.86418522065623,-10.105211355122307
457,-8.387184256752402,-6.6990062642836445,-8.169750495580804,-10.506330948155888
458,-8.6423901785028,-6.91576553058704,-8.46309815400082,-10.890925732497386
459,-8.878957265997833,-7.122178425536909,-8.742787092200548,-11.25663890247062
460,-9.095569656344788,-7.317644166618613,-9.007498712862185,-11.601249317206548
461,-9.291109587572398,-7.501675978301144,-9.256047791317851,-11.922698222445808
462,-9.464670874137527,-7.673899968795452,-9.487390846104764,-12.219113815649903
463,-9.61556879200283,-7.83405171083928,-9.700631902355015,-12.488833153791509
464,-9.743346114731068,-7.981970621356436,-9.895025588784591,-12.730420933204877
465,-9.847775114082532,-8.117592277662483,-10.069977561488091,-12.942684712356085
466,-9.928855417105613,-8.24093884750661,-10.225042299481943,-13.124686201300635
467,-9.986807695158836,-8.352107846175969,-10.35991836709044,-13.275748305545221
468,-10.02206324696152,-8.451259465767087,-10.474441285947625,-13.39545768625608
469,-10.03524962571272,-8.538602749227543,-10.568574203704111,-13.483662682095957
470,-10.027172547459445,-8.614380904590767,-10.64239658663655,-13.540466528887594
471,-9.998794402040543,-8.678856072661072,-10.69609119854364,-13.566215909902361
472,-9.951209766841863,-8.732293873935957,-10.729929658048281,-13.561484969661715
473,-9.8856183950663,-8.774948067452721,-10.744256890398573,-13.527055025269966
474,-9.803296212163904,-8.807045655208489,-10.739474807934146,-13.463890308863014
475,-9.705564904611721,-8.828772760566764,-10.71602556552139,-13.373110170103768
476,-9.593760722816281,-8.84026159745585,-10.674374743425497,-13.255958256203193
477,-9.469203143371479,-8.841578829137092,-10.614994810180931,-13.113769266301288
478,-9.333164044552925,-8.83271559097969,-10.53834921187199,-12.94793394506363
479,-9.186838042594633,-8.813579421298492,-10.444877421639733,-12.759863035186198
480,-9.031314615312084,-8.783988308329022,-10.334981264039934,-12.55095094861354
481,-8.867552604799785,-8.743667020422835,-10.209012803082377,-12.322539940442745
482,-8.696357643412291,-8.692245841288731,-10.067264050602938,-12.075885576832537
483,-8.518362988494703,-8.629261783472725,-9.909958713554266,-11.812124278244928
484,-8.334014183026463,-8.554162302298272,-9.73724615563611,-11.532243691890624
485,-8.143557883263094,-8.466311480347402,-9.54919770145666,-11.237056602609089
486,-7.947035112417219,-8.364998600517087,-9.345805361319602,-10.927179030283217
487,-7.744279113170839,-8.249448975049706,-9.126983003027506,-10.603013085336896
488,-7.534917882984513,-8.118836850009414,-8.892569945026938,-10.264735063284585
489,-7.318381386229617,-7.972300160674671,-8.642336893975074,-9.91228915635933
490,-7.093913347424362,-7.808956874305613,-8.37599410048355,-9.545387046850406
491,-6.86058744151046,-7.6279226235871205,-8.093201560411723,-9.163513525100948
492,-6.617327611351084,-7.428329307371884,-7.793581046580734,-8.765938147572957
493,-6.362932160697423,-7.209344315546771,-7.476729718039561,-8.351732819638732
494,-6.096101194087949,-6.970190022100514,-7.14223502185056,-7.919795056629133
495,-5.815466904926333,-6.710163184788024,-6.789690576526709,-7.4688765480775094
496,-5.519626150794206,-6.428653891035481,-6.418712707406777,-6.997616526967706
497,-5.207174702333628,-6.125163697669029,-6.028957292925452,-6.504579330977517
498,-4.876742510121116,-5.799322626342553,-5.620136577264634,-5.988295438904128
499,-4.527029304021045,-5.450904696761106,-5.192035609374904,-5.447305175142395
500,-4.156839822505451,-5.079841705438121,-4.744527980698569,-4.880204200466915
501,-3.7651179660622036,-4.686234988197652,-4.277590553718418,-4.2856898503472625
502,-3.3509791795185078,-4.270364939287116,-3.791316900058926,-3.66260734417562
503,-2.913740393033977,-3.8326980981048506,-3.2859291994069344,-3.0099948713265903
504,-2.4529468905311504,-3.3738916554577787,-2.7617883879295544,-2.3271265637481275
505,-1.9683955269955689,-2.8947952742355043,-2.219402385929837,-1.6135523902579276
506,-1.4601537816439345,-2.396450163726274,-1.6594322778649224,-0.8691340549384123
507,-0.9285742113547958,-1.880085391834389,-1.082696362152325,-0.09407605058472804
508,-0.37430395658728205,-1.3471114645303743,-0.49017203198850645,0.7110488928289788
509,0.2017109514174436,-0.7991112463162298,0.11700450964514904,1.5452806166660888
510,0.7982266300128755,-0.2378283386526978,0.7375406586942999,2.4072591260509935
511,1.4137077710228152,0.3348469254941062,1.3699918654488963,3.295219353532619
512,-1.7600785682228897e-14,-4.48817063101904e-14,-4.4896286580868466e-14,-3.395027321809991e-14
513,-3.5415941442164946e-13,-9.678819498999092e-13,-9.743109458827794e-13,-7.249158410199117e-13
514,-4.276605248117861e-12,-1.1404897674103095e-11,-1.1563751170713416e-11,-8.432900033840085e-12
515,-3.477403277442518e-11,-8.999546249988858e-11,-9.188322203186443e-11,-6.566585859106133e-11
516,-2.1349317384801165e-10,-5.350285641433431e-10,-5.497204829353555e-10,-3.8523154706409137e-10
517,-1.0580887408613063e-09,-2.5637982527757965e-09,-2.6481715925601776e-09,-1.8222819336207446e-09
518,-4.4205344109438295e-09,-1.0346189431469088e-08,-1.0728162912337314e-08,-7.264625245585425e-09
519,-1.6047445337326895e-08,-3.626540466696039e-08,-3.768684379145327e-08,-2.518040151819095e-08
520,-5.176656504703007e-08,-1.1298365127284404e-07,-1.1745684684796965e-07,-7.766794158941288e-08
521,-1.5097017270716255e-07,-3.184692515195138e-07,-3.306082047857065e-07,-2.1702542901619248e-07
522,-4.035176968628304e-07,-8.236851567342583e-07,-8.524475665962017e-07,-5.571721832643706e-07
523,-9.994760217147337e-07,-1.9771057846204227e-06,-2.0369183815854603e-06,-1.3292072142391217e-06
524,-2.3152019718102166e-06,-4.445417813324879e-06,-4.554024624381595e-06,-2.9738869035208635e-06
525,-5.0539531260212e-06,-9.435307424676553e-06,-9.60314458805451e-06,-6.287644305174152e-06
526,-1.0464140222796626e-05,-1.902664210089414e-05,-1.9229122906316528e-05,-1.2642665475796129e-05
527,-2.0662998322869952e-05,-3.665203004219855e-05,-3.677199652061719e-05,-2.4305108553716314e-05
528,-3.909721475826347e-05,-6.776105884089019e-05,-6.748412258134543e-05,-4.487835732843348e-05
529,-7.11742052226139e-05,-0.00012070886865289915,-0.00011934979619362194,-7.989976254521652e-05
530,-0.0001250976029430922,-0.00020790756237230155,-0.00020414164633240334,-0.00013761917124495502
531,-0.00021293758691631423,-0.00034727487134079217,-0.00033874472243821226,-0.00022998528702713897
532,-0.00035196061774901504,-0.0005640072174311825,-0.0005467729177347781,-0.00037386130437377
533,-0.0005662339440998514,-0.0008926937780203109,-0.0008604931169254914,-0.0005924842839670787
534,-0.0008885081398417806,-0.0013797745235333845,-0.0013230603574210097,-0.0009171735669911406
535,-0.001362366433305978,-0.002086328824283424,-0.0019910527504874327,-0.0013892825443952432
536,-0.0020446133975920142,-0.003091162669016154,-0.0029372785062925437,-0.002062375828758579
537,-0.003007858533774588,-0.004494142513058941,-0.0042538098481239945,-0.003004600932114045
538,-0.004343233338020463,-0.006419703113374744,-0.006055180655330653,-0.004301210558959526
539,-0.006163164575885739,-0.009020436337469724,-0.008481667158985857,-0.006057179162774978
540,-0.008604112639135878,-0.012480648843213562,-0.011702554798336406,-0.00839984599046043
541,-0.011829172876448798,-0.017019759742070557,-0.015919280341547076,-0.011481506868566875
542,-0.016030430349265254,-0.022895395904667677,-0.021368327479247395,-0.015481868810801618
543,-0.021430955048376842,-0.0304060334265565,-0.028323747095180537,-0.020610275436442053
544,-0.028286325491119726,-0.039893029824155574,-0.037099170863355076,-0.0271076074308228
545,-0.03688557388038419,-0.05174189348820001,-0.048049188993036306,-0.035247761060687784
546,-0.04755145553089179,-0.06638264525653098,-0.06156996985260789,-0.045338609250573016
547,-0.06063995875673407,-0.08428914184604147,-0.07809901066079877,-0.05772235406813352
548,-0.07653898840447142,-0.10597725212323043,-0.0981139241280527,-0.07277518676110428
549,-0.0956661761197279,-0.13200180425852623,-0.1221301854870406,-0.0909061818080399
550,-0.11846579258808956,-0.1629522538496512,-0.15069778735161637,-0.11255536482029606
551,-0.14540476069826977,-0.1994470590138052,-0.184396775814151,-0.13819091053546184
552,-0.1769677931414852,-0.2421267869663562,-0.2238316695778319,-0.16830544645028508
553,-0.21365170270152656,-0.2916460163498479,-0.2696247940699284,-0.2034114595880256
554,-0.25595895772943783,-0.34866413912408506,-0.3224085936405891,-0.2440358280201439
555,-0.30439057835391203,-0.4138352037397121,-0.38281701627207226,-0.29071352437846976
556,-0.359438490149684,-0.4877969761948478,-0.45147609577156317,-0.34398056479930095
557,-0.42157747054323397,-0.5711594261094214,-0.5289938851852781,-0.4043663024732225
558,-0.4912568384568541,-0.6644928699897408,-0.6159499210855961,-0.47238518909861565
559,-0.5688920489340772,-0.7683160224540253,-0.7128844203753648,-0.5485281489423933
560,-0.6548563612690266,-0.8830842176667536,-0.8202874283303693,-0.6332537279044907
561,-0.7494727512285655,-1.0091780671992494,-0.9385881479501068,-0.726979193162576
562,-0.8530062353184937,-1.146892816919959,-1.0681446857760624,-0.830071767083912
563,-0.9656567679605498,-1.2964286545538004,-1.2092344479717165,-0.9428401818381515
564,-1.0875528613769452,-1.4578822017552682,-1.3620454127722132,-1.0655267384811182
565,-1.2187460635302432,-1.631239400675545,-1.526668491783955,-1.198300046371684
566,-1.359206412321527,-1.816369976007097,-1.7030911735567467,-1.3412486059734705
567,-1.5088189650991821,-2.01302362040037,-1.8911926189087258,-1.4943753808652787
568,-1.6673814820119854,-2.2208280150352584,-2.09074034919195,-1.6575934837384305
569,-1.8346033203985173,-2.439288759029652,-2.301388636586625,-1.8307230769815082
570,-2.0101055756705937,-2.6677912422295695,-2.5226786702064072,-2.0134895618879987
571,-2.1934224823305337,-2.90560445658891,-2.754040534004424,-2.2055231023511186
572,-2.3840040670539526,-3.1518867025307533,-2.994796993054284,-2.4063594999304803
573,-2.5812200242706203,-3.4056931090032654,-3.2441690447496243,-2.6154424081817726
574,-2.7843647634294437,-3.665984849948632,-3.501283151928239,-2.832126845897253
575,-2.9926635561822086,-3.9316399061105725,-3.765180037026974,-3.0556839421176005
576,-3.2052796911673647,-4.201465190035606,-4.034824881213037,-3.28530682107447
577,-3.4213225241398804,-4.474209824318669,-4.3091187410013205,-3.520117513159709
578,-3.6398562922497586,-4.748579339174544,-4.586910967972249,-3.7591747590681077
579,-3.859909543849052,-5.023250535861345,-4.867012395467712,-4.001482558826237
580,-4.080485019955278,-5.296886747897916,-5.148209039969131,-4.245999305815114
581,-4.300569811128168,-5.568153222894013,-5.429276054438058,-4.491647338339003
582,-4.519145604727186,-5.835732344533426,-5.708991666198759,-4.737322737905625
583,-4.735198832929311,-6.098338417051303,-5.986150832749623,-4.98190520417557
584,-4.947730531984863,-6.35473174349115,-6.259578354868022,-5.224267841403394
585,-5.155765728282233,-6.6037317439847065,-6.528141197147404,-5.463286699889263
586,-5.3583621769929755,-6.8442288809393395,-6.790759781357109,-5.697849928114021
587,-5.554618294280289,-7.075195183816188,-7.046418037531412,-5.9268664063495615
588,-5.743680143961013,-7.295693196429331,-7.29417202136652,-6.149273750042561
589,-5.924747363574574,-7.504883203534523,-7.533156934268857,-6.364045590535114
590,-6.097077942273498,-7.702028629944539,-7.762592414148719,-6.570198061066194
591,-6.259991792864947,-7.88649954349735,-7.981786000549109,-6.766795436863172
592,-6.412873091628657,-8.057774231919334,-8.19013471648763,-6.952954898891496
593,-6.55517139109371,-8.215438862038859,-8.387124750761025,-7.127850410951293
594,-6.686401541692187,-8.359185267089815,-8.572329267449602,-7.290715718821256
595,-6.806142487146043,-8.488806943291761,-8.74540441277593,-7.440846497640684
596,-6.914035024763689,-8.604193369902026,-8.906083631996646,-7.57760168934051
597,-7.009778644879355,-8.70532279699,-9.054170449282665,-7.700404085416962
598,-7.093127582993282,-8.79225367182449,-9.189529900283452,-7.8087402215254675
599,-7.16388623346101,-8.865114897572859,-9.31207883914197,-7.902159659209556
600,-7.221904084679233,-8.924095136620256,-9.421775368203992,-7.980273736618952
601,-7.267070342588588,-8.969431384940876,-9.518607658869925,-8.04275387442491
602,-7.299308412011915,-9.001397053417518,-9.60258244554671,-8.089329525454168
603,-7.3185704039774215,-9.020289796767155,-9.673713481289443,-8.119785856988058
604,-7.324831831880618,-9.026419330872335,-9.732010243497419,-8.133961253358153
605,-7.31808665028985,-9.02009547502394,-9.777467171115434,-8.131744723542624
606,-7.298342777602276,-9.001616647098606,-9.810053701465574,-8.113073294023742
607,-7.265618227852853,-8.9712590273183,-9.829705355470878,-8.077929461260675
608,-7.219937958051584,-8.929266590302918,-9.836316095109105,-8.026338770785475
609,-7.161331515815455,-8.875842186004967,-9.829732147045465,-7.958367581159732
610,-7.089831548194438,-8.811139828238503,-9.809747452222217,-7.874121060868631
611,-7.005473206992738,-8.735258325374721,-9.776100863471116,-7.773741454763316
612,-6.908294459181034,-8.648236361921612,-9.728475172733617,-7.657406644043572
613,-6.7983372838732885,-8.550049112714916,-9.66649800703628,-7.525329010237385
614,-6.6756497105182175,-8.440606443896181,-9.589744588871351,-7.377754599499395
615,-6.540288627137599,-8.319752727270282,-9.497742313091845,-7.214962569201497
616,-6.39232326331637,-8.1872682674818,-9.389977049988516,-7.037264884662965
617,-6.231839230866068,-8.042872315122134,-9.265901044087123,-6.845006220431958
618,-6.05894298625016,-7.886227613711608,-9.124942241576859,-6.638564008265937
619,-5.873766563516332,-7.716946404786248,-8.966514847215313,-6.418348563337076
620,-5.67647241508074,-7.534597793319458,-8.7900308848975,-6.184803211650656
621,-5.467258190612871,-7.338716355663387,-8.594912515436086,-5.938404335597266
622,-5.246361281749465,-7.128811854318755,-8.380604850862364,-5.679661251280635
623,-5.014062962600074,-6.904379908318405,-8.146588996932135,-5.4091158310094585
624,-4.7706919630699804,-6.664913454987309,-7.892395054567849,-5.127341787263634
625,-4.516627323869736,-6.409914828430393,-7.617614816600327,-4.83494354061127
626,-4.252300398531249,-6.138908272379457,-7.321913908129743,-4.53255460346179
627,-3.978195888516033,-5.8514527000485215,-7.005043136644896,-4.220835424139822
628,-3.694851822186659,-5.547154511419041,-6.666848841049176,-3.9004706514584644
629,-3.402858416527861,-5.225680278868307,-6.307282056071103,-3.5721657986042192
630,-3.102855791468332,-4.88676911516927,-5.926406339153663,-3.236643306464254
631,-2.795530539784752,-4.5302445434516105,-5.52440413968025,-2.8946380301209143
632,-2.481611190064319,-4.156025696470357,-5.101581624134397,-2.5468921975103256
633,-2.161862635124561,-3.764137682167646,-4.65837190439365,-2.1941499153994806
634,-1.8370796325741192,-3.354720963692751,-4.195336648860647,-1.8371513239222421
635,-1.5080795166848378,-2.928039614422234,-3.713166086777579,-1.4766265258505076
636,-1.1756942902389158,-2.4844883217821403,-3.2126774443172246,-1.1132894394117636
637,-0.840762290362987,-2.024598027559682,-2.694811876543761,-0.74783174263663
638,-0.5041196425242848,-1.549040106724148,-2.160629981856453,-0.38091709182786126
639,-0.16659173096701724,-1.0586290014660533,-1.6113060048940775,-0.013175805812287701
640,-3.51044687997121e-14,-4.495388834207264e-14,-2.17878567779115e-14,-2.9273986980248065e-14
641,-7.505692473377011e-13,-9.460049554434073e-13,-4.3229160304530105e-13,-6.087358497230146e-13
642,-8.878618016982357e-12,-1.125193336284519e-11,-5.185308832437477e-12,-7.171356171013356e-12
643,-7.028956363831642e-11,-8.982116281336023e-11,-4.1893603491057505e-11,-5.673452088479689e-11
644,-4.193083155238415e-10,-5.408222673756423e-10,-2.554097919890071e-10,-3.38808444842289e-10
645,-2.0159391184637637e-09,-2.6264549146614766e-09,-1.2561570203081087e-09,-1.6333556919658928e-09
646,-8.159739071274282e-09,-1.0744598350057049e-08,-5.2053857408080496e-09,-6.6392874195020664e-09
647,-2.8673163300505277e-08,-3.8174412820147586e-08,-1.874147661579036e-08,-2.346056122703347e-08
648,-8.949692558435062e-08,-1.2049276033178865e-07,-5.998770444052138e-08,-7.371530094350774e-08
649,-2.5255052138925416e-07,-3.438347865860226e-07,-1.7376259164720752e-07,-2.0957316944250669e-07
650,-6.534102508144278e-07,-8.994169958430158e-07,-4.6198261519431155e-07,-5.465698553023269e-07
651,-1.5676528277841546e-06,-2.1810816625397895e-06,-1.1403081850857308e-06,-1.322246384492873e-06
652,-3.5203922064580675e-06,-4.948783023243817e-06,-2.6374107335626173e-06,-2.994354138333763e-06
653,-7.457292576073013e-06,-1.0587480418523951e-05,-5.7596549834884915e-06,-6.3963108063424254e-06
654,-1.499881757761583e-05,-2.1497289063581727e-05,-1.1950979824170993e-05,-1.2971503878130792e-05
655,-2.8802323594875772e-05,-4.165637507178545e-05,-2.3684464503538686e-05,-2.5111615051003435e-05
656,-5.305850286959438e-05,-7.740236836442565e-05,-4.502738927028562e-05,-4.6627060299011396e-05
657,-9.414934163329778e-05,-0.0001384804225803949,-8.242440325918135e-05,-8.337955585138996e-05
658,-0.00016149390473735661,-0.00023940592823387742,-0.0001457427342369695,-0.00014410734875357705
659,-0.0002686056234940394,-0.0004011867972278685,-0.0002496186109271116,-0.00024147240224541523
660,-0.0004343801010792059,-0.000653443782865365,-0.0004151350767192657,-0.0003933554411437153
661,-0.0006846255822393954,-0.0010369571994168305,-0.0006718484737517127,-0.0006244189593498787
662,-0.001053839110091727,-0.0016066545345807494,-0.0010601647584851557,-0.0009679499094086257
663,-0.0015872201397511521,-0.002435035878383026,-0.0016340483899647158,-0.0014679828224567813
664,-0.00234290031911435,-0.0036160131263049287,-0.0024640268083829147,-0.0021816907002753182
665,-0.0033943537850089096,-0.0052691151157126595,-0.0036404334737111005,-0.0031820155052782973
666,-0.004832937300284927,-0.0075439850530840775,-0.005276812975214597,-0.0045604929489809105
667,-0.006770494603941093,-0.010625069864903969,-0.0075133936937926546,-0.00643020821987341
668,-0.009341945229910732,-0.014736374736851188,-0.01052051767674601,-0.008928801135599884
669,-0.012707765533910035,-0.02014613149485365,-0.014501904474577687,-0.01222142191776992
670,-0.017056259485015688,-0.027171208053216458,-0.019697616302891453,-0.016503523404027946
671,-0.022605509615901766,-0.036181069257959254,-0.026386586516381476,-0.022003363054356684
672,-0.029604895010691423,-0.047601088273444656,-0.03488857236625925,-0.028984079516553456
673,-0.038336063879535955,-0.06191500315629832,-0.04556539657692717,-0.037745204589981006
674,-0.049113253522840135,-0.07966631612976627,-0.05882135052731845,-0.048623472797697354
675,-0.06228286052515921,-0.10145844373049494,-0.07510264475301275,-0.06199279788151833
676,-0.07822217880107445,-0.1279534445751154,-0.09489580997632063,-0.07826329858641325
677,-0.09733724235701816,-0.1598691778135403,-0.11872497367113201,-0.09787927505402619
678,-0.12005973282535679,-0.19797477892304122,-0.14714796288503182,-0.12131606166803144
679,-0.1468429382730127,-0.24308437957031243,-0.18075121313695644,-0.14907571166477385
680,-0.17815677863924295,-0.2960490437548623,-0.22014349500784672,-0.1816815023562695
681,-0.21448194344844848,-0.35774694201338025,-0.2659485037346137,-0.21967128630502425
682,-0.25630321811769113,-0.42907183757779643,-0.31879639177960123,-0.26358975197351575
683,-0.3041021051196469,-0.510920011384017,-0.3793143589675523,-0.31397969587242947
684,-0.35834887432375756,-0.6041758050352798,-0.44811644829326136,-0.3713724456318115
685,-0.41949420187599507,-0.709696010594556,-0.5257927268072067,-0.4362776083064453
686,-0.48796057788367536,-0.8282933818873857,-0.6128980589692998,-0.5091723492416403
687,-0.5641336789318331,-0.9607195824609465,-0.7099407034162442,-0.5904904327101259
688,-0.6483539112080163,-1.1076479192392892,-0.8173709821602477,-0.680611275191655
689,-0.7409083330948313,-1.2696562371469193,-0.935570282887419,-0.7798492747565811
690,-0.842023162087753,-1.4472103675702797,-1.06484065950988,-0.8884436850000091
691,-0.9518570596635622,-1.6406485316406727,-1.2053952929762368,-1.0065492991680922
692,-1.070495369406558,-1.8501670972630107,-1.3573500634181774,-1.1342281996658503
693,-1.197945458750127,-2.075808076110324,-1.5207164662067751,-1.2714428104621966
694,-1.3341332838801203,-2.317448723262675,-1.6953960789167302,-1.4180504656622526
695,-1.478901261747933,-2.574793567934395,-1.8811767542905362,-1.5737996775187355
696,-1.6320074940947995,-2.847369159313999,-2.0777306769536663,-1.738328252335244
697,-1.7931263474422332,-3.1345217578175677,-2.284614379853922,-1.91116336406331
698,-1.9618503518376966,-3.43541814025962,-2.5012707712571234,-2.091723653905064
699,-2.1376933414989203,-3.7490496191149663,-2.727033175771712,-2.2793233808645863
700,-2.320094724108969,-4.074239302964413,-2.9611313445070624,-2.473178603849322
701,-2.50842473405202,-4.4096525493415575,-3.2026993413629974,-2.6724153314517203
702,-2.701990499903257,-4.753810484571421,-3.4507851659175888,-2.8760795317263272
703,-2.9000427393371915,-5.105106389873746,-3.7043619297740484,-3.083148851868418
704,-3.10178288629739,-5.461824681007772,-3.9623403638929875,-3.2925458574455773
705,-3.3063704562995246,-5.822162141984958,-4.2235824006651175,-3.503152563517761
706,-3.51293046607483,-6.18425101368069,-4.486915547424989,-3.7138259964412894
707,-3.7205607427683174,-6.5461834872022555,-4.751147748691141,-3.9234144962697877
708,-3.928338984411055,-6.906037111107699,-5.015082423253672,-4.130774446332289
709,-4.135329465763811,-7.261900592273225,-5.277533359571482,-4.334787099639657
710,-4.340589319922602,-7.611899453333644,-5.537339158681976,-4.5343751620075174
711,-4.5431743641172,-7.954221005775943,-5.793376927530713,-4.728518789799369
712,-4.742144475676667,-8.287138107167229,-6.04457494658724,-4.91627066639393
713,-4.936568558999376,-8.609031193461387,-6.289924062912662,-5.09676983601168
714,-5.125529174558881,-8.918408112283343,-6.528487592446654,-5.269253996246525
715,-5.30812692481672,-9.213921329610928,-6.759409552109275,-5.433069981079546
716,-5.483484708091154,-9.494382139136844,-6.981921082318122,-5.587682203549685
717,-5.650751959060522,-9.758771569331705,-7.195344962723851,-5.73267887060573
718,-5.809108993213242,-10.006247756198372,-7.3990981674570335,-5.867775830737493
719,-5.957771562190956,-10.2361496281387,-7.592692450087057,-5.992817966400245
720,-6.095995708044752,-10.44799683139386,-7.775732991950613,-6.107778096548965
721,-6.223082977797062,-10.641485908272017,-7.947915189615215,-6.212753408332868
722,-6.338386026620547,-10.81648282393259,-8.10901969706702,-6.307959489786917
723,-6.441314599983942,-10.973012018965845,-8.258905874802464,-6.393722085941494
724,-6.531341844086196,-11.11124224255666,-8.397503830443581,-6.470466748053284
725,-6.608010851739755,-11.231469492911911,-8.524805262975336,-6.538706588694906
726,-6.670941309506213,-11.334097456248372,-8.6408533445767,-6.599028393418778
727,-6.7198360731664,-11.41961589152274,-8.745731889855257,-6.65207737193505
728,-6.754487464196123,-11.488577453960279,-8.839554071883802,-6.698540857618086
729,-6.774783051316811,-11.541573485233629,-8.922450947753275,-6.739131283199529
730,-6.7807106597261795,-11.579209321028722,-8.994560053535995,-6.774568772382465
731,-6.772362337451154,-11.602079677144115,-9.056014319873416,-6.805563691651841
732,-6.749937004396036,-11.610744672925586,-9.10693154527091,-6.832799503755805
733,-6.7137415158756415,-11.605707035765894,-9.147404645136861,-6.856916254332462
734,-6.66418988928537,-11.587391002943628,-9.177492871304638,-6.8784950062230585
735,-6.60180047034807,-11.55612339790604,-9.197214169996794,-6.898043512544377
736,-6.527190854067984,-11.512117308217668,-9.206538816792307,-6.915983390139796
737,-6.441070424767757,-11.455458733108564,-9.205384436053821,-6.932639020316446
738,-6.344230438715424,-11.386096501437615,-9.193612480382479,-6.948228364723489
739,-6.237531640858506,-11.303835687710418,-9.17102621387443,-6.962855841945132
740,-6.121889482705566,-11.208334676455971,-9.137370212060052,-6.97650736615164
741,-5.998257089659922,-11.099105945730967,-9.092331362112164,-6.989047604365687
742,-5.867606210895527,-10.975520560760927,-9.03554131977337,-7.000219464976158
743,-5.730906470482303,-10.836816290696676,-8.966580354880513,-7.009645788393943
744,-5.589103321796617,-10.682109187048251,-8.884982495615839,-7.0168331723304815
745,-5.443095184841547,-10.51040839330682,-8.790241862840444,-7.0211778299592
746,-5.29371031434871,-10.320633893114156,-8.681820070154938,-7.021973349769669
747,-5.141684001914523,-10.111636850334616,-8.559154552757382,-7.0184202015291195
748,-4.987636754742771,-9.882222149423272,-8.421667678794286,-7.009636813446721
749,-4.832054114180961,-9.631172709083177,-8.268776490767035,-6.994672031187367
750,-4.6752687772293795,-9.357275116510445,-8.099902921635776,-6.972518759415597
751,-4.517445662460115,-9.059346113350689,-7.9144843304128205,-6.942128580542109
752,-4.358570518036764,-8.736259457391512,-7.711984204968836,-6.902427142675646
753,-4.198442604323672,-8.386972685381725,-7.491902885046087,-6.852330108781943
754,-4.036671898243356,-8.010553311509506,-7.253788165512021,-6.7907594610477044
755,-3.8726811631287004,-7.606204012286107,-6.99724564803683,-6.716659957814186
756,-3.70571310901206,-7.173286371195051,-6.721948717957868,-6.629015544637778
757,-3.534842737344091,-6.711342784845176,-6.427648031460492,-6.526865525609395
758,-3.3589948247538484,-6.220116165903671,-6.1141804058309654,-6.4093203056924155
759,-3.1769663567310267,-5.699567116180004,-5.7814770120771914,-6.275576519333076
760,-2.9874535783778757,-5.149888285253087,-5.429570774559352,-6.12493136495032
761,-2.7890831901301953,-4.571515675305837,-5.0586028865864385,-5.9567959693237436
762,-2.5804470860579207,-3.9651367006287166,-4.668828354635761,-5.770707610764085
763,-2.3601399153093987,-3.331694859820491,-4.260620487569687,-5.566340635809651
764,-2.1267986473716833,-2.6723909292924315,-3.834474251709127,-5.343515911647104
765,-1.879143242454896,-1.9886806375440307,-3.3910084186507814,-5.102208666090475
766,-1.6160174721657483,-1.282268830154897,-2.930966440976989,-4.842554579262053
767,-1.3364289046163613,-0.5551001849351466,-2.4552160020176244,-4.564854006440797
768,-5.812770915246849e-14,-5.371604048541361e-14,-5.3297999869751205e-14,-5.221976228228733e-14
769,-1.2834825536366381e-12,-1.155506537866131e-12,-1.179034905902733e-12,-1.134597470470164e-12
770,-1.5371931373376563e-11,-1.3630778431741033e-11,-1.4178841742049736e-11,-1.3349640810920707e-11
771,-1.231589179449342e-10,-1.0770479945658471e-10,-1.1403931921100861e-10,-1.0531477465925194e-10
772,-7.427898372558737e-10,-6.413707313035497e-10,-6.899771450675891e-10,-6.270208439379678e-10
773,-3.606730738113556e-09,-3.0789146169086238e-09,-3.3585457316074464e-09,-3.01385511610237e-09
774,-1.472738597592673e-08,-1.2447453286663517e-08,-1.3737815541862017e-08,-1.2216233139941468e-08
775,-5.2148228544809525e-08,-4.370528392225101e-08,-4.8694064972200786e-08,-4.3052492547665436e-08
776,-1.6383428868270045e-07,-1.3637036718366502e-07,-1.530319954051721e-07,-1.3493462860456319e-07
777,-4.6487253856002473e-07,-3.848933242517146e-07,-4.3406649349375383e-07,-3.8269255143610967e-07
778,-1.2082832001096698e-06,-9.965681195133805e-07,-1.1270652608822741e-06,-9.95692956225962e-07
779,-2.9100210846934535e-06,-2.3942112411942135e-06,-2.709943467412427e-06,-2.4029514749797093e-06
780,-6.55576826681778e-06,-5.387171456805132e-06,-6.091385609478391e-06,-5.428058001584657e-06
781,-1.3924262505069545e-05,-1.1441014214406929e-05,-1.2902208562126243e-05,-1.1563855125475498e-05
782,-2.8068380195669675e-05,-2.3082824787841242e-05,-2.592467728896074e-05,-2.338219010675402e-05
783,-5.400013010317002e-05,-4.4484726299373694e-05,-4.9698092980999444e-05,-4.5117946520381945e-05
784,-9.962827190659856e-05,-8.227210065668015e-05,-9.13408089090118e-05,-8.34682747308199e-05
785,-0.00017699673017752086,-0.00014660437154869724,-0.00016162847398862147,-0.000148646957768735
786,-0.0003038677909269773,-0.0002525744310520704,-0.0002763654090419382,-0.0002557298484702862
787,-0.0005056859182476597,-0.0004219674254250904,-0.000458080327895292,-0.00042632017844695957
788,-0.00081794581006171,-0.0006854104354163691,-0.0007380689884997815,-0.0006905523285229593
789,-0.0012889721534100327,-0.0010849315874779835,-0.0011587948079077434,-0.0010894395592351488
790,-0.0019830988040613813,-0.001676930526520709,-0.0017766441591534647,-0.0016775555391501382
791,-0.002984212396029647,-0.0025355423899278457,-0.002665016286698704,-0.0025260217081792473
792,-0.004399600496640436,-0.0037563550700424647,-0.003917708953041457,-0.003725753135891811
793,-0.0063640183830413624,-0.005460415457183151,-0.005652540608263691,-0.005390895280053231
794,-0.009043862536465736,-0.007798435515088436,-0.008015128742220377,-0.007662363737403734
795,-0.012641314388135946,-0.010955084597228623,-0.011182722984064366,-0.01071137962147087
796,-0.017398296131916777,-0.015153231594944338,-0.015367971472411172,-0.01474287558364789
797,-0.023600062932005006,-0.020657980561383352,-0.020822481183494206,-0.019998632731418445
798,-0.031578243839959524,-0.027780327565735556,-0.02784001849180966,-0.02675999779985688
799,-0.04171313820146993,-0.036880255763841574,-0.03675918644579971,-0.0353500238448163
800,-0.054435076007456756,-0.04836908091517444,-0.04796541117003803,-0.046134877279615114
801,-0.07022465996263635,-0.06271086151770355,-0.061892072386705556,-0.05952435994071776
802,-0.08961172416220067,-0.0804226968316004,-0.07902062296499945,-0.0759714074994461
803,-0.11317286906948311,-0.10207375253867207,-0.09987955998455336,-0.09597044511831139
804,-0.14152746459754204,-0.12828287759503182,-0.12504213490257907,-0.12005450761873597
805,-0.1753320518674485,-0.1597147066527344,-0.15512272238420063,-0.14879106401734501
806,-0.21527311871326904,-0.1970741796189211,-0.19077180502778832,-0.18277652412224948
807,-0.262058273004366,-0.24109945253884338,-0.23266957302381522,-0.2226294466027788
808,-0.3164058898627436,-0.29255322077745777,-0.28151818189814354,-0.2689825119009317
809,-0.3790333621449989,-0.3522125249081309,-0.33803275597430654,-0.3224733676891838
810,-0.45064413626455635,-0.4208571600614353,-0.4029312681509704,-0.38373449736625603
811,-0.5319137656182858,-0.49925685887945104,-0.4769234662986451,-0.45338230142921554
812,-0.6234752596407576,-0.5881574647719348,-0.5606990515411497,-0.5320056157302705
813,-0.72590404601756,-0.6882663540753445,-0.6549153426777485,-0.6201539181361643
814,-0.8397028951701201,-0.8002374013571394,-0.760184683061842,-0.7183254947991835
815,-0.9652871783046143,-0.9246558101381986,-0.8770618606828356,-0.8269558483338678
816,-1.1029708418892559,-1.062023150693884,-1.0060318185752015,-0.9464066322692787
817,-1.2529534815215655,-1.2127429566446664,-1.1474979308844773,-1.0769553891837667
818,-1.4153088863182242,-1.3771072324029678,-1.301771110167877,-1.218786354242276
819,-1.589975401222287,-1.5552842141708083,-1.4690599943451033,-1.3719825620685204
820,-1.7767484194836658,-1.7473077083469983,-1.6494624379967195,-1.5365194638916584
821,-1.9752752720065612,-1.9530683034298106,-1.842958503539649,-1.712260224842289
822,-2.185052725656849,-2.172306715540791,-2.0494051144699705,-1.898952829454568
823,-2.40542724069003,-2.4046094844839554,-2.2685324966874947,-2.096229078295436
824,-2.6355980701339474,-2.649407187882862,-2.4999424961625403,-2.30360551166503
825,-2.874623213333613,-2.9059752866295088,-2.7431088229368115,-2.5204862489597555
826,-3.1214281641213564,-3.1734376569710374,-2.997379233482717,-2.746167685993929
827,-3.374817323421994,-3.45077280448637,-3.261979626369394,-2.979844948728451
828,-3.6334878786929807,-3.7368226944702654,-3.5360199904481964,-3.2206199617735836
829,-3.896045890436389,-4.030304073390687,-3.8185021107876445,-3.467510954898955
830,-4.161024270859403,-4.329822098659835,-4.108328905814992,-3.719463201567056
831,-4.426902293035671,-4.633886040454629,-4.4043152400945935,-3.9753607609116477
832,-4.692126231711565,-4.940926771136971,-4.7052000314785465,-4.234038979035639
833,-4.955130709948805,-5.2493157162050466,-5.009659449566005,-4.494297497165708
834,-5.21436030954479,-5.55738490670651,-5.3163209849592485,-4.754913512994911
835,-5.468290997823323,-5.863447747482623,-5.623778155988709,-5.014655047176003
836,-5.715450928917279,-6.1658200990574095,-5.9306056114798755,-5.2722939789090555
837,-5.954440193815643,-6.462841263742375,-6.235374384653495,-5.52661863222597
838,-6.183949119706052,-6.752894468636099,-6.536667054144958,-5.776445717056707
839,-6.40277475471867,-7.0344264494411055,-6.833092573060002,-6.02063145541639
840,-6.609835218003927,-7.305965758940765,-7.12330053554992,-6.258081751838372
841,-6.8041816458536495,-7.5661394519095975,-7.405994662150756,-6.487761297112012
842,-6.985007520824156,-7.813687833337475,-7.6799452996281765,-6.708701524034701
843,-7.151655230952216,-8.047476998172925,-7.944000747854369,-6.920007361903296
844,-7.303619768531353,-8.266508937294743,-8.197097244906384,-7.120862761694826
845,-7.44054954089145,-8.469929035019815,-8.438267461769646,-7.310534985457051
846,-7.562244327581757,-8.657030837051229,-8.666647379471677,-7.488377670840892
847,-7.668650477743368,-8.827258023268735,-8.881481443934884,-7.653832694845874
848,-7.7598534968293675,-8.980203576077223,-9.08212591714884,-7.806430869980727
849,-7.83606822190728,-9.115606191078403,-9.268050367306337,-7.945791511744476
850,-7.897626828478419,-9.23334403154597,-9.438837265286411,-8.071620919402275
851,-7.9449649482230065,-9.333425980518687,-9.59417968036358,-8.183709813364379
852,-7.978606205730534,-9.415980593277954,-9.733877094438165,-8.281929772996786
853,-7.99914550277296,-9.481242997615615,-9.857829381633014,-8.366228719283356
854,-8.007231390985837,-9.529540028787368,-9.96602902896529,-8.436625488226495
855,-8.003547878206483,-9.561273919655555,-10.05855170400259,-8.493203543896314
856,-7.988796010745136,-9.576904893635575,-10.13554530672701,-8.536103885128055
857,-7.963675564362382,-9.576933028180315,-10.19721767475489,-8.565517207341049
858,-7.928867161710983,-9.5618797693071,-10.24382314284589,-8.581675390919667
859,-7.885015114592086,-9.53226948288199,-10.275648188379218,-8.584842399961422
860,-7.832711266717129,-9.488611425972607,-10.292996423207953,-8.575304689670272
861,-7.772480087856499,-9.431382511678713,-10.29617321805171,-8.553361236793707
862,-7.704765244295097,-9.361011223736087,-10.285470267395217,-8.519313324672838
863,-7.629917844252049,-9.277863013318596,-10.261150419776401,-8.47345423199692
864,-7.548186531006074,-9.182227480439751,-10.223433109428361,-8.416058991452687
865,-7.459709571310397,-9.074307606901108,-10.172480729573497,-8.347374400302067
866,-7.364509062431746,-8.95421126765431,-10.10838628442978,-8.267609478636935
867,-7.262487357691719,-8.821945203578512,-10.031162645526154,-8.176926581755396
868,-7.15342578736781,-8.677411591879169,-9.940733717839377,-8.075433379900387
869,-7.036985728678118,-8.520407301431064,-9.83692779248693,-7.9631759206604436
870,-6.9127120546816885,-8.350625870248988,-9.719473325526746,-7.840132985897177
871,-6.780038966634332,-8.167662191693779,-9.587997337458193,-7.706211945500083
872,-6.638298187106595,-7.971019845819835,-9.442026576227121,-7.56124629411268
873,-6.486729461626698,-7.760120963239843,-9.28099152909471,-7.404995033982085
874,-6.324493284595833,-7.534318461790998,-9.104233306999859,-7.2371440372712845
875,-6.150685730807867,-7.292910451862213,-8.911013360519892,-7.057309484841492
876,-5.964355237407927,-7.0351565651596335,-8.700525920784024,-6.865043436261635
877,-5.7645211431154,-6.760295924579031,-8.471912993333323,-6.659841538536958
878,-5.550193752840466,-6.467566440316012,-8.224281669585736,-6.441152829958539
879,-5.320395657487378,-6.156225089951823,-7.956723460893435,-6.208391541994345
880,-5.074184001981313,-5.825568818551733,-7.668335305788679,-5.960950747876138
881,-4.8106733606830785,-5.474955679305914,-7.358241853457626,-5.6982176531773305
882,-4.529058849660599,-5.103825826358404,-7.025618587194036,-5.41959027291866
883,-4.228639080964922,-4.711721969532154,-6.669715321809669,-5.124495193216943
884,-3.908838546159863,-4.29830890585817,-6.289879589697028,-4.812406074741651
885,-3.56922900576289,-3.8633917551908854,-5.885579422131322,-4.482862521669539
886,-3.2095494587072806,-3.4069325466092195,-5.456425035833035,-4.135488914674826
887,-2.8297242720348175,-2.9290648284676046,-5.002188949874965,-3.7700127908121632
888,-2.42987906624404,-2.4301060074253984,-4.522824084529984,-3.386282347756373
889,-2.010353976363568,-1.910567159965375,-4.0184794311710546,-2.9842826552907717
890,-1.5717139430098297,-1.371160103118762,-3.4895129301091563,-2.5641501733946437
891,-1.1147557312997436,-0.8128015585574573,-2.936501250204834,-2.126185203623845
892,-0.6405114281130717,-0.23661429502696577,-2.360246228785621,-1.6708619381902665
893,-0.15024822909438384,0.3560748126579062,-1.761777801097446,-1.1988358183514405
894,0.354535605167161,0.9637398151391864,-1.1423533232269663,-0.7109479692152318
895,0.8721186706551541,1.5846637625561861,-0.5034532690326816,-0.20822654034714322
896,-5.144425600624977e-14,-4.5966424958740743e-14,-4.449021274905171e-14,-1.9451703063838674e-14
897,-1.0685306913973193e-12,-1.0107122770450198e-12,-9.463584052664638e-13,-3.8157629789565087e-13
898,-1.2789751786874254e-11,-1.2066131714958996e-11,-1.1268896534452392e-11,-4.7359875479100055e-12
899,-1.0210560867414984e-10,-9.643690184604498e-11,-8.987001040985697e-11,-3.970740891538623e-11
900,-6.143182867330885e-10,-5.805765595388016e-10,-5.399799807076939e-10,-2.512428780961968e-10
901,-2.9783789376980792e-09,-2.8158628041053647e-09,-2.6142487492588935e-09,-1.2810078866383033e-09
902,-1.2155141706339634e-08,-1.1492594501474639e-08,-1.0652695813636868e-08,-5.491594052522726e-09
903,-4.305974621933873e-08,-4.070149279046391e-08,-3.767520506790198e-08,-2.0393990255334668e-08
904,-1.354738451213738e-07,-1.2797376729650053e-07,-1.1832440620971178e-07,-6.708551595469447e-08
905,-3.85303499720363e-07,-3.636110670478364e-07,-3.3589978887318986e-07,-1.988789242264405e-07
906,-1.0046711136845289e-06,-9.468237255937311e-07,-8.741422376242542e-07,-5.387630422547705e-07
907,-2.4292107725685472e-06,-2.2854362635274564e-06,-2.1093882982154375e-06,-1.3489068853761157e-06
908,-5.49780847931386e-06,-5.161896943941015e-06,-4.764530848664619e-06,-3.1509497050310408e-06
909,-1.173739462661129e-05,-1.0994544938591234e-05,-1.0152553234645414e-05,-6.921977016645126e-06
910,-2.379253996839053e-05,-2.2228873328451465e-05,-2.0543760385657826e-05,-1.4397374320429246e-05
911,-4.604564406619474e-05,-4.289809015442365e-05,-3.96966237672814e-05,-2.8517547736257807e-05
912,-8.547745891816949e-05,-7.939479459272363e-05,-7.359674663076457e-05,-5.4060078295609336e-05
913,-0.0001528185954353234,-0.00014149527804041299,-0.0001314511876733135,-9.850146931390596e-05
914,-0.0002640396547312677,-0.00024367421316489398,-0.0002269855945779225,-0.00017315252557164823
915,-0.0004422200562223669,-0.00040673993610294303,-0.0003800886318009498,-0.00029460795499617926
916,-0.0007198231196311961,-0.0006598090894737948,-0.0006188414043248725,-0.0004865435721612944
917,-0.001141387455550746,-0.0010426243261069262,-0.000981958456078656,-0.0007818832970757012
918,-0.001766622538972156,-0.0016082006139790633,-0.0015216511649405998,-0.0012253430283782915
919,-0.00267387015839019,-0.0024257652060016995,-0.0023069040370851633,-0.0018763397497275139
920,-0.003963864263617876,-0.003583934494287252,-0.0034271300506027395,-0.002812232500842002
921,-0.005763690903332824,-0.005194048833740133,-0.004996143818055764,-0.004131837969560142
922,-0.008230819023193036,-0.007393565153730213,-0.007156362342126585,-0.0059591385333584036
923,-0.011557043635711816,-0.010349387977748026,-0.010083114207084526,-0.008447075899450868
924,-0.015972157107026506,-0.014261003525226511,-0.013988910965189342,-0.011781300523855934
925,-0.02174714383539562,-0.01936326999045728,-0.019127510981161642,-0.01618372727601044
926,-0.029196680094577508,-0.025928710858540344,-0.02579758767703522,-0.021915732876318927
927,-0.03868071571014633,-0.03426915800541199,-0.03434580233130211,-0.029280821845145973
928,-0.05060491863380981,-0.04473659785704775,-0.04516907740326145,-0.038626586183870326
929,-0.06541977808027494,-0.05772308726436517,-0.058715870513069555,-0.05034579052955455
930,-0.08361818694924392,-0.07365962586692922,-0.07548626206789279,-0.06487642941976811
931,-0.10573135954074282,-0.09301389812160825,-0.09603069103196657,-0.08270062642299263
932,-0.13232298537488227,-0.11628683010443953,-0.12094720303748704,-0.10434227559012149
933,-0.1639815730753258,-0.14400794262041403,-0.15087711210670482,-0.13036336286983538
934,-0.20131099821262147,-0.17672952180215756,-0.18649902058746726,-0.1613589473356764
935,-0.24491933386356646,-0.21501966977281642,-0.22852119013033295,-0.19795082753534884
936,-0.2954061103535966,-0.25945433947535956,-0.27767230807849164,-0.24077996502637689
937,-0.3533482190001675,-0.31060849773639515,-0.3346907467442345,-0.29049778312378294
938,-0.4192847413806884,-0.3690465973425045,-0.4003124658223361,-0.34775650196374674
939,-0.49370104838157514,-0.43531257074872454,-0.4752577587056148,-0.4131987092051523
940,-0.577012569686291,-0.5099195835645878,-0.5602170898240073,-0.48744639730056205
941,-0.6695486820563333,-0.5933398039642664,-0.6558363105592834,-0.5710897218434998
942,-0.7715372013797507,-0.6859944537331489,-0.7627015742445724,-0.6646757500028962
943,-0.8830899867272457,-0.7882444072278949,-0.8813242949966851,-0.768697472892504
944,-1.004190172495172,-0.9003815959015831,-1.0121265097707188,-0.8835833507760626
945,-1.1346815354447166,-1.0226214584334474,-1.1554270075793203,-1.0096876456507655
946,-1.274260475931157,-1.155096650491232,-1.3114285841510724,-1.1472817728114697
947,-1.4224710464224612,-1.2978521946821233,-1.4802067645896038,-1.2965468726852913
948,-1.5787033958835222,-1.450842211548789,-1.661700311271444,-1.4575677680246102
949,-1.7421959169403278,-1.6139283279964072,-1.8557037999588855,-1.6303284311061044
950,-1.912041285941136,-1.7868798118935418,-2.0618625048147647,-1.814709042618961
951,-2.0871964768702407,-1.9693754324381991,-2.2796697838498514,-2.0104846801282896
952,-2.2664967119677875,-2.161006996879733,-2.5084671017164744,-2.217325630961694
953,-2.4486731888098796,-2.361284466935108,-2.747446768302118,-2.4347992835210124
954,-2.632374299791101,-2.5696425142258357,-2.9956574110214684,-2.6623735136028235
955,-2.8161899398598815,-2.785448334638142,-3.2520121378088938,-2.8994214493360024
956,-2.998678386382489,-3.008010507845655,-3.515299288192745,-3.1452274705966823
957,-3.178395135330336,-3.236588661293351,-3.7841956128509118,-3.3989942767852437
958,-3.3539229944135256,-3.470403678448039,-4.057281668757911,-3.6598508409511603
959,-3.5239026696250635,-3.7086481795423687,-4.333059168208887,-3.926861058503869
960,-3.687063039590568,-3.950496999586846,-4.609969976229245,-4.199032895016279
961,-3.8422502940557006,-4.195117393060618,-4.886416412669019,-4.475327839589384
962,-3.9884551198648204,-4.441678707145939,-5.160782483198457,-4.754670477406427
963,-4.124837150051419,-4.689361285148995,-5.4314556381143575,-5.035958006808793
964,-4.2507459484140275,-4.93736438814656,-5.69684864005303,-5.318069541683095
965,-4.365737881525223,-5.184912955021075,-5.955421112097036,-5.599875058280208
966,-4.469588330040487,-5.431263057852631,-6.20570033697042,-5.880243865882061
967,-4.562298808266337,-5.6757059499726354,-6.446300886470904,-6.158052502116876
968,-4.644098691519119,-5.9175706466253795,-6.675942678187704,-6.432191975417769
969,-4.715441390800531,-6.156225021853485,-6.893467083847223,-6.701574298474732
970,-4.776994959488642,-6.391075448612012,-7.0978507500077574,-6.96513827703815
971,-4.82962726280166,-6.6215650509067325,-7.2882168367167806,-7.221854537706508
972,-4.87438598354164,-6.847170675669422,-7.463843432308677,-7.470729796072695
973,-4.912473873097166,-7.067398726954769,-7.6241689616323,-7.710810382582682
974,-4.945219781240476,-7.281780034865636,-7.7687944692539395,-7.941185057513682
975,-4.97404610867825,-7.489863955600812,-7.8974827269458565,-8.160987158512013
976,-5.000433419860591,-7.6912119166325255,-8.010154184260191,-8.369396134111216
977,-5.025883028010906,-7.885390631967022,-8.106879850391122,-8.565638524585312
978,-5.051878418087127,-8.071965216670982,-8.187871263111981,-8.74898845740314
979,-5.079846405437498,-8.250492427536496,-8.25346776475079,-8.918767728463108
980,-5.111118937927503,-8.420514248305508,-8.30412136449943,-9.074345542229622
981,-5.1468964375598825,-8.581552023877428,-8.34037951952909,-9.21513798389929
982,-5.1882135448966995,-8.733101329142027,-8.362866213207507,-9.340607294852276
983,-5.235908077190494,-8.874627735384841,-8.372261746105883,-9.450261018977463
984,-5.290593940664,-9.005563611512265,-8.369281683539635,-9.54365108211895
985,-5.352638650747976,-9.125306069518269,-8.354655421433135,-9.62037286002909
986,-5.422146013405243,-9.233216134465911,-8.329104839939955,-9.680064282006498
987,-5.498944408248065,-9.328619189482666,-8.293323511396897,-9.722405008060436
988,-5.5825809925014775,-9.410806716464236,-8.24795691604385,-9.747115707248387
989,-5.672322016693489,-9.479039323843056,-8.193584095961478,-9.753957454153621
990,-5.767159311147913,-9.53255102432542,-8.130701145531713,-9.742731249779606
991,-5.865822869913198,-9.570554698300406,-8.059706896243148,-9.713277662978571
992,-5.966799328708143,-9.592248653020171,-7.980891105809282,-9.66547657943512
993,-6.0683560087844235,-9.596824163997367,-7.894425407425935,-9.599247037646698
994,-6.168570082144787,-9.583473863742855,-7.800357215753823,-9.514547125629884
995,-6.265362307917551,-9.551400824377176,-7.698606723158615,-9.411373908497959
996,-6.356534697164413,-9.499828165183004,-7.58896705422012,-9.289763355817026
997,-6.439811385947085,-9.428009004142655,-7.4711075799096776,-9.149790238950192
998,-6.512881935763966,-9.335236564110085,-7.344580326491893,-8.99156797260976
999,-6.573446237847213,-9.220854239514228,-7.208829349459537,-8.815248381675893
1000,-6.619260174265093,-9.084265428214096,-7.063202880929578,-8.621021384085745
1001,-6.648181184816338,-8.924942935004267,-6.906968001115681,-8.409114593338003
1002,-6.658212904384943,-8.74243775786853,-6.739327531865141,-8.179792860028623
1003,-6.647548070402926,-8.536387074920029,-6.559438803824228,-7.933357790950975
1004,-6.61460895367031,-8.306521258622958,-6.36643390947191,-7.670147306544137
1005,-6.558084636903105,-8.05266975412842,-6.159441022771348,-7.390535322276759
1006,-6.476964552273934,-7.774765670487445,-5.937606343037708,-7.094931665738846
1007,-6.370567789188981,-7.472848947715193,-5.700116206055078,-6.783782367085608
1008,-6.238567792807807,-7.147067980240851,-5.446218899529912,-6.4575704839934485
1009,-6.081012187462933,-6.797679599578482,-5.175245722584511,-6.116817641258191
1010,-5.89833757144883,-6.4250473475182055,-4.886630840113058,-5.762086477441719
1011,-5.69137923447905,-6.029638006885462,-4.579929502407064,-5.3939841946163725
1012,-5.4613758403445365,-5.612016400471902,-4.254834228489362,-5.013167400597774
1013,-5.209969189350052,-5.172838519824412,-3.9111885880974406,-4.620348414549731
1014,-4.939199223392403,-4.712843103010799,-3.548998262307326,-4.2163031747922
1015,-4.651494458171135,-4.232841842210651,-3.168439116446801,-3.8018808400604818
1016,-4.3496580213763165,-3.733708465209937,-2.7698620810535894,-3.3780151103273246
1017,-4.036849444887799,-3.216366996283997,-2.353794706577737,-2.9457372091670817
1018,-3.716562307849308,-2.6817795579622623,-1.9209393340928538,-2.5061903663830423
1019,-3.3925977629566755,-2.1309341222387577,-1.472167905660043,-2.0606455189961292
1020,-3.0690339088367065,-1.564832654638175,-1.0085135219433292,-1.6105178146079897
1021,-2.750190906001765,-0.9844801142869667,-0.5311589387677169,-1.15738335955488
1022,-2.4405916815041064,-0.39087477542142074,-0.04142227608095288,-0.7029955127985993
1023,-2.144918036529836,0.2149996810891367,0.4592597101941108,-0.24929989399619518
1024,-4.739758524541467e-13,1.0883526512687628e-14,3.2224474991082965e-14,-3.501717379197652e-13
1025,-1.0639084710708596e-11,2.9958344302324064e-13,8.046291387436405e-13,-8.133070565914792e-12
1026,-1.1753214176620982e-10,2.4003921950358045e-12,8.510645985403961e-12,-9.289087028675576e-11
1027,-8.605163355432828e-10,9.231682296157444e-12,5.792951595988043e-11,-7.026781350866124e-10
1028,-4.715196019411379e-09,-3.471698743883499e-12,2.851319484437865e-10,-3.977845008794942e-09
1029,-2.069825085037934e-08,-2.936843079528761e-10,1.0706997413794272e-09,-1.804416352175331e-08
1030,-7.607763189981058e-08,-2.2767801537149915e-09,3.1126259354763655e-09,-6.857348116542294e-08
1031,-2.415849149340269e-07,-1.1670052714084227e-08,6.720466039548586e-09,-2.2533529197761038e-07
1032,-6.784984916524855e-07,-4.7323388105257996e-08,8.275138256555676e-09,-6.555913731413473e-07
1033,-1.7162571640185174e-06,-1.6261156865672584e-07,-1.0732207490231468e-08,-1.7200203175078597e-06
1034,-3.966654654641823e-06,-4.91462498337232e-07,-1.1070072251184956e-07,-4.128981048430674e-06
1035,-8.474304407958327e-06,-1.3381622745830866e-06,-4.5124775195854316e-07,-9.17571025254113e-06
1036,-1.6892645669868015e-05,-3.3387358610874988e-06,-1.400377108261217e-06,-1.9056938171013958e-05
1037,-3.16605909661608e-05,-7.73131827144431e-06,-3.7254655466935433e-06,-3.727924603199085e-05
1038,-5.613795510123975e-05,-1.678259664825762e-05,-8.905171615168443e-06,-6.913094375978194e-05
1039,-9.463972600918213e-05,-3.4426039955953157e-05,-1.961027327987173e-05,-0.00012217522630662622
1040,-0.00015229234805574286,-6.717409431767124e-05,-4.0408921805358895e-05,-0.0002066931957212817
1041,-0.0002346221627548973,-0.00012536969677719701,-7.875645539878023e-05,-0.00033597848225603796
1042,-0.00034677957506208467,-0.00022484137364358646,-0.0001463303488899767,-0.000526362600779746
1043,-0.000492304392671774,-0.0003890200954593691,-0.0002607659496183584,-0.0007968354832976054
1044,-0.000671349178519413,-0.0006515645130423013,-0.000447837696226628,-0.0011681216326892361
1045,-0.0008782982936057933,-0.0010595241200535926,-0.000744113439353595,-0.0016610807062256382
1046,-0.0010987494201686256,-0.0016770476333166887,-0.0012000867587531744,-0.002294322469297002
1047,-0.0013058596883765915,-0.002589617266278292,-0.0018837647985769693,-0.0030809591240205433
1048,-0.0014560975198361276,-0.003908759782367203,-0.002884658558377101,-0.004024461105966328
1049,-0.001484481355992846,-0.005777153644703276,-0.004318090552058629,-0.005113632900155668
1050,-0.0012994253340116442,-0.008374019658150118,-0.006329703236068417,-0.00631678023596949
1051,-0.0007773479559734258,-0.011920651643652379,-0.009100022569311994,-0.007575196077769372
1052,0.0002427686044362007,-0.016685915319036484,-0.01284890627603877,-0.008796147090712744
1053,0.0019646551450276635,-0.022991519132464066,-0.01783968728472537,-0.009845591833467258
1054,0.0046396361158413035,-0.031216841697611544,-0.024382810449692885,-0.010540904216371215
1055,0.008570872414741469,-0.04180308791912375,-0.03283875565940166,-0.01064390867852948
1056,0.014116723638309816,-0.055256540793937284,-0.04362004308796422,-0.009854555611504834
1057,0.021692995969554044,-0.07215067884952103,-0.05719212669998855,-0.007805575882333967
1058,0.031773860193187134,-0.0931269405914346,-0.07407300005314545,-0.004058451377420123
1059,0.044891251621100595,-0.11889393729584849,-0.09483136370054819,0.001898975899920072
1060,0.061632599103392416,-0.1502249438512195,-0.120083235666167,0.01065296037626034
1061,0.08263677251024995,-0.18795353366632828,-0.15048692495654364,0.022862117881045946
1062,0.10858818549529965,-0.232967267100325,-0.18673633209065577,0.03925329142383153
1063,0.14020904125314665,-0.2861993922505961,-0.2295525891862019,0.06061486966268633
1064,0.17824976171783244,-0.3486185707607704,-0.27967410402214105,0.0877874781004342
1065,0.22347769385143287,-0.4212166978841338,-0.3378451262190986,0.1216520383737792
1066,0.2766642393242766,-0.5049949435820797,-0.40480300745092485,0.16311527175882268
1067,0.3385706052233559,-0.6009481981969453,-0.4812643793725394,0.2130928070878798
1068,0.409932422728899,-0.710048160500206,-0.5679105205715993,0.2724901382215121
1069,0.49144352711368944,-0.833225355991252,-0.6653722253033526,0.34218175947160373
1070,0.5837392348498178,-0.9713504175482656,-0.7742145203406231,0.4229888863978946
1071,0.6873794907244072,-1.1252149973426322,-0.8949216006301854,0.5156562417810376
1072,0.8028322881405271,-1.295512706937381,-1.0278823685853269,0.6208284499130274
1073,0.9304577875062497,-1.4828205005806474,-1.173376965013076,0.7390266341846251
1074,1.07049356896568,-1.687580924088539,-1.331564671354545,0.8706258508033625
1075,1.2230414548935353,-1.9100856479801154,-1.5024735428474492,1.0158340129939087
1076,1.38805632299377,-2.150460688678782,-1.6859921004638148,1.174672963207434
1077,1.5653373014295846,-2.408653696013289,-1.8818633665135411,1.3469623342373334
1078,1.754521692765239,-2.684423649632282,-2.0896814756266875,1.532306802928186
1079,1.9550819140254867,-2.9773332621929254,-2.308891030991241,1.7300872823295776
1080,2.166325667132608,-3.286744334322297,-2.538789307322574,1.939456520334311
1081,2.387399469435766,-3.6118162464978485,-2.77853132958309,2.1593394763494485
1082,2.617295580787203,-3.9515077073870644,-3.027137782667892,2.3884387343274582
1083,2.854862264988269,-4.304581808235042,-3.283505634799912,2.625245083169521
1084,3.0988172231430795,-4.669614360214978,-3.5464212886498996,2.868053257424803
1085,3.3477639384159796,-5.045005418108636,-3.814576011207787,3.1149826863156083
1086,3.6002105797825936,-5.428993821311126,-4.086583337692725,3.364002951960635
1087,3.8545910303065285,-5.819674514132253,-4.360998097350748,3.6129635132493503
1088,4.109287536633183,-6.2150183438781195,-4.636336670542987,3.859627115401829
1089,4.3626544236223825,-6.612893979285954,-4.911098057523519,4.1017061820541345
1090,4.613042283520359,-7.011091545316523,-5.1837853200554935,4.336901381592405
1091,4.858822034164069,-7.407347534448831,-5.45292694772811,4.562941476585847
1092,5.0984082458859215,-7.7993705303624346,-5.717097701604117,4.777623507783635
1093,5.330281161598092,-8.184867267621781,-5.974938498545865,4.978852334411441
1094,5.55300687766662,-8.561568550597322,-6.225174919884053,5.164678551471617
1095,5.765255212555574,-8.927254565842091,-6.466633957379269,5.333333832354447
1096,5.965814863130614,-9.279779143607524,-6.698258646812375,5.48326280021955
1097,6.153605531817251,-9.617092554972654,-6.919120283983601,5.613150612300285
1098,6.327686798114548,-9.93726246982477,-7.128427968276084,5.721945544725867
1099,6.487263601793604,-10.23849274619587,-7.3255352741212505,5.808875988213073
1100,6.631688299066551,-10.519139771706975,-7.509943909608271,5.873461403139572
1101,6.760459343922176,-10.77772613159569,-7.681304283072496,5.91551693183497
1102,6.8732167318579265,-11.012951433564915,-7.839412961758147,5.935151521991768
1103,6.969734419999125,-11.223700176167037,-7.9842070705435315,5.932759573436629
1104,7.049910004183453,-11.409046603439768,-8.115755742177326,5.909006276738273
1105,7.113751988613077,-11.56825654300644,-8.234248792408112,5.864806962117068
1106,7.161365026261868,-11.70078627697785,-8.339982852686893,5.801300917071426
1107,7.192933537987747,-11.806278544041644,-8.433345248681022,5.719820257707231
1108,7.208704135329653,-11.884555816548557,-8.51479596357875,5.6218545491376535
1109,7.208967276796912,-11.935611037787666,-8.584848070024684,5.509011962295034
1110,7.1940385810157395,-11.959596041684039,-8.644047052427835,5.382977826478063
1111,7.1642402036657264,-11.956807909636158,-8.69294947120514,5.245471488001997
1112,7.119882660291023,-11.927673546978468,-8.732101441129267,5.098202415084093
1113,7.061247445600259,-11.872732784469655,-8.762017406291923,4.942826497784491
1114,6.988570763678791,-11.792620328139034,-8.783159693456618,4.7809034801029515
1115,6.9020286445063554,-11.688046893647444,-8.795919313320498,4.613856430270217
1116,6.801723682005327,-11.55977986893692,-8.800598455471485,4.44293410625763
1117,6.687673588944829,-11.408623851314912,-8.797395088153824,4.269177008203286
1118,6.55980172543775,-11.235401402287497,-8.786390029346805,4.093387829637921
1119,6.417929721183713,-11.040934355565613,-8.76753680250455,3.916106927019082
1120,6.261772277437552,-10.826026000963623,-8.740654530258372,3.7375933241311246
1121,6.090934203117188,-10.591444449720678,-8.705424054249924,3.557811656389309
1122,5.904909710560688,-10.337907465490728,-8.661387400856492,3.3764253420217134
1123,5.703083970136208,-10.066069020282177,-8.607950642597254,3.1927961445451847
1124,5.484736899025279,-9.776507806399206,-8.54439013500615,3.0059901660042514
1125,5.249049137747648,-9.469717904342424,-8.46986204006741,2.8147901852894273
1126,4.995110147968517,-9.14610177304019,-8.383414981124494,2.617714132765557
1127,4.72192834633182,-8.805965693050428,-8.284005611563218,2.4130393737545983
1128,4.4284431709599295,-8.449517755829975,-8.170516821511079,2.1988323614641523
1129,4.113538959342541,-8.076868453145511,-8.041778254168912,1.9729831169867291
1130,3.7760604982018613,-7.688033880541346,-7.896588756992478,1.733243902115113
1131,3.41483008733909,-7.282941527848418,-7.7337403534980735,1.4772713718021584
1132,3.0286659404336507,-6.861438588401814,-7.552043289660045,1.202671428734495
1133,2.6164017265146042,-6.423302677340777,-7.350351685340021,0.90704595395316
1134,2.1769070368036862,-5.96825480854096,-7.127589306511008,0.5880405556490053
1135,1.7091085434634934,-5.4959744398615795,-6.8827749686698425,0.24339246372879472
1136,1.2120116002102146,-5.006116358018262,-6.615047086044745,-0.12902229932673326
1137,0.684722020562873,-4.498329138105105,-6.323686895045798,-0.531143320585051
1138,0.12646775849507694,-3.972274879222413,-6.0081399036522125,-0.9646825840890443
1139,-0.463379790849646,-3.427649887507328,-5.66803515059289,-1.4310844031453078
1140,-1.0852851553612444,-2.8642059518464946,-5.30320189853403,-1.9314891897431532
1141,-1.7395290979292959,-2.281771836440742,-4.913683433142768,-2.4667016732573583
1142,-2.426190152059855,-1.6802745989589143,-4.499747693835303,-3.037164089688918
1143,-3.145127645505784,-1.0597603339819819,-4.061894521133758,-3.642934763385417
1144,-3.895966460671082,-0.4204139394237141,-3.600859368645236,-4.283672398064484
1145,-4.678083761544127,0.2374224908958927,-3.1176133934284516,-4.958626285782131
1146,-5.49059789528564,0.9132330320438522,-2.613359905522479,-5.666632533989327
1147,-6.332359653151313,1.6063134124306289,-2.0895272242264094,-6.406116304629657
1148,-7.2019460509175985,2.3157589512041254,-1.5477580538953537,-7.175099957745359
1149,-8.097656764029082,3.0404552453872684,-0.989895554183885,-7.971216897358398
1150,-9.017513327749548,3.7790718602322615,-0.4179663375544803,-8.79173083117347
1151,-9.959261187932249,4.5300592268612485,0.1658393206582958,-9.633560079174185
1152,-7.324755475654875e-14,-4.218350317786406e-14,-2.231760458289127e-14,-5.73010843359461e-14
1153,-1.5887283039124194e-12,-9.037306958340113e-13,-4.4305754226457176e-13,-1.2272469427253673e-12
1154,-1.871188717337079e-11,-1.0630000791156063e-11,-5.425102407482667e-12,-1.4752142063110297e-11
1155,-1.4758350095630139e-10,-8.379191080670348e-11,-4.4606989428356283e-11,-1.1893762949469035e-10
1156,-8.77374750823276e-10,-4.979006213475391e-10,-2.758596679155745e-10,-7.227377605933858e-10
1157,-4.205879397352789e-09,-2.385917760426032e-09,-1.3717362356770508e-09,-3.5394748179150408e-09
1158,-1.6984731198375913e-08,-9.632839163807423e-09,-5.72910474686396e-09,-1.4589830234782183e-08
1159,-5.959157027336606e-08,-3.379366820630845e-08,-2.0726637292274367e-08,-5.219030248073511e-08
1160,-1.8586844765179602e-07,-1.0540577391396734e-07,-6.64685430524364e-08,-1.6574609466918544e-07
1161,-5.24590884114302e-07,-2.975318987106157e-07,-1.9237002605717383e-07,-4.756230266494729e-07
1162,-1.3587190938853276e-06,-7.707895083814963e-07,-5.096973891485853e-07,-1.250650166516609e-06
1163,-3.2662883987061904e-06,-1.853490791647043e-06,-1.2508485033824695e-06,-3.047900820488531e-06
1164,-7.355688143607429e-06,-4.175683216459593e-06,-2.8707496536575774e-06,-6.9490101163073626e-06
1165,-1.5637612322449804e-05,-8.881531782519345e-06,-6.211169829061315e-06,-1.4937763438629027e-05
1166,-3.1585218690679955e-05,-1.795015718373521e-05,-1.2754822197111003e-05,-3.0474041685499914e-05
1167,-6.09419001077523e-05,-3.466015176594879e-05,-2.500249118264699e-05,-5.932817700769635e-05
1168,-0.00011284138421572332,-6.423687678617929e-05,-4.701255142348243e-05,-0.00011074596313976161
1169,-0.00020130653047323243,-0.00011472363063779922,-8.514738252178804e-05,-0.00019901662465652778
1170,-0.00034719025160922433,-0.00019811725732250986,-0.00014907442875900607,-0.0003455128316306157
1171,-0.0005806137724320777,-0.0003318052463887523,-0.000253070077791506,-0.0005812625367091996
1172,-0.000943943598609215,-0.0005403345383185145,-0.000417671340825866,-0.0009500966164992092
1173,-0.001495329113176276,-0.0008575319787219915,-0.000671712978028733,-0.0015123940973242604
1174,-0.002312798037075265,-0.001328982774799208,-0.0010547760223727908,-0.0023494187099133562
1175,-0.0034988778332156424,-0.0020148567430656886,-0.0016200577274145408,-0.0035682076993520345
1176,-0.005185678580910908,-0.0029930531547573314,-0.0024376531891914265,-0.005306937680627047
1177,-0.007540338256390631,-0.004362614318990584,-0.0035982158933042315,-0.007740654654146431
1178,-0.010770696289027866,-0.006247336563557587,-0.005216939047709569,-0.01108721804767472
1179,-0.015131027405923177,-0.008799485941307323,-0.007437772808690424,-0.015613273863870581
1180,-0.020927636847392704,-0.012203505820393838,-0.010437765601985586,-0.02164004166305854
1181,-0.02852409170962262,-0.01667958553764062,-0.014431392043959237,-0.029548676006502458
1182,-0.038345843026921685,-0.02248694451310736,-0.019674706936601272,-0.039784946665795164
1183,-0.05088398067086527,-0.02992667558901159,-0.026469145921157067,-0.052862974563849335
1184,-0.06669785943488751,-0.03934398571743105,-0.0351647800301067,-0.06936776285733412
1185,-0.08641634073456654,-0.05112967218621078,-0.046162824803549427,-0.08995627519418924
1186,-0.11073741079251904,-0.0657206788581438,-0.05991720579682866,-0.11535683596872652
1187,-0.1404259632014369,-0.08359958967964581,-0.0769349918291806,-0.14636665993914813
1188,-0.17630957113743195,-0.10529293598146229,-0.09777552546041691,-0.18384736008362768
1189,-0.21927212153245815,-0.13136821952722827,-0.12304810679317904,-0.22871833192643706
1190,-0.27024523905852055,-0.16242958424806767,-0.15340812124485204,-0.2819479683443351
1191,-0.33019749026245904,-0.1991121052506114,-0.18955154347850203,-0.344542719406588
1192,-0.40012142571050413,-0.24207470290920785,-0.23220779689218646,-0.41753407528719794
1193,-0.48101858839252165,-0.29199173140646595,-0.2821309992381452,-0.5019636148095832
1194,-0.5738826875655005,-0.3495433336287528,-0.3400896780871675,-0.5988663258229633
1195,-0.6796812062650534,-0.41540469646292916,-0.4068550928253326,-0.7092524644749947
1196,-0.7993357754478077,-0.49023438087155663,-0.4831883505371084,-0.8340882766903372
1197,-0.9337017057697875,-0.574661938259937,-0.5698265495187805,-0.9742759550034771
1198,-1.0835471171088562,-0.669275057257781,-0.6674682245737686,-1.1306332456331967
1199,-1.2495321440582248,-0.7746065118834837,-0.776758401280195,-1.3038731527822656
1200,-1.4321887209830149,-0.8911212020419897,-0.8982735910331315,-1.4945842082644665
1201,-1.6319014614318283,-1.0192035895196603,-1.0325070741070796,-1.703211783626864
1202,-1.8488901427700726,-1.1591458364101874,-1.1798548238090776,-1.9300409181751148
1203,-2.0831942874353846,-1.3111369478402097,-1.3406024208225482,-2.1751811193001998
1204,-2.334660297404912,-1.4752532068692545,-1.5149132931571034,-2.4385535612216387
1205,-2.6029315491455134,-1.6514501667346697,-1.7028185940557081,-2.719881065117095
1206,-2.887441793932097,-1.8395564347238316,-1.9042089983653074,-3.0186811884543423
1207,-3.187412134922268,-2.039269443702027,-2.1188286581190248,-3.334262685444714
1208,-3.5018517701012497,-2.25015336279321,-2.346271511539953,-3.6657255255297456
1209,-3.8295626017176883,-2.471639249224566,-2.58598008772004,-4.011964574646219
1210,-4.169147720756855,-2.7030274904102036,-2.837246893376427,-4.371676956913792
1211,-4.519023681952302,-2.9434925305940856,-3.099218409942596,-4.743373024796687
1212,-4.877436393333184,-3.1920898214839446,-3.3709016704026182,-5.125390776298926
1213,-5.242480356722608,-3.4477648829625642,-3.651173327228151,-5.515913471021974
1214,-5.612120914170081,-3.7093643097592817,-3.938791066902198,-5.912990115585661
1215,-5.9842190820622845,-3.975648514359802,-4.232407174042575,-6.314558415510591
1216,-6.356558491438997,-4.245305956684205,-4.530584000182812,-6.718469727479271
1217,-6.726873901412809,-4.51696857818316,-4.831811049850021,-7.1225154949002825
1218,-7.092880713826597,-4.78922813272842,-5.134523360633712,-7.52445461245165
1219,-7.452304892327943,-5.060653089459839,-5.4371208252847145,-7.922041142878757
1220,-7.802912678499401,-5.329805773782591,-5.737988083157331,-8.313051802398345
1221,-8.142539501816625,-5.595259411930222,-6.0355145959031695,-8.695312639764222
1222,-8.469117498932214,-5.855614751663443,-6.3281145183573235,-9.066724358050438
1223,-8.780701090679855,-6.109515946327116,-6.6142459798875075,-9.425285766695826
1224,-9.075490111478471,-6.355665411045216,-6.892429403780984,-9.769114903065914
1225,-9.35185004431935,-6.592837387548558,-7.161264512102183,-10.096467426048385
1226,-9.608328983674479,-6.819889987106022,-7.419445690419753,-10.405751956978815
1227,-9.843671026532059,-7.035775518237508,-7.665775420436022,-10.695542123186845
1228,-10.05682587610478,-7.239548946197732,-7.899175528413254,-10.964585144157489
1229,-10.246954531114593,-7.430374373460564,-8.118696042888997,-11.211806887112072
1230,-10.413431023380681,-7.607529473449009,-8.323521505883063,-11.436313405124421
1231,-10.555840255181346,-7.770407852465222,-8.51297463677142,-11.637389054199325
1232,-10.673972073107066,-7.9185193562245635,-8.686517306084976,-11.814491363751282
1233,-10.76781179468174,-8.05148837678661,-8.843748836217525,-11.967242905618258
1234,-10.837527476017694,-8.169050252368187,-8.984401705673216,-12.09542046845841
1235,-10.883454271649736,-8.2710458860319,-9.108334791194036,-12.198941895821429
1236,-10.906076290282167,-8.357414739200099,-9.21552433604182,-12.277850986455102
1237,-10.906006391658751,-8.428186382060902,-9.30605288120019,-12.33230088395942
1238,-10.883964399658693,-8.483470804973486,-9.38009643794888,-12.362536399539414
1239,-10.840754224903895,-8.523447712743408,-9.437910214196064,-12.368875716471289
1240,-10.777240396817604,-8.548355036964244,-9.479813232633456,-12.35169191844968
1241,-10.69432450065349,-8.558476910398827,-9.506172196117062,-12.311394767006727
1242,-10.59292200018473,-8.554131351561354,-9.517384964886716,-12.248413126747984
1243,-10.473939902351542,-8.535657907302976,-9.513864011696844,-12.163178402528454
1244,-10.33825568720877,-8.503405496429238,-9.496020215071097,-12.056109311367813
1245,-10.18669788613702,-8.457720688400352,-9.464247338156875,-11.927598265471632
1246,-10.020028644766255,-8.398936638266694,-9.418907521502748,-11.777999592843
1247,-9.838928555822779,-8.327362882506659,-9.360318093007368,-11.607619770291134
1248,-9.64398399264248,-8.243276180739011,-9.288739967837026,-11.416709791763859
1249,-9.435677117903907,-8.146912565789965,-9.204367875872673,-11.205459744334254
1250,-9.21437868567523,-8.038460739760858,-9.107322614873508,-10.97399561619576
1251,-8.98034369945655,-7.918056927060866,-8.997645484755894,-10.72237831681719
1252,-8.73370993566133,-7.785781267380423,-8.87529501299168,-10.45060484990236
1253,-8.47449929179481,-7.64165580286081,-8.740146034018222,-10.158611545637484
1254,-8.202621872046306,-7.485644084860541,-8.591991137666971,-9.846279230236037
1255,-7.917882680416421,-7.317652397325075,-8.430544453933692,-9.513440188029374
1256,-7.619990752900842,-7.137532566401241,-8.255447694921342,-9.159886754021686
1257,-7.308570525535086,-6.945086300106331,-8.066278330479033,-8.78538136237617
1258,-6.9831752040873925,-6.740070977971533,-7.862559732903665,-8.389667867963029
1259,-6.6433018737180385,-6.522206788902973,-7.643773088956588,-7.972483952989374
1260,-6.288408062950024,-6.291185096164488,-7.409370845141868,-7.533574427929221
1261,-5.9179294559065045,-6.046677891369729,-7.158791425292013,-7.072705234617107
1262,-5.531298430202921,-5.788348184575048,-6.891474938418738,-6.589677958710486
1263,-5.127963085509397,-5.515861164861833,-6.6068795797273925,-6.084344658154954
1264,-4.707406420098489,-5.228895955100905,-6.304498418699731,-5.556622813357627
1265,-4.2691653102002025,-4.927157775891295,-5.983876265088623,-5.006510203234722
1266,-3.8128489502394762,-4.610390327021187,-5.64462630625976,-4.4340995091127375
1267,-3.3381564215041397,-4.278388190310373,-5.286446217162754,-3.8395924458139032
1268,-2.844893072822136,-3.9310090554566393,-4.90913345686073,-3.2233132165366642
1269,-2.33298541955103,-3.5681855705924077,-4.512599482537217,-2.5857210859155257
1270,-1.802494296486371,-3.1899366217082394,-4.096882632808881,-1.9274218646010417
1271,-1.2536260357812599,-2.7963778499647827,-3.6621594565921023,-1.249178099598726
1272,-0.6867414819452269,-2.38773122327066,-3.2087542912395413,-0.5519177681984392
1273,-0.10236270147725858,-1.9643334884580843,-2.7371469236053287,0.16325871971825723
1274,0.4988227065469646,-1.526643343056881,-2.247978199417512,0.8950733953716945
1275,1.1159597419948002,-1.0752471811316369,-1.7420534790679278,1.6420676501275753
1276,1.7480265694303518,-0.61086328590313,-1.2203438709337942,2.402601349885678
1277,2.393837460538534,-0.1343443627980769,-0.6839852059958396,3.174854271166358
1278,3.052048008701033,0.35332167010666504,-0.13427474935040273,3.9568299574711427
1279,3.721162468342764,0.8510126919595207,0.42733432507356295,4.746362062832661
1280,-4.200142199752344e-14,-5.4409484346458404e-14,-4.6684701279226584e-14,-3.339430913313074e-14
1281,-9.449657433547647e-13,-1.195561461133775e-12,-1.0069401290171916e-12,-7.067170470432364e-13
1282,-1.1304657817601702e-11,-1.4212217910892766e-11,-1.2148299579885028e-11,-8.57048562303398e-12
1283,-9.022110171850393e-11,-1.1301202349748743e-10,-9.836842818022225e-11,-6.958214914401395e-11
1284,-5.419128234856957e-10,-6.764883016909742e-10,-6.00775304846388e-10,-4.2532444850502754e-10
1285,-2.6201490787047923e-09,-3.2606155321644037e-09,-2.959094402549001e-09,-2.0925633710629358e-09
1286,-1.0651428575290586e-08,-1.32190505129633e-08,-1.2273982468902675e-08,-8.654250506369745e-09
1287,-3.7538347947594985e-08,-4.648731421449863e-08,-4.419453322524512e-08,-3.102311229710117e-08
1288,-1.1733457717753284e-07,-1.4510318135798605e-07,-1.4127786596135957e-07,-9.862856116277973e-08
1289,-3.3106668299205043e-07,-4.092193697112663e-07,-4.0796854482477417e-07,-2.8308803462062045e-07
1290,-8.55126183607777e-07,-1.0576004258952977e-06,-1.0789243238111441e-06,-7.440827985840259e-07
1291,-2.045079949904134e-06,-2.5337329359084565e-06,-2.6424062677388803e-06,-1.8118679396170205e-06
1292,-4.571185940943755e-06,-5.680380954701956e-06,-6.048335956465108e-06,-4.126444339283044e-06
1293,-9.624681510039245e-06,-1.2011185715865999e-05,-1.3038566619790324e-05,-8.859546638616745e-06
1294,-1.9215435925968085e-05,-2.411311777686715e-05,-2.6643897165521018e-05,-1.8051695261768277e-05
1295,-3.658129700334062e-05,-4.6217560055379366e-05,-5.189734372120679e-05,-3.510190012695902e-05
1296,-6.672702258710122e-05,-8.497986316213496e-05,-9.681529061993314e-05,-6.54513791980562e-05
1297,-0.00011710587562293543,-0.00015050678418582108,-0.00017369674679790776,-0.00011750406585030414
1298,-0.00019844980316628138,-0.0002576678535708416,-0.0003007856864225584,-0.00020382502320513148
1299,-0.00032574487587546937,-0.00042772015960567116,-0.0005043322490784111,-0.00034265264106471773
1300,-0.0005193378221188805,-0.0006902662643545727,-0.0008210755166806796,-0.000559751385533314
1301,-0.0008061477468429496,-0.0010855521700982378,-0.0013011539801167562,-0.000890618918719382
1302,-0.0012209453480049753,-0.001667096869130648,-0.002011430193109506,-0.0013830449340851354
1303,-0.0018076511072062241,-0.0025046276615556884,-0.003039194238078255,-0.002099999698521731
1304,-0.002620595027434217,-0.0036872769036298972,-0.004496187406937933,-0.0031228089554105622
1305,-0.003725674426571705,-0.005326977044233772,-0.0065228638863569985,-0.00455454961398972
1306,-0.0052013438137442575,-0.007561972648609461,-0.009292785146298655,-0.006523578716141882
1307,-0.0071393724953879205,-0.010560351500155194,-0.013017019999253279,-0.00918708773607693
1308,-0.009645311535180088,-0.014523482635147834,-0.0179484037133468,-0.012734556498757026
1309,-0.012838621976866724,-0.01968923800193978,-0.02438549292538602,-0.01739096698522833
1310,-0.016852430440942746,-0.026334866900932473,-0.0326760402726652,-0.02341962797591182
1311,-0.021832895571174817,-0.03477938885331055,-0.04321980457750078,-0.031124457592771246
1312,-0.027938188241835395,-0.04538537130206772,-0.05647051003151471,-0.04085157275871503
1313,-0.03533710857669159,-0.058559963639373734,-0.07293677202160932,-0.05299004245063152
1314,-0.04420738215747187,-0.07475506838892257,-0.09318181871088053,-0.06797167505764727
1315,-0.054733694784945205,-0.09446654371031578,-0.11782185662518511,-0.08626972850645936
1316,-0.06710553841793925,-0.11823234837145231,-0.14752295530031648,-0.10839645417294223
1317,-0.08151494936426736,-0.14662956050280984,-0.18299636008681688,-0.13489941093676697
1318,-0.09815422273815905,-0.1802702243052518,-0.22499218263839832,-0.16635651305571075
1319,-0.11721368439371134,-0.21979600391717355,-0.27429146419541417,-0.2033698039904834
1320,-0.13887959321686769,-0.2658716503503945,-0.33169665597549475,-0.2465579772706172
1321,-0.16333223346421885,-0.3191773152787637,-0.39802061203252975,-0.2965476945473905
1322,-0.1907442397886936,-0.38039977401036046,-0.4740742409520226,-0.35396377989205957
1323,-0.2212791779644345,-0.45022264867923206,-0.560653011811133,-0.4194183980242745
1324,-0.25509038353182834,-0.5293157510117888,-0.6585225551339308,-0.4934993523696032
1325,-0.2923200400705051,-0.6183236913723315,-0.7684036394851985,-0.5767576664672159
1326,-0.33309845994544096,-0.7178539265461586,-0.8909568374722144,-0.6696946389937956
1327,-0.3775435143856014,-0.8284644422199394,-1.02676722011826,-0.7727485881233686
1328,-0.4257601476700982,-0.9506512866955112,-1.1763294349304545,-0.8862815245522516
1329,-0.4778399027790923,-1.0848361893588085,-1.340033529827607,-1.0105660135967696
1330,-0.5338603835810499,-1.2313545101760153,-1.518151881956587,-1.145772504498159
1331,-0.5938845816095851,-1.3904437743977214,-1.7108275770745185,-1.2919574185062823
1332,-0.6579600035409281,-1.5622330491691216,-1.9180645616398329,-1.449052295444842
1333,-0.7261175481254546,-1.7467334154096115,-2.139719856377925,-1.6168543002715496
1334,-0.7983700978149493,-1.943829778808322,-2.3754980775557866,-1.7950183857253756
1335,-0.8747108097340225,-2.15327424792557,-2.6249484615728154,-1.9830513937914236
1336,-0.9551111119235268,-2.3746812852384003,-2.8874645311635523,-2.1803083569728114
1337,-1.039518432837385,-2.6075248087818443,-3.1622864792192984,-2.385991230101598
1338,-1.127853713814263,-2.8511373882917455,-3.448506280875384,-2.5991502448148665
1339,-1.2200087746448067,-3.1047116411328948,-3.7450754780713456,-2.8186880323346393
1340,-1.315843620484823,-3.367303890669001,-4.050815515233467,-3.043366606574824
1341,-1.4151837934322329,-3.6378401041307775,-4.364430441886709,-3.271817239887317
1342,-1.5178178834633897,-3.915124079614743,-4.684521739516217,-3.5025531992533447
1343,-1.6234953206709166,-4.1978478038156855,-5.009604977293703,-3.733985242983732
1344,-1.7319245735952877,-4.484603854691321,-5.3381279555949295,-3.964439708805476
1345,-1.8427718767820478,-4.773899677675994,-5.668489958642976,-4.192178955559814
1346,-1.9556606045297669,-5.0641735214238075,-5.999061709078721,-4.415423854706498
1347,-2.0701713972274467,-5.35381178038721,-6.328205598626721,-4.632377966521058
1348,-2.1858431319205547,-5.6411674577158735,-6.654295760987473,-4.8412529813113725
1349,-2.3021748101090362,-5.924579433745678,-6.9757375561463855,-5.040294960035688
1350,-2.418628413697514,-6.202392203353754,-7.290986049679259,-5.2278108730216815
1351,-2.5346327550294157,-6.472975730159209,-7.598563096244793,-5.402194911410923
1352,-2.649588319688306,-6.7347450572938845,-7.89707267276553,-5.561954034459766
1353,-2.7628730719866548,-6.9861793134620855,-8.185214152850806,-5.705732217465156
1354,-2.8738491636276224,-7.2258397593315955,-8.461793268429679,-5.832332879963173
1355,-2.9818704568560204,-7.45238653290576,-8.725730565602193,-5.940739001656078
1356,-3.086290745524158,-7.664593773255316,-8.976067227385935,-6.030130473559951
1357,-3.1864725319290357,-7.86136282956429,-9.211968204185718,-6.099898283079014
1358,-3.2817961950220353,-8.041733296473534,-9.432722661280058,-6.149655192756522
1359,-3.3716693674950364,-8.204891656668735,-9.63774181931599,-6.179242641736857
1360,-3.4555363259228735,-8.350177356904268,-9.826554326824079,-6.188733674742558
1361,-3.5328871899386693,-8.47708619339482,-9.998799361410379,-6.178431783762815
1362,-3.6032667234356426,-8.5852709358347,-10.154217707086284,-6.14886563076467
1363,-3.666282532929681,-8.674539175197872,-10.292641097937182,-6.100779703679301
1364,-3.7216124652486187,-8.7448484377981,-10.41398015205244,-6.035121040836101
1365,-3.769011018312137,-8.796298665614113,-10.518211243685988,-5.9530222391530865
1366,-3.8083145945513963,-8.829122219284097,-10.605362675649205,-5.855781037091431
1367,-3.8394454460783076,-8.843671614062952,-10.675500517936703,-5.744836833132929
1368,-3.862414183631893,-8.840405249011193,-10.728714472840425,-5.621744562994775
1369,-3.877320747184855,-8.819871434383169,-10.765104111904309,-5.488146412805448
1370,-3.8843537644837345,-8.782691060350368,-10.784765806873454,-5.345741890094742
1371,-3.8837882543352436,-8.729539280754146,-10.78778064641681,-5.1962568089957175
1372,-3.8759816637816806,-8.661126607687677,-10.774203594179214,-5.0414117700281995
1373,-3.8613682620844783,-8.578179825786178,-10.744054103134241,-4.882890727939372
1374,-3.840451949300807,-8.481423138867648,-10.697308357832837,-4.722310243196003
1375,-3.8137975727824966,-8.37155995599796,-10.63389327154593,-4.5611900038934685
1376,-3.7820208806384477,-8.249255709381488,-10.553682320967097,-4.400925185255856
1377,-3.745777276428068,-8.115122073135767,-10.45649325838855,-4.242761183872814
1378,-3.705749573270662,-7.9697029205982455,-10.342087701160073,-4.08777122379796
1379,-3.6626349771700664,-7.813462319078019,-10.210172561572477,-3.9368372821789457
1380,-3.6171315575288965,-7.646774815773172,-10.06040324757762,-3.7906347238632128
1381,-3.5699244863516872,-7.4699182179113865,-9.892388536230687,-3.649620968205378
1382,-3.521672345304958,-7.2830690151437185,-9.70569699750637,-3.5140284380051234
1383,-3.4729938105084193,-7.086300534053892,-9.499864826176418,-3.383861961212438
1384,-3.424455027748623,-6.879583854672915,-9.27440492363405,-3.2589007120380624
1385,-3.3765579850670497,-6.662791458534312,-9.028817059726862,-3.1387046909162986
1386,-3.3297301750306727,-6.435703518540944,-8.7625989365429,-3.0226256541159144
1387,-3.2843158154668948,-6.198016684215753,-8.475257971327167,-2.9098223155832676
1388,-3.2405688654515736,-5.949355163204717,-8.166323613864707,-2.799279557830387
1389,-3.1986480336799192,-5.689283852521579,-7.835360014291769,-2.6898313073651337
1390,-3.1586139301600866,-5.417323232155548,-7.481978859934268,-2.5801866552508526
1391,-3.12042846084105,-5.1329657002921785,-7.1058522039842575,-2.468958736680659
1392,-3.0839565098772703,-4.835693004265744,-6.706725114182261,-2.3546958265443383
1393,-3.0489698973816606,-4.524994404917347,-6.284427975732856,-2.2359140621699347
1394,-3.0151535433720444,-4.200385204401609,-5.838888288988267,-2.111131170752521
1395,-2.9821137127764423,-3.861425268464265,-5.370141808568639,-1.978900558133064
1396,-2.9493881633546466,-3.5077371833079702,-4.878342876241806,-1.8378451079307145
1397,-2.916457969643219,-3.1390237036451287,-4.363773804960263,-1.6866900456029168
1398,-2.8827607528485757,-2.755084171509121,-3.8268531761202857,-1.5242942405275803
1399,-2.8477050101681063,-2.35582961385532,-3.2681429168243077,-1.3496793500743025
1400,-2.8106852083199048,-1.9412962598687644,-2.68835402938535,-1.1620562519762225
1401,-2.7710972859241054,-1.5116572551293672,-2.088350852340019,-0.9608482639924373
1402,-2.7283541984051074,-1.0672323883171597,-1.4691537416741371,-0.7457107115097048
1403,-2.6819011376348403,-0.6084956859727498,-0.8319400735407728,-0.5165464728475566
1404,-2.631230066713099,-0.13608077103642852,-0.17804348598350872,-0.2735172069765248
