,TP9,AF7,AF8,TP10
0,-1.214120196939776e-14,-4.2365795592952493e-14,-3.529373257640297e-14,-2.6620844834287597e-14
1,-2.5726827145519664e-13,-9.082536865783968e-13,-7.30434299492346e-13,-5.816597020978573e-13
2,-3.3055772735460812e-12,-1.0739928292102022e-11,-8.728849812066556e-12,-7.281085846860195e-12
3,-2.8519782399488517e-11,-8.510177118126001e-11,-7.002303558696719e-11,-6.114651562842333e-11
4,-1.8490846376573167e-10,-5.083027780308667e-10,-4.2350458157502625e-10,-3.8647072911384653e-10
5,-9.619901590632502e-10,-2.44793672596346e-09,-2.065019289864972e-09,-1.9640801635831615e-09
6,-4.190242633072878e-09,-9.929698958695062e-09,-8.47908468090564e-09,-8.376774897545911e-09
7,-1.574599804628005e-08,-3.4984684113001385e-08,-3.023052680292234e-08,-3.089938314962731e-08
8,-5.220503791648377e-08,-1.095341553224198e-07,-9.574568025468886e-08,-1.0082113339897154e-07
9,-1.5541680642312205e-07,-3.1017736003301215e-07,-2.741712804830768e-07,-2.961398336951445e-07
10,-4.2139787271041025e-07,-8.056213911056719e-07,-7.198272531839492e-07,-7.941425141276768e-07
11,-1.0529021326357882e-06,-1.9409820772040365e-06,-1.7524968875469715e-06,-1.966842812249638e-06
12,-2.4482540981199357e-06,-4.378372822284722e-06,-3.99350994895094e-06,-4.542393190586183e-06
13,-5.342175396506739e-06,-9.31870795844959e-06,-8.584006220305517e-06,-9.86182170779653e-06
14,-1.1016989810782607e-05,-1.8834976699804638e-05,-1.7518508878991924e-05,-2.026597976881965e-05
15,-2.160434605896328e-05,-3.635181755308786e-05,-3.413343973376549e-05,-3.965155608456875e-05
16,-4.049807193753143e-05,-6.730944832965449e-05,-6.379579217340597e-05,-7.423655430435185e-05
17,-7.28976796152939e-05,-0.0001200513177016601,-0.00011484106177175565,-0.00013357403042236953
18,-0.0001264992268104067,-0.00020697372279466773,-0.0001998108913125582,-0.00023184767159872588
19,-0.0002123457026805231,-0.0003459716303323421,-0.00033703892443531915,-0.00038947380419681774
20,-0.00034584299102188984,-0.00056220768807503,-0.0005526274143398936,-0.0006350217919104315
21,-0.0005479400272626446,-0.0008902207131935161,-0.0008828467530242832,-0.0010074489756858197
22,-0.0008464633761901532,-0.0013763758109925374,-0.0013769751191243216,-0.001558628054198309
23,-0.0012775875676122868,-0.002081641006137869,-0.002100576087006115,-0.002356125088209565
24,-0.0018874136314983702,-0.003084655451627055,-0.0031391888664689116,-0.0034861662661839683
25,-0.0027336198417999063,-0.0044850327817134,-0.004602379774827779,-0.005056712355714628
26,-0.003887141099382987,-0.006406821064195833,-0.0066280758009433175,-0.007200542481739983
27,-0.005433826954045457,-0.009002019280201917,-0.0093870731409482,-0.01007823449406978
28,-0.007476023197623417,-0.012454030555012718,-0.01308758693026499,-0.013880918546785614
29,-0.010134018408066818,-0.01698091569449445,-0.01797968465515118,-0.018832674275577506
30,-0.013547294892639568,-0.02283829808080875,-0.024359426410702177,-0.025192440587902914
31,-0.017875523233276767,-0.03032176365695432,-0.03257252160820406,-0.03325531081283024
32,-0.023299241125648185,-0.03976859842967254,-0.04301730497876797,-0.04335309481773554
33,-0.030020160472446156,-0.05155871128119707,-0.05614683549835038,-0.05585404352631756
34,-0.038261051790568004,-0.06611460225876935,-0.07246993054319008,-0.07116164973164264
35,-0.04826516195577765,-0.08390025589602769,-0.09255096418324989,-0.08971246167425326
36,-0.060295130133187415,-0.10541886506795585,-0.11700828268637234,-0.11197287185779811
37,-0.07463137736966874,-0.13120932250557402,-0.1465111213512471,-0.13843487216968267
38,-0.0915699576332467,-0.1618414531411715,-0.18177494372958694,-0.1696107966366341
39,-0.11141987186812893,-0.19790999941226495,-0.22355516590994878,-0.20602710409242012
40,-0.1344998615717118,-0.2400274118967819,-0.27263927340735367,-0.248217283641404
41,-0.16113471404270566,-0.2888155375485149,-0.3298373848027007,-0.29671399501877604
42,-0.19165112724475292,-0.344896335786195,-0.3959713630210854,-0.35204058275807304
43,-0.22637319757643276,-0.40888178732681213,-0.4718626204717119,-0.4147021265602046
44,-0.26561760813804525,-0.481363190690412,-0.5583188067392139,-0.48517620963905067
45,-0.30968860776775015,-0.5629000657187866,-0.6561196058269655,-0.5639036014618902
46,-0.35887288165216574,-0.6540089014978562,-0.7660019030213523,-0.6512790606942148
47,-0.4134344222257948,-0.7551519973045886,-0.8886446084108887,-0.7476424679010484
48,-0.47360951397748763,-0.8667266494638045,-1.0246534443227604,-0.8532704953937738
49,-0.5396019474122504,-0.9890549344334015,-1.1745460170188615,-0.9683690134545099
50,-0.6115785756127298,-1.1223743294296546,-1.3387374987036835,-1.0930664181158842
51,-0.6896653215385736,-1.2668293970522395,-1.517527244170556,-1.2274080460150925
52,-0.7739437354227241,-1.4224647403827886,-1.7110866572930528,-1.3713518170858756
53,-0.8644481895351183,-1.5892194106398767,-1.9194486061801799,-1.5247652167474277
54,-0.9611637825251929,-1.7669229213421769,-2.1424986623642055,-1.687423696774893
55,-1.0640250080499793,-1.9552929916344177,-2.3799684091883275,-1.85901053935045
56,-1.1729152231221962,-2.1539351074730235,-2.6314310280430773,-2.0391181931470106
57,-1.2876669313446005,-2.362343953237537,-2.8962993288429586,-2.2272510549453997
58,-1.4080628757345388,-2.579906728545739,-3.1738263438645062,-2.422829636428807
59,-1.5338379159551003,-2.8059083261779842,-3.4631085526681744,-2.6251960245177743
60,-1.664681646132768,-3.0395383077009224,-3.7630917513496303,-2.833620515809208
61,-1.8002416925908908,-3.279899574334793,-4.072579523023822,-3.047309282036266
62,-1.940127616140384,-3.5260185926106615,-4.3902442095878085,-3.265412904397379
63,-2.083915331283332,-3.7768569982449596,-4.714640228872352,-3.4870356003210974
64,-2.2311519449458617,-4.031324368276492,-5.044219527740341,-3.7112449567833754
65,-2.381360910242885,-4.288291921716838,-5.377348911943231,-3.9370819795882164
66,-2.5340473863100117,-4.546606883574726,-5.712328948930539,-4.163571267851071
67,-2.6887036933762625,-4.805107226885951,-6.04741410150528,-4.3897311269588695
68,-2.8448147528955623,-5.062636492999015,-6.380833719245625,-4.614583441100028
69,-3.0018634055510702,-5.31805838243362,-6.710813491799396,-4.837163137574786
70,-3.159335505077478,-5.570270807643039,-7.035596954143643,-5.056527088970869
71,-3.316724692820251,-5.818219105343484,-7.353466629126299,-5.271762315330107
72,-3.473536766412985,-6.060908119933363,-7.66276439729739,-5.48199336602661
73,-3.629293565543568,-6.29741289092159,-7.961910698177248,-5.686388779662982
74,-3.7835363082086375,-6.526887705983533,-8.249422190413023,-5.884166539434188
75,-3.935828321961139,-6.7485733167689474,-8.523927530175497,-6.074598460841022
76,-4.0857571264007495,-6.961802156134981,-8.784180966820498,-6.257013468232157
77,-4.232935835586322,-7.166001442064652,-9.0290735012475,-6.430799736380116
78,-4.377003862237019,-7.3606941039548675,-9.257641404349828,-6.5954056931602505
79,-4.517626919591274,-7.545497519867736,-9.46907194918936,-6.750339899420906
80,-4.654496331613414,-7.720120107288405,-9.662706269706476,-6.895169842286396
81,-4.787327677788105,-7.884355863423494,-9.838039319520105,-7.0295196982968555
82,-4.915858814814702,-8.038077002604627,-9.994716965292348,-7.15306714267582
83,-5.039847333772329,-8.18122488647235,-10.13253030884529,-7.265539300179856
84,-5.159067527334123,-8.313799485933467,-10.251407389383505,-7.366707950861481
85,-5.2733069568561,-8.435847651166405,-10.351402470545816,-7.456384120053657
86,-5.382362723098276,-8.547450496126695,-10.432683165473893,-7.534412195354954
87,-5.486037556371631,-8.648710226236657,-10.495515695721245,-7.60066372380469
88,-5.5841358514577655,-8.739736751659683,-10.540248615909766,-7.65503104933797
89,-5.676459779161797,-8.820634433480377,-10.567295365043382,-7.697420953709566
90,-5.76280560934523,-8.89148930623659,-10.577116026943878,-7.727748463259749
91,-5.842960379355705,-8.95235710781843,-10.570198696149353,-7.745930979206815
92,-5.916699036647452,-9.003252427203961,-10.547040851675467,-7.751882880740014
93,-5.983782174919633,-9.044139252449613,-10.508131139226101,-7.745510738278807
94,-6.043954469275462,-9.074923166548693,-10.45393195276789,-7.726709259160319
95,-6.0969438978608395,-9.095445398092998,-10.384863188961635,-7.69535807009782
96,-6.142461815465584,-9.105478888107134,-10.30128752301369,-7.651319420471078
97,-6.18020391909607,-9.104726485048014,-10.203497522489437,-7.594436868360817
98,-6.209852117145083,-9.092821327927698,-10.091704877146686,-7.524534987748467
99,-6.231077283263635,-9.06932942405595,-9.966031978740292,-7.441420111024489
100,-6.243542844360571,-9.03375437431041,-9.826506036042435,-7.344882096474278
101,-6.2469091204964755,-8.985544146476789,-9.673055858154063,-7.234697086341513
102,-6.240838304118755,-8.924099747424469,-9.505511384720469,-7.110631197977866
103,-6.224999938484898,-8.848785599020344,-9.323605986045942,-6.9724450689998765
104,-6.199076731597178,-8.758941381976625,-9.126981500394736,-6.819899157779662
105,-6.1627705237732435,-8.65389507738386,-8.915195920955178,-6.652759683473908
106,-6.1158082151584745,-8.532976908434296,-8.687733591936919,-6.4708050756000635
107,-6.0579474548270165,-8.395533865518567,-8.44401772289716,-6.273832792285635
108,-5.988981896072885,-8.240944486959181,-8.183424983419785,-6.061666359018896
109,-5.9087458331789,-8.068633565319132,-7.905301897437906,-5.834162476169455
110,-5.817118053175288,-7.878086455377792,-7.608982718544149,-5.591218043772035
111,-5.714024761370204,-7.668862674080378,-7.29380843535896,-5.332776956030544
112,-5.599441470966024,-7.440608504359395,-6.959146530247282,-5.058836525555234
113,-5.473393783799283,-7.193068342807092,-6.604411096197737,-4.769453408234933
114,-5.335957029841681,-6.92609456471251,-6.229082906230283,-4.464748913514439
115,-5.187254776065734,-6.639655717828052,-5.832729027814105,-4.144913601271396
116,-5.027456258959003,-6.333842897190672,-5.4150215817237735,-3.810211084992522
117,-4.856772837604262,-6.008874196138722,-4.97575526048237,-3.460980980999242
118,-4.675453604002403,-5.665097172083858,-4.514863245677437,-3.0976409644548477
119,-4.48378032239468,-5.302989308424613,-4.0324311953790355,-2.720687914127592
120,-4.282061898082414,-4.923156495157625,-3.528709011848771,-2.3306981486922345
121,-4.070628597265388,-4.5263295893702,-3.004120144780703,-1.928326777044109
122,-3.849826251719689,-4.113359152208479,-2.4592682354321145,-1.5143062030185421
123,-3.6200106851319602,-3.6852084906403917,-1.8949409610679617,-1.089443840441152
124,-3.381542591458425,-3.242945160080239,-1.3121109959681685,-0.6546191070507277
125,-3.134783080058387,-2.7877311075582267,-0.7119340635854455,-0.21077977514199275
126,-2.880090078198836,-2.3208116545436948,-0.09574411300299182,0.24106223745168337
127,-2.617815749759418,-1.8435035337489438,0.5349542897006401,0.6998355502268421
128,-1.0875714161765056e-14,-4.974251613504236e-14,-5.2438132223374343e-14,1.237967475874741e-14
129,-1.9119796980066485e-13,-1.0754106674469934e-12,-1.1576898229715584e-12,3.3054335308987405e-13
130,-2.442883271562578e-12,-1.2827403089468556e-11,-1.3875383219479023e-11,3.443856356721697e-12
131,-2.1123023522424224e-11,-1.0248011691650118e-10,-1.1110312969427166e-10,2.2945612731680526e-11
132,-1.373624872011386e-10,-6.166208894331633e-10,-6.691613646056422e-10,1.0966386180130218e-10
133,-7.16992558699926e-10,-2.98874926728914e-09,-3.2425435528835993e-09,3.9248531737844564e-10
134,-3.134820748310797e-09,-1.218999684299859e-08,-1.3205734869721701e-08,1.0372969118071076e-09
135,-1.183163240442858e-08,-4.314321704140587e-08,-4.661740152509825e-08,1.7200715620091696e-09
136,-3.942926725864202e-08,-1.3556831724994775e-07,-1.4595972537812374e-07,-5.085053175835417e-10
137,-1.1808774729305126e-07,-3.8497135081567506e-07,-4.126307627428677e-07,-1.743733468451836e-08
138,-3.223938976752984e-07,-1.0019125110181386e-06,-1.0683131814311678e-06,-8.4605898060473e-08
139,-8.118214556752223e-07,-2.417187115097419e-06,-2.5624035137142103e-06,-2.925440585646618e-07
140,-1.9041061512632092e-06,-5.456827988759903e-06,-5.748164942665905e-06,-8.457991685227764e-07
141,-4.194566364767843e-06,-1.161740177297729e-05,-1.215561464716904e-05,-2.1656713553268173e-06
142,-8.740231868660229e-06,-2.347829454975958e-05,-2.4393737185355235e-05,-5.057381414987177e-06
143,-1.7331305831613107e-05,-4.5292843252193664e-05,-4.67177820839679e-05,-1.0967128932083687e-05
144,-3.287558935582222e-05,-8.380352656275561e-05,-8.579857593111356e-05,-2.2358655089602327e-05
145,-5.9923604737702204e-05,-0.00014932729201840923,-0.0001517295084208632,-4.324195869365191e-05
146,-0.00010536282095882112,-0.00025715488961325144,-0.00025930286461573317,-7.988820290801934e-05
147,-0.00017930821119308435,-0.0004293023919705531,-0.0004295803966319985,-0.0001417641405559143
148,-0.0002962130271097974,-0.000696643679082646,-0.0006917735766415325,-0.00024271620891442856
149,-0.0004762179329344526,-0.0011014395275395013,-0.001085437148365852,-0.00040242853131424697
150,-0.0007467484337393398,-0.0017002622681800117,-0.0016629658417016341,-0.0006481702807689326
151,-0.001144360004599848,-0.002567295205683502,-0.002492368989516241,-0.0010168362746951992
152,-0.0017168178794126263,-0.003797963833888487,-0.0036602819035739904,-0.001557270585561429
153,-0.0025253847294438494,-0.005512832296475184,-0.005275156859309842,-0.002332846927258647
154,-0.003647275278863076,-0.007861674727341107,-0.007470561006403674,-0.003424262396657605
155,-0.005178223217896406,-0.011027608417651718,-0.010408494000198403,-0.004932483790219061
156,-0.007235093591475693,-0.015231155632186567,-0.014282625102908718,-0.00698176928887789
157,-0.009958464147538636,-0.020734084738576488,-0.019321338339084723,-0.009722673973648363
158,-0.01351509279026709,-0.02784287037802495,-0.025790465380277638,-0.013334936497186398
159,-0.01810018595049893,-0.036911607711150936,-0.03399557953944474,-0.01803013721070734
160,-0.023939384736680672,-0.04834421801993864,-0.044283720932763435,-0.024054015793676227
161,-0.03129039225913713,-0.06259579248333381,-0.057044422860141074,-0.031688339329291784
162,-0.04044417635478533,-0.08017293774391346,-0.07270991308791831,-0.04125221987993045
163,-0.05172569665183022,-0.10163301054038192,-0.09175437126885577,-0.053102793684109466
164,-0.06549412283137204,-0.12758215841327714,-0.11469213542327368,-0.06763519152314475
165,-0.08214253115795213,-0.1586721181649864,-0.14207476634752841,-0.0852817506829811
166,-0.10209708775299327,-0.19559576194340458,-0.17448689898164516,-0.10651044211299371
167,-0.12581574840300272,-0.23908142089493353,-0.21254083393633788,-0.13182251055076277
168,-0.1537865245487004,-0.28988605658136046,-0.2568698501259737,-0.16174934916346828
169,-0.18652538207431912,-0.3487873890773292,-0.3081202501682304,-0.19684865230388765
170,-0.22457385225868082,-0.4165751262637859,-0.3669421831505164,-0.2376999090869027
171,-0.2684964416210519,-0.49404146987704106,-0.43397932370962183,-0.2848993157204824
172,-0.3188779286020635,-0.5819710991429018,-0.5098575212799189,-0.33905419528034736
173,-0.3763206297103151,-0.6811308513456016,-0.5951725679953338,-0.4007770196700646
174,-0.441441706052493,-0.7922593297459823,-0.690477267256134,-0.4706791299502842
175,-0.5148705636036601,-0.9160566724530314,-0.7962680165840667,-0.5493642484100971
176,-0.597246378100552,-1.0531747110423917,-0.9129711472743368,-0.6374218692663239
177,-0.6892157492921338,-1.2042077350726492,-1.0409292886637245,-0.735420605463203
178,-0.7914304609054533,-1.3696840586199837,-1.1803880456676323,-0.8439015575724484
179,-0.9045452936503043,-1.5500585582332438,-1.331483293645991,-0.963371758186537
180,-1.0292158105204585,-1.7457063192340299,-1.4942294036929655,-1.0942977324011023
181,-1.1660960081955565,-1.9569174901957738,-1.6685087132536456,-1.2370992029488936
182,-1.3158357071236682,-2.183893405081626,-1.8540625508774837,-1.3921429582217806
183,-1.4790775373909706,-2.426743990434774,-2.0504841094947976,-1.559736893674577
184,-1.656453369089888,-2.6854864328605457,-2.2572134396923196,-1.7401242326613253
185,-1.8485800356155961,-2.960045041536306,-2.473534803185031,-1.9334779320847424
186,-2.056054206820675,-3.2502522033063443,-2.698576587427149,-2.1398952815319965
187,-2.2794462864906726,-3.555850295589921,-2.931313935751884,-2.3593927117225135
188,-2.519293234974432,-3.876494396138766,-3.1705741945390207,-2.591900838714573
189,-2.7760902523494764,-4.211755609611324,-3.415045220905175,-2.837259783730115
190,-3.050281299101262,-4.561124819633576,-3.663286532712956,-3.0952148237261534
191,-3.342248478412015,-4.924016671791113,-3.913743218829518,-3.3654124438381534
192,-3.6523003549385575,-5.299773597804405,-4.164762463082319,-3.647396878312989
193,-3.980659337348523,-5.687669703619185,-4.4146124717823945,-3.9406072402756034
194,-4.327448303717613,-6.086914363649025,-4.661503533491353,-4.244375351402821
195,-4.692676698009348,-6.496655389041992,-4.903610882334094,-4.557924389169106
196,-5.076226370223951,-6.915981668512532,-5.139098984006461,-4.880368470821613
197,-5.477837470605767,-7.343925214734075,-5.366146818062586,-5.210713288956505
198,-5.897094738040357,-7.779462586171468,-5.582973692425297,-5.547857903172252
199,-6.333414543303411,-8.221515692124987,-5.787865097635558,-5.890597775797261
200,-6.786033058348951,-8.668952026227457,-5.9791980903589375,-6.237629117490877
201,-7.253995922906725,-9.120584409293732,-6.155465689150479,-6.587554581274999
202,-7.736149769221007,-9.575170354976606,-6.315299771218377,-6.938890312239331
203,-8.231135945070827,-10.03141119998446,-6.457491977295859,-7.29007432600458
204,-8.737386744821261,-10.487951163675648,-6.5810121626362195,-7.639476153434138
205,-9.253124418946417,-10.943376518849243,-6.685023975014809,-7.985407653553827
206,-9.776363185184815,-11.39621506586752,-6.76889719445308,-8.326134862680528
207,-10.304914410332923,-11.84493610543125,-6.832216532821109,-8.659890716837118
208,-10.836395071883455,-12.287951101149856,-6.8747866629152785,-8.984888457998391
209,-11.368239544614697,-12.723615211495009,-6.896633324257524,-9.299335513723559
210,-11.897714690247575,-13.150229852031906,-6.898000434832708,-9.60144762514718
211,-12.421938159854216,-13.566046423475608,-6.87934322234632,-9.889462990630358
212,-12.937899750289159,-13.969271309857374,-6.841317473441212,-10.161656191778546
213,-13.442485588992936,-14.35807221485705,-6.784765082811761,-10.41635167483706
214,-13.932504857545437,-14.73058586426413,-6.710696164521248,-10.651936573206704
215,-14.404718704731284,-15.084927059766397,-6.620268063363597,-10.866872675232134
216,-14.855870945944835,-15.419199025074937,-6.514761673182766,-11.05970736455784
217,-15.282720098732145,-15.731504941054945,-6.395555530113744,-11.22908338717956
218,-15.682072265260599,-16.019960523349173,-6.264098200267851,-11.373747328812758
219,-16.050814342536057,-16.28270745529055,-6.121879522099504,-11.492556717405868
220,-16.385947021123975,-16.517927452055314,-5.970401292379983,-11.584485697692562
221,-16.684617023671144,-16.723856700357427,-5.811148000423265,-11.648629256850704
222,-16.94414803615225,-16.898800392828672,-5.645558217340183,-11.684206011963656
223,-17.16206979773511,-17.04114705874196,-5.474997235419224,-11.690559600512257
224,-17.33614483948173,-17.14938238389036,-5.300731527463328,-11.667158744085045
225,-17.46439239752488,-17.22210221291773,-5.123905557709945,-11.613596082409881
226,-17.545109072359782,-17.258024437544023,-4.945521425871425,-11.529585899157054
227,-17.576885861692222,-17.255999493878072,-4.766421765216345,-11.414960882137995
228,-17.558621258933872,-17.215019220883086,-4.587276246068698,-11.26966807787749
229,-17.489530181883822,-17.134223869187853,-4.408571959395267,-11.093764213472024
230,-17.369148575342116,-17.01290709360624,-4.2306078731368,-10.88741056676985
231,-17.197333616405135,-16.85051881245617,-4.053493468490155,-10.65086756922058
232,-16.974259541098533,-16.64666587037499,-3.8771515762977433,-10.384489324769154
233,-16.700409204854832,-16.40111049701595,-3.701325346797679,-10.088718223925003
234,-16.37656158591821,-16.11376660996272,-3.525589200884305,-9.764079825910956
235,-16.003775538407616,-15.78469406466498,-3.3493635292588797,-9.411178174846638
236,-15.583370198378768,-15.414091005577435,-3.171932828810162,-9.030691709225495
237,-15.116902539291619,-15.002284519609441,-2.992466894492433,-8.623369918033703
238,-14.60614266002793,-14.54971983436754,-2.8100446209633536,-8.19003089172638
239,-14.053047465996418,-14.05694833866535,-2.6236799123340386,-7.731559911326594
240,-13.459733468616923,-13.52461473076009,-2.43234915162636,-7.248909212942691
241,-12.828449476889125,-12.953443620310336,-2.235019645080112,-6.743099056243942
242,-12.161549982640915,-12.344225922938657,-2.0306784315363635,-6.21522021171926
243,-11.46147004392592,-11.697805391642577,-1.8183608349343874,-5.666437960603827
244,-10.730702444661011,-11.015065627569568,-1.5971781394902933,-5.09799767126754
245,-9.971777849829344,-10.29691790448147,-1.3663437830427014,-4.511231975415575
246,-9.187248583179946,-9.544290127172795,-1.1251974946516228,-3.907569516331472
247,-8.379676529369902,-8.758117224559202,-0.8732268477401197,-3.2885451800382857
248,-7.551625508078246,-7.939333253273951,-0.6100857593742087,-2.6558116496161497
249,-6.705658288500492,-7.088865457464061,-0.33560953864904536,-2.011152044242843
250,-5.844338214527691,-6.207630495226933,-0.04982617089414463,-1.3564933193139252
251,-4.970235200253346,-5.29653300214022,0.24703638286683036,-0.6939200141749579
252,-4.085935639475108,-4.356466618163287,0.5545469930407168,-0.025687842213214296
253,-3.19405555984285,-3.3883175564509083,0.8720722955926042,0.6457634720786362
254,-2.2972561515992744,-2.392970741904134,1.1987816728253713,1.3177987883790152
255,-1.398260622538282,-1.3713184940725562,1.533656103498811,1.9875783298933187
256,-1.9326197231364842e-13,-3.4344938483437025e-15,-2.3102856566581776e-15,-4.2189947968457155e-14
257,-4.348612978071168e-12,-2.749381588457517e-14,1.2422235027690335e-13,-1.0555890348879456e-12
258,-4.8188754433671546e-11,-1.252620375514752e-12,2.1895507909016015e-12,-1.2426366125340467e-11
259,-3.5492013433989233e-10,-1.748149016109272e-11,2.1468111119735925e-11,-9.835325453866838e-11
260,-1.9627629203465028e-09,-1.4764482532149476e-10,1.446729017560374e-10,-5.905793825968433e-10
261,-8.724893794584779e-09,-9.059605537159243e-10,7.361584250774195e-10,-2.8648226830376434e-09
262,-3.2584361718174164e-08,-4.402429224371829e-09,2.9884604835923845e-09,-1.1674227993701623e-08
263,-1.0548492532556222e-07,-1.7835061978113066e-08,1.0025076006205467e-08,-4.105910999149416e-08
264,-3.029984653755464e-07,-6.236442794217387e-08,2.841398583767158e-08,-1.271784812971064e-07
265,-7.863344645076986e-07,-1.930487105098414e-07,6.88033014083155e-08,-3.5250617288286076e-07
266,-1.8703318490704741e-06,-5.3933022606799e-07,1.4197214164201712e-07,-8.857907936977671e-07
267,-4.124796550961751e-06,-1.3807095324570884e-06,2.4257184723709284e-07,-2.039965735793563e-06
268,-8.514703044468962e-06,-3.2787266966537823e-06,3.071730439165249e-07,-4.34505551697755e-06
269,-1.6581024653063302e-05,-7.293991422500448e-06,1.2622267929785006e-07,-8.624878848781443e-06
270,-3.065814388438608e-05,-1.532526850883115e-05,-8.18278345358084e-07,-1.6055463481649857e-05
271,-5.411592859966989e-05,-3.0615716441100243e-05,-3.625397636927387e-06,-2.8170517121177e-05
272,-9.160486238953153e-05,-5.8478258016873605e-05,-1.0401273867527456e-05,-4.6766234718404434e-05
273,-0.00014927161960654175,-0.00010729666984655695,-2.4887070685313987e-05,-7.364542726525291e-05
274,-0.00023490110003770762,-0.00018986040771723324,-5.334063944408754e-05,-0.00011013072356501616
275,-0.00035793046637651565,-0.00032508878248964,-0.00010572389415896079,-0.00015626972670664417
276,-0.0005292726119210706,-0.0005401934592615612,-0.00019724472789197012,-0.00020965268783750975
277,-0.0007608820614004858,-0.0008733171968680831,-0.00035029542757048746,-0.0002637663358079504
278,-0.001064996511200156,-0.0013766713605414223,-0.0005968188983586374,-0.000305816316166115
279,-0.001452992408350789,-0.0021201754158914777,-0.0009811196776446434,-0.00031396513075513294
280,-0.0019338029312279178,-0.003195579014692228,-0.0015631189279811859,-0.00025395218164554913
281,-0.0025118608292935625,-0.004721022242539963,-0.0024220317434860907,-7.508715429586902e-05
282,-0.0031845459995918177,-0.006845962965371987,-0.0036604218226998775,0.00029436279609096973
283,-0.003939137685886034,-0.009756372798837964,-0.005408563776123189,0.000952338230965699
284,-0.004749293213835205,-0.013680075871009507,-0.007829018211774159,0.002028614540995798
285,-0.005571098725874323,-0.01889207824855098,-0.011121300551175158,0.00369076209067238
286,-0.0063387617690891275,-0.025719711885014387,-0.015526502513741745,0.006150272223596254
287,-0.0069600397222947,-0.03454739667600848,-0.021331706495767024,0.009668646215033903
288,-0.0073115204540130435,-0.04582080917924299,-0.028874018659277897,0.014563213459753513
289,-0.007233890776050365,-0.060050238129288606,-0.038544037313331704,0.021212421418753864
290,-0.006527343083865487,-0.0778129060541242,-0.05078856984447459,0.03006032466189
291,-0.0049472805716156126,-0.09975404365723484,-0.06611241453785537,0.04161999471154227
292,-0.0022004866667312915,-0.1265865193270003,-0.0850790333251278,0.0564755768546952
293,0.0020580747472098023,-0.15908884999561076,-0.10830995765849014,0.07528273486659497
294,0.008227664722204986,-0.19810145113748104,-0.1364827918930312,0.09876724962429628
295,0.016763223233703387,-0.24452102225893046,-0.17032770608179168,0.12772157254922764
296,0.028175724807307005,-0.29929300880232046,-0.21062234212064637,0.16299917906409866
297,0.043031302269769284,-0.36340213069637634,-0.2581850928050557,0.20550661974637488
298,0.06194902167480264,-0.43786102029206847,-0.31386675162020355,0.25619322606928907
299,0.08559721066137621,-0.5236970664050371,-0.3785405710385138,0.3160384914921565
300,0.1146882637961983,-0.6219376148525166,-0.4530908078820476,0.3860372148542501
301,0.14997187146920726,-0.7335937275008347,-0.5383998751792028,0.4671825592906164
302,0.19222664370325554,-0.8596427498706197,-0.635334260273169,0.5604472444141222
303,0.24225012733750836,-1.0010099804582966,-0.7447294081377172,0.6667631510585412
304,0.30084724533830726,-1.1585497720676252,-0.8673738062873161,0.7869996756574678
305,0.3688172214622497,-1.3330264258021698,-1.003992542552469,0.9219412246966027
306,0.44693909288144323,-1.5250952613511393,-1.155230638343648,1.0722642878252775
307,0.5359559578707114,-1.7352842623512774,-1.3216364866617532,1.2385145700316134
308,0.6365581546989606,-1.9639767025559958,-1.503645744703566,1.4210846973161841
309,0.7493656200942954,-2.211395156969063,-1.7015660441069063,1.6201930348117821
310,0.874909728921837,-2.477587291716834,-1.915562886444106,1.83586416940196
311,1.0136149682540927,-2.7624138070001045,-2.1456470865109827,2.0679116087009777
312,1.1657808456758039,-3.065538878828911,-2.39166411062972,2.3159232330972315
313,1.3315644702275953,-3.386423407391217,-2.653285631367922,2.579250006197999
314,1.5109642718666612,-3.724321333038316,-2.9300035839990053,2.8569984008364493
315,1.7038053391979977,-4.078279225451065,-3.221126964350822,3.1480269329406325
316,1.9097268536431875,-4.447139288351593,-3.5257815534581622,3.4509471149312656
317,2.1281720800468142,-4.829545852241426,-3.842912693033117,3.764129045616491
318,2.3583813386279773,-5.22395535250504,-4.171291168852047,4.085711747234894
319,2.5993883315645707,-5.6286497115582055,-4.509522188603703,4.413618245437617
320,2.8500201304280792,-6.041752963561644,-4.856057368573244,4.745575268116136
321,3.1089010498547736,-6.461250880792923,-5.209209571849826,5.079137317851479
322,3.3744605404876036,-6.88501328442912,-5.567170371636933,5.411714754250262
323,3.6449451330843003,-7.310818651614532,-5.9280298487333045,5.740605410355488
324,3.918434358881328,-7.73638056756247,-6.289798374214037,6.063029165281783
325,4.1928604621982615,-8.159375518171819,-6.6504299784296395,6.376164806470634
326,4.466031613332416,-8.57747147705757,-7.007846867012548,6.677188442241359
327,4.735658226488165,-8.988356712474522,-7.35996461462904,6.963312670812491
328,4.999381892176012,-9.38976822541218,-7.7047175483484205,7.231825677284347
329,5.254806349397523,-9.779519230750076,-8.04008382496242,7.48012941621456
330,5.499529852925542,-10.155525108902193,-8.364109710311004,7.705776044801933
331,5.731178237631743,-10.515827285488104,-8.674932583346047,7.906501800153785
332,5.947437947154818,-10.858614540453472,-8.970802212800052,8.080257562944995
333,6.146088279715031,-11.182241304540824,-9.250099889287371,8.225235417798988
334,6.325032110380267,-11.485242568574682,-9.511355039700504,8.339890606315176
335,6.48232437667064,-11.766345107896088,-9.753259003014628,8.422958369804448
336,6.616197662406249,-12.024474808474146,-9.974675706110915,8.47346529305806
337,6.72508428180504,-12.258759970592243,-10.174649043882683,8.490734885120807
338,6.807634350059775,-12.468530558304785,-10.352406838480782,8.474387265077475
339,6.862729425492975,-12.653313455779863,-10.507361326735042,8.424332957136771
340,6.889491419027674,-12.812823882876698,-10.63910620106444,8.340760936544706
341,6.887286585928508,-12.946953209604537,-10.747410305915063,8.22412120276302
342,6.855724539162143,-13.055753490342035,-10.832208167145236,8.075102285621696
343,6.794652349802553,-13.139419111917963,-10.893587603893343,7.8946042106530685
344,6.704143924179262,-13.198266013154788,-10.931774739340296,7.683707558628773
345,6.584484966541423,-13.232708985823665,-10.947116786476244,7.443639348832343
346,6.436153946650707,-13.24323760702742,-10.940063035694426,7.175736553514036
347,6.25979959092098,-13.230391380011628,-10.911144511186404,6.881408110351475
348,6.056215500826678,-13.194734673818036,-10.860952791434757,6.562096339063728
349,5.826312571078701,-13.136832051874363,-10.790118504690486,6.219238686560514
350,5.57108993080065,-13.05722456570485,-10.699290012699132,5.854230721625098
351,5.291605162467248,-12.956407562897544,-10.589112785071563,5.46839127510922
352,4.988944565098547,-12.834810519030428,-10.460209943023218,5.062930575442342
353,4.664194220140521,-12.692779352479851,-10.313164415630126,4.638922162920747
354,4.3184125912250515,-12.530561620227601,-10.148503105584723,4.197279281248278
355,3.952605343818574,-12.348294923509274,-9.966683406326224,3.7387363431337386
356,3.5677030094140223,-12.145998776181061,-9.768082350261784,3.263835950797257
357,3.1645420436013887,-11.923570107967477,-9.552988600636285,2.772921824715353
358,2.743849740559277,-11.680782491351064,-9.321597429559022,2.2661378578207323
359,2.306233370870919,-11.417289096901918,-9.074008753813999,1.7434333708530523
360,1.8521738077185723,-11.132629299439566,-8.810228230265391,1.2045745009468456
361,1.3820238009950518,-10.826238778609037,-8.53017134557842,0.6491615131925511
362,0.8960109520742023,-10.49746288410904,-8.233670371991186,0.07665168710769876
363,0.3942453360827567,-10.145572969567692,-7.920484003121821,-0.5136127001386919
364,-0.12326838454452468,-9.76978534126917,-7.590309432183036,-1.122371891344125
365,-0.6566146099856583,-9.369282419633528,-7.242796590210733,-1.7504123714418751
366,-1.2059465637953193,-8.943235673280572,-6.877564224500871,-2.398527588405963
367,-1.7714625973762,-8.490829858115037,-6.494217467678917,-3.067476540017196
368,-2.35337954839204,-8.01128807733953,-6.092366525773879,-3.7579411475475837
369,-2.9519037316497614,-7.503897172563368,-5.6716460992282105,-4.470483371277886
370,-3.5672001992412503,-6.968032960917698,-5.231735143722879,-5.205503035880874
371,-4.199360953987116,-6.403184847755046,-4.772376577758214,-5.9631973258430815
372,-4.848372835469303,-5.808979368311553,-4.29339655083064,-6.743522882474467
373,-5.514085820192936,-5.185202243617922,-3.7947228995200435,-7.546161385333701
374,-6.196182485740858,-4.531818574728313,-3.2764024385782826,-8.370489433149862
375,-6.894149382338825,-3.848990843601772,-2.7386167598505793,-9.215553453980824
376,-7.607251033388071,-3.137094437228953,-2.181696243118347,-10.08005027316591
377,-8.334507248890873,-2.3967304623430894,-1.6061320191276085,-10.96231385265222
378,-9.074674382311224,-1.62873566984641,-1.0125856654063479,-11.86030858880761
379,-9.826231092696462,-0.8341893596118717,-0.40189645907319,-12.771629420403272
380,-10.587369090665383,-0.014417186458179534,0.22491394333461756,-13.693508856770357
381,-11.355989250389248,0.8290081640722163,0.866639482055107,-14.622830891106902
382,-12.129703361626024,1.6942694166659416,1.521890362472985,-15.556151618618582
383,-12.905841678312827,2.5793102090774735,2.1890964060860343,-16.489726236855134
384,2.060417134394017e-15,-3.962913529277538e-14,-5.186746281526972e-14,5.731195475321749e-15
385,1.3113765927719856e-13,-8.374661596964889e-13,-1.137485461278352e-12,2.1524431566293133e-13
386,1.4795960877210794e-12,-9.982936928814087e-12,-1.3742952814794094e-11,2.367526210292092e-12
387,1.0630742607800729e-11,-7.983795923976804e-11,-1.1106421445283994e-10,1.6750423414262066e-11
388,5.514452492822501e-11,-4.813790688279207e-10,-6.750923055170932e-10,8.601464109143041e-11
389,2.1795536606378696e-10,-2.3397012731969407e-09,-3.3006373387422814e-09,3.3826903929893266e-10
390,6.653324900005428e-10,-9.57336374998349e-09,-1.3558334113633017e-08,1.034094713874008e-09
391,1.5030891094658626e-09,-3.399767697328017e-08,-4.825723748596004e-08,2.366967485952857e-09
392,1.9233282701220767e-09,-1.0719473932773429e-07,-1.522881309098543e-07,3.2209548642445117e-09
393,-2.657833300297096e-09,-3.0539666759534754e-07,-4.337963985714243e-07,-3.070654296755243e-09
394,-2.8072292675291302e-08,-7.972416672774322e-07,-1.1314073138722362e-06,-3.994017861528544e-08
395,-1.180314075840532e-07,-1.9287690838326967e-06,-2.733384030729975e-06,-1.727978698607235e-07
396,-3.77129591996703e-07,-4.365197503109652e-06,-6.175587765906307e-06,-5.593913212397897e-07
397,-1.0308453177357998e-06,-9.31453521155152e-06,-1.3152349088233062e-05,-1.5415571176297122e-06
398,-2.5273250343274624e-06,-1.88634714305734e-05,-2.658106998849101e-05,-3.800417965130824e-06
399,-5.7005547246607016e-06,-3.646079491300451e-05,-5.126665038737922e-05,-8.603185114786447e-06
400,-1.2019762365831134e-05,-6.75872508473091e-05,-9.481473218587164e-05,-1.8175569720029696e-05
401,-2.3955127330123106e-05,-0.00012065273382831384,-0.00016884242887626392,-3.6238716676880684e-05
402,-4.549450999581637e-05,-0.00020816150266259552,-0.00029053100716002216,-6.875283089771848e-05
403,-8.284926719278106e-05,-0.0003481832361998074,-0.00048455653927410885,-0.00012491056334847583
404,-0.00014538856896478266,-0.0005661618828246774,-0.000785421807498503,-0.00021842111255895952
405,-0.00024684030404849495,-0.0008970852003346559,-0.00124019600998639,-0.0003691203259958323
406,-0.0004067920911367023,-0.0013880256374487238,-0.0019116487066549147,-0.0006049324659577652
407,-0.0006525177263797838,-0.002101047977030064,-0.002881741860455537,-0.0009641955964606013
408,-0.0010211424734209772,-0.0031164613407861095,-0.004255419902481318,-0.0014983449228010068
409,-0.001562145100240034,-0.004536373308889516,-0.006164613739689696,-0.002274927372768411
410,-0.0023401759101316336,-0.00648848273445377,-0.00877235180866051,-0.003380897038795542
411,-0.003438148858316961,-0.009130026144782245,-0.012276850845571495,-0.004926115848031605
412,-0.004960543055321249,-0.01265177132981769,-0.01691544202103837,-0.007046958258170143
413,-0.007036825592412937,-0.01728193181779187,-0.02296817532574312,-0.009909894336333673
414,-0.009824884904856454,-0.023289858482514685,-0.03076093726045842,-0.013714903810657285
415,-0.013514343139280117,-0.030989350586479086,-0.04066791448626529,-0.018698556114869123
416,-0.01832959855990354,-0.04074141916553566,-0.053113239458696886,-0.025136579471754347
417,-0.024532436208360337,-0.05295633170842387,-0.06857166334170527,-0.03334573686654143
418,-0.0324240379939395,-0.0680947692795008,-0.08756811660318839,-0.04368482925951189
419,-0.042346223102930756,-0.08666793600732245,-0.1106760383487213,-0.0565546571501128
420,-0.05468175675517705,-0.10923647634336991,-0.13851438116516246,-0.07239679078935289
421,-0.06985358020676834,-0.13640807750710346,-0.17174322834376304,-0.09169102663782139
422,-0.08832283738464192,-0.16883366261825877,-0.21105799399258393,-0.11495144233435885
423,-0.11058560310425677,-0.20720211346927425,-0.2571822127592027,-0.14272100334999435
424,-0.13716825354522802,-0.25223349979318194,-0.3108589636124209,-0.17556472023721578
425,-0.16862146029801828,-0.30467083314615967,-0.3728410102936116,-0.214061404309572
426,-0.20551283336230738,-0.3652704069356631,-0.4438797785906116,-0.2587941199139813
427,-0.24841828434171143,-0.43479082839437644,-0.524713326529102,-0.3103394813313188
428,-0.29791222705511994,-0.5139808921021625,-0.6160534970368235,-0.3692559899193429
429,-0.3545567772064345,-0.6035664866615778,-0.7185724728380655,-0.43607165063922
430,-0.41889015401870877,-0.7042367650201562,-0.8328889795917214,-0.5112711449427974
431,-0.49141452334264835,-0.8166298434240726,-0.9595544049669317,-0.5952828676461451
432,-0.5725835523402545,-0.9413183228670239,-1.0990391178502583,-0.6884661575666738
433,-0.6627899692851509,-1.0787949490497966,-1.2517192825941446,-0.7910990643058332
434,-0.7623534374376426,-1.2294587413119011,-1.4178644675516896,-0.9033669958878608
435,-0.8715090587493531,-1.3936019269389326,-1.597626344545236,-1.0253525836486461
436,-0.9903968209997753,-1.571398014115039,-1.7910287659355804,-1.1570270818120705
437,-1.1190522907954468,-1.7628913242817967,-1.9979594883130625,-1.298243589985278
438,-1.2573988348653238,-1.967988282805418,-2.2181637864716666,-1.448732348127973
439,-1.4052416237288803,-2.1864507360172794,-2.4512401684907035,-1.60809830654144
440,-1.5622636358212325,-2.4178915236058462,-2.6966383630013464,-1.7758211194985556
441,-1.728023837494701,-2.661772489051055,-2.9536597039632064,-1.9512576519097544
442,-1.9019576661576612,-2.9174050586097455,-3.2214599877361594,-2.1336470256424644
443,-2.083379891542955,-3.183953462755343,-3.499054823363968,-2.3221181676548364
444,-2.2714898752729487,-3.46044061450067,-3.7853274413949243,-2.515699757938947
445,-2.465379193154064,-3.7457565982598444,-4.079038870903412,-2.7133324133982564
446,-2.6640415296187636,-4.038669662375863,-4.378840340250665,-2.9138828861450596
447,-2.866384700939162,-4.337839549638301,-4.683287706011337,-3.116160003055106
448,-3.0712446145688332,-4.6418329444403135,-4.990857667687673,-3.318932029258325
449,-3.2774009273057625,-4.949140763973189,-5.299965484408043,-3.520945102747349
450,-3.4835941257544625,-5.258196975213393,-5.608983874614197,-3.7209423612380315
451,-3.688543719414244,-5.567398580487073,-5.91626275143576,-3.917683366192117
452,-3.890967210045959,-5.875126383043324,-6.220149425526967,-4.109963422492273
453,-4.089599481027528,-6.179766121143393,-6.519008893969083,-4.296632395301648
454,-4.283212237355581,-6.479729545343243,-6.811243828677753,-4.476612637571887
455,-4.47063312087703,-6.7734750094057095,-7.095313880722442,-4.648915661752242
456,-4.650764126271385,-7.059527150919989,-7.369753928030761,-4.8126572166540385
457,-4.822598951212097,-7.336495253293696,-7.633190912898726,-4.967070464228539
458,-4.985238928895786,-7.603089906124776,-7.884358942167547,-5.111516990308696
459,-5.137907212540099,-7.8581376155978235,-8.122112356313647,-5.2454954272773735
460,-5.2799609092202235,-8.100593059757655,-8.345436513369702,-5.368647514340149
461,-5.410900894135596,-8.329548734309094,-8.553456078802819,-5.480761471795696
462,-5.5303790755515,-8.544241791749513,-8.745440662404853,-5.581772618569585
463,-5.638202924625308,-8.744057938710457,-8.920807697013421,-5.671761216407272
464,-5.73433713241333,-8.928532321736638,-9.079122510507352,-5.750947578550632
465,-5.818902307815957,-9.097347398612644,-9.220095600923665,-5.819684534439338
466,-5.892170684250562,-9.250327858964091,-9.343577183517667,-5.878447393919749
467,-5.9545588585732565,-9.387432722458085,-9.44954913681458,-5.927821603511716
468,-6.006617642279605,-9.508744803880672,-9.53811453079134,-5.96848833240434
469,-6.049019161359263,-9.614457790251613,-9.60948497288419,-6.001208266064518
470,-6.082541396414579,-9.70486122476929,-9.663966055197248,-6.026803919865354
471,-6.108050407828026,-9.780323734847267,-9.701941227854917,-6.046140813393299
472,-6.126480540900888,-9.841274876152653,-9.723854457809729,-6.060107867668498
473,-6.138812951983302,-9.888185990965807,-9.730192058690797,-6.069597402161231
474,-6.146052837656112,-9.921550497139455,-9.721464094784732,-6.0754851160832395
475,-6.14920578400524,-9.941864033402908,-9.698185770569177,-6.078610438943235
476,-6.1492536809845735,-9.949604887827967,-9.660859216225376,-6.079757628799184
477,-6.147130666908036,-9.945215129139816,-9.609956069370977,-6.079637983066381
478,-6.143699579493836,-9.929082845490345,-9.545901234262574,-6.078873506262719
479,-6.139729392039578,-9.90152587265494,-9.469058172548086,-6.077982351924065
480,-6.135874105878884,-9.862777363776441,-9.379716045146104,-6.077366322493947
481,-6.132653553083506,-9.81297351624297,-9.278078984025205,-6.077300671823471
482,-6.130436536403584,-9.752143728601778,-9.164257726729286,-6.077926410665536
483,-6.129426696799934,-9.680203412223094,-9.038263796721537,-6.079245266974055
484,-6.129651452912214,-9.596949629478981,-8.90000636031898,-6.081117400812131
485,-6.1309543019524435,-9.502059673370791,-8.749291837459383,-6.083261919269015
486,-6.132990708603882,-9.395092643844835,-8.585826290010946,-6.085260181151107
487,-6.135227738606529,-9.27549401465898,-8.409220558907226,-6.086561825592932
488,-6.136947518162886,-9.14260312292187,-8.218998071019067,-6.086493404395723
489,-6.137254520715085,-8.995663452743347,-8.014605189144827,-6.0842694460884195
490,-6.135086600890587,-8.833835526273745,-7.795423934415209,-6.079005731612338
491,-6.1292296135399384,-8.656212161203701,-7.560786870203782,-6.069734518258789
492,-6.118335375946675,-8.461835804881344,-7.309993900581416,-6.055421411006332
493,-6.100942655629398,-8.249717612766053,-7.042330704585964,-6.034983549518481
494,-6.075500796768583,-8.018857903981555,-6.757088500124857,-6.007308755417802
495,-6.040395537142614,-7.76826760005992,-6.453584808162791,-5.971275268532605
496,-5.993976516331256,-7.496990235171981,-6.131184868948742,-5.925771692918066
497,-5.934585936352117,-7.204124117590496,-5.789323347437158,-5.869716773664774
498,-5.860587809002983,-6.888844222978107,-5.427525954864519,-5.802078633664704
499,-5.770397210762495,-6.550423410245816,-5.045430607828181,-5.72189311522201
500,-5.66250896651696,-6.188252569853611,-4.642807745394182,-5.628280894105587
501,-5.535525197574738,-5.8018593419147155,-4.219579428940845,-5.520463062618848
502,-5.3881811969141875,-5.3909250764295455,-3.775836858778968,-5.397774912655503
503,-5.219369134477898,-4.955299749255549,-3.311855956147946,-5.259677688565798
504,-5.02815914629875,-4.4950145936302786,-2.828110678960833,-5.105768121987362
505,-4.8138174217707945,-4.010292256664275,-2.3252837646012643,-4.9357856056384275
506,-4.575820971724625,-3.5015543415940114,-1.8042746230861118,-4.749616909533479
507,-4.3138688342704645,-2.969426248139094,-1.26620413893227,-4.547298390325361
508,-4.0278895536782695,-2.4147392735604836,-0.712416180049035,-4.329015691706392
509,-3.718044847863665,-1.8385299846719638,-0.1444756568603627,-4.09510098025362
510,-3.384729460339311,-1.2420369150604702,0.4358369754574968,-3.8460278060654005
511,-3.0285672708428053,-0.6266946813353492,1.0265348244632173,-3.58240372033767
512,-1.1333860585344182e-14,-3.797180428926057e-14,-3.4293121977586686e-14,6.916440105738986e-15
513,-1.8790177046499143e-13,-8.237213218538432e-13,-7.334673316748542e-13,2.2056640516586498e-13
514,-2.1834658463344863e-12,-1.001855107353432e-11,-8.982853499200026e-12,2.507234463100587e-12
515,-1.7424656671436593e-11,-8.160566534303138e-11,-7.365123289594237e-11,1.8549312682804308e-11
516,-1.0637370845393171e-10,-5.001320626507412e-10,-4.541693318207433e-10,1.0138095094212135e-10
517,-5.307920575920859e-10,-2.465944494866188e-09,-2.2527759572999708e-09,4.3602252159704295e-10
518,-2.257820459298505e-09,-1.0216228429538431e-08,-9.390189788696725e-09,1.530726560757478e-09
519,-8.421023268467073e-09,-3.667120616945153e-08,-3.392307504453155e-08,4.47560167131898e-09
520,-2.809032577384153e-08,-1.1668972776928805e-07,-1.0868744532076944e-07,1.0948640013570403e-08
521,-8.503973433427529e-08,-3.350677417185551e-07,-3.143856642563854e-07,2.197028291979073e-08
522,-2.3632279914672064e-07,-8.806064845766281e-07,-8.326961167682994e-07,3.315642494990043e-08
523,-6.084803884017326e-07,-2.1428252702420626e-06,-2.0427679784215334e-06,2.2269904712166958e-08
524,-1.4630895855528485e-06,-4.873903048126762e-06,-4.6853163397599215e-06,-7.782521172807946e-08
525,-3.307945446502388e-06,-1.044470933443449e-05,-1.012593709785806e-05,-4.3111519657604133e-07
526,-7.075141393706407e-06,-2.12296665316574e-05,-2.0756465902231755e-05,-1.3896282408714181e-06
527,-1.4392249152190523e-05,-4.115990227517681e-05,-4.057930387412989e-05,-3.642630728937735e-06
528,-2.797715976937365e-05,-7.6486908076551e-05,-7.602366166392592e-05,-8.447082006405363e-06
529,-5.219032972703684e-05,-0.0001367989939611198,-0.00013704372175758916,-1.796665975833129e-05
530,-9.377957516088425e-05,-0.00023632964798519964,-0.00023854602817265167,-3.57497099230051e-05
531,-0.00016285164624714034,-0.0003955901291424398,-0.0004021864636512065,-6.73778954297712e-05
532,-0.000274101210859356,-0.0006433481686983767,-0.0006585657496992386,-0.00012131656565127239
533,-0.000448321384138195,-0.0010189607512629314,-0.001049836624670825,-0.00020999450536572507
534,-0.0007142105675582779,-0.0015750521072542972,-0.0016327161825555629,-0.0003511344837285027
535,-0.001110478336021295,-0.002380509041604714,-0.0024818740742967222,-0.0005693468844806849
536,-0.00168823887776303,-0.0035237455048196743,-0.003693642435642209,-0.000897986913967214
537,-0.0025136646707701175,-0.005116167939872541,-0.0053899677483222955,-0.0013812619770092738
538,-0.0036708564051713493,-0.0072957534896012435,-0.007722499690103457,-0.002076560501436676
539,-0.005264868416195435,-0.010230635651769411,-0.010876688704824205,-0.0030569576017998486
540,-0.007424812868295806,-0.014122577345723086,-0.015075743774739104,-0.004413837351214011
541,-0.010306951411667226,-0.019210200381109793,-0.0205842858413627,-0.006259556909026985
542,-0.01409767077312723,-0.025771833590739583,-0.02771152150280734,-0.008730065108955272
543,-0.019016229431624617,-0.034127839798752016,-0.03681375686710809,-0.01198737803609411
544,-0.02531715673937378,-0.04464228452483937,-0.048296073425020375,-0.016221807186956597
545,-0.03329218401979205,-0.057723816860196765,-0.06261299694026398,-0.021653832474383454
546,-0.04327158960023188,-0.07382564510689851,-0.08026800675704386,-0.02853551296322205
547,-0.05562484657709758,-0.09344450623299519,-0.1018117563729992,-0.037151333047504745
548,-0.07076047336003392,-0.11711854854629992,-0.12783890606467685,-0.04781839091525771
549,-0.08912500250820385,-0.14542407073911934,-0.1589835039264099,-0.06088584954209091
550,-0.11120100265781073,-0.17897108704424544,-0.19591289179306542,-0.0767335878892546
551,-0.13750411085163758,-0.21839771704085104,-0.23932015587889888,-0.09577001106658466
552,-0.16857905755240765,-0.26436342895984016,-0.28991518716444736,-0.1184290023832833
553,-0.20499469314486343,-0.3175411963958238,-0.34841446209684523,-0.14516602666332337
554,-0.24733805180040053,-0.3786086593086379,-0.41552969847823057,-0.17645342193129304
555,-0.2962075151552712,-0.4482384102114367,-0.49195558293224634,-0.2127749443675936
556,-0.3522051633578653,-0.5270875545861206,-0.578356803535295,-0.25461965797066366
557,-0.4159284238281773,-0.6157867199384995,-0.6753546526686924,-0.30247528433064064
558,-0.48796114787883765,-0.7149287096557776,-0.7835134896687787,-0.35682114809443094
559,-0.5688642616939676,-0.8250570152087063,-0.9033273694532145,-0.4181208690519219
560,-0.6591661507498322,-0.9466544126440873,-1.0352071513070333,-0.48681496153145426
561,-0.7593529454634056,-1.0801318763115,-1.1794684010696967,-0.5633135055383139
562,-0.8698588807091536,-1.2258180441284885,-1.3363203900572305,-0.647989051758139
563,-0.9910569030245725,-1.3839494643736778,-1.5058564754939134,-0.7411699144800611
564,-1.123249697095947,-1.554661844142419,-1.6880461206340251,-0.8431339932489325
565,-1.2666612977896061,-1.7379825044787454,-1.8827287790116176,-0.9541032464126756
566,-1.4214294459055155,-1.9338242271914714,-2.0896098274664134,-1.0742389186280374
567,-1.5875988353227997,-2.1419806539386483,-2.3082586880157696,-1.2036376008865886
568,-1.7651153866102292,-2.3621233698673874,-2.538109230627096,-1.3423281768531952
569,-1.9538216677728968,-2.5938007725412318,-2.7784624988712596,-1.4902696844022219
570,-2.1534535668142203,-2.8364387927524546,-3.028491749652942,-1.6473500972605595
571,-2.363638303359882,-3.0893434978260044,-3.2872497479896676,-1.8133860095856442
572,-2.583893847824796,-3.351705570922666,-3.5536782093121184,-1.9881231869444769
573,-2.8136297965919845,-3.6226066223952715,-3.8266192360204196,-2.1712379311404266
574,-3.052149730490561,-3.901027252191553,-4.10482855294272,-2.362339194015717
575,-3.2986550615890557,-4.185856746373815,-4.386990308628874,-2.5609713667950764
576,-3.5522503500704565,-4.475904256779285,-4.671733176637402,-2.766617666513143
577,-3.8119500489006914,-4.769911281409713,-4.957647463561253,-2.978704039165293
578,-4.076686609397339,-5.066565235024269,-5.243302908801024,-3.1966034998858133
579,-4.345319855977579,-5.364513875274251,-5.527266845269423,-3.4196408330553933
580,-4.616647513694789,-5.662380330141815,-5.8081223804862105,-3.6470975791103046
581,-4.8894167480877915,-5.958778457912512,-6.084486254063981,-3.878217239344782
582,-5.1623365538400945,-6.252328261810091,-6.355026030545282,-4.112210634642981
583,-5.434090807307689,-6.541671078041149,-6.618476296053027,-4.348261358452317
584,-5.703351778699947,-6.825484258521247,-6.873653543297737,-4.585531268145338
585,-5.968793883208848,-7.102495078034542,-7.119469452036478,-4.8231659620587335
586,-6.229107437337569,-7.371493609902842,-7.35494230079029,-5.060300191921826
587,-6.483012177782499,-7.6313443341127565,-7.579206279982305,-5.2960631622149315
588,-6.729270296190724,-7.880996266807469,-7.791518515966235,-5.529583669486682
589,-6.966698744616081,-8.119491429497009,-7.991263658859505,-5.759995036147408
590,-7.194180574063861,-8.345971509600819,-8.177955933796785,-5.986439795099194
591,-7.410675082462457,-8.559682600288205,-8.351238604272394,-6.2080740840874755
592,-7.615226568781781,-8.759977946283845,-8.510880846745403,-6.4240717121312345
593,-7.806971516600462,-8.946318662596699,-8.65677208676801,-6.633627864995506
594,-7.985144062685503,-9.118272434222977,-8.788913897727982,-6.835962422488802
595,-8.14907964329429,-9.275510245953823,-8.907409613054252,-7.030322867353497
596,-8.29821675190541,-9.417801231646106,-9.012451850597854,-7.215986773510518
597,-8.432096785720985,-9.545005770847013,-9.104308193006768,-7.392263870181959
598,-8.5503620032328,-9.657066996669561,-9.183305309353278,-7.558497687636564
599,-8.652751660014875,-9.7540009115126,-9.249811840114782,-7.714066799594029
600,-8.739096433277716,-9.835885335893254,-9.304220398945667,-7.858385686193386
601,-8.809311286203672,-9.902847939701575,-9.346929069678966,-7.9909052493076285
602,-8.863386959392408,-9.955053624102488,-9.37832279494697,-8.111113018291258
603,-8.901380307771428,-9.99269153572385,-9.398755063126453,-8.218533088483047
604,-8.923403726181032,-10.015962002417782,-9.408530302553494,-8.312725836610955
605,-8.929613924868368,-10.025063681597596,-9.407887385817785,-8.393287456504234
606,-8.920200326892006,-10.020181207854586,-9.39698463229669,-8.459849355257004
607,-8.8953733627576,-10.001473616256277,-9.375886673955504,-8.512077444467533
608,-8.855352933549225,-9.969063801525248,-9.344553518036161,-8.54967135386084
609,-8.800357302737446,-9.923029251416528,-9.302832100994793,-8.57236358611438
610,-8.7305926593452,-9.86339426540945,-9.250450581552714,-8.579918622762092
611,-8.646243572090352,-9.790123837810683,-9.187015567830246,-8.5721319823935
612,-8.547464526566989,-9.703119348192072,-9.112012415273089,-8.548829224719418
613,-8.43437270672517,-9.602216162570635,-9.024808669655009,-8.50986488813488
614,-8.307042149225232,-9.487183206827304,-8.924660664173075,-8.455121344787184
615,-8.165499366063809,-9.357724530612426,-8.810723212952206,-8.384507556335805
616,-8.009720498494945,-9.213482836529508,-8.682062276615651,-8.29795771586935
617,-7.839630034826625,-9.054044906886329,-8.537670410463672,-8.195429766915854
618,-7.655101097048887,-8.878948819904238,-8.3764847437473,-8.076903799030287
619,-7.455957277035869,-8.687692810080167,-8.197407180998614,-7.942380330736607
620,-7.241975982515224,-8.479745594411398,-7.999326464758204,-7.7918785040778875
621,-7.012893236007395,-8.254557958300971,-7.781141694557188,-7.625434229895228
622,-6.768409856076084,-8.011575372859236,-7.541786860721962,-7.443098338241104
623,-6.5081989388325345,-7.750251399451168,-7.280255924328926,-7.244934802962758
624,-6.231914547901592,-7.470061627849758,-6.995627957081575,-7.03101912238066
625,-5.9392015121540815,-7.170517891051767,-6.687091847432113,-6.801436948106155
626,-5.6297062216489495,-6.851182502200246,-6.353970082136412,-6.556283060487241
627,-5.303088302733601,-6.511682266413403,-5.995741125632914,-6.295660791240695
628,-4.959033042612434,-6.151722031785093,-5.612059942999679,-6.019681991094453
629,-4.597264421595197,-5.771097558501982,-5.202776245378437,-5.728467632587794
630,-4.217558597548114,-5.369707502061154,-4.767950079019879,-5.4221491256739105
631,-3.819757671834452,-4.947564325206446,-4.307864429580785,-5.100870406741753
632,-3.4037835494672666,-4.504803972796319,-3.8230345707935025,-4.76479084056954
633,-2.9696516887351208,-4.041694163877753,-3.3142139496910406,-4.414088950125249
634,-2.517484517876317,-3.558641175426801,-2.7823964675851673,-4.0489669617493895
635,-2.047524279397104,-3.056195012329342,-2.2288150852434097,-3.669656123895067
636,-1.5601450475090202,-2.5350528781594908,-1.6549367504728736,-3.2764227271157234
637,-1.0558636522193439,-1.9960608812457024,-1.062453714952606,-2.869574722278528
638,-0.5353492362463471,-1.4402139305917316,-0.45327137316070776,-2.4494688040002797
639,0.0005688304791908322,-0.8686537967171509,0.17050718171236737,-2.01651779809901
640,-4.727439492310081e-14,-6.422355874052141e-14,-7.521054870463915e-14,-4.353491384191993e-14
641,-9.862192087836142e-13,-1.4014277510694168e-12,-1.6424637153857702e-12,-8.950006603461547e-13
642,-1.1473955389048325e-11,-1.6502696863440152e-11,-1.9244054354308964e-11,-1.043985260437363e-11
643,-8.961413502660324e-11,-1.3008790238441888e-10,-1.5082270433442448e-10,-8.18936897483223e-11
644,-5.286869282591539e-10,-7.727764847709943e-10,-8.903435395834038e-10,-4.862433836153963e-10
645,-2.5215176365443207e-09,-3.7010431488505672e-09,-4.235958531706509e-09,-2.338688419688965e-09
646,-1.016086579421824e-08,-1.4929882787307136e-08,-1.697212148091455e-08,-9.5210657991935e-09
647,-3.568389932535272e-08,-5.231645263171718e-08,-5.907288029758922e-08,-3.382853809845573e-08
648,-1.1174707881938612e-07,-1.6293962606403783e-07,-1.8279103303312023e-07,-1.0726908861512456e-07
649,-3.1755185676808004e-07,-4.5909790914438324e-07,-5.119178830297375e-07,-3.087373254685889e-07
650,-8.301106993247548e-07,-1.1867530095754845e-06,-1.3160521002778961e-06,-8.171656383116977e-07
651,-2.0179716630372714e-06,-2.8464713866628913e-06,-3.1414406795171394e-06,-2.009808431246437e-06
652,-4.602185493988936e-06,-6.394020822031811e-06,-7.027739860629049e-06,-4.632328584365947e-06
653,-9.917783907619376e-06,-1.3555197350144029e-05,-1.4848313870801144e-05,-1.0076320072210028e-05
654,-2.0317835898135336e-05,-2.7296442590688065e-05,-2.9819635975910576e-05,-2.080905715885724e-05
655,-3.9770314932576396e-05,-5.2498503104505245e-05,-5.723200880877188e-05,-4.100865470642161e-05
656,-7.470443249204288e-05,-9.688389066160972e-05,-0.00010545813812213877,-7.746435961144955e-05
657,-0.00013516660352030812,-0.00017224938597946483,-0.00018729706685697068,-0.0001408052084184153
658,-0.0002363457182736711,-0.0002960515780778607,-0.00032170773481419833,-0.00024711966510930445
659,-0.00040052204291323855,-0.0004933859335152891,-0.000535978350893533,-0.0004200231594050262
660,-0.0006594833369407363,-0.0007993878826198185,-0.0008683645617275917,-0.0006932190292547305
661,-0.0010574355262218896,-0.0012620679271062882,-0.0013712111665988638,-0.0011135809412687542
662,-0.0016544137560575952,-0.0019455721727161836,-0.0021145493397728195,-0.001744761539496384
663,-0.002530173483507258,-0.0029338356625215854,-0.0031901348037416547,-0.0026713034383666367
664,-0.0037885114104934856,-0.0043345694335281525,-0.004715863273823541,-0.004003195805389897
665,-0.005561933787241178,-0.006283494599568172,-0.006840469123885304,-0.005880784220567051
666,-0.008016556474877461,-0.008948709404831102,-0.00974838312003414,-0.00847990517208115
667,-0.011357088882767171,-0.01253504958942284,-0.013664596819926614,-0.012017081599564052
668,-0.015831724329439467,-0.017288280025300216,-0.018859356403923274,-0.01675458455691031
669,-0.0217367343610478,-0.023498937773874445,-0.025652488741455984,-0.023005140509169155
670,-0.02942054583749933,-0.03150563468129191,-0.03441714866202212,-0.031136045970646918
671,-0.03928706866424165,-0.041697622358856296,-0.04558276970817224,-0.04157244272660774
672,-0.05179804004525868,-0.05451642464684441,-0.05963700183240352,-0.05479950882811807
673,-0.06747415875268654,-0.0704563528875678,-0.07712642900440578,-0.07136333337205965
674,-0.08689480037560973,-0.09006373764862062,-0.09865587767464606,-0.09187026663779913
675,-0.11069613160020006,-0.11393473666824103,-0.12488615337040829,-0.11698457075948092
676,-0.1395674776451444,-0.14271161208643737,-0.1565300769848602,-0.14742423860043447
677,-0.17424584100924181,-0.1770774094717784,-0.19434673388057244,-0.18395489829473008
678,-0.21550852032731735,-0.21774901545973202,-0.23913389678256633,-0.2273817761658953
679,-0.2641638337498762,-0.26546861848009395,-0.29171863627006694,-0.278539749386935
680,-0.3210400100389238,-0.32099364644490364,-0.35294618885766194,-0.3382815797187419
681,-0.38697237056123945,-0.38508530473838637,-0.4236672102824623,-0.4074644789014038
682,-0.462788984562724,-0.45849588578219935,-0.5047235986014714,-0.4869352128206579
683,-0.549295036548434,-0.5419550663174764,-0.5969331259046092,-0.5775140036383698
684,-0.6472561964030005,-0.6361554489386714,-0.7010731667758267,-0.6799775350902197
685,-0.7573813283698595,-0.7417376390490459,-0.8178638541858152,-0.7950414048040065
686,-0.8803049126722704,-0.8592751761400005,-0.947951027662739,-0.9233423977225977
687,-1.0165695821052199,-0.9892596581437058,-1.091889363102116,-1.0654209757064257
688,-1.1666091942253558,-1.1320864087746634,-1.250126087548935,-1.2217043895448783
689,-1.3307328668566254,-1.2880410396837536,-1.4229856851702445,-1.3924908205741653
690,-1.5091103997607247,-1.4572872515724002,-1.6106559922161052,-1.5779349498057544
691,-1.701759488023248,-1.6398562011117397,-1.8131760591276127,-1.7780353331172887
692,-1.9085351028721869,-1.8356377338408862,-2.0304261274668596,-1.9926239320893255
693,-2.129121373608315,-2.044373747748365,-2.2621200286646834,-2.2213581121189625
694,-2.363026250906317,-2.265653908843373,-2.5078002616289345,-2.4637153732940336
695,-2.609579168256637,-2.4989138898537298,-2.766835948230216,-2.7189910261038426
696,-2.8679318465425236,-2.743436247642958,-3.0384238010737405,-2.98629896446731
697,-3.1370623088672556,-2.9983539956025345,-3.321592168543866,-3.264575623979424
698,-3.4157820912537953,-3.262656865841989,-3.615208149868373,-3.5525871450408877
699,-3.70274655242307,-3.5352001942011766,-3.91798770002793,-3.8489396901170454
700,-3.996468105290904,-3.814716300646412,-4.228508572890439,-4.15209279339986
701,-4.295332116847404,-4.099828180098642,-4.5452258830457195,-4.460375551383578
702,-4.597615154286266,-4.389065265661605,-4.866490004329607,-4.772005396137492
703,-4.901505195966857,-4.680880978890416,-5.190566467582862,-5.085109131171434
704,-5.205123377996397,-4.973671741291931,-5.515657473133659,-5.39774585445049
705,-5.50654681245745,-5.265797088582913,-5.8399245958849235,-5.707931345884045
706,-5.80383199261063,-5.555600505017272,-6.161512233519108,-6.013663458842887
707,-6.095038294227141,-5.841430579749425,-6.478571331734099,-6.312948028022247
708,-6.378251090382074,-6.121662080911924,-6.789282914876078,-6.6038247900100115
709,-6.651604018795613,-6.394716545821529,-7.091880955875088,-6.884392808628502
710,-6.913299974853852,-6.659081997272359,-7.384674135814959,-7.152834904553513
711,-7.161630448083836,-6.913331415848938,-7.666066070346773,-7.407440607629263
712,-7.39499287313152,-7.156139626075789,-7.934573616816799,-7.646627180154324
713,-7.6119057260665075,-7.386298289358805,-8.188842921510561,-7.868958299397855
714,-7.811021160928462,-7.602728738267918,-8.427662919627192,-8.073160036668849
715,-7.991135047697745,-7.8044924337891555,-8.64997606002671,-8.25813382718825
716,-8.15119433930379,-7.990798878571202,-8.854886090720244,-8.422966188477213
717,-8.290301760029259,-8.161010873554256,-9.041662807607318,-8.566935013557439
718,-8.407717869048666,-8.314647061206442,-9.209743736139481,-8.689512337445692
719,-8.502860609355348,-8.451381754361798,-9.358732781485488,-8.790363549609115
720,-8.57530250268367,-8.571042103850848,-9.488395945623148,-8.869343099573063
721,-8.624765694169447,-8.67360270936375,-9.598654268060425,-8.926486816081415
722,-8.651115085630536,-8.759177825102688,-9.689574199362594,-8.962001030484931
723,-8.654349822995169,-8.828011353813423,-9.761355662415653,-8.976248760837311
724,-8.63459342133991,-8.880464859034193,-9.814318094777443,-8.969733273086888
725,-8.5920828202766,-8.91700385541773,-9.848884796228182,-8.943079388514658
726,-8.527156663362707,-8.938182660566778,-9.865565928649964,-8.897012951148545
727,-8.440243088359791,-8.94462810900502,-9.86494053076416,-8.832338904472369
728,-8.331847301285123,-8.937022439914525,-9.847637918312754,-8.749918452746513
729,-8.202539187215935,-8.916085675495497,-9.814318841356547,-8.650645798268576
730,-8.052941185774332,-8.882557806716186,-9.765656764897807,-8.53542495173928
731,-7.883716630329124,-8.837181098308879,-9.702319627452965,-8.405147108602698
732,-7.695558718476973,-8.780682815577023,-9.624952414948467,-8.260669070048268
733,-7.4891802486362575,-8.713758662286077,-9.534160864865562,-8.102793163709114
734,-7.265304224917231,-8.637057201939115,-9.430496588448959,-7.932249086492992
735,-7.0246554010749085,-8.55116551438552,-9.314443867624362,-7.7496780510677965
736,-6.767952805458854,-8.456596316298278,-9.186408348717126,-7.555619569038534
737,-6.495903263450749,-8.35377674794986,-9.046707817854898,-7.3505011486813645
738,-6.20919591272966,-8.24303900034417,-8.895565203812142,-7.134631124257261
739,-5.908497690364072,-8.124612926590993,-8.73310391372917,-6.9081947685521765
740,-5.594449759434676,-7.9986207499261095,-8.55934556627374,-6.671253771634037
741,-5.267664836554399,-7.865073948462419,-8.374210145999545,-6.42374909825038
742,-4.928725379870849,-7.723872364047975,-8.17751856241256,-6.165507165271268
743,-4.578182599216069,-7.57480554990116,-7.968997558052034,-5.896249210604678
744,-4.216556255071931,-7.417556339340266,-7.748286872175987,-5.615603657556568
745,-3.8443352198496057,-7.251706586244432,-7.514948530872657,-5.323121215119582
746,-3.4619787824875257,-7.076744997185147,-7.2684781010954715,-5.018292396567167
747,-3.069918684443389,-6.8920769457581645,-7.008317715750021,-4.700567087370988
748,-2.6685618807815596,-6.697036131820514,-6.733870650018492,-4.369375750121668
749,-2.2582940233644666,-6.490897922359293,-6.444517205959725,-4.024151819918132
750,-1.839483663435783,-6.272894186803957,-6.139631643298296,-3.664354819471142
751,-1.412487167630153,-6.04222941790124,-5.81859987929859,-3.289493709542971
752,-0.9776543343874076,-5.798097909907135,-5.480837669680681,-2.8991499876217173
753,-0.5353346868606036,-5.539701748882993,-5.125808975568896,-2.4930000558844068
754,-0.08588440388440974,-5.266269355374873,-4.753044218343803,-2.070836398183232
755,0.37032616718167083,-4.977074307802279,-4.362158124891293,-1.632587134328637
756,0.8329044923007374,-4.671454165649021,-3.952866870078247,-1.17833355742089
757,1.3014274260839558,-4.348829005288977,-3.5250042313784857,-0.7083253052710533
758,1.775432502502593,-4.008719378329213,-3.078536482513356,-0.22299286874526808
759,2.25440908586497,-3.6507634031015117,-2.613575768822043,0.2770428033118182
760,2.737789548646696,-3.274732704776448,-2.1303917268168546,0.7909637826594402
761,3.224940662087636,-2.8805469288539363,-1.6294211338754168,1.317751841758496
762,3.715155401306241,-2.468286566726862,-1.1112754010294035,1.8561883910482935
763,4.207645378004073,-2.038203850677496,-0.5767457519874821,2.4048576678500395
764,4.701534119756129,-1.5907314989080685,-0.026805964452805163,2.9621531124910283
765,5.195851414718067,-1.1264891186878465,0.5373874150351654,3.526286811817236
766,5.689528933864008,-0.6462871069133828,1.1144974346339542,4.095301839165485
767,6.181397329360193,-0.15112792170623174,1.7030116929906283,4.667087273846605
768,-2.41058952629778e-14,-4.373860500156734e-14,-5.1241721549804904e-14,-1.9419135009237844e-14
769,-4.736585375037629e-13,-9.58315762321244e-13,-1.123925639693977e-12,-3.761036696718939e-13
770,-5.440768272429492e-12,-1.154801975838881e-11,-1.3454010525152302e-11,-4.422855545108479e-12
771,-4.209634655421039e-11,-9.316752225929535e-11,-1.0794481427286002e-10,-3.511349582705124e-11
772,-2.465208329078849e-10,-5.657998247897635e-10,-6.529232366509645e-10,-2.111901764067377e-10
773,-1.1698188822165985e-09,-2.765891686277619e-09,-3.183980148889579e-09,-1.0297697085972191e-09
774,-4.703028659313157e-09,-1.1367501516075689e-08,-1.3072749158039138e-08,-4.254160692741576e-09
775,-1.652722463024994e-08,-4.050091405998718e-08,-4.658953519076625e-08,-1.5354385387580353e-08
776,-5.194418935402369e-08,-1.2798660292765998e-07,-1.4742298358334304e-07,-4.9511658840483335e-08
777,-1.485527814107975e-07,-3.651433113158799e-07,-4.2148693910102875e-07,-1.4504940532744473e-07
778,-3.917199307109264e-07,-9.538859723262337e-07,-1.1039891905635388e-06,-3.910557938182756e-07
779,-9.622786963855703e-07,-2.3080773570915138e-06,-2.6790694093060684e-06,-9.800694903635182e-07
780,-2.2203280231386274e-06,-5.222019783275566e-06,-6.079345592053724e-06,-2.3019567869889634e-06
781,-4.844162920100774e-06,-1.11350861545215e-05,-1.2999689989156875e-05,-5.10119984616698e-06
782,-1.0048795920917542e-05,-2.2527190893749467e-05,-2.6365573443894385e-05,-1.0726179062367056e-05
783,-1.9913676943372082e-05,-4.3484425788825434e-05,-5.1000425189237835e-05,-2.1504911297874008e-05
784,-3.785345050213169e-05,-8.047705610199949e-05,-9.453780560210147e-05,-4.1286230108095e-05
785,-6.926827487127804e-05,-0.00014339254711064064,-0.00016862213936134592,-7.618767929986571e-05
786,-0.0001224107913155143,-0.00024686381725182323,-0.00029043593658692436,-0.00013559065510803414
787,-0.00020950481228350097,-0.0004119270859770109,-0.0004845817753053247,-0.00023341901464656674
788,-0.00034814589358698713,-0.0006680343000179875,-0.0007853340634127507,-0.00038972921081093095
789,-0.0005630060415903426,-0.0010554322174740251,-0.0012392592322978267,-0.0006326280821047819
790,-0.0008878539285967803,-0.0016279040872474262,-0.001908184216086475,-0.0010005190842672532
791,-0.0013678883610626813,-0.0024558509948923828,-0.0028724726346799076,-0.0015446596241223973
792,-0.0020623667471100946,-0.0036296690703536017,-0.0042345468791096475,-0.002331992089684207
793,-0.0030474924915384677,-0.005263356753877193,-0.006122573177114744,-0.003448190179346589
794,-0.004419506310205707,-0.007498264211433588,-0.00869420659944529,-0.005000841336394876
795,-0.006297907229524,-0.010506875883382378,-0.012140274777961728,-0.007122666652721108
796,-0.008828710450853212,-0.014496498168794008,-0.016688263780531412,-0.00997466267440085
797,-0.012187632327900969,-0.01971270847977813,-0.022605458036980997,-0.013749036246486783
798,-0.01658307849909338,-0.026442410325230096,-0.030201579265914016,-0.018671794922806458
799,-0.02225880080726733,-0.0350163325211006,-0.039830767693914734,-0.025004852425122598
800,-0.029496083011690672,-0.04581080970044753,-0.05189275295368683,-0.033047511787062916
801,-0.038615315259756436,-0.059248686430802375,-0.06683307210918976,-0.04313719843942559
802,-0.049976823390662936,-0.07579919865987406,-0.08514220822593575,-0.055649331488668616
803,-0.06398083163214083,-0.0959767039403695,-0.10735354445430567,-0.0709962433459622
804,-0.08106645601169293,-0.12033815578562777,-0.13404005514068568,-0.08962508486770797
805,-0.10170965034431101,-0.14947924722194741,-0.16580968622937542,-0.11201468413500375
806,-0.1264200561155331,-0.1840291835029489,-0.20329941122331527,-0.1386713605332716
807,-0.1557367407651361,-0.2246440830834786,-0.24716798521680503,-0.17012373034340825
808,-0.19022284436715445,-0.27199904802727776,-0.2980874569716299,-0.2069165740453844
809,-0.23045919092830006,-0.32677898847216164,-0.35673353667204744,-0.24960386747145738
810,-0.277036955877574,-0.38966832885246183,-0.4237749538742839,-0.2987411074999491
811,-0.33054951424319934,-0.4613397644994296,-0.4998619752731355,-0.3548770870536082
812,-0.3915836231245208,-0.5424422743294497,-0.5856142842432033,-0.4185452929568257
813,-0.4607101162391548,-0.6335886271334636,-0.6816084526808541,-0.49025511325303067
814,-0.5384743067315881,-0.7353426443496723,-0.7883652595223877,-0.5704830477566577
815,-0.6253863065316139,-0.8482065003308789,-0.9063371285810118,-0.6596641170403433
816,-0.7219114760724739,-0.9726083515420659,-1.035895970297453,-0.7581836610278179
817,-0.8284612170855183,-1.1088905886680156,-1.177321717057827,-0.8663697092621214
818,-0.9453843136876222,-1.2572990003121065,-1.3307918394783829,-0.9844860911961731
819,-1.0729590135038127,-1.4179731239992064,-1.4963721212266843,-1.1127264369995589
820,-1.211386021735547,-1.590938039822725,-1.6740089524357251,-1.2512091978945226
821,-1.3607825576289851,-1.7760978346587954,-1.8635233766368637,-1.3999737904167462
822,-1.5211775955233622,-1.9732309309021974,-2.064607093662924,-1.5589779417306224
823,-1.6925083824256497,-2.1819874338305434,-2.2768205816885243,-1.728096283740112
824,-1.8746182917658256,-2.4018886068546603,-2.499593456319132,-1.9071202128256004
825,-2.0672560395684867,-2.6323285351546843,-2.7322271345632574,-2.0957590002919106
826,-2.2700762556784095,-2.8725779868117374,-2.9738998180332383,-2.2936421068007053
827,-2.482641369860944,-3.1217904279472877,-3.2236737543922773,-2.5003226230310434
828,-2.7044247415406604,-3.379010096085701,-3.4805046805276985,-2.7152817295016023
829,-2.9348149336183345,-3.643181985487823,-3.743253296779133,-2.9379340419045303
830,-3.1731210061337864,-3.913163551046529,-4.010698570298246,-3.167633685464691
831,-3.4185786853039666,-4.187737894870085,-4.281552618668471,-3.403680923701558
832,-3.6703572482594513,-4.465628163151778,-4.554476883561097,-3.645329154351573
833,-3.9275669540246354,-4.745512851423274,-4.8280992696244205,-3.8917920787509983
834,-4.189266847146527,-5.026041694729061,-5.101031897049671,-4.14225085112982
835,-4.4544727619052065,-5.305851806353945,-5.371889098238988,-4.395861021236798
836,-4.722165362084403,-5.583583724956492,-5.639305280435393,-4.651759097440553
837,-4.991298063500996,-5.857897035492967,-5.9019522775273705,-4.909068577577082
838,-5.260804703355695,-6.1274852440155145,-6.158555825654938,-5.166905320713035
839,-5.529606841263153,-6.391089609816291,-6.407910818490718,-5.424382163793896
840,-5.796620600675093,-6.647511669665407,-6.6488950285260255,-5.680612721747968
841,-6.060762985312871,-6.895624226974373,-6.880481019364029,-5.934714346707721
842,-6.32095763206062,-7.134380622297226,-7.101746019602532,-6.185810260097922
843,-6.576139988372962,-7.36282214916702,-7.3118795798471625,-6.433030908824787
844,-6.825261927464146,-7.5800835292377595,-7.510188889082332,-6.675514632056657
845,-7.067295837266893,-7.785396411375003,-7.696101683357925,-6.912407756538994
846,-7.301238238369433,-7.9780909090376,-7.86916673686123,-7.142864264571315
847,-7.526113000986334,-8.1575952374482,-8.029051981315902,-7.36604519841586
848,-7.740974240820501,-8.323433555283668,-8.175540352729671,-7.581117977009697
849,-7.944908978021687,-8.475222153810451,-8.308523513355832,-7.787255804779052
850,-8.137039642232322,-8.61266416870429,-8.427993640076744,-7.983637347869352
851,-8.316526500119224,-8.735543015661534,-8.534033507245706,-8.169446840355066
852,-8.482570070263494,-8.843714770003647,-8.62680512162647,-8.343874762477412
853,-8.634413574487684,-8.937099722690645,-8.706537189070406,-8.506119205493725
854,-8.771345455495918,-9.015673350585292,-8.773511706918391,-8.655388004425165
855,-8.892701969096828,-9.079456937738279,-8.82804998306335,-8.790901682238559
856,-8.997869836374857,-9.128508077372585,-8.870498382669757,-8.911897208369343
857,-9.086288918122753,-9.162911271783516,-8.901214097423464,-9.017632532696734
858,-9.157454851810272,-9.18276883033253,-8.92055122070018,-9.107391814910185
859,-9.210921571503283,-9.18819224499661,-8.928847396052381,-9.180491230472887
860,-9.246303614600471,-9.179294199501927,-8.926411286743042,-9.2362851998669
861,-9.263278107079337,-9.156181342908665,-8.913511091432763,-9.274172859113401
862,-9.261586312044514,-9.118947932592741,-8.890364306172062,-9.29360456806444
863,-9.241034625432794,-9.06767042579614,-8.857128906071726,-9.294088239688111
864,-9.201494908167133,-9.002403074084661,-8.81389609184082,-9.275195269168107
865,-9.142904055980702,-8.92317455179653,-8.760684717159368,-9.23656584635228
866,-9.065262726342166,-8.829985628344772,-8.697437482930617,-9.177913448718837
867,-8.968633165853916,-8.722807875327678,-8.624018954171753,-9.099028333960435
868,-8.85313611029654,-8.601583382926188,-8.54021542500402,-8.999779880530792
869,-8.718946762027892,-8.466225446031306,-8.445736627274737,-8.880117659821947
870,-8.566289884410415,-8.316620168885748,-8.3402192492062,-8.740071163671622
871,-8.395434088930925,-8.152628927644377,-8.223232202568509,-8.57974815419369
872,-8.20668542623936,-7.974091623037811,-8.094283550653845,-8.399331647990241
873,-8.000380425998602,-7.780830650111291,-7.952828985155949,-8.19907559212553
874,-7.776878760762065,-7.572655508608749,-7.79828171818072,-7.979299333308182
875,-7.5365557346988465,-7.34936797572734,-7.630023636148489,-7.74038102306609
876,-7.27979481760151,-7.110767762383164,-7.447417545301693,-7.482750138897831
877,-7.006980457144429,-6.856658574483669,-7.2498203238468735,-7.206879333127201
878,-6.71849140696573,-6.586854501686252,-7.0365967833659955,-6.913275846292592
879,-6.41469480430606,-6.3011866574606,-6.8071340319831,-6.602472739402484
880,-6.095941218523429,-5.999509995742056,-6.560856123871752,-6.275020208595551
881,-5.762560871089392,-5.681710230888713,-6.297238774098508,-5.9314772463023635
882,-5.414861199316323,-5.347710788891059,-6.015823914621969,-5.5724039049117415
883,-5.053125901078794,-4.99747971868924,-5.716233866624256,-5.198354402569573
884,-4.6776155574993385,-4.631036492887471,-5.39818490633598,-4.809871286833209
885,-4.288569886542659,-4.2484586269885956,-5.061500006166885,-4.407480841565991
886,-3.8862116344030886,-3.8498880454301694,-4.706120540239867,-3.9916898870192172
887,-3.4707520651553336,-3.4355371212166985,-4.33211675324358,-3.562984083946886
888,-3.042397963935197,-3.005694313970691,-3.9396968037230065,-3.1218278112721025
889,-2.6013600264257897,-2.5607293290434243,-3.5292142073734434,-2.6686656447151247
890,-2.147862469217741,-2.101097718280947,-3.101173522492291,-2.203925422397754
891,-1.682153663415281,-1.627344841497378,-2.6562341384494776,-1.7280228443273862
892,-1.204517569452274,-1.140109107010724,-2.1952120489118254,-1.2413675174237528
893,-0.7152857360440917,-0.6401244100173411,-1.7190795147147988,-0.7443703278717045
894,-0.21484962167866456,-0.12822168924352662,-1.2289625468915575,-0.23745199932738198
895,0.296326996386204,0.39467047488197843,-0.7261361686667329,0.2789473202445027
896,-4.3855540433169957e-13,-6.427094124992458e-15,8.199412172141925e-14,-4.242838677260149e-13
897,-1.035461188942686e-11,1.499678185484993e-13,1.938932186031872e-12,-9.568380891853439e-12
898,-1.25876151157449e-10,4.095457533887104e-12,2.2117788360453167e-11,-1.145310117164322e-10
899,-1.0179967688109737e-09,4.854800256207224e-11,1.6826323560858863e-10,-9.129588859076374e-10
900,-6.182133802700871e-09,3.7415642990915577e-10,9.651634172938763e-10,-5.478869726051718e-09
901,-3.015622686021291e-08,2.145940144177069e-09,4.467024089813066e-09,-2.6476261765213487e-08
902,-1.234325531206792e-07,9.844189364675812e-09,1.742578081605746e-08,-1.0762218425811982e-07
903,-4.37209021009555e-07,3.7807453867802444e-08,5.907563672899041e-08,-3.7946532068800173e-07
904,-1.3714063746835015e-06,1.255017311224388e-07,1.7803552734123667e-07,-1.1874525905532335e-06
905,-3.878248024426278e-06,3.686792804244479e-07,4.853479651197802e-07,-3.3568732798190145e-06
906,-1.0029941450804366e-05,9.760569074616e-07,1.213451630522165e-06,-8.694553031991433e-06
907,-2.3999131441815252e-05,2.3625686350180108e-06,2.8133500846414625e-06,-2.0869268971236823e-05
908,-5.363930061209437e-05,5.289609491656071e-06,6.10357758552143e-06,-4.6857746968289654e-05
909,-0.00011288227950674184,1.1059070702008208e-05,1.248382207742351e-05,-9.918464309314562e-05
910,-0.0002251841481381393,2.1760702451326624e-05,2.4222318986991375e-05,-0.00019921535183585785
911,-0.00042824230274934546,4.056107984431042e-05,4.4818683953079675e-05,-0.00038177145403846415
912,-0.0007801701464512861,7.200721979366782e-05,7.94324282480284e-05,-0.0007013222904251704
913,-0.0013672491407675672,0.00012229921181021062,0.0001353522594026429,-0.0012399566284333116
914,-0.002313281583848813,0.00019946518565889046,0.00022246329099001716,-0.0021172528859935897
915,-0.0037904459478471848,0.00031335027358730705,0.0003536499806288492,-0.00350204610469328
916,-0.006031417776742492,0.000475311184642099,0.0005450540284766578,-0.005625940245748523
917,-0.009342373359105626,0.0006974921402930233,0.0008160909353394081,-0.008798244706110797
918,-0.014116352257952857,0.0009915487868007854,0.001189118720453307,-0.013421836461890626
919,-0.02084632995025122,0.001366686566116649,0.001688649312795313,-0.020009277857095987
920,-0.030137253829304194,0.001826890546858698,0.0023399985843938027,-0.029198368823997407
921,-0.042716233040492456,0.002367245663205913,0.003167285346288207,-0.041766193847763255
922,-0.05944005066385075,0.0029692794493768725,0.004190712553047655,-0.05864064828651432
923,-0.08129918820462828,0.0035953024867422688,0.005423094416276513,-0.08090840245548042
924,-0.10941761691797605,0.004181772900187331,0.006865629456409234,-0.10981828853660573
925,-0.14504771536108896,0.004631767796009705,0.008502959600618405,-0.14677917498887608
926,-0.18955981292411306,0.004806703669522253,0.010297596848293683,-0.19335152304312903
927,-0.24442602869021673,0.00451750657518509,0.012183839289532618,-0.25123199514875866
928,-0.3111982667169257,0.0035154883361397664,0.01406133505465819,-0.32223069943792154
929,-0.3914804351945237,0.0014832345039403354,0.01578848413216678,-0.4082408998612783
930,-0.4868951703197856,-0.0019741493771338607,0.017175892437660663,-0.5112012904000426
931,-0.5990455586857463,-0.007337056606758947,0.017980109089787605,-0.6330512147417455
932,-0.7294725574052315,-0.015178269256728478,0.017897886095564614,-0.7756795003717267
933,-0.8796090022880371,-0.0261683217811281,0.01656119954206688,-0.9408678578659062
934,-1.0507312646564884,-0.04107895244113587,0.01353326322785794,-1.1302300615585417
935,-1.243909760504144,-0.06078428356790493,0.008305749923983948,-1.3451483660870707
936,-1.459959625679361,-0.0862594137645829,0.00029741267006463756,-1.5867088145029804
937,-1.6993929423346887,-0.11857616165529945,-0.011145730781079671,-1.8556372486874004
938,-1.9623739310535464,-0.1588957703826114,-0.026748522507803883,-2.152237934291984
939,-2.2486785078106433,-0.20845846283331676,-0.047303010631422344,-2.476336755109267
940,-2.557659545427929,-0.26856982712331795,-0.0736629747946096,-2.827230912995718
941,-2.8882190777641696,-0.34058410734455097,-0.10673663658945633,-3.2036469892546524
942,-3.238788545443447,-0.4258845727997204,-0.14747761036364088,-3.6037090840338193
943,-3.607318009387871,-0.5258612365903009,-0.1968741995463537,-4.024918555783593
944,-3.9912750580220404,-0.6418862881564765,-0.2559371915556455,-4.464146638101372
945,-4.387653910989337,-0.7752876910336606,-0.32568634877611397,-4.9176409219566
946,-4.792994981635321,-0.9273214737979432,-0.40713583250031377,-5.38104636354551
947,-5.20341490744049,-1.0991433063785006,-0.5012788298280898,-5.849441118991168
948,-5.614646797305719,-1.2917800034591227,-0.6090716793325276,-6.317387125095204
949,-6.022090182874227,-1.506101629804332,-0.7314178091684126,-6.77899495011197
950,-6.42086990434227,-1.742794897631553,-0.8691518108693066,-7.228002041186614
951,-6.805902916613484,-2.0023385426016627,-1.0230239732686968,-7.657863107908772
952,-7.171971776890092,-2.2849813420603438,-1.1936855939099267,-8.061851017177457
953,-7.513803377681556,-2.5907233968313084,-1.3816753702681506,-8.433166245788701
954,-7.8261513271060545,-2.9193012367756728,-1.5874071505591112,-8.765052655373525
955,-8.103880257506036,-3.2701772318096536,-1.8111592945200345,-9.050917129291186
956,-8.342050268398447,-3.6425336961139108,-2.0530658591964626,-9.284450450410146
957,-8.535999683183576,-4.035271966500247,-2.313109784526795,-9.459746707482742
958,-8.68142432124796,-4.447016619467686,-2.591118209601271,-9.571418498637154
959,-8.77445155651017,-4.87612486888155,-2.886760004192769,-9.614705253507386
960,-8.811707546871695,-5.320701061126756,-3.1995455528520416,-9.58557211866497
961,-8.790376172072925,-5.77861606071487,-3.5288287818357382,-9.480797040346479
962,-8.708248404975757,-6.247531200229631,-3.873811373608253,-9.298043928443732
963,-8.563761057616501,-6.724926357487788,-4.233549070714477,-9.035920089359184
964,-8.356024082459669,-7.208131622825571,-4.606959931399634,-8.69401646446429
965,-8.084835864860818,-7.694361933013466,-4.992834364246009,-8.272929596351506
966,-7.7506862084789505,-8.180753977491856,-5.389846738957738,-7.774264656978891
967,-7.354746985002643,-8.664404628944233,-5.796568345778689,-7.200619299876243
968,-6.89885068700826,-9.142410114720532,-6.211481457278866,-6.5555485323711515
969,-6.385457382268484,-9.611905128836796,-6.632994233664131,-5.843511232913012
970,-5.817610813904501,-10.070101086285158,-7.059456206464338,-5.0697993528541945
971,-5.1988846183426185,-10.514322741811743,-7.489174075345644,-4.240451231796951
972,-4.5333198374451875,-10.942042433354187,-7.920427558550871,-3.3621508117760976
973,-3.825355078309947,-11.350911264763049,-8.35148504854319,-2.44211484995944
974,-3.079750820495438,-11.738786611680288,-8.780618840060699,-1.4879704950387027
975,-2.3015094828896636,-12.10375541660585,-9.206119717086942,-0.5076258030815436
976,-1.4957929388238318,-12.44415283208251,-9.62631070722238,0.49086408036580875
977,-0.6678392068592781,-12.758575872213568,-10.039559835597247,1.4994322568840064
978,0.17711995469547248,-13.045891839942986,-10.444291734812225,2.5101340916243475
979,1.0339388587675198,-13.305241408204212,-10.838997991522644,3.5152771113444863
980,1.8976334892494244,-13.536036344781172,-11.222246133407847,4.50754408936254
981,2.7634513813889456,-13.737951981252225,-11.592687181776663,5.480106786244728
982,3.6269344151804703,-13.910914633601513,-11.949061714556624,6.426728034037053
983,4.483973322672657,-14.055084284062001,-12.290204401748383,7.341850120636064
984,5.330852902623367,-14.1708329287608,-12.615046990707844,8.220667742686521
985,6.164287147724626,-14.25871908219892,-12.92261973219413,9.059184142496832
986,6.9814437157039935,-14.319459006097178,-13.212051250540847,9.854249418530298
987,7.779957410776728,-14.353895295398553,-13.482566873259207,10.603580391193217
988,8.557932580865787,-14.362963507089606,-13.733485447614642,11.30576180676699
989,9.313934573439282,-14.347657556989384,-13.964214684961696,11.96022906321426
990,10.046970623610088,-14.308994634911723,-14.174245088506412,12.56723303324805
991,10.756460767484382,-14.2479803989972,-14.36314253716608,13.127787933980603
992,11.442199577204475,-14.165575205126785,-14.530539617595947,13.643603540808618
993,12.104309697770251,-14.062662107046934,-14.676125818302912,14.117003358932932
994,12.743188326141563,-13.940017327343604,-14.799636723867275,14.550830642961202
995,13.359447907554996,-13.79828384922864,-14.90084237317576,14.948344388375826
996,13.953852430308014,-13.637948715118599,-14.979534972507576,15.313107604308872
997,14.527250777013471,-13.45932454140879,-15.03551618136327,15.648870312221794
998,15.080508636646325,-13.262535671213643,-15.068584214951954,15.959449797950887
999,15.61444049732031,-13.047509289996924,-15.078521030986922,16.248610674440155
1000,16.129743224906907,-12.813971725050003,-15.065079888533944,16.51994728964247
1001,16.626932688160725,-12.561450040999286,-15.027973581769444,16.776770939885246
1002,17.10628481826271,-12.28927893238719,-14.966863660409723,17.02200422578546
1003,17.567782391456074,-11.996612803401966,-14.881350950257456,17.258084718853148
1004,18.011068699995107,-11.682442816546693,-14.77096768105844,17.486879896387304
1005,18.435409131679698,-11.345618588859777,-14.635171514272933,17.70961505515541
1006,18.839661514934395,-10.984874118478073,-14.473341740348229,17.92681563636587
1007,19.222255908196637,-10.598857437876049,-14.284777883802843,18.138265091903747
1008,19.58118432301645,-10.18616341474075,-14.068700915279713,18.342979101360918
1009,19.91400067357589,-9.745369058544764,-13.824257223252957,18.5391966179307
1010,20.21783104517144,-9.2750706415188,-13.550525445004327,18.72438788567894
1011,20.489394174376567,-8.773921907627878,-13.246526197728262,18.89527923789265
1012,20.725031837830418,-8.240672622743164,-12.911234687295817,19.047894162782036
1013,20.920748658423367,-7.674206713623694,-12.543596105666829,19.177609814987907
1014,21.07226066041043,-7.073579252481047,-12.142543659794342,19.279227864832144
1015,21.175051741760324,-6.438051567474277,-11.707019006956108,19.347058317080315
1016,21.22443708566076,-5.767123796931336,-11.235994805786484,19.375014701532464
1017,21.21563240605803,-5.060564255646487,-10.728499030948035,19.35671884261554
1018,21.143827816581606,-4.318435044241531,-10.18364064438655,19.28561325717538
1019,21.00426502995884,-3.5411134060104974,-9.600636169250876,19.15507911089974
1020,20.792316537417797,-2.729308418323867,-8.978836675293932,18.95855758556748
1021,20.50356538550856,-1.8840726957208493,-8.317754657968269,18.689672472167068
1022,20.133884161685483,-1.0068088772255543,-7.617090278143093,18.34235180869035
1023,19.679511819818224,-0.09927076900660357,-6.876756425679769,17.910946425136324
1024,-3.862143862794489e-14,-3.55444954017844e-14,-6.075399231011544e-14,-6.424525256871643e-14
1025,-7.816100112080468e-13,-7.426599763784355e-13,-1.3183210394309842e-12,-1.3728520880227278e-12
1026,-9.00925246333259e-12,-8.841865234278154e-12,-1.5430411464580075e-11,-1.5652246301589957e-11
1027,-6.969322539758068e-11,-7.069929912824974e-11,-1.2070172593790958e-10,-1.1919162832086715e-10
1028,-4.0670051096037763e-10,-4.2654443799271957e-10,-7.103043889655454e-10,-6.832564870034973e-10
1029,-1.9162321517648394e-09,-2.076728416944132e-09,-3.364862644026159e-09,-3.156668663522086e-09
1030,-7.620936048878242e-09,-8.523062797093185e-09,-1.340960235189175e-08,-1.229012354226652e-08
1031,-2.640145720234005e-08,-3.0403383455330466e-08,-4.6380392457294276e-08,-4.1622778971060505e-08
1032,-8.15651979623058e-08,-9.643445901838625e-08,-1.4251168689146014e-07,-1.2556338838120435e-07
1033,-2.2881792493125314e-07,-2.7677372069268576e-07,-3.9610968981534216e-07,-3.4365825132603315e-07
1034,-5.91215962283814e-07,-7.287891559309693e-07,-1.0103378153421564e-06,-8.657914976397924e-07
1035,-1.4228954029124696e-06,-1.7803254070717882e-06,-2.3924588165572677e-06,-2.0311728312321865e-06
1036,-3.218881201387228e-06,-4.071698802194414e-06,-5.309763367398253e-06,-4.4789504881524166e-06
1037,-6.894967353846997e-06,-8.78443215512522e-06,-1.1131961087207225e-05,-9.353880301575516e-06
1038,-1.4069205711687888e-05,-1.7991517382792104e-05,-2.2191311591621172e-05,-1.861626648284728e-05
1039,-2.7484406044753786e-05,-3.516997339882453e-05,-4.229675593413497e-05,-3.5490841154070944e-05
1040,-5.1618502221090615e-05,-6.592077822347773e-05,-7.744225141444992e-05,-6.509377720567874e-05
1041,-9.353578835657371e-05,-0.00011894305689621834,-0.0001367518634304899,-0.00011527999957202592
1042,-0.00016403587890677796,-0.00020730798390900375,-0.0002337043668601867,-0.0001977537245145055
1043,-0.0002791577853254537,-0.00035007269530851795,-0.00038767762362018225,-0.0003294831072563654
1044,-0.00046209281279155964,-0.0005742653390101866,-0.0006258473681258996,-0.0005344545193125624
1045,-0.0007455513585082156,-0.0009172592417719377,-0.0009854658973372083,-0.0008457929833995872
1046,-0.0011746147339052543,-0.0014295373452743237,-0.0015165333373640699,-0.001308262544429792
1047,-0.0018100837975666305,-0.002177828145512347,-0.0022848576698193375,-0.0019811439598848937
1048,-0.0027323118411413778,-0.0032485721863400848,-0.003375479837658355,-0.0029414674269456964
1049,-0.0040454806063789615,-0.0047516547300402905,-0.004896417600832339,-0.004287555793695248
1050,-0.005882246708735249,-0.006824316702260217,-0.006982657275128603,-0.006142809762896803
1051,-0.008408652594326453,-0.009635133583518371,-0.009800297249823476,-0.008659642117725404
1052,-0.011829163154519044,-0.013387931768561635,-0.013550722651071857,-0.012023444201302217
1053,-0.01639165804574361,-0.018325495121549403,-0.01847466822333307,-0.01645644600487904
1054,-0.02239218238281922,-0.024732901963393724,-0.02485600795087109,-0.022221312475956705
1055,-0.030179236474009507,-0.0329403253101973,-0.0330250965119457,-0.0296243041971271
1056,-0.04015737016783564,-0.04332512742639969,-0.04336148050724779,-0.039017821446437374
1057,-0.05278984049290241,-0.056313084063578114,-0.05629579740808167,-0.05080214769986067
1058,-0.06860009364722931,-0.0723785843428041,-0.0723106878655428,-0.06542621254332914
1059,-0.0881718447945425,-0.0920436691349799,-0.09194056254117292,-0.0833872051731979
1060,-0.11214755195970696,-0.11587579382871001,-0.11577008764292875,-0.10522888838555029
1061,-0.14122511355461098,-0.14448423015087034,-0.1444312831113977,-0.1315384891029014
1062,-0.17615266217548095,-0.1785150555710234,-0.17859916275867793,-0.16294207464466182
1063,-0.21772137924128684,-0.21864471686463066,-0.2189858852223889,-0.20009836335489922
1064,-0.2667563142718507,-0.2655721954756071,-0.26633342685320305,-0.24369096279394245
1065,-0.32410525722446076,-0.3200098450545638,-0.32140483110384466,-0.294419077168495
1066,-0.39062578009152205,-0.3826730144796536,-0.3849741322086238,-0.3529867765090196
1067,-0.46717063242412016,-0.4542686112754134,-0.4578150926292196,-0.42009097163406983
1068,-0.5545717419249215,-0.535482799154379,-0.5406889327182638,-0.4964082893948786
1069,-0.6536231330227472,-0.6269680580506096,-0.6343312662800283,-0.5825810902652275
1070,-0.7650631307492345,-0.7293298642915232,-0.7394384862944878,-0.6792029132676198
1071,-0.8895562618475645,-0.8431132714629617,-0.8566538702662643,-0.7868036698348851
1072,-1.0276752977543337,-0.9687896882810885,-0.9865536938349946,-0.905834936951367
1073,-1.1798839032584987,-1.1067441578428359,-1.1296336539021516,-1.0366557194347827
1074,-1.3465203591497794,-1.2572634426615228,-1.2862959081154766,-1.17951906039784
1075,-1.5277828165197256,-1.4205252118054816,-1.4568370356784353,-1.3345598769866462
1076,-1.7237165146778894,-1.5965886103592728,-1.641437214758499,-1.5017843850197383
1077,-1.9342033545729123,-1.7853864676470512,-1.8401508940189566,-1.6810614511161717
1078,-2.15895416636582,-1.9867193697358592,-2.052899209961828,-1.8721161746545734
1079,-2.39750394507393,-2.2002517844211926,-2.27946436809846,-2.074525955199709
1080,-2.6492102541138234,-2.425510384129425,-2.519486165062368,-2.287719245036376
1081,-2.913254915628612,-2.6618846650614088,-2.7724607816230553,-2.510977122726519
1082,-3.188649021477852,-2.908629910693223,-3.037741924478786,-2.743437754050764
1083,-3.4742412126369007,-3.1648724957777863,-3.3145443393194207,-2.984103733453619
1084,-3.768729090439154,-3.4296174746272983,-3.6019496607829384,-3.2318522244867713
1085,-4.070673543402299,-3.701758346056121,-3.8989145085259036,-3.48544774411131
1086,-4.378515700839895,-3.980088838213583,-4.204280684662391,-3.7435573654113266
1087,-4.690596161216975,-4.26331651081767,-4.516787278188965,-4.00476804845945
1088,-5.005176090942256,-4.5500779310647275,-4.83508443838692,-4.267605751675486
1089,-5.320459749178774,-4.838955143649605,-5.157748542918255,-4.530555927652772
1090,-5.6346179669832255,-5.128493125655494,-5.483298458313813,-4.792084969419957
1091,-5.945812094859416,-5.4172178941882425,-5.810212571212493,-5.050662146480044
1092,-6.252217931393438,-5.703654919009154,-6.136946258008572,-5.304781555399572
1093,-6.55204915637773,-5.986347484370802,-6.4619494580679655,-5.552983607487383
1094,-6.843579813741865,-6.263874643918252,-6.783684020678763,-5.793875586078445
1095,-7.1251654214578215,-6.534868419845181,-7.100640507553947,-6.026150827631077
1096,-7.395262325987705,-6.7980299122887,-7.411354150119317,-6.248606113458645
1097,-7.652444966296931,-7.052144006849715,-7.714419683163552,-6.460156901392106
1098,-7.8954207653947455,-7.296092396636986,-8.008504802975745,-6.659850077724495
1099,-8.12304242417441,-7.52886466972475,-8.29236202826115,-6.846873967956326
1100,-8.334317451408904,-7.7495672526485695,-8.564838775447384,-7.020565408548808
1101,-8.528414823592831,-7.9574300447163555,-8.824885496085301,-7.180413749428187
1102,-8.704668727500646,-8.151810625586752,-9.071561762526835,-7.326061726646483
1103,-8.862579395582774,-8.33219596881267,-9.304040228471008,-7.457303214636601
1104,-9.00181109852506,-8.49820164586584,-9.521608432748614,-7.574077936168731
1105,-9.122187409519732,-8.649568557505331,-9.723668457208147,-7.676463273784829
1106,-9.223683900319607,-8.78615728113926,-9.909734492053817,-7.764663387701578
1107,-9.306418469470001,-8.907940172919616,-10.079428403734129,-7.838995900688089
1108,-9.370639537908948,-9.014991410537963,-10.232473440738149,-7.899876459210101
1109,-9.416712376196921,-9.107475205891935,-10.368686250651184,-7.947801521353866
1110,-9.445103850873096,-9.185632454860542,-10.487967416731653,-7.983329755064356
1111,-9.456365894804877,-9.24976612337645,-10.590290753228329,-8.00706245463354
1112,-9.451118017943891,-9.300225694013166,-10.675691624776222,-8.019623398944715
1113,-9.430029180735287,-9.337391014840945,-10.744254575639761,-8.02163858169642
1114,-9.393799352726917,-9.361655902018905,-10.79610056856079,-8.013716241830751
1115,-9.343141073953,-9.373411849401323,-10.831374139937417,-7.996427611960895
1116,-9.278761326796527,-9.373032192490141,-10.850230777665248,-7.97028878416081
1117,-9.201344011768786,-9.360857060727968,-10.852824820156677,-7.935744066611502
1118,-9.111533302605297,-9.337179431955215,-10.839298160044995,-7.89315117196499
1119,-9.009918134976045,-9.302232576581202,-10.809770014362137,-7.842768539638623
1120,-8.897018059703147,-9.256179147499441,-10.764327995227129,-7.78474505039949
1121,-8.773270666432222,-9.199102135941528,-10.703020682098389,-7.719112343405401
1122,-8.639020757915388,-9.130997874263118,-10.625851859302651,-7.6457798942292685
1123,-8.494511429004397,-9.051771225024789,-10.53277654178375,-7.564532958210145
1124,-8.339877178506038,-8.961233052578388,-10.423698868787584,-7.4750334276552906
1125,-8.17513915640902,-8.859100029578105,-10.298471900538367,-7.376823594909423
1126,-8.000202623678751,-8.744996787255937,-10.156899307944318,-7.269332757129377
1127,-7.814856676741666,-8.618460375740423,-9.998738901124092,-7.1518865438448165
1128,-7.618776263775751,-8.478946959888107,-9.823707900219667,-7.0237187961635925
1129,-7.411526494772701,-8.325840637665085,-9.631489812694612,-6.883985777870458
1130,-7.192569221817951,-8.158464232563198,-9.421742746185544,-6.7317824546683545
1131,-6.961271839962794,-7.976091879237414,-9.194108955938189,-6.566160539324516
1132,-6.71691823231538,-7.777963192775822,-8.948225401707045,-6.386147968294701
1133,-6.4587217554997345,-7.563298786958918,-8.683735071288087,-6.190769450130177
1134,-6.185840133431657,-7.331316885694182,-8.400298816884721,-5.979067708040144
1135,-5.897392098527513,-7.081250754684439,-8.097607446300032,-5.750125028583029
1136,-5.592475590208182,-6.812366667464528,-7.77539381326937,-5.503084725602766
1137,-5.270187291254649,-6.523982111367995,-7.433444659645955,-5.237172133072004
1138,-4.929643253744701,-6.215483934872839,-7.071611976000195,-4.9517147521892175
1139,-4.570000338616775,-5.886346138172521,-6.689823665732852,-4.646161196511243
1140,-4.190478167134702,-5.5361470137045385,-6.288093320185123,-4.320098603572389
1141,-3.790381259499418,-5.164585352645758,-5.866528937569441,-3.9732682117126648
1142,-3.369121016436407,-4.771495446876431,-5.425340445972156,-3.6055788359653196
1143,-2.9262371846255224,-4.356860633367214,-4.964845919380718,-3.217118015969152
1144,-2.4614184371007624,-3.920825149022292,-4.485476404936642,-2.8081606509918946
1145,-1.974521695884449,-3.463704088303846,-3.987779308770103,-2.3791749812230982
1146,-1.465589826666005,-2.985991282995162,-3.472420316269672,-1.9308258194781045
1147,-0.9348673447199536,-2.4883649527067164,-2.940183849986408,-1.4639749824006598
1148,-0.3828137878201582,-1.9716910056482817,-2.3919720941272993,-0.979678914344613
1149,0.18988556411179164,-1.4370239012436328,-1.8288026383562845,-0.4791835396752961
1150,0.782311911370568,-0.8856050188644075,-1.2518048149905736,0.03608358028257087
1151,1.3933083485818576,-0.31885850990579906,-0.6622148222332391,0.5645236713984729
1152,-5.0055338927745267e-14,-4.496368518162797e-14,-5.497481400861231e-14,-5.488200932161445e-14
1153,-1.0826835272207683e-12,-9.612386076267604e-13,-1.1988666191653529e-12,-1.1949072499385998e-12
1154,-1.2480625472872606e-11,-1.1255246719532288e-11,-1.4269029055000992e-11,-1.3659311758537796e-11
1155,-9.615489448860148e-11,-8.828487625965174e-11,-1.1361701254226096e-10,-1.0420122595309789e-10
1156,-5.576452808633469e-10,-5.219465681372745e-10,-6.80865390832635e-10,-5.976589708978395e-10
1157,-2.6050628142021615e-09,-2.488190634992409e-09,-3.284834830699049e-09,-2.7582689641148407e-09
1158,-1.024460840170585e-08,-9.992895071961894e-09,-1.3329110173954417e-08,-1.0705716329375762e-08
1159,-3.499011445146148e-08,-3.487161405889082e-08,-4.6917691778482135e-08,-3.605918118572336e-08
1160,-1.0624648584919087e-07,-1.0819932925470486e-07,-1.465979342380275e-07,-1.0791104056749106e-07
1161,-2.9206565097778004e-07,-3.0386123782587534e-07,-4.1393053455050453e-07,-2.9223487826470217e-07
1162,-7.37412216170625e-07,-7.833373983612765e-07,-1.0712726926959134e-06,-7.267237859302302e-07
1163,-1.7301080622527152e-06,-1.874951019278724e-06,-2.5706352154280303e-06,-1.6792986484920524e-06
1164,-3.8081769071390333e-06,-4.205776914101022e-06,-5.7736956754009125e-06,-3.641045536412741e-06
1165,-7.926222855725671e-06,-8.90980499489976e-06,-1.223356165087542e-05,-7.467010426644837e-06
1166,-1.5702504620863778e-05,-1.7941357238245197e-05,-2.461510891449544e-05,-1.4580932823992071e-05
1167,-2.9772184165929345e-05,-3.452759886260397e-05,-4.729604237694873e-05,-2.7262452621432492e-05
1168,-5.427544183984322e-05,-6.379762780478559e-05,-8.719460948324501e-05,-4.903737932308144e-05
1169,-9.551130870468099e-05,-0.00011362742541654414,-0.00015487152221871662,-8.51930481669396e-05
1170,-0.00016278868227993825,-0.00019573931917690686,-0.00026595252584459185,-0.00014344135133990187
1171,-0.00026950458466198674,-0.00032709108068560664,-0.00044291363977288004,-0.00023475146416136473
1172,-0.0004344758860576315,-0.0005315830628154081,-0.0007172629175234413,-0.00037437236410954415
1173,-0.0006835441842289522,-0.0008421017663325614,-0.0011321403095960667,-0.0005830618190239396
1174,-0.0010514642117124546,-0.0013029050170258463,-0.0017453407854404576,-0.0008885335342565816
1175,-0.0015840741447796446,-0.0019723378290411125,-0.002632745515756643,-0.001327127596466471
1176,-0.0023407318178805966,-0.0029258495296851966,-0.003892122235858704,-0.0019457012916087638
1177,-0.003396984609088203,-0.004259262529111559,-0.005647229877890209,-0.0028037279334637523
1178,-0.004847423338091381,-0.006092222130198778,-0.00805213547469041,-0.003975580723863941
1179,-0.006808652728643292,-0.008571736040819327,-0.011295624731046493,-0.005552967157756064
1180,-0.009422293738255318,-0.011875692915629694,-0.015605563146510154,-0.007647467428858516
1181,-0.012857917298158269,-0.016216232466769905,-0.021253043704302817,-0.010393118097915136
1182,-0.017315795695083964,-0.021842826510401717,-0.028556141252144084,-0.013948970461696259
1183,-0.02302934789201289,-0.02904492167066641,-0.03788308383776083,-0.01850154221537392
1184,-0.030267149363539744,-0.03815399104901872,-0.049654648146044915,-0.024267071811635406
1185,-0.039334376177256616,-0.049544844451274626,-0.06434559022953247,-0.031493478070254766
1186,-0.050573557514018826,-0.06363605496238851,-0.08248493407156303,-0.040461923708113585
1187,-0.06436452074723571,-0.0808893737354079,-0.10465495908217724,-0.051487881065427496
1188,-0.08112342848301254,-0.10180802454869564,-0.13148875310703187,-0.06492160177997966
1189,-0.10130082722251732,-0.12693379450856576,-0.16366622944485668,-0.08114789969713493
1190,-0.1253786519157633,-0.15684286657529795,-0.20190854404289296,-0.1005851678557759
1191,-0.15386615877641818,-0.1921403725493633,-0.24697089159277924,-0.12368356567531048
1192,-0.18729478929319546,-0.23345368080955575,-0.29963370558996033,-0.15092233100095157
1193,-0.22621200027674113,-0.2814244703670966,-0.3606923362481358,-0.1828061928135187
1194,-0.27117412685827286,-0.3366996805323806,-0.43094532999276264,-0.21986088344543298
1195,-0.3227383764589783,-0.39992146249182686,-0.5111814834681802,-0.2626277732603094
1196,-0.38145408079005644,-0.4717162941787886,-0.602165891867361,-0.3116576750994677
1197,-0.44785335895088907,-0.5526834518646601,-0.7046252541939243,-0.3675038895339597
1198,-0.522441366861374,-0.6433830598539717,-0.8192327351056992,-0.43071458431140025
1199,-0.6056863259756903,-0.7443239626214097,-0.9465927127153193,-0.5018246216781275
1200,-0.6980095370336705,-0.855951680901634,-1.0872257628007873,-0.5813469649170209
1201,-0.7997755922152047,-0.9786367240106805,-1.2415542412560419,-0.6697638100048888
1202,-0.911283001310795,-1.1126635345762055,-1.4098888275580213,-0.767517599424601
1203,-1.0327554443864244,-1.258220338585155,-1.5924163821494788,-0.8750020826801294
1204,-1.1643338550255282,-1.4153901631005397,-1.7891894498896082,-0.992553591909218
1205,-1.3060695248299572,-1.5841432662264714,-2.000117710426844,-1.1204427012127907
1206,-1.4579184018252695,-1.764331199194183,-2.2249616352071735,-1.2588664350158951
1207,-1.6197367332190464,-1.9556826893006838,-2.4633285609519135,-1.4079411840756126
1208,-1.7912781771803565,-2.157801495565234,-2.7146713323014025,-1.567696477845473
1209,-1.9721924796046046,-2.3701663472768058,-2.978289603726994,-1.738069749038337
1210,-2.1620257809075634,-2.5921330301494216,-3.253333824805759,-1.9189022106712825
1211,-2.360222585468472,-2.822938636772062,-3.5388118657200267,-2.1099359478873474
1212,-2.5661293931158724,-3.0617079487189773,-3.833598173619304,-2.310812306675531
1213,-2.778999958720055,-3.307461868411557,-4.136445287430691,-2.521071639514017
1214,-2.9980021132280257,-3.5591277709443134,-4.445997480822789,-2.7401544442579833
1215,-3.2222260480474345,-3.8155516009202346,-4.760806252057518,-2.967403907665339
1216,-3.4506939352097827,-4.075511498116281,-5.079347336827098,-3.202069839245253
1217,-3.6823707288073244,-4.337732699614987,-5.400038886939828,-3.443313955130067
1218,-3.9161759693219325,-4.600903435814183,-5.721260434599225,-3.69021644598493
1219,-4.150996392105698,-4.863691514181677,-6.041372249380207,-3.9417837382190437
1220,-4.385699124825212,-5.12476126825659,-6.358734692882103,-4.196957334612592
1221,-4.619145246449371,-5.382790540499757,-6.671727184170987,-4.454623599556966
1222,-4.8502034725415735,-5.6364873662455235,-6.978766406974785,-4.713624335975248
1223,-5.077763728295981,-5.884606032112223,-7.278323416361787,-4.972767986092579
1224,-5.3007503719131055,-6.125962195547143,-7.5689393372667695,-5.230841276891482
1225,-5.518134836416096,-6.359446772347163,-7.849239388458266,-5.486621123510099
1226,-5.728947467638042,-6.584038325523806,-8.117945011920385,-5.738886600069043
1227,-5.932288349544486,-6.798813721163641,-8.373883937592042,-5.986430787363948
1228,-6.127336924927433,-7.002956854234323,-8.615998065362417,-6.228072310378606
1229,-6.313360239437647,-7.195765288736013,-8.843349098590599,-6.462666385476537
1230,-6.489719659539177,-7.37665470121711,-9.05512191473732,-6.689115207221928
1231,-6.655875939895817,-7.545161063388886,-9.250625707679003,-6.906377517823974
1232,-6.811392542537122,-7.700940547248471,-9.429292981854356,-7.1134772178706
1233,-6.955937138490771,-7.843767183587514,-9.590676519739462,-7.309510894910427
1234,-7.089281252000465,-7.973528350869478,-9.734444480630902,-7.493654166088153
1235,-7.211298037580333,-8.09021821511231,-9.860373819863213,-7.6651667519370195
1236,-7.32195821060397,-8.193929281632883,-9.968342243027019,-7.823396220068782
1237,-7.421324182512636,-8.284842255457226,-10.058318929207816,-7.967780359371434
1238,-7.509542481703501,-8.363214438194763,-10.130354270555898,-8.097848166971211
1239,-7.586834570429828,-8.42936691469462,-10.184568882592675,-8.213219451273314
1240,-7.6534861963844385,-8.483670802488355,-10.221142140696108,-8.313603074615248
1241,-7.70983544486617,-8.526532850677832,-10.240300493520824,-8.398793878308165
1242,-7.756259683375096,-8.558380682510656,-10.24230579422024,-8.46866835105428
1243,-7.793161614937845,-8.579647977508671,-10.22744387593797,-8.523179118939337
1244,-7.820954679148364,-8.590759884922207,-10.196013579935084,-8.562348351496812
1245,-7.840048060429023,-8.592118950831686,-10.148316423789186,-8.586260193836843
1246,-7.850831580825598,-8.584091826860705,-10.084647074202183,-8.595052349608967
1247,-7.853660769038494,-8.566997009723018,-10.005284764870149,-8.588906953624859
1248,-7.848842407522555,-8.54109383827215,-9.910485775256452,-8.568040886226484
1249,-7.836620864472434,-8.506572948956723,-9.800477061470177,-8.532695693805488
1250,-7.817165516499768,-8.463548362210226,-9.675451106149378,-8.483127291070542
1251,-7.790559560058651,-8.412051341904556,-9.535562030545254,-8.419595630457174
1252,-7.756790494600751,-8.352026138114304,-9.380922989104635,-8.342354532113292
1253,-7.715742537654273,-8.28332769057231,-9.211604844923617,-8.251641873704743
1254,-7.667191201392911,-8.205721336793651,-9.027636103622802,-8.147670342332354
1255,-7.6108002219709645,-8.118884535318694,-8.829004063554251,-8.030618950576862
1256,-7.546120987478421,-8.022410581264223,-8.615657121829589,-7.900625514551352
1257,-7.472594558710048,-7.915814258757593,-8.38750815848046,-7.757780283348221
1258,-7.389556320290073,-7.7985393432559995,-8.144438905176669,-7.602120896029816
1259,-7.296243239600095,-7.669967836636104,-7.886305190446997,-7.433628824109376
1260,-7.191803649210242,-7.529430789714295,-7.612942940467695,-7.252227434319058
1261,-7.075309407052146,-7.376220540967068,-7.324174803485982,-7.05778177863151
1262,-6.945770229395992,-7.209604177091276,-7.019817257181102,-6.850100186485695
1263,-6.802149936774262,-7.028838001060836,-6.699688052133078,-6.628937698656591
1264,-6.643384304196803,-6.833182776820341,-6.363613841497439,-6.394001344058103
1265,-6.468400166023151,-6.621919506944733,-6.011437847413388,-6.144957220968397
1266,-6.276135394159243,-6.394365490635219,-5.643027419030243,-5.881439303787231
1267,-6.065559346983813,-6.149890404374912,-5.258281345682283,-5.603059856560386
1268,-5.835693376366036,-5.887932146417243,-4.8571368018801,-5.309421296193582
1269,-5.585630981668186,-5.608012188953844,-4.43957581837349,-5.000129312532291
1270,-5.314557212650843,-5.309750188198454,-4.005631195212134,-4.674807020251937
1271,-5.021766947191102,-4.9928776126040155,-3.5553917977790332,-4.333109889636298
1272,-4.706681703746586,-4.657250162868762,-3.0890072041821055,-3.974741180525862
1273,-4.368864691229516,-4.302858774140898,-2.6066917009093813,-3.5994675865102965
1274,-4.008033848750279,-3.929839010741227,-2.1087276518908715,-3.2071347851496927
1275,-3.6240726826449188,-3.5384786865909277,-1.595468292608833,-2.7976825848086255
1276,-3.2170387662207873,-3.129223570102571,-1.0673400241980784,-2.3711593596178626
1277,-2.7871698265197624,-2.7026810602273845,-0.5248443011443461,-1.9277354710702788
1278,-2.3348873998523354,-2.2596217502093436,0.03144078113734859,-1.4677153876398246
1279,-1.8607980917274412,-1.8009788268330464,0.6008590870934057,-0.9915482323369406
1280,-6.649892948579436e-14,-5.0118497804497597e-14,-3.9985590351822283e-14,-8.425794158453457e-14
1281,-1.4816987673282554e-12,-1.0755830022357794e-12,-8.675851048110613e-13,-1.881744244329814e-12
1282,-1.7471361188838196e-11,-1.2834890200206053e-11,-1.0347593659971398e-11,-2.1964719306434652e-11
1283,-1.3755961506149887e-10,-1.0265212376876883e-10,-8.28089270212313e-11,-1.7110447457888627e-10
1284,-8.144250576427244e-10,-6.186705649288425e-10,-4.999953629514672e-10,-1.0024135646164894e-09
1285,-3.879055785011409e-09,-3.005078218543906e-09,-2.43566937463919e-09,-4.726086607832098e-09
1286,-1.5529337835880112e-08,-1.2288102058852116e-08,-9.996221707564474e-09,-1.873922730822774e-08
1287,-5.390099431923802e-08,-4.361853398069645e-08,-3.562863171595493e-08,-6.446764399120066e-08
1288,-1.6600946659957858e-07,-1.375069672613993e-07,-1.1279027008335264e-07,-1.9697498637206632e-07
1289,-4.61945840563192e-07,-3.918302387476798e-07,-3.226786708076248e-07,-5.442901320732475e-07
1290,-1.1781915904177026e-06,-1.0234330642563445e-06,-8.457642663865079e-07,-1.3799379686982482e-06
1291,-2.7866215575347263e-06,-2.478098511347559e-06,-2.053666357873696e-06,-3.2475702801332974e-06
1292,-6.170892408811348e-06,-5.614474251740566e-06,-4.662126125607051e-06,-7.162520877691222e-06
1293,-1.289703766921536e-05,-1.199465470680362e-05,-9.970825914565506e-06,-1.4920978906895862e-05
1294,-2.5609682898670533e-05,-2.432080845892239e-05,-2.0219850919857773e-05,-2.9552543446254856e-05
1295,-4.85887789651214e-05,-4.706270709441746e-05,-3.90949858420116e-05,-5.595537374078364e-05
1296,-8.850356045701579e-05,-8.732446763590227e-05,-7.241422343851041e-05,-0.00010175420145294321
1297,-0.00015540006230157114,-0.0001559995611735512,-0.0001290254886544317,-0.0001784194746976443
1298,-0.00026395556055597497,-0.0002692606015083907,-0.0002219405528050832,-0.00030268041663741483
1299,-0.00043502747115722185,-0.00045042423420071004,-0.00036972256849204945,-0.0004982556405065773
1300,-0.0006975154512204409,-0.000732221445587424,-0.0005981349422454166,-0.0007979123382224946
1301,-0.0010905438159050029,-0.0011594898949242756,-0.0009420478748400965,-0.0012458494659494015
1302,-0.0016659572237678767,-0.0017922877794588124,-0.0014475864320525333,-0.0019003825887395583
1303,-0.002491106376430269,-0.0027094088412900267,-0.0021744911014773545,-0.0028368891009290923
1304,-0.0036518828413285146,-0.004012256179749379,-0.003198649087766798,-0.004150953466090107
1305,-0.0052559437722883426,-0.005829009451245862,-0.004614742710164161,-0.0059616339695798565
1306,-0.007436049098837792,-0.008318996811003322,-0.006538950739012219,-0.008414756228152905
1307,-0.010353416562152709,-0.011677160591601005,-0.009111629793987965,-0.011686125202318164
1308,-0.014200984671170496,-0.01613848520955593,-0.012499896352223042,-0.01598453736827042
1309,-0.01920646106101042,-0.021982238076726356,-0.016900025651665443,-0.021554468478291705
1310,-0.025635024596471368,-0.029535860237779262,-0.022539581835065745,-0.028678310235859497
1311,-0.03379154450618654,-0.039178333854335924,-0.029679193934782737,-0.037678031349268365
1312,-0.04402217934819408,-0.05134284920678553,-0.03861389453088007,-0.04891614478891932
1313,-0.056715223006088514,-0.06651859513312493,-0.049673941878672696,-0.06279587350217442
1314,-0.07230107430299289,-0.08525150411688848,-0.06322505177965011,-0.07976042103508642
1315,-0.09125122110486687,-0.10814379668545587,-0.07966797231588699,-0.10029127105001513
1316,-0.11407614869830551,-0.13585218926268147,-0.09943734273080912,-0.12490546011003029
1317,-0.1413221053523161,-0.169084654796158,-0.12299978725617755,-0.15415179077055516
1318,-0.17356668474549247,-0.20859565581796266,-0.1508512056572044,-0.18860597637276877
1319,-0.2114132146587094,-0.2551798043928728,-0.1835132348200883,-0.22886473432362742
1320,-0.2554839731859202,-0.3096639417967542,-0.22152886995087911,-0.2755388704134928
1321,-0.3064122868140736,-0.372897671747448,-0.2654572499573839,-0.32924542224347625
1322,-0.36483359813336635,-0.44574242346360404,-0.31586762933809975,-0.39059895456275007
1323,-0.431375623690225,-0.5290591635500963,-0.37333257828851535,-0.46020212277031625
1324,-0.5066477535895664,-0.6236949174503255,-0.4384204734965664,-0.5386356425759022
1325,-0.5912298728980893,-0.7304683007145645,-0.5116873637945056,-0.626447823427492
1326,-0.6856608097655333,-0.8501542964139119,-0.5936683168175132,-0.724143840412223
1327,-0.7904266356470506,-0.9834685465934058,-0.6848683742490649,-0.8321749335576839
1328,-0.9059490583939367,-1.1310514517591455,-0.7857532631288675,-0.9509277344350162
1329,-1.0325741587373383,-1.2934523922455432,-0.896740028031342,-1.0807139273090887
1330,-1.1705617244149629,-1.4711143982827777,-1.0181877627126654,-1.2217604554074195
1331,-1.3200754336288196,-1.6643596012113,-1.1503886292361123,-1.3742004818425808
1332,-1.4811741305738633,-1.873375796254503,-1.2935593569931856,-1.5380653090547938
1333,-1.653804420493915,-2.0982044374075337,-1.4478334130695019,-1.7132774501675423
1334,-1.8377947902893272,-2.3387303673472455,-1.613254028953979,-1.8996450302976005
1335,-2.0328514334473797,-2.594673560021807,-1.7897682568047328,-2.096857675700229
1336,-2.238555925486095,-2.86558312114263,-1.9772222117311768,-2.3044840239282203
1337,-2.4543648588918554,-3.1508337527785324,-2.175357635376277,-2.521970959447075
1338,-2.679611505594232,-3.4496248434299193,-2.3838098911785965,-2.7486446471061146
1339,-2.9135095314362713,-3.7609822952937573,-2.6021074738683034,-2.9837134014003963
1340,-3.155158742063918,-4.083763147017681,-2.8296730858901746,-3.226272393534338
1341,-3.4035527944373576,-4.41666299430676,-3.065826302465396,-3.4753101619020215
1342,-3.6575887640325053,-4.75822615360877,-3.3097878157895955,-3.729716855695763
1343,-3.916078415975669,-5.106858457138962,-3.560685218211032,-3.9882941068385596
1344,-4.177760989957089,-5.460842512090464,-3.8175602547886673,-4.249766393088814
1345,-4.441317274775949,-5.818355204321564,-4.079377447872655,-4.51279372564184
1346,-4.705384719605118,-6.1774871782996446,-4.345033970599504,-4.775985468397391
1347,-4.968573306195829,-6.53626398162486,-4.6133706226570474,-5.037915073733906
1348,-5.229481889762016,-6.892668524885241,-4.883183740503204,-5.297135501495166
1349,-5.486714706469048,-7.244664476566552,-5.153237855574248,-5.552195074201165
1350,-5.738897742347582,-7.590220188776408,-5.4222788980949606,-5.801653512364745
1351,-5.984694661894813,-7.927332733066435,-5.689047731162394,-6.044097889256387
1352,-6.222822004296195,-8.254051617028239,-5.95229379010758,-6.278158244502195
1353,-6.452063370703245,-8.568501751965657,-6.210788596031471,-6.502522600506761
1354,-6.671282346905292,-8.868905250167316,-6.4633389101088135,-6.715951134832824
1355,-6.879433931592447,-9.153601647417355,-6.708799296950063,-6.917289275277981
1356,-7.075574270774016,-9.421066172525599,-6.946083871153406,-7.105479502354474
1357,-7.258868533321515,-9.669925720684251,-7.174177011282704,-7.279571666037166
1358,-7.428596800521927,-9.898972230840464,-7.392142839974375,-7.438731649747533
1359,-7.584157883316868,-10.107173218075118,-7.59913328779352,-7.582248244191355
1360,-7.725071023773938,-10.293679268895588,-7.79439458186724,-7.70953812628138
1361,-7.850975481332923,-10.45782836881597,-7.977272028149625,-7.820148873189045
1362,-7.961628048411855,-10.599146995906892,-8.147212988149253,-7.9137599776988425
1363,-8.056898582899356,-10.717347979409723,-8.303767986545013,-7.990181867558846
1364,-8.136763685739314,-10.812325187338615,-8.446589924517022,-8.049352967519923
1365,-8.201298689110306,-10.884145169652482,-8.575431413770751,-8.091334877375758
1366,-8.250668153582378,-10.933035942628294,-8.690140286920194,-8.116305771794652
1367,-8.28511510021679,-10.95937315424776,-8.790653379848562,-8.124552157439876
1368,-8.304949225172715,-10.963663918670443,-8.876988719660723,-8.116459149311204
1369,-8.310534359534444,-10.94652864938682,-8.949236286798687,-8.092499451018215
1370,-8.302275445538092,-10.90868125484753,-9.007547550933893,-8.053221242504565
1371,-8.280605302162613,-10.85090808691631,-9.052124006731821,-7.999235193356022
1372,-8.245971448403212,-10.774046051295572,-9.083204957075274,-7.9312008301434735
1373,-8.198823241949116,-10.678960300239595,-9.101054807575032,-7.849812492338727
1374,-8.139599575121949,-10.566521931691481,-9.10595014705856,-7.755785113425729
1375,-8.068717349624952,-10.437586115876247,-9.098166894161501,-7.649840062278434
1376,-7.986560927838553,-10.292971060841525,-9.077967790162518,-7.532691275154928
1377,-7.8934727320793066,-10.133438212954127,-9.04559051285012,-7.405031901296897
1378,-7.789745135453167,-9.959674067373559,-9.001236675583538,-7.267521675674266
1379,-7.675613759679357,-9.772273937383188,-8.9450619599518,-7.120775221362747
1380,-7.5512522674095095,-9.571728000416378,-8.877167609764166,-6.965351471724758
1381,-7.416768709791577,-9.358409902846493,-8.797593488845093,-6.801744389115302
1382,-7.272203464778944,-9.132568165274684,-8.706312875710498,-6.630375142188537
1383,-7.11752877819941,-8.894320585349366,-8.603229135236372,-6.4515858878167
1384,-6.952649897927912,-8.643651786392432,-8.488174371534575,-6.265635285822889
1385,-6.777407771544512,-8.380414007734917,-8.360910128068582,-6.072695854782769
1386,-6.591583259382586,-8.104331177283257,-8.221130161195347,-5.872853254673408
1387,-6.3949027976066395,-7.815006249201588,-8.068465272403307,-5.666107556819578
1388,-6.187045429648362,-7.511931730595139,-7.9024901431374595,-5.452376533240587
1389,-5.967651108781622,-7.1945032617140106,-7.7227320749084605,-5.231500966164224
1390,-5.7363301597212795,-6.862036055548418,-7.528681497079267,-5.003251944381882
1391,-5.4926737728512265,-6.513783945901178,-7.319804066064962,-4.767340076699237
1392,-5.236265391062626,-6.148960739276431,-7.095554143455939,-4.523426514605003
1393,-4.96669283632386,-5.766763516382904,-6.855389407585724,-4.2711356372288
1394,-4.683561011181183,-5.366397484834175,-6.598786324121247,-4.010069212620749
1395,-4.38650499960672,-4.94710194677051,-6.325256177161883,-3.7398218113807
1396,-4.075203382175965,-4.508176914553953,-6.0343613438767845,-3.4599972127523126
1397,-3.7493915726754996,-4.0490098852063285,-5.725731483613748,-3.170225510554527
1398,-3.4088749771266187,-3.5691022705410695,-5.399079307299014,-2.8701805978415154
1399,-3.0535417720879594,-3.068094975494074,-5.054215595276632,-2.559597686039743
1400,-2.683375097201252,-2.545792622303034,-4.691063141744533,-2.238290497518123
1401,-2.2984644574869706,-2.0021859330122207,-4.30966932159094,-1.9061677609853558
1402,-1.8990161340872778,-1.437471807147872,-3.9102170003737524,-1.5632486374908277
1403,-1.4853624081947916,-0.8520706649467455,-3.4930335397720818,-1.209676711657373
1404,-1.05796941199672,-0.24664066864648904,-3.0585976881770183,-0.8457321984086972
1405,-0.6174434327747526,0.377911515701185,-2.60754418810701,-0.47184203993282176
