,TP9,AF7,AF8,TP10
0,0.46075168091319424,0.500090190749653,0.5153459881587211,0.4312436386624778
1,0.4598768218660627,0.5010522057675504,0.5155283573177949,0.432334346624248
2,0.4548967201055642,0.5031327044680289,0.5125944568043355,0.43107265440507236
3,0.43983818045113326,0.5056853921755904,0.506245949510925,0.4272147940408328
4,0.4303666096267951,0.5071714742077328,0.5028440489984941,0.41856583170685446
5,0.4391686003196209,0.5079455177620329,0.4984046072695246,0.4161505306550036
6,0.4587616246796307,0.5077236413053303,0.49262738488315116,0.420318436203871
7,0.4707161040633083,0.5080091976958402,0.4861151389684011,0.42779689840475693
8,0.46092678138736587,0.5114716523397284,0.478664519496722,0.4331665758369895
9,0.43569847100270775,0.5145651414447364,0.4740316800824853,0.432714017174377
10,0.41848451840258527,0.5118675352417879,0.4712126927215933,0.4293689016476641
11,0.4350658730481229,0.5030097523936558,0.47511612705364115,0.42675754042234315
12,0.46031396395936064,0.49372766521813793,0.48078073635679025,0.4296692528659441
13,0.4719637428007367,0.4850617186518127,0.4903616691923556,0.43089252461180055
14,0.4620193155469533,0.48025501949938737,0.5005330968280823,0.4292054123875903
15,0.4488920256304408,0.4788080689227484,0.5016037726564478,0.42875030958467475
16,0.4557889247229019,0.4774241015457906,0.5016685070444765,0.43432689311820993
17,0.47480270011349057,0.4714219363669164,0.5054866588487167,0.44036612044613843
18,0.48873816009362037,0.4712661652121927,0.5191891946476358,0.4434466322174938
19,0.47767768671938193,0.479020218557207,0.5319983707717203,0.4389926927531935
20,0.4632971903108151,0.4901771249209279,0.5363708550893262,0.4332384190275433
21,0.45696946179165937,0.5021779675431306,0.5247878734806348,0.43049902111213184
22,0.47819032259423394,0.5094293100446661,0.5077494813677398,0.43897453124399005
23,0.49725285333813757,0.5121884591343935,0.5008357234612533,0.44766151002375487
24,0.48695291230926385,0.5084660448946353,0.5053721121501793,0.4476004751582827
25,0.4663824160011569,0.5062186336968665,0.5183718068887807,0.4383347800894534
26,0.4558793670440332,0.501373921735294,0.52864847521654,0.4283052668991083
27,0.4594469865052861,0.49663043264419465,0.5332505897645312,0.42700772189989256
28,0.46613536918740817,0.4928804229279115,0.527342015040232,0.4321600207403765
29,0.4621432919043276,0.4927851652705815,0.5177057542112891,0.43926090369640663
30,0.4462127855410336,0.49585718749317736,0.5060490907186895,0.4431605082479845
31,0.43899050329235006,0.4975907226163115,0.4981556036168096,0.4451748648930874
32,0.46180083639363995,0.49875768832424117,0.4933026599829302,0.44642478923093654
33,0.4831840578943102,0.49864870988309556,0.49367476430964097,0.4504395491197475
34,0.47033483758324357,0.5037655088062212,0.49580249164651746,0.45247060806484607
35,0.44819630485929823,0.5130941770999802,0.49476688873908564,0.45207179373717704
36,0.4434562437878241,0.520752325357683,0.49490120805766635,0.45152978429503055
37,0.4538715002424127,0.5222346642205922,0.4953443471725717,0.4545414654583275
38,0.46203368612500423,0.5119588268413453,0.4964460344180913,0.4517305639581465
39,0.46065161219415807,0.49402291105086654,0.4959004218868127,0.4419134209885329
40,0.4341676030743132,0.48159334586411545,0.49639551778093105,0.4290473875915401
41,0.41441800643825394,0.480171966819079,0.4986014763985883,0.41363041906774217
42,0.4227438721551577,0.48428901872841673,0.5020356406178598,0.40696559549638384
43,0.4399441754484801,0.4877334263853773,0.5063449386343084,0.41516125874163534
44,0.44631903134759,0.4918330578238906,0.5072075576723429,0.4312760961561441
45,0.45128695309544375,0.4939440810826739,0.5060355830715713,0.44547998581579223
46,0.4512752326582262,0.4984566426385691,0.5083589166441812,0.4556469299927084
47,0.44956386098191925,0.5037976980127723,0.5170086601930303,0.4579994774955011
48,0.451074247492872,0.5088692919419734,0.52697916753081,0.4538646615122555
49,0.4521414282347045,0.508881684288354,0.534166466324487,0.456127318193174
50,0.44782606766572697,0.5039133599123249,0.5389482292523584,0.4565620322041126
51,0.4445917266095051,0.4993952315809136,0.5370610858079605,0.45174930373362454
52,0.46139355922949743,0.49428647870170556,0.532736758002321,0.44519757097296825
53,0.4755206513916929,0.4912742378760509,0.5275638038476728,0.4369160735539374
54,0.4607945483182578,0.49080114465832547,0.5221362510080197,0.42970971879313785
55,0.43818091107682317,0.4923894513089821,0.5179930505312239,0.4239959126870422
56,0.4267864252830986,0.49176285289028115,0.5177775336598376,0.42280004035829405
57,0.4390446875963121,0.49508294435041783,0.5209842032023307,0.42212486684517525
58,0.4731136741705685,0.5010461445291156,0.5226754358370233,0.4260060055248973
59,0.5020149632671974,0.5093346869343849,0.5251105364742198,0.4309014953680622
60,0.4975922234857676,0.5150410485222079,0.5265638869081232,0.4315506393209642
61,0.4836307590710031,0.5151355141619928,0.5272624083169296,0.4302997711549692
62,0.48300058855900324,0.5093544733502035,0.5265138046097575,0.4288208332779349
63,0.487141206317194,0.500724887917059,0.5258333811759628,0.4296997972408529
64,0.49018551524421583,0.4953029077158053,0.5245237891310962,0.430079838727329
65,0.48347932139590616,0.49133034920409474,0.5233919341950237,0.4299413236068041
66,0.4757279222308054,0.48952436003979677,0.5219404111382142,0.427656054150641
67,0.4747886484725084,0.4856450979281668,0.5219587934535791,0.4259564298298913
68,0.4770625447380841,0.4836886410012731,0.5235635024717624,0.42728032559993573
69,0.4801246093987772,0.48238990147567085,0.5253081012533303,0.4297718514404354
70,0.4778989173796696,0.4856769640540207,0.5271907239194716,0.42879810319209877
71,0.4713603530483458,0.49226029004230737,0.5276127383279872,0.4282713251569499
72,0.4683093330244767,0.49818097960666985,0.5299783966765657,0.4286165222172126
73,0.47556166647257475,0.5034556616824634,0.5290554180981265,0.43533885833364394
74,0.4833520520426028,0.5023652107301578,0.5249383518655064,0.4400919567327897
75,0.4820555498076357,0.5030280318607788,0.5179206897374439,0.4392048700052098
76,0.4777861618166253,0.505330652804387,0.5117200929154102,0.42443892652177556
77,0.47375524747825387,0.5169154433529765,0.5051548670007573,0.4117324534564965
78,0.48183528839792084,0.5254934207337916,0.505191078402765,0.4192961903519073
79,0.48470612352719844,0.5239643755335359,0.5117656815235546,0.43524531613304734
80,0.46743927540648156,0.5112937747554007,0.5180004519859838,0.44353828134034806
81,0.44407261047526236,0.4967427696586244,0.5243800448955347,0.43004133619377055
82,0.4374173594405645,0.4832970669040325,0.5305312979554635,0.4131403426944957
83,0.44484592378870846,0.4818232394642002,0.530577604250095,0.41026841658555485
84,0.4556499437139308,0.5057936167074459,0.5248122369787626,0.42435407252529644
85,0.4573982079232572,0.525062935332929,0.5199761872235968,0.43674519339940737
86,0.4411288207176502,0.5374437775823647,0.5139993823056987,0.43235409507633277
87,0.4262456445588643,0.5300765428985245,0.5116562805225637,0.41615324505430723
88,0.428759701745532,0.49855737728855964,0.5113603602683756,0.40698966295524924
89,0.4347181808383692,0.4647627159486814,0.5112374599332755,0.41867154965959047
90,0.4349228718743323,0.46007998163409186,0.5090700036303758,0.434457428020269
91,0.43151005314247853,0.4752666419907282,0.5019745529965832,0.4354026343055406
92,0.42945202177743186,0.4932742422390035,0.49537157003358867,0.4325176101085649
93,0.4355536625791074,0.5083232948225538,0.5065865896653928,0.4281593032250488
94,0.4429669148259537,0.5110559029474898,0.5348091887687246,0.429595480087498
95,0.44367902924549946,0.512640271718834,0.5585509202439264,0.4402834165857888
96,0.44111315795802386,0.5218857847454796,0.560626193947153,0.445753636247248
97,0.43820116488389516,0.5307525573274542,0.5280939011187851,0.4381214160075775
98,0.43995164466340064,0.5405914215090638,0.4880368163034315,0.4262595639754327
99,0.44726106037425095,0.5412176080266896,0.47524673336449935,0.41957242281075235
100,0.45459378727193794,0.5302478794737595,0.494899361868448,0.4161860305423398
101,0.4400163920592003,0.5174142592143518,0.5240368551300623,0.41731888058204525
102,0.431294148101645,0.5026651346108351,0.5392101208924555,0.41850413724313107
103,0.4577197595271006,0.493609538910099,0.5314813047317184,0.41794426312831684
104,0.4866817314698488,0.48970483527624276,0.5149179840648347,0.41850062064799054
105,0.5013641046308847,0.4933143241271892,0.5128749613604217,0.41924375232095373
106,0.48178460840814147,0.4971310913916801,0.5156087714000189,0.41748711146968637
107,0.4526814611810011,0.5054908312332752,0.5191160558948864,0.41850526057879733
108,0.44852861368228636,0.5149681954108895,0.5179932345781935,0.4268310708169174
109,0.47536589660551587,0.5207513332338667,0.5091616588805105,0.43572915624941466
110,0.495681512460308,0.5243362545640767,0.5027100367136091,0.44025485359363375
111,0.4835728024728097,0.5237994136269098,0.5081150231932342,0.437567845925111
112,0.46022353309056685,0.5187785144805648,0.5155623799421606,0.43014519381692834
113,0.44033539591109033,0.5072861159252934,0.516680220112166,0.42340042717243914
114,0.4419710077060034,0.4931381992739392,0.5130806205056704,0.42431720609326035
115,0.45008513811378376,0.4815959504628994,0.5083114664698141,0.4280446668994938
116,0.4341497256983591,0.47902434181011483,0.5071051201984281,0.4284242483025237
117,0.42746801592254907,0.4813252426378839,0.5141024157194,0.42945817112268836
118,0.4502915545319719,0.47980081177040335,0.5250212365980231,0.4308212139731403
119,0.4818834218446493,0.47595023237120626,0.5290704884874683,0.43358340300293824
120,0.4946552979347939,0.4677597664791991,0.5266345393752635,0.4351982407614331
121,0.46191937873538697,0.465435590170208,0.5204665715529606,0.43518806630676404
122,0.4176548569402563,0.47220048419780086,0.5149418481629318,0.4332845903756474
123,0.3908819388387411,0.4849847960056028,0.5123231345728153,0.43086992732087287
124,0.41065969525961277,0.4958045935020348,0.513405799065592,0.43025198492992506
125,0.44752376486434436,0.5027168261029804,0.5152024950526072,0.4305589649923055
126,0.46584913139197487,0.5030938569721228,0.5146925866320973,0.4314475964137035
127,0.4650411571336391,0.499323548280698,0.5144923385949308,0.43123981164702213
128,0.4590069491549766,0.5008396418878481,0.5149190584965291,0.4309195897886974
129,0.4590069491549766,0.5020823408955064,0.5152343639991382,0.43458602482084074
130,0.4590069491549766,0.5002259460646608,0.5142857713723212,0.42882712172574283
131,0.45888137541001806,0.495113588201758,0.5107207756094395,0.419634492735099
132,0.45869615043473866,0.48423556124639605,0.5051936573423719,0.41250224032168253
133,0.45945899654668815,0.4798650664036541,0.5058519934435503,0.41396407512026234
134,0.46342535673137397,0.4853072358621589,0.5122696997270672,0.4187342317720503
135,0.45353380050282566,0.5015096253770254,0.525000413531175,0.42065573633392916
136,0.43981628088152447,0.515848556777309,0.5297783973724596,0.414734003414411
137,0.4354487920793597,0.5175682243499367,0.5162903860958323,0.3980835952266323
138,0.4580229307428261,0.5076315360749029,0.49801159656265087,0.39334875705965633
139,0.48397073719888295,0.49278613525344794,0.49003302938500604,0.3979875540343446
140,0.49156897449602394,0.4857435055207622,0.4989914999859397,0.41461782209900677
141,0.4722444513445151,0.4837743753539631,0.51413958115885,0.42053143286727546
142,0.42158543038510043,0.48712646809841914,0.5291913790240309,0.41950866897099964
143,0.3993671989600762,0.48859038349170225,0.524180267800521,0.4177396050418932
144,0.4345122452931384,0.48941490382648395,0.5123014617056699,0.42266364005699014
145,0.48439207656531613,0.4882358388265248,0.5054883616102602,0.4346808425618173
146,0.494775736300066,0.48811345193303984,0.5063014412101118,0.4433485627657248
147,0.4814819259478296,0.4906319452950897,0.5147535241306732,0.4436595018321123
148,0.4553032999745714,0.4949755123287025,0.5237107563059747,0.43260285483978556
149,0.44553349054941754,0.49908517071691966,0.5281629202645768,0.4270377242895214
150,0.4652641438782466,0.5000222318717015,0.5239563736206496,0.4260754615322335
151,0.4793444452567561,0.5008081336711216,0.520778471804924,0.42874613280597407
152,0.46130762338974285,0.505517967047598,0.5179272548443167,0.43115403918349204
153,0.4414339491923351,0.5120047447806261,0.5190921269140112,0.4336919292784096
154,0.43772510614299004,0.5195320347595072,0.5195981072415036,0.4358226768994909
155,0.4404415822802257,0.5125437770018307,0.5190393900750905,0.43604415553666365
156,0.44686150793480883,0.49908984538111123,0.5190854191950498,0.43605154300554855
157,0.4393186052196465,0.4866547211661249,0.5216245386748377,0.43489166191628004
158,0.4371131118579117,0.48742938928364465,0.5197442618096584,0.43492704930364756
159,0.4513321899545068,0.49585350948712587,0.5139042402709257,0.44495217184871083
160,0.469924083084815,0.5055494489752264,0.4975408464099542,0.45161573852556147
161,0.47603242293516124,0.5095150049597817,0.4874731680328659,0.44699485661667415
162,0.4684510567710107,0.49931932104068505,0.49171834446825485,0.43201609026381554
163,0.4583055262060117,0.49247086696898656,0.512403511998681,0.4196941887585728
164,0.45778135010345333,0.4889384871708984,0.5333370973953447,0.4214541462521546
165,0.47773231923727216,0.4973198007801561,0.5402564942857166,0.43681512005207157
166,0.4914951015451467,0.5065890766601938,0.5333783152705491,0.4489660224977021
167,0.4763517084902915,0.5095802891742522,0.5222862901755544,0.4398173068695864
168,0.45457916766305545,0.5001255701945702,0.5237438350421793,0.4246498799210238
169,0.44961730400462946,0.48216103349293865,0.5320562454716462,0.4149883519332806
170,0.4544263632989302,0.4747635606771556,0.5409618683021837,0.4204096069570345
171,0.46243629268830516,0.48234623349418587,0.5397697213365755,0.43001509550129563
172,0.4558348469942477,0.5058149300149356,0.5348466853968622,0.4301792823280959
173,0.44311178754889363,0.5198203451015265,0.5261997721961527,0.4255055283439956
174,0.43915561809728654,0.5166813898982247,0.5178272007304014,0.4216034567791912
175,0.4621395238133325,0.49593008402762967,0.5100387595350618,0.4242914636327716
176,0.48427496925506447,0.4792400228356455,0.5051785407054082,0.42976248499553027
177,0.4730375153717577,0.48088846604629715,0.5019176833166455,0.43482643571803425
178,0.4534337084303406,0.49600174723066537,0.5001030417380685,0.43001778099267984
179,0.4522712360328622,0.518498105503937,0.5001451932050546,0.4258471958151275
180,0.46766794979853926,0.5261664324135994,0.5032899982681919,0.43226318465888647
181,0.47825617562760653,0.520316199596812,0.5121279571712682,0.44214401908297724
182,0.47498626214721684,0.5041127170833648,0.5232216459877571,0.4465038440625511
183,0.44844461929883456,0.49045105030244046,0.53160582837103,0.4367050787166301
184,0.4252792047703757,0.4839253444214411,0.5369583134806852,0.4219907159693344
185,0.42947297295023573,0.4891007176178411,0.5351458308562708,0.41312235010461423
186,0.4406872595013067,0.5001857678386947,0.5306963258586351,0.4187750927148826
187,0.4403076830159294,0.507297082314897,0.5261066532996624,0.4305057611429477
188,0.4396365478848507,0.5099790231513922,0.5209343735521382,0.4371967298478816
189,0.438145920346987,0.5096611132398914,0.51812292600865,0.43689911278718807
190,0.4392468390758799,0.5092791582495532,0.516464953562192,0.4342827106523622
191,0.4406869129432347,0.5107771107958645,0.5185801699013615,0.4354858753693079
192,0.44303997484923957,0.5113490895774021,0.5211171849743801,0.43688353565309324
193,0.43323770532004546,0.5113802884200315,0.5259795320903389,0.43737093149851225
194,0.42871416151963204,0.5109944109589415,0.530697001437963,0.43653205399090084
195,0.44828045949774786,0.5109562188897713,0.5334531888165069,0.4386981009885489
196,0.4717479044294333,0.5120256181263069,0.5328245222045387,0.4386628970003183
197,0.4744582580159316,0.5115100718402273,0.5327962407508247,0.4337846905568366
198,0.46628286308595385,0.5088438662909366,0.5339379525711835,0.4264750519625972
199,0.4548587795429906,0.5048831248065673,0.5324818319684551,0.4152149822228163
200,0.4608269655139032,0.5010933183831405,0.5239723801520826,0.4096023837772773
201,0.48180588272229957,0.49957917238333494,0.5081338568792068,0.4156382777689166
202,0.4910643064128528,0.4995243963119325,0.49193208257662224,0.42726759996424585
203,0.46184519664240214,0.49940753990093767,0.48090406431732874,0.42994245177284374
204,0.4330210788795282,0.4973076906752981,0.4885656086974854,0.43063404455285353
205,0.4420957089945137,0.4961075721835441,0.5113579536504677,0.429726469636996
206,0.46264406471555347,0.49407996515042907,0.5304455704977724,0.43307361897894814
207,0.47492157776494637,0.49329858714496094,0.5301651684719879,0.4410258664671351
208,0.4606726738011521,0.49642849434402075,0.5179196485566524,0.44269011562264216
209,0.4471664829179809,0.5021246627415099,0.5059749428152772,0.4348085548884548
210,0.45126108988164354,0.5087690265296015,0.5046713762782474,0.42183177108981884
211,0.4804917982100992,0.5150377541136157,0.518032636715197,0.41819007052523116
212,0.5005112124300118,0.5167912292703022,0.5265747732171104,0.4222391936605097
213,0.48543216050595817,0.5137172607681733,0.5215291930541575,0.4329786713501259
214,0.4594878050532176,0.510043183024937,0.5109567592525512,0.44155482874004826
215,0.447988064730263,0.5094189204038108,0.5020290229996879,0.4472346397895962
216,0.45205747237143656,0.5071241329566952,0.4986488620391125,0.4486782806443428
217,0.45987767587404654,0.5031071878390379,0.5022841367108304,0.4471307607222748
218,0.4567339167050387,0.49720558854946867,0.5059725628115751,0.4470056032277242
219,0.4476073400946888,0.49090456119546066,0.5099545496479656,0.44947388224880025
220,0.44172549862662774,0.48823610392772937,0.515293538533992,0.45269495534983073
221,0.44602865775598977,0.49040737068973694,0.5210109229088392,0.44901170687857256
222,0.45317265632734466,0.49394814676112136,0.5259810797346413,0.43575138753758424
223,0.4524969444151493,0.49436672561362216,0.5312135827827993,0.41845029346240276
224,0.4528125583468012,0.48812327842027464,0.5318892431969806,0.41041519794180836
225,0.4530166325755106,0.4857897886667578,0.5273675282698991,0.4162981681083317
226,0.4656983597343074,0.49997051598442965,0.5229304557517865,0.43491278233473035
227,0.47303484620091174,0.5163127265303324,0.5162498203298046,0.4475163462326287
228,0.45833803594761796,0.5222397422179158,0.5105501364471045,0.4449489675513044
229,0.43840380180567706,0.5146402721441335,0.5069585926332603,0.43586917758590404
230,0.43323577204899916,0.4974829212688697,0.5072537421263055,0.4311211874011553
231,0.441025438446454,0.4854753940752477,0.5071791653896647,0.4350217490958807
232,0.45182097956465395,0.4905608708086045,0.5090178155786367,0.4398088191164926
233,0.45955865059867707,0.4991164500322767,0.510762650762807,0.4405285368378001
234,0.43725370108983785,0.4980302315136086,0.5153120037972475,0.4334532037168326
235,0.4210402334596225,0.4948914778169445,0.5222412395342821,0.42739377428215064
236,0.4446341877292144,0.492510002941703,0.5309711339470364,0.42934761906698904
237,0.4715026013576977,0.49185039507647205,0.5377493541053395,0.4344441030958106
238,0.4792977982937921,0.4946665906853301,0.5384394389140806,0.43883958766088677
239,0.4720700931877915,0.4962943780864263,0.5341419641215159,0.43886772521480266
240,0.44304999067575546,0.49685843000199215,0.5252793596507508,0.4375933251782762
241,0.422255396550816,0.49728431487094754,0.5194319734155372,0.43736327493878335
242,0.4364752869466315,0.4975317539825844,0.5218833559026814,0.437630528579073
243,0.4652491828580575,0.4992406485885525,0.5268786291586829,0.4409144279686148
244,0.4826583968129089,0.5028669423026373,0.5224854223230478,0.4413618537659113
245,0.4932133350415614,0.506686098359014,0.5117716301526076,0.4349728901954616
246,0.4913595675948524,0.5108974697350153,0.49612673953684094,0.4264829908451584
247,0.4817793108492929,0.5119176370283577,0.4892754019361032,0.4230751001945712
248,0.485517029932204,0.5099131055034918,0.4996391990959352,0.4296944705947514
249,0.4851505811405404,0.5057814151511073,0.5270629288642684,0.4395769340086479
250,0.4805220211593986,0.5025668829805983,0.5446089919185226,0.44556370070397167
251,0.4714953036363365,0.5002808377970558,0.546279279620583,0.4415268622651394
252,0.4627144293916303,0.4999338221775421,0.5359004609181143,0.4337408573390109
253,0.457348339575421,0.5009087912008613,0.5197047961089171,0.4296455164797041
254,0.4570556437672641,0.5005280626157771,0.5116400056986968,0.42986412417646597
255,0.45998260184883283,0.5006064454588709,0.5116959202154073,0.4318033067316656
256,0.45822859004978395,0.5009229291882139,0.5158247621089225,0.43045001829017093
257,0.4646827231593161,0.500883835458397,0.51684940165773,0.43588952791370444
258,0.45427762814575856,0.4999284932759012,0.5117477845708549,0.43232757702986196
259,0.4351857250234174,0.4983435914511846,0.49981458365677406,0.4171111423497913
260,0.4229476777956013,0.49674358685415665,0.48383372133711405,0.39232281846550576
261,0.44060116070788685,0.49597839614262046,0.47681201189503236,0.373664638599598
262,0.46132789813014646,0.4952195463079326,0.4825630772821314,0.3700850194387679
263,0.47042884946053254,0.4958069492112122,0.4990551144642458,0.38138516165884995
264,0.44516139750267186,0.4968987407970295,0.5117142846812174,0.3962533743275397
265,0.4086679643856935,0.4991576675065374,0.5144216216848666,0.39933313527082653
266,0.40616127505626004,0.5005830014772278,0.5038694132953769,0.39590459124470606
267,0.43380545357595957,0.501845141397087,0.4952451299890898,0.39605394000148425
268,0.47114623108443665,0.5030778061461141,0.5006057042858761,0.4065764625492821
269,0.4838017401352519,0.5043276797848435,0.5166151492060738,0.4194502045253901
270,0.4847981185579846,0.5069742632022134,0.535017674720777,0.4341208848068749
271,0.4746590840831232,0.5084667599289896,0.5469748176746771,0.44567895121534834
272,0.4878909575061914,0.507824438284923,0.5437924413797195,0.45312424352112896
273,0.49220180211250336,0.5048854013856444,0.5272302842409877,0.45704432944611956
274,0.4720124887438927,0.5025590255438716,0.5117653262370027,0.45760846015860307
275,0.44876702887102976,0.49953791012715487,0.49969669388862514,0.44826641323552174
276,0.4418829999942861,0.5018641460223346,0.49432884767073304,0.4460893765358216
277,0.45186496784101743,0.5081776686685336,0.49491640678120763,0.44674188507691076
278,0.46837398286605014,0.5125471229975184,0.4983444058612394,0.44491349693425664
279,0.4772496558399287,0.5124124212559263,0.4947225384541844,0.4387846805393466
280,0.4625336415114417,0.5094564499330339,0.49647299607125683,0.42849267890642934
281,0.44725882943635936,0.5063756394880816,0.5058138572338332,0.4138801523758862
282,0.45183009428504334,0.5061906496556907,0.5188748329817302,0.41124053543074157
283,0.4581199431204672,0.510320708964,0.5298139962491719,0.42922283152575436
284,0.4581124062644896,0.510327790888841,0.5379236874790724,0.44305892186579543
285,0.45428442911828615,0.5083607611212798,0.538881736385102,0.4494509587299451
286,0.450755536962117,0.5044145237447482,0.5309318706029944,0.44379404902559455
287,0.44966197165851635,0.49955458908723477,0.520542762943046,0.4301217988894452
288,0.44786239255664434,0.4947561415260366,0.5067720137622377,0.4168925263174169
289,0.4449566446992156,0.4916872883864179,0.4964528925251875,0.41679574125268026
290,0.43813233779831273,0.48981263622725074,0.4918972010423151,0.4206624862709733
291,0.4327583687025372,0.48953908058408396,0.49310519065546243,0.4192072957930583
292,0.44008630358912704,0.4910792425889476,0.49642540351808123,0.42166205099095816
293,0.4546905397923772,0.49200910483303906,0.5016736894521039,0.4211650539341153
294,0.4659273869245693,0.48993367351352013,0.5091402557630105,0.41823320341096737
295,0.46901786429955433,0.48995984317114943,0.5149918030877985,0.40198475267058015
296,0.46407060840438585,0.49752599313326534,0.5182296059423969,0.39385634110229734
297,0.4560290445598388,0.505640583202871,0.5175584167441426,0.40139642546525994
298,0.453158395924975,0.5095034570610101,0.5151449740571148,0.42940808079720966
299,0.45573260401335214,0.506467469154866,0.512474180443898,0.4534016760009944
300,0.456623292899169,0.4986944313812968,0.5080657652031197,0.451827220629375
301,0.45624378695331697,0.4913944260331724,0.5040190025928256,0.43044464792356035
302,0.4567278174044875,0.4923122961921117,0.5011064107137144,0.4084465561932143
303,0.45081114994824106,0.4954805947690526,0.49996984415556606,0.4145423979101831
304,0.4377128282767068,0.49520316132712455,0.5007964228756965,0.43052899995300487
305,0.43168104041359534,0.4949879777900128,0.5043330244852748,0.44534504059130886
306,0.43884669625595857,0.4950768412678517,0.5064790562664212,0.44251271321811797
307,0.46904682294805095,0.49617188010165925,0.5062252028366186,0.43378260022824877
308,0.49104020680044935,0.4977355460121999,0.49968569233853144,0.4271127616957824
309,0.47577580591808594,0.4997553252671718,0.49532603836583294,0.42711700653540785
310,0.44415333515259536,0.4968819147336328,0.5123024614630639,0.4299075909589642
311,0.4279324705440361,0.4953199671713817,0.533478575886332,0.4307287862630995
312,0.43955783947357413,0.5026053107288402,0.5458597420644415,0.4311010602467272
313,0.474898715747227,0.5109045537148317,0.5359867999751043,0.43084112723494367
314,0.5051716921744491,0.5142659849816366,0.515657063115565,0.42922298811954834
315,0.49120826652344884,0.5105592381434599,0.4863134159122447,0.42806530499527956
316,0.46784625600430363,0.5009655793083547,0.48795429110626065,0.428867158789399
317,0.4729238849314009,0.49163558942799124,0.5127047285666714,0.4322456535291348
318,0.4831707636401461,0.49223810920350247,0.5310905520915354,0.435997503951935
319,0.4897042719632888,0.49673701897351263,0.5357239486111646,0.4367509276473165
320,0.48402928349562235,0.4976311850460869,0.5203599211361316,0.42682788015795237
321,0.46222022349834524,0.49829687418094587,0.5024228004229996,0.41762493031776177
322,0.4445962349867099,0.49789992330854216,0.49324450405728837,0.4211971134994045
323,0.4506978386405027,0.4968150585526145,0.5096377282463551,0.4320622185552874
324,0.4584921068132884,0.4963252641026863,0.5241154986239844,0.4400109640897252
325,0.446474280972529,0.4961742667093532,0.532020230302163,0.4345787070170554
326,0.4322399133811188,0.49577361559027366,0.5242948201388171,0.42048491407281613
327,0.4240114978948512,0.49481692120243304,0.5120216312714942,0.4087938467870197
328,0.4314543247076803,0.4934354646361061,0.5034383822019672,0.4116955934416345
329,0.4442268718577819,0.49444882791574657,0.5009874073433284,0.4205939866096266
330,0.4473122134687885,0.49466888301164674,0.5040459825805623,0.42061072781545167
331,0.4394852619970583,0.49127463097740964,0.5105591697541896,0.4205839352694952
332,0.4327872290045866,0.4904534007977135,0.5136221794840398,0.4241343896833088
333,0.43727010412174194,0.4939446621644981,0.5056142576676664,0.4385055742847989
334,0.4447807931409182,0.5029520854881768,0.49513202776554155,0.449682144516527
335,0.45191337726632225,0.5116796495136521,0.4920922144731413,0.4459547059312229
336,0.44710131342804377,0.514093230863256,0.5007895101509228,0.4358778760997549
337,0.44225816271199436,0.5071907611039311,0.5232610612967047,0.4279633233158337
338,0.4492893765837976,0.4976382425916059,0.5389425976272393,0.43716981747333333
339,0.45744210306366934,0.4933757248998788,0.5320557626697165,0.4463942613742818
340,0.45842240090000186,0.493052247882323,0.5087141752098049,0.44670124275123974
341,0.4555287330059116,0.4979941813554911,0.4933453872437034,0.4302240741978091
342,0.45211592411954715,0.4994563150692478,0.4987227635006306,0.41612236737635316
343,0.45465364493270266,0.49691255364986814,0.5139920402845709,0.42047235565744523
344,0.46265062911489213,0.49213478413761813,0.5277075494996643,0.434308322310188
345,0.46767958438256296,0.48668947136954904,0.5263405862549702,0.4437831708196555
346,0.4556051141759158,0.483858074623983,0.5195776864800756,0.4341924447605723
347,0.44552366960980533,0.4832589832257346,0.5149661271558982,0.41614478668483545
348,0.4570516215313998,0.48404905731498826,0.5156637289851193,0.40756555823521873
349,0.47335929099709134,0.4828050490618131,0.5172340508894937,0.4161563658239633
350,0.4766143294205585,0.4815396188556009,0.5167505226151183,0.43511034209730987
351,0.4704002101785149,0.4831952548623496,0.5163856702501021,0.4496706201692659
352,0.4641735786447077,0.4878294879737869,0.5162354172095454,0.45258676632000666
353,0.463921656450817,0.4946934447345895,0.5185906708763062,0.44731326191962917
354,0.4824094893343207,0.5013922404791836,0.5189237556691956,0.4430339547310412
355,0.4958614449544907,0.5051568899069185,0.5159249873528274,0.44243394628232185
356,0.4846934496312893,0.505932697989196,0.5105212579522609,0.4411863270181767
357,0.4687810805935404,0.5044703138113494,0.504894620667644,0.43978276081962936
358,0.4686959086119268,0.5010460143940794,0.5015008747888565,0.43701949738844004
359,0.47160832664868807,0.49700441933008543,0.5016572486086046,0.43610436358025634
360,0.47600386229637776,0.4968316093777535,0.5029085250389648,0.4363056887078565
361,0.47309162130073573,0.5008146050030142,0.5037875149605096,0.43463537048635825
362,0.4642808819709556,0.5011147224269047,0.5033947646736404,0.4329192090999611
363,0.4595184441435981,0.4973491926556386,0.5008043486521914,0.4336661445267405
364,0.4695949536494576,0.4903455180013906,0.4956691061734458,0.43620163219772146
365,0.4796974044220324,0.48914582859962574,0.48789871062957807,0.4414897521774281
366,0.47501955768179044,0.5000782721471293,0.4882149057541121,0.4443658873033797
367,0.46631822282467966,0.512682736753909,0.49862026066909637,0.4416487471494591
368,0.4634009923668211,0.5216941191199131,0.514670496010228,0.436791886346401
369,0.4677923224214148,0.5185251300023328,0.525874982353263,0.4336339275561738
370,0.4709011137738564,0.5040365817322388,0.5314161417119889,0.4299575156665263
371,0.46843807932755255,0.49073017454375434,0.5324277812121437,0.42796960169226594
372,0.4572287387587504,0.48784661443646116,0.534388584507259,0.42315632331382474
373,0.4481497027617927,0.4932928115297004,0.5408933377759592,0.42040442288817576
374,0.4529727137556996,0.502712110719347,0.5460008849864193,0.4235784539712046
375,0.4572858069030003,0.5073822854601466,0.5464651448581234,0.4357706895460272
376,0.446914855305225,0.5070921939275228,0.5469228392303616,0.4446254408045304
377,0.43358406304519587,0.5106436379863625,0.5439635709117303,0.44236978234809826
378,0.42769648081247297,0.5223153752747839,0.5366132063052343,0.4333062510800775
379,0.4338969484122519,0.5329953722999202,0.5265110194094821,0.42366925001413075
380,0.44787401762710805,0.5395220371486147,0.5177279826542207,0.4231654209271499
381,0.46068013987717477,0.5398780370494526,0.5131681279603016,0.4272077325131509
382,0.46192071384868894,0.5363180380410738,0.5126242141763276,0.43303464386758606
383,0.45860701776805374,0.5375047043772001,0.5155265248228156,0.4321254995039696
384,0.4604963510062666,0.5005341116556994,0.513608696746351,0.4313058734444251
385,0.4582156129766573,0.5020309681287421,0.5129147912032115,0.4327101876128094
386,0.45624390681025095,0.49873751672099137,0.5164235304534958,0.43123107106901987
387,0.45691335318371784,0.4941125622039105,0.52363525301131,0.42448680832032476
388,0.4591648964663978,0.48849901795743506,0.5315807161149882,0.41618077015375304
389,0.4676866659180302,0.48872529606011167,0.5383860093453889,0.4128066908934267
390,0.4716223329806403,0.4950594782063458,0.539399542223371,0.4157114527738719
391,0.46844840215080247,0.5079976154866419,0.5389412544142992,0.4228149605815679
392,0.449442960035726,0.5161854362981592,0.536029208475777,0.42830778660795804
393,0.43792494183878067,0.5139628545796542,0.5262253217970594,0.4286818574983049
394,0.44723915787621626,0.5053668342888121,0.5113992468337705,0.42683071773076064
395,0.4650116707685228,0.4956394429185105,0.4976827621641675,0.42644926609166556
396,0.46955191176780997,0.4949521908452333,0.4884614261683095,0.4268241415964968
397,0.46236758247026977,0.5012951169952962,0.4853043853864707,0.4267436259726372
398,0.4562021224383544,0.511670411165198,0.49047489808732253,0.42651389198590944
399,0.4577107934306387,0.5160562478357865,0.4956430283821615,0.42851592824018675
400,0.47579480925360246,0.5180246114701533,0.5017418141320131,0.43115697424830346
401,0.4910742215656978,0.5178629090589828,0.5052687851499805,0.43308594624647184
402,0.4868007610823175,0.5198836108038714,0.5123722183137457,0.433508073398757
403,0.4791967450975939,0.5220901947334968,0.5109006633582706,0.43249953400155183
404,0.4836213299899679,0.523627890398277,0.5009740918090867,0.4315274503391559
405,0.48740798194997537,0.523833954414466,0.4862622457997503,0.430304784641982
406,0.48949030481823486,0.5230253467955108,0.4730486801910308,0.4316621181190314
407,0.48625735831066524,0.5228746475736354,0.4582683389389747,0.4311960931541988
408,0.48312260110858907,0.5229948527479447,0.4583230536067501,0.43308840358602546
409,0.48384432319476023,0.5227688292298043,0.47355935042360103,0.43594806592157725
410,0.49562776142376436,0.5233319671136671,0.4886062381413059,0.44573400179557865
411,0.5009352287387875,0.524754826840233,0.5054234278357466,0.4518847145019373
412,0.48366175094908564,0.5264282190531592,0.515103862583032,0.4446440547721441
413,0.4613396604635938,0.5268451544840725,0.516148504711247,0.42721851564492574
414,0.45427103269568175,0.5301952191761982,0.5109314471015293,0.4072561040529987
415,0.4656265243097658,0.5316113769988837,0.5146795913080052,0.3947409848340071
416,0.47413777728809503,0.5253303838498548,0.5150100498502541,0.3915088717474545
417,0.4598148004254588,0.5133001935250693,0.5106999655853763,0.3957247058946554
418,0.4206730418173801,0.4991932667487659,0.506293494164396,0.3951035210369608
419,0.39774020582510683,0.48965938020487026,0.5035517529612656,0.38975657894086374
420,0.4242995587876733,0.4833579939519696,0.5053038115893321,0.3911363373786521
421,0.46638080791703485,0.4865582054996671,0.5110309402340415,0.39930389725827775
422,0.4793301170213534,0.4926607552079847,0.5179650161730934,0.4107085909485582
423,0.4695873405921436,0.5010928248574787,0.5205802955045911,0.4213647103934487
424,0.45429895569997913,0.5100790742404754,0.5213715927270953,0.4283670816175466
425,0.4648509700947666,0.5155406538018489,0.51965761337052,0.42862741023639195
426,0.4868608629700927,0.5158424121089057,0.5184165012305559,0.42359003894906466
427,0.4960038495486772,0.5128954851063386,0.5216516379848832,0.42079158763277436
428,0.46692300960838995,0.5139678459585678,0.5276488118037423,0.41643509047033156
429,0.4355260082229123,0.5143208294575654,0.5327800397936197,0.41251949380850983
430,0.44735034332425155,0.5135320345146931,0.5361406579311258,0.41150480532845024
431,0.4678025680675839,0.5136179796157804,0.5367208866042469,0.4136807160868385
432,0.462019661891836,0.5151229837343801,0.5355511139545513,0.41493336987539176
433,0.438835569300889,0.5176348369382927,0.5367089834577843,0.4155358197236771
434,0.42467699588081326,0.5186758983964109,0.5366823394408569,0.4178352809610905
435,0.43693263103820773,0.5245932777523933,0.5388539710394986,0.422868040426134
436,0.4706193679301441,0.5242379853297423,0.537865229670041,0.42742152666561556
437,0.49436422610249203,0.515359835785002,0.5330348807334074,0.4302334177844511
438,0.46806913181270465,0.5024756935718517,0.5255886847409524,0.4293946138076467
439,0.4387869531968658,0.4904004025319964,0.5187343371621017,0.42609700404644546
440,0.4527913190016541,0.47909569946737124,0.5150555022436486,0.42419095245926547
441,0.47474384291936034,0.4789830623967088,0.5120104919115327,0.4235965864992884
442,0.4845307549983046,0.4893491232058133,0.5157276676887205,0.4246128728651363
443,0.47247382850624364,0.49766984522358604,0.5230252657020501,0.42582495163221673
444,0.4600149256920706,0.5074530465085646,0.5347838615793301,0.42718748365732545
445,0.4598321648650596,0.5134316695160515,0.545237303364324,0.43087577106573827
446,0.4858654154392095,0.5131692756238025,0.5517646942720504,0.434740829590579
447,0.505415677261339,0.5114394118521977,0.5536639837834413,0.4366047481356607
448,0.492332316897666,0.513052779482241,0.5478923049730156,0.4357109698407708
449,0.47106901379807953,0.5099800351099255,0.5402897910392288,0.4341379055623977
450,0.46564435339042554,0.5031943671203923,0.5287761029650933,0.43171083591120984
451,0.4693741812726304,0.49435234134655476,0.5192491204540728,0.4304328678108865
452,0.47558330151353156,0.49044625570703587,0.5135794334771023,0.43143548583110386
453,0.4721965552866631,0.4936307028618649,0.5148416420375007,0.43131640684715244
454,0.4627384418623523,0.5023420265233427,0.5187565582220172,0.43108091348381816
455,0.4577830696897967,0.5093208707483304,0.5211244593640303,0.43033585219179443
456,0.4659224037250405,0.509823111940988,0.5239678199894886,0.4318323857709117
457,0.47551895551626794,0.5056159256134523,0.5266093472762288,0.432930060253458
458,0.4753153803740939,0.5014098833637602,0.5275552250239818,0.42695276244426306
459,0.47200292444240993,0.5013005152752232,0.5245464620717285,0.4218443211784521
460,0.46965309279686074,0.5023534754691321,0.5201400574507941,0.4245602117266423
461,0.4716743953002511,0.5039994426457476,0.5142824107007034,0.43399537692062734
462,0.4728727001039875,0.5029729966729627,0.509604888796819,0.4457681596798463
463,0.47225765696248806,0.500588930725734,0.5077785441258096,0.45137517240242675
464,0.46823891398478573,0.500811591061066,0.5086959783748487,0.4495416440969842
465,0.46340025409464186,0.5022456129207897,0.5092998131815956,0.44628956431317013
466,0.46899264985130734,0.50692658065966,0.5091410847319905,0.45190480364042496
467,0.47145323804027983,0.5044543155218505,0.5088134362449845,0.4604824892281827
468,0.45640216216852836,0.4990171879707232,0.5079001958704014,0.4611714945032188
469,0.4406526921235403,0.4944714178252307,0.5104145575920517,0.44855269511176854
470,0.4334474975075607,0.49405036375219175,0.5124696657906109,0.434097248365921
471,0.4438782918842408,0.49710142814033825,0.5121002210652442,0.4284300194909659
472,0.45871061476360653,0.5019472501014292,0.5096015319553664,0.43131737032044976
473,0.45853580758431317,0.5045252514446454,0.5039311743741339,0.44102839549121403
474,0.4422467742573716,0.5016159294191582,0.49963976264915083,0.44574873734490816
475,0.430420115830974,0.5028267306866208,0.502097960405424,0.4455932669411507
476,0.4375986179213557,0.499932910788363,0.511217822879501,0.4466947552924476
477,0.4511586051724146,0.5029319567129915,0.5206215200939978,0.4566018305806841
478,0.4628134762690538,0.5064157964332959,0.5224074564919575,0.4616656857235878
479,0.46070785311968493,0.5076434959809745,0.5187179475012126,0.46643041805415636
480,0.45516466525830657,0.5042297369259672,0.5141409317210999,0.4592774498386101
481,0.4561063065166132,0.4960040978057779,0.5163270018930258,0.44159947147303696
482,0.4560586790654213,0.4872046602508042,0.5252488824963799,0.4235227103896638
483,0.45832879268849186,0.4834289894702811,0.5270198952532695,0.41046479013443077
484,0.4514584479195412,0.487789954140561,0.5101275330604563,0.39828404900863007
485,0.44960919231756763,0.49264131938765415,0.4852780350729001,0.3978762268904546
486,0.46644994774364956,0.49826401570582546,0.4738221291772703,0.41268317376253993
487,0.4873062152200815,0.4868273713448928,0.492909890557411,0.4276446649971535
488,0.49710452371756053,0.4791084750906233,0.5187530859060984,0.44089546503757093
489,0.4828874795052267,0.4857191576821917,0.506764548855175,0.46090599810588484
490,0.4521307418127148,0.5135126378807789,0.48438169003123804,0.46046797535939593
491,0.4166955817773881,0.547401147274636,0.47340497598653486,0.436807252737008
492,0.40118806678185753,0.5567146500499667,0.5115748249446171,0.40895569448029423
493,0.3967637373346109,0.5294278532417963,0.5553546255932332,0.3819083953697706
494,0.39169948491659523,0.4857755909864453,0.5627906069891415,0.35583489530881285
495,0.3896037774679747,0.4582475961427242,0.5178778042077372,0.355638150306181
496,0.38856319078658097,0.4458088492166187,0.40091408569418974,0.3800721086785396
497,0.3924880245803186,0.4489671807600034,0.4021748865780646,0.40056124103466656
498,0.3932437459996744,0.4502309857168507,0.4815677248483536,0.42434930869517895
499,0.3718468914822013,0.44675714180925924,0.5659738083271444,0.43888646115438096
500,0.3849064283956557,0.44667387635100475,0.5739269902002898,0.43967939674306467
501,0.442991966341819,0.4503212162708999,0.5110192878094667,0.43175004085622726
502,0.5195364282367922,0.44279119042898507,0.43681306557757815,0.4346560390994099
503,0.6185421221338634,0.438869269239583,0.3701952322274357,0.4338674002566994
504,0.6555144288265591,0.4575516095176645,0.37512019161643256,0.43394626414097043
505,0.6123932841010842,0.49127194842040245,0.32341526693419886,0.43539210201927303
506,0.5308763187827243,0.5205554577944596,0.275376656489307,0.43775801854740454
507,0.4787747156089638,0.5320176594120999,0.21720447150615052,0.44012393507553604
508,0.4445265718242259,0.5221156909551438,0.21790201279124666,0.4415697729538386
509,0.44562246594467564,0.5008995719989228,0.2814409237753914,0.4416486368381096
510,0.4673855901530127,0.4957634699962347,0.35013248382541895,0.44085999799539916
511,0.45841523006975354,0.5003106021829625,0.42479470906258926,0.441122877609636
512,0.46012555989157594,0.49996341921726906,0.5121924572587281,0.43144731092549327
513,0.45888100653774244,0.5031579650650543,0.5125474518610168,0.43180223290079783
514,0.45637082006189456,0.5046776184562518,0.5190556862363102,0.4273820272919144
515,0.45619324742452194,0.48968230093450305,0.5297055243049721,0.42540367689930125
516,0.45980231768520874,0.46899855569574705,0.5352617524354697,0.4305426321895474
517,0.4675508683560863,0.46554856141163736,0.5570508166252556,0.44177807137875214
518,0.4696372841156798,0.4832773905536445,0.5558777282460949,0.45457585173285914
519,0.47373683202265676,0.5214296300678938,0.5243129275633048,0.46307146086799134
520,0.4804335708799126,0.5559810160477752,0.47965375346078987,0.4648774897951453
521,0.4929736513473161,0.5574147734357662,0.4388950408283655,0.45928406290267526
522,0.5063204707169368,0.5250188503658435,0.3956288557353041,0.4666542290076445
523,0.5140319898049324,0.49584090713868223,0.3956259057971708,0.4662192629040428
524,0.5121012953505315,0.4838356648630462,0.43886750807245406,0.4532265421682239
525,0.5138890420400153,0.48820710837540016,0.479527889433766,0.4319657264187022
526,0.517997212695622,0.5089764778647308,0.5243472383601752,0.4116155994382195
527,0.5131886055991688,0.5178722410673781,0.5534629772324425,0.3958908123952836
528,0.49885383178286113,0.5094607177145641,0.5596545996870089,0.3958076829313165
529,0.47720635080779533,0.49345617967906097,0.5387680479896665,0.40684633645328944
530,0.4599793817713626,0.48032774649994286,0.5263707595506397,0.4127859298426744
531,0.4551600536665429,0.4751587928409264,0.5031183318235277,0.4228103904588211
532,0.4638852585903832,0.4807908520869019,0.4840425415982237,0.4310768648185119
533,0.4671672206618572,0.4920088964048856,0.47267984730151347,0.4352163347956707
534,0.4683812292283731,0.49739489932933084,0.4731512532794816,0.43374605763234636
535,0.4624088875449621,0.5005134603100719,0.48235407857676843,0.4326831667706274
536,0.4596449571494139,0.5016348936120913,0.49272094506123276,0.4277269183316995
537,0.45740799478806654,0.5028678194369047,0.5071977968891139,0.4250824624135104
538,0.4510684054873085,0.5072343038759367,0.518455856356206,0.42589663167654385
539,0.4447106270591946,0.5102665589931247,0.5225247430221192,0.42876470866115146
540,0.4245255495640198,0.5110341333719728,0.5205484350782559,0.4284760514737864
541,0.41532220695979194,0.5096684609402119,0.5193507293257656,0.4271805202260331
542,0.438605962529632,0.5101404385800149,0.5183606674876193,0.42740175776373707
543,0.4690509836116322,0.5120716926540106,0.5152966627982223,0.43012298274206734
544,0.4719644390266146,0.5215020082167205,0.5123381552534519,0.43485541826725993
545,0.46085350124515534,0.5242522143920108,0.5095165615253636,0.4382134600958631
546,0.4482244497297176,0.50880697164541,0.507715721605102,0.4357051180113523
547,0.44936973030588706,0.4886729596929359,0.5102707391202332,0.43271783038323103
548,0.47688742931152517,0.47578748648511177,0.515890904082826,0.4356290819495022
549,0.5000617160204239,0.4824031944677171,0.5228425261393678,0.4400885000791009
550,0.4958010317716498,0.5064763620230965,0.5286480447617846,0.4424719260853113
551,0.48403675928589224,0.5242539486231736,0.5314850252670947,0.4371001155063956
552,0.48035158061293765,0.509426387072452,0.530587232756074,0.43016899435236994
553,0.48532130075628693,0.4842217288310673,0.5290919415774948,0.4290250566666978
554,0.48835702611508675,0.47500912310860943,0.5281859339146977,0.4349673947920125
555,0.47607478155756744,0.4813005297417213,0.5296103063491805,0.43881745227947905
556,0.46246202912181755,0.5122977408902274,0.5274920443908518,0.4332649483927133
557,0.4616393065108461,0.5336317912729208,0.5243169981740554,0.4207394391824396
558,0.4661742217313002,0.517002877839109,0.5222835574253116,0.4123184265420051
559,0.4723429822902607,0.4891756861847883,0.5219290919679949,0.41835971182198306
560,0.4666187236637694,0.48127968933184284,0.5237028675881727,0.4349089975217946
561,0.4534961248295716,0.49616572196742115,0.5280211079702755,0.44542009616490963
562,0.44866211020572777,0.5199736133876921,0.5297598187735757,0.4442594938907077
563,0.4710162018954186,0.5365432606658493,0.5253870642335248,0.4340395753031315
564,0.49068241431723114,0.5270300393983944,0.5200904950366404,0.4236208857713604
565,0.48495914618587527,0.5118947130349377,0.5171862545476326,0.41945224076608933
566,0.46378650355939477,0.5118753011965949,0.5174601484668145,0.4211924825435361
567,0.44411183266747956,0.5173163029912162,0.521387744869067,0.4245127012229332
568,0.4524861229928917,0.5187928993837978,0.5200111133427832,0.4258442742093492
569,0.4720365406775469,0.5140945487025734,0.5093471873541624,0.4238472328335347
570,0.4893514259332343,0.5076832186894719,0.49514480101753533,0.42069505725367046
571,0.48458782471211115,0.5030748830992601,0.4897184046359522,0.41783413939059877
572,0.4709146425105434,0.4991177324512995,0.4986385058376188,0.4180593490037185
573,0.46105227369030233,0.5036835800612526,0.5152471003293931,0.42186451610622566
574,0.4612515883129061,0.5053166504662024,0.5266584982227287,0.42958650422644135
575,0.4664426260020892,0.4973935868685719,0.5270776559481896,0.43463098834509944
576,0.46680159842291746,0.47696173100369893,0.5230681924739053,0.4318205773433426
577,0.46998740024099,0.46038963427159885,0.5210815752252625,0.4286263540988075
578,0.47575900666293164,0.45530829033477976,0.5247738067745652,0.42524876448353055
579,0.46299750256547023,0.48825104533514485,0.5296198134047827,0.427047381266679
580,0.44222778317774913,0.5366422102035303,0.5338952144470526,0.4298156941414672
581,0.43338000319534314,0.557410631049244,0.5322642028582798,0.4314408422683195
582,0.44222293366517923,0.5429927729973361,0.52632708538659,0.4271622485184912
583,0.4882202278826085,0.5057182377817109,0.5181599854822415,0.42324103298656723
584,0.5230336240190774,0.46478073220280686,0.5209056448537626,0.42379404645970686
585,0.49272691270665214,0.45073201724598017,0.5252582747297453,0.4266318117246851
586,0.4374054609899298,0.47161461554118217,0.5282570448943764,0.43016576673643403
587,0.41275161582237546,0.49912090041129387,0.5216867890762357,0.4309724080888551
588,0.42977697769547113,0.5180881600125271,0.5058445588680963,0.4303982676490459
589,0.480717301191743,0.5216096087138253,0.49152443653536326,0.42900085911711483
590,0.5232498537972153,0.5086502369770418,0.4967659575191883,0.42924394034488095
591,0.5094081901128897,0.4898052047941247,0.5127550154897704,0.42965794850281125
592,0.47652255335507065,0.48407185581366324,0.5256934594482077,0.42939626513288875
593,0.4661595237056022,0.4836447552611926,0.5296936460854849,0.42955225452977397
594,0.45749243634481007,0.48791576078589916,0.5227537562491784,0.4291005670903083
595,0.45451863609233795,0.48637509781964505,0.5152213583193554,0.4275802801384681
596,0.4490205406225431,0.48672608119370087,0.51309909246943,0.42567165817948854
597,0.4398701153502896,0.4866909828562953,0.5196653456620981,0.41988674413505356
598,0.440772509671041,0.4872354456291855,0.5228061899725831,0.42643461321953824
599,0.44934031578310085,0.48310352787339944,0.5216969153530812,0.44194136567573833
600,0.4559676921086626,0.48209359883516684,0.5132427663404575,0.4557399273752799
601,0.4524458896534283,0.4830798599587115,0.5050833249121043,0.4478906830160161
602,0.44714563518082007,0.5004321816894267,0.5014144869897805,0.42570454201561714
603,0.4460291502598403,0.524092140731265,0.5050682585809311,0.40536126647408666
604,0.45188573486821837,0.5402685505586773,0.5128337275297747,0.4042612319306305
605,0.45717071634951595,0.5298113137212019,0.5188314912018763,0.4247474498281157
606,0.45518618299706054,0.4984197789478225,0.5225164936611375,0.4419878642989085
607,0.4499570490663437,0.475265229268678,0.5237574968068623,0.44650803031122094
608,0.447736966607136,0.46998795622523176,0.5241746615281335,0.4408087276378367
609,0.4558723045243973,0.49069346030876754,0.5264212716413619,0.4400540686463704
610,0.4628960433012714,0.5120436216004141,0.52677258395935,0.4424665723238112
611,0.45120611703191854,0.5217382147679294,0.5269517662300142,0.4468227409203884
612,0.4393384469430953,0.5151338676646576,0.5265228082614049,0.4486024168643793
613,0.4399359560320872,0.5055015316940006,0.5244960588627641,0.4462832484328954
614,0.45611055344380674,0.49889664103300857,0.5216177372798338,0.44534360309841614
615,0.47083247963498975,0.4997642684018006,0.520571971547602,0.4476570906427326
616,0.4677393410913309,0.5066224144438763,0.5203777546284056,0.4486375860756863
617,0.4479214188698684,0.509805532145641,0.5171291443621969,0.4468087230191966
618,0.43189727400710154,0.5067626692090914,0.512472040015182,0.4423217924619283
619,0.4380226699771146,0.5010186164277202,0.5041141624341863,0.43631147511834373
620,0.4522087049403741,0.4923367355233784,0.5030383275162051,0.43237014382663586
621,0.4592566175824513,0.4910048100436656,0.5128972267537715,0.43354266512125483
622,0.4586378199931231,0.4998917200747007,0.5290186432134567,0.43402840036922286
623,0.4573652540564685,0.5067964415539189,0.5389427931320138,0.43367662503153986
624,0.47101013195366565,0.51044953985906,0.5359467351368971,0.43461806882373927
625,0.4791941412293317,0.5067966721784262,0.5234136573995279,0.4349121652309758
626,0.4678478279352742,0.49970196362357944,0.5114639367056032,0.4314996927278718
627,0.4515729969501319,0.48990092451241835,0.5121378436051447,0.4277524653452409
628,0.4399077850148404,0.4846617446603884,0.5192794672567518,0.42722045687511967
629,0.4567714652480177,0.47966257775428506,0.5269326273201628,0.43117981874757483
630,0.47571033425507303,0.47255833211352277,0.5299922395674402,0.43904183138895375
631,0.4691532130705241,0.4676192754242445,0.528610149397121,0.4435820715892702
632,0.44287499671975356,0.4664803415912813,0.5267971557240011,0.44014019295662593
633,0.4239885721008467,0.46489551701528514,0.5270516343178226,0.43101749180392074
634,0.4323366082434065,0.46643068260248305,0.5274377691569914,0.4248291525687316
635,0.4535553088982295,0.47507927419829127,0.5278770065665099,0.42340517817727785
636,0.47391227856104806,0.48630819077620785,0.5265687348711803,0.42635464744589713
637,0.468485085242452,0.49667959165512676,0.5232155862868524,0.43041715838735317
638,0.45791336691144974,0.5023597228495518,0.5189790746456443,0.4317222954177866
639,0.45839936818827476,0.5028289884967405,0.5154750147803551,0.4317666683724673
640,0.46056738693090676,0.5003580629700806,0.5152296513173126,0.4301478996880845
641,0.4558613617702649,0.5018398346312085,0.5155619534644889,0.43029925161686167
642,0.4531100247225716,0.5011834248765277,0.5132546395142156,0.43307403697777674
643,0.45598052066428896,0.496339297695658,0.5082714609804113,0.4376145948410924
644,0.4626323559755474,0.48977861125371985,0.5045436384563816,0.44185066731697376
645,0.4782273904552358,0.4859044645552058,0.500780858197107,0.4455389088401915
646,0.486708507341034,0.48429133532394447,0.4973650094880183,0.4455989151527384
647,0.47012681955697627,0.48439093494036767,0.4945324374210916,0.44241072623407834
648,0.4491769355735963,0.48434559905766383,0.4925275669177231,0.4397518889863331
649,0.44649592987479025,0.48018918355659235,0.4844791802164048,0.4373928268032172
650,0.45788557460562546,0.4778919041145225,0.4835124612779178,0.4391417416812667
651,0.4707388662157654,0.47953798588369334,0.49583764228134447,0.43466408374035975
652,0.46826285002468376,0.48424705272152235,0.5157441044025672,0.4248077173975735
653,0.44765101487999437,0.4866637562891,0.5377587680414869,0.41707006992970885
654,0.4312714740018305,0.4862547439008554,0.5515885655941049,0.4193421666310283
655,0.4376534484616375,0.4829954137157495,0.5574971798505602,0.43059923037701103
656,0.45024709756454023,0.48493742982583987,0.5547865397960808,0.45184035302883035
657,0.4566249938861385,0.5034457780003301,0.5479212783005443,0.46100764916473785
658,0.45300396722949376,0.5209869181344141,0.5305116448700982,0.44291353229713853
659,0.4470286466418029,0.5246332108151127,0.5086062955008445,0.4225453015481807
660,0.44684837963104546,0.5128131428629663,0.4916816473933913,0.4144171804138762
661,0.4472285681443007,0.4923451448355181,0.4842183128778153,0.4188051373499967
662,0.4481611261298541,0.4807651097819279,0.48580427271653437,0.436556538442889
663,0.4477029796821064,0.49051703982957234,0.49082905871505234,0.44955498355725576
664,0.44754759283105056,0.5055795072150369,0.4978209399728316,0.4426244091834767
665,0.44757187202652804,0.508433678599741,0.50851558058488,0.4251105749045062
666,0.4481520385034186,0.5046604092221149,0.5179678033690668,0.4168273143064918
667,0.4485326242434743,0.4973131500884544,0.517790908331697,0.41688501076257967
668,0.4476455093827281,0.4911528703901567,0.5210309356202318,0.4231193104042814
669,0.44789345690574056,0.4916665652834208,0.5251050458825802,0.43619539127422086
670,0.4514343282603323,0.4934452060487208,0.532052289606293,0.4396650640724259
671,0.45528098882895557,0.490732642415222,0.5321241678651304,0.43615537766644646
672,0.45691169191287906,0.4893318511327939,0.5231328185501738,0.42364622424871856
673,0.4533513116424573,0.4897318474191268,0.5061824410093905,0.4159610723809116
674,0.45146102149380174,0.49168670778925955,0.49474429039055623,0.41468466211926625
675,0.45922104506984945,0.494068621841224,0.49912011471352,0.4239477418431042
676,0.4706478628725037,0.495020330645079,0.507054205367554,0.4441014222372057
677,0.4735991914660206,0.49483321286104354,0.519250911418925,0.45303762440441425
678,0.4705677437906536,0.4943678967877477,0.5243515903862176,0.44586553473012974
679,0.4664197369368166,0.49441781208892205,0.5236999569356116,0.42912071683002756
680,0.4684685718059069,0.4939296751224127,0.5199552887446155,0.4166453529536027
681,0.4768998619209138,0.49290617663370995,0.5195536981208371,0.41247896707977155
682,0.48199742943123575,0.491514753212069,0.5202664852286235,0.41790510638718154
683,0.4774429800628789,0.49205771071412424,0.5217410459861317,0.42481648707709696
684,0.47079075938396653,0.4919251749774312,0.524477001344784,0.42349462927914067
685,0.46909771037129216,0.49050013782814117,0.524705638016079,0.4219581145623194
686,0.4700639818535654,0.48593657770957877,0.5197210662461763,0.4224863081869105
687,0.4712657930229762,0.4818255504035322,0.5122365237376274,0.4233663687555436
688,0.46705411068362956,0.4818837651105562,0.5086625051544603,0.4208121934196414
689,0.46283272722554136,0.4870806488446104,0.5106750652734391,0.42086515162745625
690,0.4622752655338929,0.4920673811391734,0.5176122588902488,0.4247107960415215
691,0.46344727057256013,0.49206803565851054,0.5239009608959334,0.43397002922572586
692,0.46556994281328823,0.48729514950603225,0.5234312094484128,0.44535432768801325
693,0.46313227661251377,0.48154515785568847,0.5205813805680664,0.45128927649801437
694,0.45973665545028164,0.4813985427131205,0.5189730471614264,0.44883135260670043
695,0.4590674689854002,0.48562591309226233,0.519904256731167,0.4400977782953368
696,0.4703981589573726,0.49335731776694797,0.5226036054040605,0.43661912370306477
697,0.47912181681929633,0.4959065948099016,0.5233084878907334,0.43355785365294525
698,0.4699514386912129,0.49491325353689075,0.5185865557765279,0.43182463237243346
699,0.45556094297790634,0.4879950765749388,0.5124091350756205,0.4277644477923139
700,0.45249551508208513,0.47949583060862316,0.5094892736163745,0.4236159830255963
701,0.4584284091849464,0.47185872626328995,0.5148518989410295,0.42067812176520997
702,0.46333778615168086,0.46899734443434393,0.520864255867525,0.4191389085743792
703,0.46149248815518124,0.4633236454699618,0.521773903124136,0.41743951338061264
704,0.44563713884293865,0.4630388147211927,0.5155408964795527,0.4132031442744327
705,0.4327712879930275,0.4735344951785111,0.5041477837317608,0.41227962550307135
706,0.4342367421930709,0.48787449202814775,0.4991196571477231,0.41815146481120397
707,0.4391740012621418,0.5008871239937728,0.5071826583292393,0.4272320627856435
708,0.43758015245034726,0.5153648991031258,0.5177631722500142,0.4339144809578266
709,0.43633604070806586,0.5153167622185072,0.5219252231333374,0.4363126903489679
710,0.43528691169683076,0.5004378464039994,0.5179637455554038,0.43498142573865095
711,0.4354474451361835,0.48582065161775534,0.5100653397654377,0.43365349386781854
712,0.4362052728097097,0.4701193014330752,0.49729711487550504,0.4344812095128064
713,0.435214682605012,0.46004976123423363,0.496811058464625,0.4373752408238687
714,0.4353075575910808,0.4559786281588905,0.5134008379026287,0.438134984583833
715,0.4368668469623349,0.4620416853333126,0.5283933780761663,0.4368221427988609
716,0.4398206293098204,0.47415181413194485,0.5359356986138949,0.43494894171542503
717,0.4425900267880107,0.4985777074022276,0.5250968631573246,0.4345609295274142
718,0.4435971619463622,0.5244403438732533,0.5105127861247969,0.4350845554646311
719,0.44294313588307993,0.5397738757430159,0.5017625441522136,0.43648112191407984
720,0.44161691239154344,0.5503699564885342,0.5132111941783534,0.4379093389916823
721,0.44331214432345956,0.5459070957646847,0.5253960901986999,0.4380703780113997
722,0.4434429818107749,0.5326924462405523,0.5240645786206994,0.4373071210309126
723,0.44434100668726956,0.5142702238624949,0.5123771989931069,0.43732730565802796
724,0.4310303783374268,0.49601994265562,0.5003756018893669,0.43813320689911456
725,0.42434811753057355,0.4807325601975826,0.5013356877076995,0.4394333925314468
726,0.4495173761852548,0.48042952945363676,0.5079990351128322,0.44363990341201487
727,0.47944922779218946,0.4931916557121251,0.5150272995370788,0.4475141573224631
728,0.4781507913350077,0.5013409121208039,0.5162523680972944,0.44255172498614714
729,0.46405603704562226,0.5113776243678722,0.5136367893370238,0.43087010507665396
730,0.45157680727974925,0.5173423561134377,0.5104225860682658,0.42149803127688223
731,0.45739621439629247,0.5210106431142716,0.5123824567301161,0.4213050181090405
732,0.4927594655309679,0.5157637596680501,0.5160697261917102,0.42722253827657475
733,0.5167091293922986,0.508257932519032,0.5179573506145326,0.43447093674520165
734,0.4976209010257896,0.49563459101681134,0.518014785032478,0.43252471926262315
735,0.46959427526539765,0.4846544166982287,0.516163306706206,0.42636328085132585
736,0.46641350480822474,0.47621144498508905,0.5137056138470063,0.42457624227521235
737,0.4684479056362865,0.4768856417207143,0.5125586672372316,0.43194257744026177
738,0.4755247495344068,0.483909920548514,0.5120493262449033,0.4382945430388428
739,0.47023264047310176,0.4891350533749893,0.512828048856524,0.4330217596212021
740,0.4634003215070279,0.49493898455764057,0.514707274553043,0.4222246308454572
741,0.46328017888009543,0.5004944348194046,0.5112506202757409,0.4163133384271706
742,0.4772835303489753,0.5005395715544054,0.5046138891469605,0.43169033780998073
743,0.49098759895282673,0.49536026075098166,0.5020319852642094,0.4483683847358513
744,0.4920900209134794,0.4910608874016915,0.5058676626441918,0.454573439052414
745,0.4857222373053681,0.48718898275529515,0.514464746604122,0.44178412044218485
746,0.478433139621918,0.48072726584319025,0.528071276308374,0.41853670476843274
747,0.47945337976657776,0.48090064318905923,0.5323317365693829,0.4072406380566357
748,0.48064990209519054,0.4888071713167388,0.5176031659316913,0.4142721660292542
749,0.4800705882005917,0.4984583208254337,0.5036515835549836,0.43022092778239857
750,0.47448222821380565,0.5083478032794414,0.4986318380517202,0.4377561718249254
751,0.47125571421038415,0.5155393325711823,0.5043207725586554,0.4429943143875868
752,0.4720595311958551,0.5157842098006452,0.5169267099549234,0.44284677488251184
753,0.4740844850490044,0.510633324087761,0.5297356169600056,0.44035805680128953
754,0.4725163586914221,0.5089064159491802,0.5323788711680858,0.4413603962363189
755,0.4709753065886561,0.5063537246903704,0.5319544516843645,0.4417084885904091
756,0.46934068958913605,0.5036801883381729,0.5344302389644522,0.44115194927049406
757,0.47948362186801474,0.503677330631567,0.538892292367027,0.4428239725837409
758,0.4848943101010168,0.506327052762049,0.5387806933968275,0.44113856041800154
759,0.4678284625171167,0.5087844871339967,0.5327616619243081,0.43561790284616714
760,0.4477328406998846,0.5110851568355493,0.5247363027370531,0.4254163425549685
761,0.44129606943551936,0.514205172977216,0.5164677267674098,0.4179984237352013
762,0.449217253588555,0.5141552858694918,0.5111783456420556,0.41715413395744233
763,0.464063717224701,0.5106195438301222,0.5109201809029251,0.4222687150592992
764,0.47557819033177007,0.5066559705377585,0.514058189202192,0.429747278523071
765,0.46659647168431656,0.5023840272378155,0.5137212738674863,0.43213970726853385
766,0.4553771262413414,0.49977339522118375,0.5143103618876816,0.43231314163122825
767,0.4573575656446286,0.49963099711118564,0.5146703601222454,0.43057879800428445
768,0.45906620764837053,0.501036363930958,0.5149416482889564,0.43073679101278756
769,0.456767998701522,0.5005919312571968,0.5157751824835723,0.43079980924285927
770,0.4559687857079715,0.4996356516190321,0.5137697027001493,0.43195514346084085
771,0.45744118560536845,0.4990645379493455,0.5096389571188694,0.4338456903629925
772,0.4628608971358997,0.4994722614614256,0.5015468817200979,0.43431054037533456
773,0.46834869607822216,0.4997640113989083,0.49680044742546536,0.4397429652627447
774,0.464572537054196,0.5047495244498708,0.4989899996330135,0.43937827442587357
775,0.45920035302314716,0.5055155847753955,0.508234313399409,0.430906759231204
776,0.46496137229085943,0.4964725833876235,0.5140891238357767,0.41828554798982404
777,0.4760466966257133,0.4854370612638711,0.5115001961492465,0.40797125002497026
778,0.4777138862227424,0.47270785432021134,0.5031701280079021,0.39257899500072235
779,0.4624595083672453,0.4731451694860016,0.49529885037336624,0.39290637814680907
780,0.43787197070046807,0.5003898677129518,0.4963118046731848,0.41102682605511276
781,0.4211074258551981,0.5276267848932877,0.5034581731749649,0.43225389555618987
782,0.426956402414325,0.5328803043880934,0.5145010228431566,0.4541681675825018
783,0.44236402958152665,0.519830001910883,0.5218432073433094,0.47022700791510064
784,0.45069213052659163,0.4985828108269513,0.5196028807083481,0.4707605518187578
785,0.4418296874956125,0.48088519876261143,0.5141545050578833,0.4591479106833021
786,0.43665935102054015,0.48137564298463326,0.5105666583200226,0.4542161737314646
787,0.4585848902707408,0.4874270753348005,0.511253026368901,0.44966906930483397
788,0.48328443058527015,0.48411913516398636,0.5177236118273908,0.4465964329364571
789,0.49632743784026734,0.48352752030586094,0.5259669481004734,0.44165921330344077
790,0.4791885935419164,0.48349525040450864,0.5217857382019195,0.43292168831352584
791,0.4531113206013422,0.48528190097094936,0.5112759243483286,0.4241001938309778
792,0.44996320360050823,0.4817195182059505,0.5043793694742539,0.4232611630903966
793,0.47073342089322584,0.4791221971515054,0.49908957659352515,0.4311425224398808
794,0.4879655694969738,0.4874195712325727,0.5074934101917354,0.442507752669915
795,0.47298335853535345,0.5073661818057277,0.5200677305253705,0.4448304622160394
796,0.4529648308485925,0.5284818567583358,0.5261351971580229,0.4391288036757245
797,0.44073167495545074,0.5400594776802768,0.5222969986918575,0.429291116411454
798,0.4622565925364205,0.5346270978684567,0.5166440774494888,0.42439483025194635
799,0.4853872596072079,0.5166767928237413,0.5090015603422322,0.4243217247051294
800,0.4787204516318331,0.5037877270825412,0.5070989768319307,0.4280879974270203
801,0.4636306041652521,0.49920216576650017,0.5120148043377074,0.43279149196815564
802,0.45735713368916114,0.4988314965211131,0.5125700739708927,0.4362304670023876
803,0.46372733663761107,0.49935279410087335,0.5137921392513748,0.4384255475038958
804,0.46921132947589417,0.4995368495399039,0.5146085871561236,0.4390823021171355
805,0.46722293367063034,0.49979926364147165,0.514068533011668,0.44075282187327386
806,0.45169455051685503,0.5035268272328138,0.5134756990096877,0.4406684971331521
807,0.44114800427345274,0.4972285557559034,0.5142612734973613,0.44194180898623814
808,0.4483050186694084,0.48745332974177896,0.5169035244697964,0.44216862804677615
809,0.4592514384527434,0.4795753504039678,0.5208755375951486,0.4396832038195834
810,0.4605983256906372,0.47661874248992253,0.5265987007672053,0.43283381703807955
811,0.4602056582285796,0.48275838328946097,0.5297000017990859,0.42788044847869916
812,0.4570242729440413,0.4890889522418126,0.5241324995109757,0.42758151613459183
813,0.4609125966557003,0.4875425903993943,0.5117046996484281,0.43441782544842156
814,0.46224010420513684,0.4734365025280815,0.4999398390483402,0.4416288868011273
815,0.45907088289065906,0.4668968765431624,0.5049560599357104,0.4391350414303119
816,0.4448469728836629,0.466558088385109,0.5177826501088642,0.43400129681468447
817,0.433476132057254,0.4758189271007663,0.5275289417647097,0.4295965127011119
818,0.4396103972012131,0.48569671129869924,0.521601445303954,0.4381842712836302
819,0.4529704139035611,0.48462039913770083,0.50831679307085,0.4460543705335267
820,0.456966248939198,0.4787324939256647,0.5001042513791751,0.4416668840487277
821,0.4513535394188131,0.4774312090547167,0.5044008672118433,0.4296376087327431
822,0.4461625673971169,0.4880621495874175,0.5154452829823621,0.42069066458847026
823,0.44889318993668814,0.5024448267788064,0.5182127819777831,0.4237381540803895
824,0.4623797278886427,0.5174541374648681,0.5165674551842258,0.4338274870711078
825,0.4720524637715532,0.5204952619222335,0.5131192234186437,0.4427867432227142
826,0.46082051694484993,0.5143444224999162,0.5134538274103962,0.4376776772705209
827,0.4495390042787368,0.5070500489294438,0.5177057874608256,0.4301183581108219
828,0.45905011242444105,0.4990989696725694,0.5160095833286128,0.4296802615207828
829,0.472070059133094,0.4947493622719065,0.5116744962039739,0.43023439708853844
830,0.47556809902593383,0.4975701241130751,0.506531054311195,0.4324024368383367
831,0.4703522190825427,0.5101108686077971,0.5056694595433411,0.4297863349219043
832,0.4644847949349437,0.5186165633962685,0.5115804829695235,0.42809471789280124
833,0.46237176383281303,0.5186508593354573,0.5184055994025714,0.42965090425992813
834,0.4751927728370412,0.5065074120097514,0.5249202509994855,0.43925744433583797
835,0.48598383557255426,0.49091895212141323,0.5270899991548043,0.44724868116658933
836,0.4803503855269238,0.4813328583024229,0.5328346906729656,0.4439714720376889
837,0.4716974581328179,0.48103859824361095,0.5364663578475843,0.43506575412614196
838,0.4725140811201223,0.5009230013892412,0.5400577222106226,0.4274415844883025
839,0.47423617837731713,0.5185036376109331,0.5400213959010975,0.4407750573016246
840,0.4773076243494328,0.5262574742859931,0.5375442675387798,0.45279128942576097
841,0.4730237589507097,0.5205141734880806,0.53990925094398,0.4484718101179618
842,0.46821638086083645,0.5043010765154271,0.5405709407274378,0.42938864281693395
843,0.4679520640690015,0.4842910016688405,0.5334547179306715,0.41075301733822533
844,0.4895125830969619,0.481646897154606,0.5154292785230404,0.4073704378264578
845,0.5052891788969217,0.496687677335831,0.4951802111887029,0.4158680167384532
846,0.48616424288334625,0.513842724869339,0.4867038275877084,0.4267448926253751
847,0.457985146426039,0.5251430500146288,0.4960467012204647,0.4204484506263691
848,0.44836404420133735,0.521705193465869,0.5189060302028038,0.41405989217595107
849,0.46283653665530317,0.508110731518284,0.5367114130188377,0.41596914895827697
850,0.4786982312597622,0.49117071107390886,0.5359438605099924,0.419490829437212
851,0.478627422363977,0.4868178738049912,0.5201284795983774,0.4222159411726111
852,0.45042892358508047,0.4938640415334721,0.5022978173778699,0.4172655227060403
853,0.41834650312173943,0.5076998426934417,0.49060631420859196,0.4129522430952008
854,0.4277671483119736,0.5138334829654798,0.4867820644013931,0.4178470590385307
855,0.45364011314575814,0.5127782078411638,0.48996227188030195,0.4261992368330913
856,0.4705788441399702,0.50419413685732,0.48875592253293243,0.4306462883192312
857,0.47419583439246343,0.4937765835999898,0.48824066890085327,0.4253915849032917
858,0.46730918146505485,0.49104147403783016,0.4930759216571684,0.4160403603032481
859,0.4576839365774344,0.4917672071418476,0.5010296695137157,0.409826245458174
860,0.4500983570524753,0.4934314441153974,0.5088173530763184,0.4134998273235146
861,0.45587664402879324,0.493003189785393,0.5134229447731329,0.420953895146038
862,0.45545735375105967,0.4924818178120765,0.5145302168790855,0.4179290572984788
863,0.4548346653203543,0.4916295102353612,0.5125272811885315,0.4184222914088019
864,0.4565189197573801,0.49370756637123986,0.5123363797432336,0.4231925007273532
865,0.45651555819490647,0.49706978002593066,0.509936647301175,0.4392743082606986
866,0.4506054240514082,0.5000345861058023,0.5071198446201379,0.45122710389220183
867,0.44422615241551555,0.501054174610061,0.5038207606072124,0.44899808275268566
868,0.4439804877045443,0.5012389664395142,0.5019003209182475,0.43706236912316243
869,0.44725301171404225,0.4992361966041165,0.5020806372251969,0.42588486758575683
870,0.4498085567980838,0.49704819145782364,0.502831824127749,0.42557960261531785
871,0.4491673716850279,0.49518587313390144,0.5042925593797476,0.4292672115254819
872,0.4347558157368262,0.4918611060270023,0.5056037957029635,0.4320450106972196
873,0.4255798151823809,0.49158781178896405,0.5073705013391275,0.427358407780433
874,0.44811353994423236,0.49252309083519824,0.5075022269945156,0.4251410097539092
875,0.4727203303922919,0.48646274511740645,0.50299819035307,0.43006750231194807
876,0.46410605484533146,0.48173413612672167,0.49845789541593144,0.43537719899913585
877,0.44439834382380217,0.4847995658733272,0.5022982855464742,0.43435761655697946
878,0.4321908199018567,0.49394675982630987,0.5137279211118765,0.43193482153886564
879,0.44043510145884357,0.5105995612995223,0.5263961303468503,0.4327993790120133
880,0.4805683258256366,0.5217966909748768,0.5340824261923867,0.43624376892040084
881,0.5123931634874662,0.5140077691969682,0.5320371156469831,0.43802521390433974
882,0.4934467968393866,0.487391815101214,0.5255433014058393,0.4367147267306381
883,0.4634997476317507,0.47420478640446284,0.5235291553768228,0.43212147637047754
884,0.4660688279824877,0.4768727482206944,0.524998256642535,0.4278769560076561
885,0.4755020569087811,0.5015813558000033,0.5253189406371901,0.4305135171463918
886,0.4842171830824994,0.5271205900216837,0.5246796367361855,0.43320056001751545
887,0.4795179010429506,0.5320241498738804,0.5260809068864172,0.429120653999437
888,0.46018385712023496,0.5180355679864221,0.525850740308802,0.4249386894117367
889,0.4458119010199672,0.5004675465920841,0.5231988808153488,0.42304402286790704
890,0.45345467416688445,0.4958908232534864,0.518615991203564,0.4248147477640667
891,0.4650691916273564,0.49650019403697065,0.5143297645518797,0.428873383645828
892,0.46509970829301694,0.5014795215598978,0.5121463893859672,0.43275427723534216
893,0.46319723386730133,0.5007704608759024,0.5127082814983217,0.4322078543310237
894,0.4592759436808798,0.5008040155285016,0.5147518157678456,0.4306360985847588
895,0.45861292634129897,0.5004684690025086,0.5146825573411945,0.4311103432428781
896,0.4591057359942522,0.5001114409611928,0.5143325127517832,0.429879329004812
897,0.4585876370592465,0.506788077030405,0.5169376197258831,0.43007096653608007
898,0.45853183860323377,0.4964674076849591,0.5148091512769954,0.43358432127599444
899,0.4578506095729644,0.4839525485894726,0.508714348761173,0.43933344721403617
900,0.463284010438635,0.48029680938687014,0.49183368856234155,0.4454052740222719
901,0.46691202010034055,0.49158287272534,0.4824286614621941,0.44795052615160397
902,0.4517594431820182,0.5123950691228795,0.48785448265835063,0.4483814771291044
903,0.43909432255884495,0.5273477486289431,0.504530891677904,0.44657911434123776
904,0.44198107986223056,0.5210312986536128,0.5277535336520592,0.45353687868796333
905,0.46588787413917676,0.4957719136568728,0.5369713331672049,0.4578392072124308
906,0.48633350920164253,0.4895356017494199,0.5307780590593846,0.4546049396432586
907,0.4768943993963172,0.4982700769730764,0.5141874767101875,0.44134047023513995
908,0.4471126042138397,0.5167487614568602,0.5044199255546973,0.4271875261857674
909,0.42370588879273946,0.5253282662537376,0.497714924107349,0.4210407884338794
910,0.4387929825601722,0.5186119735334546,0.49845320334369836,0.42342282806194564
911,0.46152456200344044,0.4987882373177903,0.5039553685062014,0.4345175259615858
912,0.47282068528288107,0.48700618351427205,0.5045372429881579,0.4374902109657142
913,0.45496222052405433,0.4888762441300042,0.5056445440255483,0.4341038291782932
914,0.4338166549423468,0.4981952997680936,0.5057839389316807,0.42600713166652276
915,0.43539924216227943,0.5052304367997321,0.5054119821817321,0.42134577488615865
916,0.4435701859381753,0.504814824074275,0.504229961731583,0.41991804670720034
917,0.4485376050319404,0.502885631199666,0.5043361324580051,0.42251619425936254
918,0.444185185343045,0.5017182839375828,0.5087933338020517,0.42678084364350566
919,0.44010251535821204,0.5088641879038782,0.5143059446028226,0.42759667157881076
920,0.44426068533979013,0.512831978371503,0.5163098605310859,0.4278495082491222
921,0.4525125540269047,0.5141905655107775,0.5140792133177994,0.4263519571160199
922,0.45641565707886694,0.5064011072355258,0.5054699213707353,0.42624415361934426
923,0.4351871614546608,0.49749890182302403,0.49935474133104824,0.4278510907864704
924,0.4191706193106149,0.5097271243263449,0.5026081201133651,0.4318252561127758
925,0.4400692228413603,0.5265371719131924,0.5116302579850304,0.4362952469273069
926,0.46940330553465703,0.5346814862265212,0.5164122086624727,0.438619833687934
927,0.47763767660786105,0.520658781120804,0.5154580473887855,0.4374606227740377
928,0.46529219943977407,0.4951575897137621,0.5101152868656412,0.43339566333393864
929,0.4500804364511056,0.4660434755569141,0.5036980667633905,0.432092289603285
930,0.445425638345395,0.4666854417864962,0.502940378165631,0.4336896946226033
931,0.470832469838797,0.4957282462743065,0.5041614552105388,0.438706902735354
932,0.49374591953362873,0.5170123660707737,0.5052294281986831,0.44221371974127655
933,0.48830790142653213,0.5252002448944757,0.504951657470991,0.44034271962766497
934,0.4769972549840179,0.5154084005595003,0.5037305722806126,0.43639509067215776
935,0.4764842161103229,0.49127786987774885,0.5034055623071615,0.43423416436209483
936,0.4790792593758254,0.4734880783088588,0.5062252034839793,0.43925300321287
937,0.48099070135440103,0.4880951618274942,0.5123295702350448,0.44150798409085235
938,0.4759921009950112,0.5087323419023199,0.5196260221349118,0.43200704604682255
939,0.4683204531053628,0.5168781274338293,0.5250095806517062,0.41755574460499073
940,0.4651526290209494,0.5104349511375,0.5281070462478339,0.4103519575844531
941,0.4694708659149299,0.4901068019436004,0.5273552541441429,0.41623529817172583
942,0.47251323060658806,0.47459677566372727,0.5249467891274505,0.43064383425122105
943,0.46518495368851503,0.48508013679013007,0.5205639819333809,0.44514337894581213
944,0.45213245346733355,0.5020662074175789,0.5197391003201802,0.44411465698251557
945,0.4471037574729421,0.5047128370104426,0.5261435659458977,0.43397475922632184
946,0.45004852233215253,0.5007988268180045,0.5312415424472178,0.42501101147595577
947,0.4548715528366448,0.4954990435244855,0.5251490661972721,0.41724843509149134
948,0.4520486559747593,0.49810481346835284,0.5135283857668965,0.41347886679825846
949,0.44446545284826317,0.5133746698006667,0.5055606457037101,0.41415435852899773
950,0.4393383329360137,0.5302105931158679,0.5065953559865588,0.41593375631390234
951,0.45081328023676315,0.532916300847935,0.5200839999225813,0.4156160617312402
952,0.4600823571855578,0.5246887321873034,0.5283963228557125,0.4146869222988637
953,0.4501664580945612,0.5165389475148302,0.5230183019119686,0.41450769023659595
954,0.4278276143844305,0.5073060218685448,0.5074838201232126,0.4163548179198884
955,0.41634584567589916,0.5011523377049735,0.4991250877227523,0.4179814406624067
956,0.4484706661037761,0.4974985539400728,0.49865828921875915,0.4279396172863611
957,0.485310069435331,0.4961416664372003,0.5077905333841569,0.4386978960383849
958,0.5013002034809786,0.48698272427523925,0.5200281518344455,0.4434147854643124
959,0.4678241857955156,0.4873862218628697,0.5247170999807423,0.4400913492643975
960,0.41838685634022665,0.4992612128871259,0.5254320141935439,0.43274356593786695
961,0.40213806974117355,0.5155802913405393,0.5203799076917559,0.42466563008461505
962,0.4310233455947941,0.5309322295741637,0.5208054177528088,0.421311522014162
963,0.4727448030198493,0.5457086412577865,0.5228676823423335,0.4247296528300318
964,0.48610896205893567,0.5458219967794803,0.5292067590071803,0.4239613114730847
965,0.4836943133970373,0.5319902144433057,0.5352794018749009,0.4249939661808728
966,0.46945850358720814,0.5204167935994739,0.5381965950924803,0.42485080997177677
967,0.4656651206888377,0.5071407345576494,0.526832277705255,0.4234107632461698
968,0.4691190210956379,0.4985691660450161,0.5019761203358251,0.41866228891146917
969,0.46932360894790937,0.49771483241862247,0.48778474691804724,0.41319885203675527
970,0.46914350063196736,0.5031724237821544,0.49203781062587043,0.41501462883304147
971,0.46985951087703315,0.5040382639964425,0.5204319670496838,0.42501344289455234
972,0.4692312293804908,0.5067787613574898,0.545227460935115,0.4393570782684587
973,0.4657597707111497,0.5093084270988937,0.5467150542797043,0.44779060802649495
974,0.46223764855750143,0.5108354180451637,0.5208905649534227,0.45218745000759464
975,0.4600740611333734,0.5094676643930821,0.4934846727837708,0.45315030549612706
976,0.4623308483606084,0.5061667880966974,0.4903715176221616,0.4561450497425893
977,0.46483271829626094,0.5040004253099302,0.5072478864568587,0.46095884741295273
978,0.46507405041188177,0.5011695035441581,0.5296525062444185,0.46477953888075363
979,0.4581729006167793,0.4977488119421004,0.5360987542092804,0.46497530173284285
980,0.4525915832212751,0.49426103744617333,0.5316426717834726,0.4624916640327111
981,0.45728319003840995,0.49160836347041015,0.5219363303232055,0.4586083777951595
982,0.4651652068854334,0.48616547750056904,0.5169628322079862,0.44810966021151416
983,0.46773835675938125,0.4861341291098827,0.5182916281222578,0.43540306217268493
984,0.46238372128264027,0.4930505312506133,0.5192316480606275,0.42006093816581275
985,0.4599604528192345,0.5032908608614833,0.5197497692029777,0.41362556164770886
986,0.46253649738085995,0.5097729688273434,0.5176301544440727,0.4168758831167277
987,0.4830815752882516,0.5091486991939407,0.5178321920732286,0.42895270432936655
988,0.4981049751254254,0.49899377276474427,0.5215362152744201,0.43945563291786055
989,0.4853753422929816,0.48907374452898067,0.527597344149097,0.44338076022661604
990,0.4643744636790621,0.489895203613599,0.5330321954344606,0.44089145391589046
991,0.46137785156497896,0.49703559442872164,0.538615051403592,0.4349165753822075
992,0.4676901778822205,0.5024959057578781,0.5386292057559539,0.43400309983544966
993,0.47514050746309383,0.5055899255904156,0.5331643027231715,0.4332960985687131
994,0.4699115175372135,0.5093959274887264,0.5282012631832045,0.43360667896660166
995,0.4522022302555612,0.5133765964994866,0.5225693817575026,0.4327431088410862
996,0.4421151746804105,0.5197906285844155,0.5192710059038439,0.43036976533272325
997,0.464507935013909,0.5231835117991718,0.5186045031247283,0.43735183942179956
998,0.4854069855502486,0.524957381030418,0.5205567291788936,0.4373143249369336
999,0.4704491371582756,0.5229618451266743,0.5208520118631981,0.4216029666648165
1000,0.44692580223467127,0.5187004554867688,0.522179108973859,0.4076239232178078
1001,0.43991555958425616,0.5098810179419494,0.5241023879375538,0.40601332046592836
1002,0.4495897474206484,0.5004515041502161,0.524954039921379,0.4199639351250003
1003,0.46007292165649716,0.49401675351807767,0.5241369531407237,0.4361948934181368
1004,0.46303252598740197,0.4925102611215414,0.5222464504009197,0.44309391898078576
1005,0.4393933898449663,0.4938472218808755,0.5209498391288303,0.4226878916366884
1006,0.42051182975299134,0.4958630577879822,0.5203618061689217,0.4061620354551353
1007,0.4324523070773859,0.4938146130440282,0.5193864222805228,0.4078131366165386
1008,0.45001998497026263,0.4912382597457299,0.5199908694642302,0.41876117940168467
1009,0.44934409450891916,0.4907797875282811,0.5216060434875838,0.4293303033026743
1010,0.446176861079036,0.49677708568169265,0.5244180721571805,0.43411009196506406
1011,0.4420783659622589,0.5025369692038828,0.5257093883874191,0.4356975135080645
1012,0.44388161041708085,0.5047052291254542,0.5318884565285378,0.43996904636253054
1013,0.45352159471906145,0.49949994880417686,0.5315376517837554,0.44461425929594056
1014,0.4620862061353777,0.4902814867052278,0.5223725030706651,0.44092409069625316
1015,0.45170045851269824,0.4888089583389972,0.5092049208491627,0.43080407923434727
1016,0.44420874335336513,0.4952463062996584,0.49668554151780253,0.4178838477577071
1017,0.45977425121616255,0.504117204563714,0.48557578413428604,0.4130616341829957
1018,0.4780006202960526,0.5069541862133293,0.48541390722430056,0.4166973735410024
1019,0.488604493564885,0.506028419164107,0.49517469035793776,0.42572491055927114
1020,0.4843978558599634,0.5020777405021721,0.502298172689781,0.42964921818054486
1021,0.4696769368213888,0.5002325905335547,0.5109191287255503,0.43226381564954447
1022,0.4540130507698068,0.5000500510379774,0.5161874907474094,0.43193394749848946
1023,0.4555959946746137,0.5006733136428638,0.5164748559486017,0.4306900751769979
1024,0.4593011020556322,0.5002172361357291,0.5146283504261879,0.43114625321617706
1025,0.4567100439969992,0.5021369582985771,0.5164855003830422,0.43114785211574036
1026,0.45940842286483,0.5015181382015917,0.5148375516064727,0.43108001047163336
1027,0.4663536110236898,0.49604316996860637,0.5070401048518117,0.43122660122130185
1028,0.4705140292755117,0.48710308695865623,0.4959734480274897,0.4318239437039699
1029,0.45737511201216385,0.48199489895094866,0.4912667269320475,0.43181182082229197
1030,0.446111816647225,0.4838261825008708,0.4962210481794874,0.42822610024088714
1031,0.4456202573611955,0.49337197086012213,0.5084211341537106,0.4257653824811114
1032,0.4624400711134514,0.4960913966608805,0.5186632826689739,0.4262891182264317
1033,0.4862407626932396,0.49901221450177413,0.5217390019179394,0.4308789513176258
1034,0.4965825379543191,0.5083659347574768,0.5213357256085913,0.4359972021525967
1035,0.48926774961452973,0.5238333441063379,0.5225815791729169,0.43861283188670847
1036,0.47504738191117857,0.5395601478410909,0.5269705066201907,0.43512719138450046
1037,0.4727019450670016,0.5521937339379074,0.5301932889938641,0.43100581656170306
1038,0.47375403293708696,0.5583881574208005,0.5308404382170451,0.4331107968571001
1039,0.47643454716135614,0.5440401279924453,0.532747354502135,0.4391064424973185
1040,0.4721925872153152,0.5213649796679469,0.5346959951390615,0.44157225188671234
1041,0.46805066616419094,0.4897370347895954,0.5291135538670338,0.4346544633300096
1042,0.4666163611283089,0.465375888809373,0.5163534188474538,0.4225104196897068
1043,0.47110089171775,0.447581947540476,0.5007427920033739,0.41474301717397005
1044,0.47320273419765385,0.45205185925420865,0.4890848381184238,0.41779153360498245
1045,0.46399879402197647,0.46800582045978784,0.48272852463001636,0.42745975383032037
1046,0.449813566704927,0.4845611612702627,0.48495379538160616,0.4360030005111361
1047,0.4458086986103952,0.5014003757274273,0.48995972305060953,0.4377896996524296
1048,0.44949188449906485,0.5179108521237841,0.49598920237943395,0.4365291440866231
1049,0.4541256586304646,0.5182415175389826,0.5034706298631245,0.4358464183006468
1050,0.45319366129718636,0.5024313221661337,0.5087060336439349,0.4376883186562178
1051,0.4429473297143632,0.48836978772577844,0.5099410676047682,0.4354224548310785
1052,0.4339780039090374,0.47196993084525884,0.5080727690296041,0.43559809134210603
1053,0.434738150302967,0.4631764548952725,0.508145844100237,0.4395042892293251
1054,0.43812948474267793,0.4577169098602998,0.5085625975023998,0.44772930119480314
1055,0.4369989079947531,0.46337629588440576,0.5078809832832443,0.4583344243938482
1056,0.4357105566801605,0.4701286290058901,0.5079491447051598,0.45992302820138353
1057,0.4364314650535572,0.48357003948312766,0.509701385671393,0.4499546019824503
1058,0.4419574017073865,0.49713806108946795,0.5102853312410012,0.43354143950580115
1059,0.4480146539192718,0.5052546202196277,0.5129863328277197,0.4222030929679905
1060,0.4492885652435639,0.5057198113945134,0.5144295560101183,0.41647228453229473
1061,0.4479145529883406,0.5014510019742955,0.5213650327487845,0.41775422058867123
1062,0.44545432239205585,0.5033239643421639,0.527955423770098,0.4200404452584196
1063,0.4472370889882211,0.5042072454560786,0.5371190376171692,0.41966922328738354
1064,0.45143889958612105,0.5042695841768683,0.5368880784305247,0.41987263390030016
1065,0.45360383623101785,0.503188979507801,0.5265414338876501,0.4201885881423897
1066,0.4465721739588136,0.5014167272871028,0.5123817751219917,0.4121143176131438
1067,0.44051587947447995,0.49993928383588826,0.498691847726272,0.4094428655475246
1068,0.4458613632537375,0.4990950776080287,0.493677073256402,0.4151983075425158
1069,0.4541766814787439,0.4991360322210559,0.49190573777734486,0.4354658730933394
1070,0.45605624370574716,0.49956294509983856,0.494448447630146,0.45147949117951997
1071,0.4525847021998264,0.49964418754081474,0.4933520467154007,0.45089606959094364
1072,0.4497433667758961,0.4990625307098069,0.4943172778416598,0.4347639262207096
1073,0.45082264234332153,0.49879369585217215,0.4976935692387599,0.41529976871004326
1074,0.4600092368091337,0.5000673391109828,0.4919096220396721,0.41207917895383833
1075,0.4689478885860179,0.502818246415443,0.4918754502781801,0.416690141610034
1076,0.46361279580797427,0.5060579725698238,0.506279334983114,0.42525912160193063
1077,0.4597104394342671,0.5084005505589673,0.5319728750042574,0.42349497638404676
1078,0.47332105774703087,0.5097809161339566,0.5491682892026835,0.4215108245216003
1079,0.48728589555346885,0.5087602858611753,0.5480522407605332,0.4208902470956356
1080,0.4937333024063997,0.5079552514684891,0.5259044691672354,0.42344140320831714
1081,0.4847268444427587,0.5075651531276048,0.48968749413931467,0.4222533076036675
1082,0.4718801528290893,0.506238368063539,0.47927884374959623,0.42320668904430814
1083,0.4717626990184691,0.5107266483814294,0.49008952410625656,0.42706456855196406
1084,0.48680268232113433,0.5110133281057421,0.5125937939161039,0.4402167129894904
1085,0.4971915149463108,0.5049630829332975,0.5308890011294456,0.4487227836500422
1086,0.4887217332475759,0.4902884653402911,0.5398764186188667,0.446609438985331
1087,0.47404330860008326,0.4768131673338547,0.5341386366163466,0.429014903255805
1088,0.46258804619443167,0.474513359722068,0.5241228934200634,0.41216350391965345
1089,0.4668168378082214,0.4848286002437188,0.5222350396362879,0.4110635270640893
1090,0.4721457649434243,0.5033652537912074,0.5214073275436979,0.42148145965418043
1091,0.46404778469502184,0.5142756027225278,0.522465564775927,0.4370049607762641
1092,0.45343524416312214,0.5150395080571706,0.5225251556340299,0.4420669388329176
1093,0.45042237060762624,0.5021763796710609,0.5223680857992162,0.4426024889586804
1094,0.45315284134938827,0.4864912124324919,0.5224553680790737,0.4388905513334771
1095,0.45740074310506723,0.4807639690492299,0.5225981936279313,0.44150677817369066
1096,0.4542740801985675,0.4905936117141604,0.5227410191767888,0.4419428678888915
1097,0.44689391607178974,0.5106394743399623,0.5228422766366659,0.43947716438421247
1098,0.4433619626255354,0.5215633653035059,0.5228051119482355,0.43285669398207083
1099,0.45508565453302535,0.5120391363247004,0.5225259863652402,0.43507782477970147
1100,0.4656290414628488,0.4928716932703473,0.523232895596576,0.4397311736722079
1101,0.458248267437247,0.481719400206862,0.5233623230153671,0.44464782745016646
1102,0.4458902953611801,0.4893219497732671,0.5221698327583957,0.44361505298406456
1103,0.44226720682322096,0.5059948463645623,0.5221870591848892,0.4339114575729211
1104,0.44887678480459736,0.529020246217062,0.5155834229896543,0.42190269577949896
1105,0.45341730530853297,0.5221340399584812,0.508908662825456,0.4151317069891205
1106,0.4511511553397054,0.49771670500370657,0.5030381014065717,0.41658483412968017
1107,0.4246566557306054,0.4780085867518645,0.5057245982558207,0.41538724815744255
1108,0.4086114599439816,0.47077348233650035,0.5156969033664662,0.4168600586594385
1109,0.4401631673006258,0.4771556903506862,0.5257963140464118,0.41725648515939073
1110,0.47763505106838033,0.4905545377869305,0.5291122523099184,0.4167955344731887
1111,0.4788475749814802,0.4979891934451246,0.5229607685552395,0.4155174651357778
1112,0.45895384739650075,0.48683634055579444,0.5178127635114215,0.402756079209591
1113,0.4364542546876692,0.4890398056226381,0.5131862930554685,0.3980497562067614
1114,0.43251707649909993,0.4952095310037608,0.5147824313421212,0.41210805529558847
1115,0.46105826231125774,0.5014863638748608,0.5156653408018615,0.4372763394137643
1116,0.48908214036685477,0.5068821645333026,0.5153695568201949,0.45574295386992014
1117,0.48360074186393576,0.510124440301284,0.515701474834912,0.4568690119192463
1118,0.4727786301712903,0.5093955493830415,0.5163572346789135,0.4419231870145152
1119,0.47319333418486687,0.5071207099709921,0.5124715929260457,0.4228137705250479
1120,0.48007972794997056,0.5056749763409313,0.5083948085713146,0.421166779423565
1121,0.4854403358186943,0.5047194973729421,0.503387666470642,0.42391282478934594
1122,0.47605823186432644,0.5007061552924994,0.5041240333702728,0.42503277172820214
1123,0.46461526618808446,0.5009275568194129,0.514384392768014,0.4249337102564334
1124,0.465961027081704,0.5067859116241351,0.5296523542879134,0.4232764870068234
1125,0.47308639871193936,0.5151214414892421,0.5346379575935569,0.42296028570184135
1126,0.4792564669605157,0.5224637549827438,0.5208401469210961,0.4263887796944521
1127,0.47380148123776034,0.531301758902282,0.5017148184172096,0.43284149148390655
1128,0.4598163713027053,0.531225195517714,0.4878316659641027,0.4398841639647997
1129,0.4526126716129621,0.5217491633934416,0.4903848993046148,0.4446533266352878
1130,0.46763575991074524,0.5118547370810038,0.5024749376273271,0.4461473021320394
1131,0.48355573185914186,0.5014089193552574,0.512557219133789,0.44433434523188914
1132,0.48097523597280223,0.49367727343328816,0.5133258328260548,0.443583565899334
1133,0.4717564897176602,0.49335505527849893,0.5108435851882562,0.4424997469164745
1134,0.4653001182328443,0.49866438297102467,0.5113126545984372,0.4427527540650399
1135,0.46737949015862734,0.5014531333595557,0.5100944549613996,0.4423589548318674
1136,0.47039037608211864,0.5069113582225039,0.5095095198669574,0.43671194430319693
1137,0.46862738355994704,0.5118439868727047,0.5144851741950164,0.4289646827059149
1138,0.4614352730604638,0.5145601337102222,0.5187937194461469,0.4197214171058942
1139,0.4584189703469363,0.5148251909570816,0.5192755202515242,0.41713997797825386
1140,0.46798325788229617,0.5167649773622514,0.5161390251504651,0.4230868939608709
1141,0.47752847497697504,0.5146370447685382,0.507510393033158,0.43332269979947624
1142,0.47354298613806806,0.5092143277799228,0.5021687416672177,0.4404699419350967
1143,0.465923714011658,0.5018478829749461,0.5060535598767472,0.4429889567546008
1144,0.4642595448542396,0.495393433410609,0.5157836762062394,0.4433831966408754
1145,0.46886856266969784,0.4922618104749092,0.5214116388872224,0.4411923605545028
1146,0.4724785640573899,0.4919146599473275,0.5234341948676463,0.4429942422085464
1147,0.47241679415893134,0.4938460870793831,0.5204902780874205,0.44290443261200746
1148,0.4641723987651792,0.49492110718592186,0.5151743236440876,0.44053771611531345
1149,0.4565958372852256,0.49741927163989275,0.5139622828111833,0.4366649073025414
1150,0.4572908198014731,0.49976503100630104,0.5138569642589239,0.43279209848976946
1151,0.4598650138317283,0.5010652566456982,0.5149101497815175,0.43042538199307545
1152,0.4581565295885935,0.5006751112330485,0.5147725197836059,0.4309966347775613
1153,0.4578126606495714,0.5007782554859155,0.5167831597374951,0.4312211651554465
1154,0.4630259501589939,0.5003919743879499,0.5140102232474402,0.43182725098058455
1155,0.4683227827854374,0.49977175285892644,0.5058636948184263,0.4326001043277016
1156,0.46836677788410774,0.49903727040024315,0.49528414525882425,0.43323917111736326
1157,0.4520979457244757,0.495650763593942,0.48627007376738735,0.43346505392197526
1158,0.4378822599367482,0.49575382287494657,0.48208477002231026,0.4334105317380838
1159,0.43901520244018777,0.5054785822100357,0.483095102935838,0.4335827763427349
1160,0.4583532770426777,0.5173639278191359,0.4861563321344558,0.4333392351750089
1161,0.47644979499986373,0.5210004617467295,0.48069772744383016,0.43241318455594435
1162,0.4704849027610294,0.5130489962161814,0.4811558715948207,0.43106159460561977
1163,0.45230718313672336,0.4891809468566005,0.4897156232523564,0.4297529654155637
1164,0.4371798098996343,0.472558768712091,0.5036109522269755,0.4293639479915744
1165,0.4438721826765633,0.48154287923277056,0.5171213239496478,0.4298730461982129
1166,0.457429899150683,0.5048431443682201,0.5268359473630234,0.43280575922768977
1167,0.46845510909856314,0.518597370180373,0.5271786043384299,0.43168070636182754
1168,0.46237611207949325,0.510940546819556,0.520319455720109,0.42900415096506184
1169,0.4565392903225738,0.4917839259211515,0.518230983177655,0.4265315356387345
1170,0.4685848689834017,0.4770136452028087,0.5148414780564192,0.42640952693325473
1171,0.4823666393965445,0.4833268992450179,0.5118872925504759,0.42927178807318755
1172,0.48937136659874325,0.4972827274705649,0.5121252718436329,0.4325894714128059
1173,0.47552025256689845,0.5067345857448656,0.5138110910280758,0.4349095553038408
1174,0.4575757034292078,0.5072297544151636,0.5157097975757295,0.4347526558215035
1175,0.45525309161992117,0.5043730344332652,0.5192420242688722,0.43736811876452164
1176,0.4718468701552667,0.5048458536505818,0.5240991317182889,0.4399768291018749
1177,0.4858588199829888,0.5054749114656385,0.5265186012478118,0.44287124526461147
1178,0.47958266590233856,0.5062189856646395,0.5260629876916627,0.44275928288101735
1179,0.4622276722429113,0.5063361942780825,0.5246914138462927,0.4378958136286229
1180,0.4466614933301901,0.5048700101470853,0.5199627194598344,0.4383522235976805
1181,0.44992776131135714,0.5032203378814155,0.5149808645844312,0.44146805503846615
1182,0.4586627746135007,0.5033623973111908,0.5100689745790188,0.4432079801819765
1183,0.46176952487422523,0.5041701691824226,0.507162072424791,0.4400731523602555
1184,0.46139251321093144,0.5046469105777608,0.5043041888113401,0.4329117630426396
1185,0.4595164703267452,0.5039755800116388,0.5040807294877706,0.423760154446616
1186,0.45943898955623463,0.5019034102529131,0.5067237438355027,0.42035731394765957
1187,0.45892994996118874,0.500226820354015,0.5108086935820016,0.4252782892111669
1188,0.45861793663818384,0.5001139757816437,0.5160991150761723,0.42915739495148136
1189,0.45809848268400016,0.5004292697040826,0.5206375619446981,0.43249892392469586
1190,0.45945036342144185,0.49999600847959974,0.5222266262187,0.43380291514523117
1191,0.46149152142153443,0.4996194523331139,0.5206469659272389,0.4342018493265918
1192,0.4587463140848905,0.4993998867091508,0.5196777852390587,0.432190297282713
1193,0.4415930329236724,0.49935729297443254,0.5190269211784124,0.4310894188105517
1194,0.43135523378723767,0.499431475056795,0.5190645531270498,0.4327807022928643
1195,0.4535129303583497,0.4998887051401549,0.5168384776345559,0.43636532844701864
1196,0.47957445350797034,0.4981681286961391,0.510135606157397,0.44028058035887274
1197,0.4910754583076769,0.4983663167316416,0.5006394506952588,0.4411402459733935
1198,0.4781122644625445,0.5009650483317514,0.4972640718677976,0.43863392602244144
1199,0.4423708998358075,0.5075061938204561,0.5055449531607609,0.43424824074093615
1200,0.4158635408947715,0.5133000297542695,0.5180572695444811,0.4317399960899519
1201,0.42938990456968634,0.5131850631458637,0.5262256196456963,0.43128035516818136
1202,0.45279734628504614,0.5066371529728186,0.5175686973106463,0.4314273192944809
1203,0.45078732025288903,0.49694662969972664,0.5058970152612489,0.43192023783544353
1204,0.44685242032510414,0.492705721730796,0.5025575064470522,0.4315735071622878
1205,0.44247629052648796,0.49086894702328626,0.5178184399454134,0.4311708194614676
1206,0.44327513245092776,0.4908319570111628,0.5362464578653745,0.43143903680039686
1207,0.45533062044033595,0.48840655427962854,0.5391465813006849,0.43735188983472467
1208,0.4663838140437203,0.4854048113168268,0.5159192407091276,0.43003880861205396
1209,0.46391329834704237,0.48374546121838763,0.4883388296102761,0.41987299121539357
1210,0.45981326642109277,0.4836549512130182,0.4832707716244033,0.41376239646689444
1211,0.4655528201464176,0.48490764939776204,0.49805292560074627,0.41679735341353813
1212,0.47073600056020193,0.48469063619776964,0.5275439794519801,0.42403425725799454
1213,0.4716583961770244,0.4810025726588297,0.5398731837957031,0.43033992328190757
1214,0.46811603034028676,0.4837952055356709,0.5296189140109956,0.4259210162807622
1215,0.4659766163470883,0.49506306329995287,0.5103069658375122,0.4136105996087761
1216,0.47147385493197325,0.5058782012081408,0.5045397404078436,0.41470334869595427
1217,0.4825662520229755,0.511052242003528,0.5090877518364759,0.42197117545408724
1218,0.48740330930165476,0.5058395395984978,0.520430711236136,0.42992096618203396
1219,0.48503975029439,0.49655945063924667,0.5279111959356967,0.42594744522006456
1220,0.4814367690068145,0.49286063186942664,0.5220577152980992,0.4201969020231882
1221,0.48139749267602294,0.5007273984509065,0.5112567840634118,0.42288717432010653
1222,0.48997770901345794,0.5082917472844419,0.5047305564526322,0.4316634907053759
1223,0.4958007169803753,0.5140488595436802,0.5041009551953806,0.43547644764151405
1224,0.4879267662704915,0.5139923747184879,0.5101064326280497,0.4325644244580509
1225,0.4775771264216041,0.5024305705040629,0.520137049030973,0.41380013771024493
1226,0.4767102754040707,0.5026247122531212,0.5235554995514768,0.39934017012403983
1227,0.4824280444009276,0.5112271162425838,0.5201092511234346,0.41138965487897383
1228,0.4859237622009921,0.5241063381259512,0.5118992899270993,0.4295646080166877
1229,0.47720366630629774,0.5354423873765518,0.5055061779809225,0.43076866578283535
1230,0.45929746410565625,0.5394014014104808,0.5012050542456074,0.4244285576873145
1231,0.4513959777303755,0.5333097556490541,0.5018774041784109,0.417796482934999
1232,0.45512240149953354,0.5287485016834667,0.503654375760887,0.41729390202086275
1233,0.46088363866430443,0.5312773223283618,0.5027702197950642,0.4334506371651857
1234,0.45943898737350697,0.5360398628936047,0.5023205523588395,0.446441662868263
1235,0.4500027493439532,0.5353826450120844,0.5032274982145748,0.4415207891948579
1236,0.4418831313430948,0.525135918939243,0.5055159729088031,0.43023808166352684
1237,0.4428212013119832,0.5086202112105684,0.5083664927358166,0.42390464899863717
1238,0.44670235072362596,0.49333651010293916,0.5106404278305657,0.4197049706545508
1239,0.44377462239011395,0.47980900681132077,0.5116607667714275,0.419424654512129
1240,0.44399425008508364,0.47968251371301374,0.511231493450781,0.42052444744304796
1241,0.4469305873869789,0.49158711193818644,0.5107403615091776,0.41982292224260376
1242,0.4558352266100861,0.5003727046137146,0.5106300964419325,0.42246648812935383
1243,0.4627611227664105,0.5108569530014735,0.5104251494748713,0.4235247107599315
1244,0.45942346301261666,0.5176614700395877,0.5100619231311453,0.4186219664940883
1245,0.4514095970537395,0.5178948940239673,0.5101963272739329,0.41603490614875277
1246,0.4486042875214238,0.5139288778556282,0.5103442633492526,0.41947583026563684
1247,0.45283295139261964,0.5146343724145819,0.5107458649058655,0.43018002638371455
1248,0.4554651663513213,0.5124529771143213,0.5120389786680386,0.4394034885493949
1249,0.4537047990113206,0.508673515536755,0.5138121841567689,0.4410124375846794
1250,0.4425897228189051,0.5048577540064473,0.5157390080409284,0.42849766836598224
1251,0.4328410544013826,0.5004384669277042,0.5167971610363656,0.41777693910117625
1252,0.43323588717764927,0.49766554357889736,0.5169001619788025,0.41848214580822135
1253,0.43716991675890554,0.5036884736481518,0.5159534560335212,0.4254381306886097
1254,0.43779732408114236,0.5092634860852796,0.5146341194016842,0.4339899775578779
1255,0.43527792799182136,0.5066752937576489,0.5159889282188301,0.4366577645965847
1256,0.43438105189788134,0.4980445031989633,0.5166567261535328,0.43675718337562985
1257,0.43945326315784017,0.4800180971794795,0.5144580848789013,0.4360066964601287
1258,0.4466263993941065,0.4694440935896498,0.5042867943326002,0.43860962769015094
1259,0.45029892681221184,0.4753793880531491,0.4927798100362963,0.43774132313932995
1260,0.44204400409440775,0.49181153123927573,0.49186464570210386,0.43731638175701587
1261,0.43824547078801973,0.5052627561425143,0.5131060497029404,0.43778030016333996
1262,0.4564497028085688,0.5110460541681909,0.5368576992159856,0.442766816057634
1263,0.4807659988961654,0.5116558895161541,0.5449632984563436,0.4476073152140151
1264,0.49252622045854777,0.5105942895439293,0.5296496810558543,0.4467156177070108
1265,0.48263670989423685,0.5173675479264639,0.5008767725096451,0.4382910267443257
1266,0.4645702154795055,0.522121462403505,0.4855302221396225,0.4272592653636888
1267,0.45785045942236957,0.5271178941477604,0.4912104205734448,0.423366576994217
1268,0.46991714808403273,0.5271219263240755,0.5101568182708924,0.4257247380279073
1269,0.4813155725219369,0.5221590960491129,0.5201422414086415,0.4310421805175983
1270,0.47655381287717236,0.5170907792837778,0.5226338780015093,0.4295974940538211
1271,0.4685904398415468,0.513301031964892,0.5146712529992158,0.42684906541417433
1272,0.4624853586211689,0.5097535488865235,0.5089754764303104,0.42545740173897917
1273,0.46417952902387255,0.5071341371881573,0.5106908241953861,0.4278655760387603
1274,0.4667699821760055,0.505249647758465,0.5148363696813126,0.4328835614548244
1275,0.4647902489230195,0.5013143198076191,0.5190610301915362,0.43534842450761024
1276,0.4624440556987989,0.4995289390843495,0.5186587639492579,0.43430838870766186
1277,0.4599614676686971,0.4998117247488584,0.5163262980692395,0.4317933502542558
1278,0.45856143719070463,0.5011809180514799,0.5136979739717796,0.4312876405976217
1279,0.4584828174323037,0.500504421823752,0.5140500782967314,0.4309130663884162
1280,0.4589127827448007,0.5003362050245291,0.514589471544665,0.43143411732708453
1281,0.4585670804686973,0.5028238100176381,0.5150504664595075,0.4314030408562222
1282,0.46039309953452057,0.49980353015742734,0.5112228026899251,0.4308324285593068
1283,0.459883620185187,0.49414594991724203,0.5007541457734015,0.42982762933550717
1284,0.4567012726011796,0.48224460294416965,0.4818412467036471,0.4255535269223119
1285,0.4500390212445513,0.48537756138055177,0.4769939485959086,0.42673382935920523
1286,0.45163084975851353,0.49979263720233885,0.49799609441584797,0.43406543423307525
1287,0.45854267903940926,0.5149101461809845,0.5314830690658321,0.44421250486644925
1288,0.4684123760583458,0.5258663081351982,0.5537208948108895,0.44736348839654794
1289,0.47053148308185344,0.5118383100324524,0.5432596628444637,0.44095716484950015
1290,0.4559491858962123,0.4890147822631317,0.51652056503216,0.4234726015204188
1291,0.43913213348840274,0.4726608555116303,0.49327672137359685,0.4076150732097349
1292,0.4343743196739158,0.479540091956446,0.5008165876961038,0.4138113024480486
1293,0.4403171828258395,0.4917286606527116,0.5205692456354231,0.43547011549954806
1294,0.4434074770508508,0.5056929556648123,0.5344003030990209,0.4523152562437765
1295,0.4425821434695511,0.5109532865470494,0.5375422918282778,0.4522235613399107
1296,0.43375015475398604,0.4994948356534994,0.5310039476788405,0.43228205820511995
1297,0.4262224424489922,0.4968379271464349,0.5179218542100569,0.4101686110747137
1298,0.4276695892225477,0.5015802847907277,0.5058313690809318,0.411055353937128
1299,0.4312651423496407,0.5169645487881637,0.5042244097790738,0.4247475839054623
1300,0.43170060342836125,0.528536059389152,0.5059748790693122,0.43351330249899983
1301,0.42750616429730215,0.5263182240248845,0.5152481704716729,0.42380026318673836
1302,0.4262538646888804,0.5122893251464447,0.5237716348993228,0.41298372908433956
1303,0.43708945082758976,0.4953048637608826,0.5203375043153697,0.4084927745256081
1304,0.45030902074168894,0.486005028005415,0.502705285403602,0.4235405240036618
1305,0.45270724584270566,0.48389561907026585,0.48830034807187495,0.4393858682737922
1306,0.44588548545049156,0.48669305379176164,0.4855182017981231,0.436435544047338
1307,0.4409079675613834,0.48669333574958235,0.4982649507355401,0.4283001697060108
1308,0.4493200269116584,0.48787442548125065,0.5199841269376105,0.42059426745864614
1309,0.4703306388103118,0.49049396243455806,0.5381182050748995,0.42941335583746576
1310,0.4815145484769165,0.4938850141974096,0.5391296309128066,0.43882281210952534
1311,0.47773974022867327,0.4931360049537793,0.5266939308179358,0.4415513866771222
1312,0.4703592546690695,0.4934573835439327,0.5150394966977094,0.42902925871149317
1313,0.4741785970872683,0.4959854420484092,0.5054552562692888,0.4180510683957704
1314,0.4827313801929151,0.5057492389375454,0.5008290169443277,0.4198941085903275
1315,0.4869007855020795,0.51276402732956,0.5015613557204999,0.42988385465885404
1316,0.47890503542599233,0.5136958704234555,0.5046990837433689,0.44292289224099207
1317,0.4696350906274414,0.504571642412247,0.5039094574689614,0.4446451155666694
1318,0.46823071523938253,0.48818265306515,0.502619634091224,0.43765182208677705
1319,0.47531668061818627,0.47475618723687774,0.5007361691164289,0.42793421337795673
1320,0.47967133587530736,0.473431670203046,0.49910347755196194,0.42509230612682264
1321,0.4659024451257249,0.4860203708550488,0.5009112972516263,0.4289214505241158
1322,0.4492649866244253,0.5023930601531494,0.5075918458342885,0.4381343912080243
1323,0.4424059201762028,0.5152421256687142,0.5173027849250046,0.44270149130732905
1324,0.44965670667480956,0.5206104072044181,0.5181053845484002,0.43973608831711114
1325,0.4657227687452629,0.5221369844501735,0.5130639998233122,0.428793362463359
1326,0.4759307730737853,0.5245378291084791,0.5040765646243427,0.41584983188818714
1327,0.47062549642179075,0.5295653899640421,0.5028895887674196,0.4101152232120346
1328,0.46123152630335984,0.5355985654704074,0.5114887676253423,0.4155934330768253
1329,0.460662087142782,0.5354636414999111,0.5237771990883042,0.43378688225414647
1330,0.46213089200113605,0.5283060995727431,0.5296060606885294,0.4479209618062981
1331,0.46215843235355497,0.5198499702918278,0.525559834297896,0.4505794465622299
1332,0.4611274743214986,0.512184624878822,0.5198367771427618,0.4399809305259743
1333,0.45699271327631025,0.5026547313479256,0.5137456679789859,0.4258947243519432
1334,0.45526173204605647,0.5027570425378022,0.514445483906702,0.4186966464712854
1335,0.45707117753896936,0.5131395293176695,0.5168358349410375,0.4201801207538232
1336,0.46697797528001334,0.5242152477265591,0.5201657724112931,0.42555576020315444
1337,0.4581238272048626,0.5349203528162705,0.5225144073836436,0.4263560929682152
1338,0.4432621091185989,0.5458387409828873,0.5214891054380522,0.42927437372689653
1339,0.43552932925350996,0.5473180687527871,0.5136584815485165,0.4287714328179065
1340,0.4517669523534832,0.5359862499355466,0.5059899049644154,0.4208579632635837
1341,0.4733769329810422,0.5226746855777377,0.5043275620423262,0.41318671414000213
1342,0.4862691515766723,0.503737770004409,0.5098854548314204,0.4099796268710786
1343,0.46905026499485525,0.4874617538556105,0.5181253457733287,0.4159409923750806
1344,0.4404067532279781,0.478250356843821,0.5241017424934771,0.43100088688655064
1345,0.4371801264363303,0.477463313456588,0.5234959861363567,0.4443853705695875
1346,0.4622533315788131,0.4792751941737926,0.5199708136152753,0.44777064755425494
1347,0.48917506322023524,0.4790467583655119,0.518809473001061,0.44399545442152955
1348,0.48068501629027016,0.48512781791466536,0.5196457359723671,0.43993079228866355
1349,0.4614680259003334,0.4967309760106147,0.5200137650802692,0.43680216189550086
1350,0.4527361424387615,0.5113091211011737,0.5186851990152143,0.4370936973742537
1351,0.4634680060694649,0.5229143412393639,0.5158683261449971,0.43833088812290855
1352,0.4716465676956829,0.5313205754881218,0.5138887503791096,0.4378870087607577
1353,0.46903745981914996,0.5357347475850616,0.5139190603227123,0.43661437685452176
1354,0.44543577547377355,0.5271158855932858,0.5154363012601487,0.4403378252354319
1355,0.4239663806494233,0.5150455311796087,0.518279004882627,0.4415341031235917
1356,0.42488660146783397,0.4969039916434367,0.5206342720984322,0.4302555580194599
1357,0.4347079882035169,0.4820438708404631,0.5227997499218703,0.418660763686424
1358,0.44069726692599204,0.47307561344597204,0.5241747053431436,0.41616797131724553
1359,0.44408485654320196,0.47204245528817923,0.5261216491342863,0.4231484706893035
1360,0.44194621244356785,0.4801940617212778,0.526182126203782,0.44500732535120596
1361,0.4372551455312046,0.4918764722188361,0.5239731302212356,0.4612194436088416
1362,0.43820059379211557,0.5083581352722205,0.5221790689320706,0.4468628250532385
1363,0.4494141208638253,0.5207125244580342,0.5218945030212861,0.4242620365044218
1364,0.46402176580173154,0.5294851056117712,0.5237165678852778,0.41550772641085626
1365,0.47330004065385806,0.528563570549186,0.524341194188994,0.43521522468992363
1366,0.47183605382041843,0.519651296507339,0.5222208747530451,0.45789817095837754
1367,0.4618543115239276,0.5068241407040673,0.5172795540518312,0.4561312566366934
1368,0.45504986266118863,0.4910780543172298,0.5126377446916874,0.42929262988184824
1369,0.45486802820189065,0.47981678568973396,0.5108773431008998,0.4058533636308257
1370,0.4613174935045763,0.4755771811658432,0.5112079626429055,0.40852399236827525
1371,0.4663743112962372,0.4790973925193097,0.5118124081546381,0.42841501314001224
1372,0.45627086491300733,0.48111635141508463,0.5112364389043021,0.45002945311093606
1373,0.44739729422909247,0.48313508612053147,0.5110941250937971,0.44563524652002817
1374,0.45879129183045886,0.48562906245189436,0.5111317177159255,0.43723636048268344
1375,0.47466529235953625,0.4874221345018729,0.5114352753881607,0.4369535546728784
1376,0.4837923168704356,0.48748540424725834,0.5104089615320568,0.4426952169922413
1377,0.47427556334934107,0.4862195800754918,0.5105511720419189,0.44553098579923756
1378,0.45377584138534083,0.48583459525697703,0.5125379944993405,0.44068245159040814
1379,0.4402162413786578,0.4851642257909525,0.5175221236232588,0.4308015910496389
1380,0.45674301313754206,0.48475455556171526,0.5224095114050515,0.4202636783634252
1381,0.4760913331028344,0.4847322099128478,0.5236657006311564,0.4148177653430347
1382,0.47173243376922114,0.48495566640152266,0.5175254197774336,0.415104365309211
1383,0.46164128180699304,0.48483005406481844,0.5065603142234761,0.4184292591126765
1384,0.4572109169369651,0.48498343458625626,0.5000557056395604,0.41767218810962836
1385,0.46196500830006854,0.48496809653411244,0.49969200025122623,0.4184502849226241
1386,0.46557638651820843,0.4846868989114764,0.5060527985819285,0.41953944262712206
1387,0.46457416108307065,0.484226757347163,0.5131175597036635,0.4208395386529164
1388,0.4541401951773535,0.48518990357738767,0.5150730283243413,0.4216018150918149
1389,0.445630375383234,0.4808561968898077,0.5052048006379025,0.4216433938066639
1390,0.44829227153347806,0.48064733217481326,0.492263401552398,0.4212276066581738
1391,0.4530408237019367,0.4885993519974129,0.48988732746278846,0.4215447715154747
1392,0.451335317010691,0.5025627290469059,0.5014592477959762,0.4214625827808723
1393,0.44970159605135734,0.5174704828623847,0.520461963194236,0.420155597456783
1394,0.44807034753170477,0.527415999739308,0.5420040426354308,0.42127378333968246
1395,0.4520264840334046,0.5297126697675336,0.5473202255083265,0.4253752583983762
1396,0.45333853588398976,0.5261997442607037,0.5359096383736456,0.4310640488679055
1397,0.44634819682847693,0.5254253419521043,0.5175924825489491,0.4361278473434535
1398,0.42835308685020396,0.5219201885043692,0.5050711192458629,0.4386757708742507
1399,0.42192647632060665,0.5170446104176039,0.5013013798207816,0.43806862692042264
1400,0.44404460427549103,0.5150886854234498,0.507461621118734,0.43746697032952003
1401,0.47411526319907804,0.5135784293139434,0.5178025364084662,0.43798467960756826
1402,0.4936312732101912,0.5113369441727079,0.5192111671617303,0.4368308290307108
1403,0.48882252173756213,0.5073171206048364,0.5179707927932997,0.4347315963748654
1404,0.46957030092728425,0.5025054008532558,0.5144898405493609,0.4324848524502719
1405,0.4535549270117613,0.4997190964984868,0.5142863204348144,0.4309643310053833
1406,0.45529719193539236,0.49956711626095396,0.5142381849926076,0.4306702799419472
1407,0.4608618277647687,0.5010869186362825,0.5147195394146756,0.4312801125300872
1408,0.4571297390056889,0.4999160425172778,0.5147476805242766,0.43129176700580113
1409,0.4578638276278391,0.5034876957588909,0.5151881503246519,0.43238816944111663
1410,0.46089790102874284,0.5025582459648817,0.510775820359018,0.430982327134807
1411,0.45445662716130025,0.4918651618869466,0.5013297605799026,0.4259774856391376
1412,0.44225828759074215,0.4721371854831275,0.49565406344223956,0.42008450039004946
1413,0.43768134001514764,0.453243350763876,0.5036963638299623,0.4156796003859044
1414,0.4452893026356738,0.4431655557664997,0.5148487715717064,0.4162069256382842
1415,0.47046574661741913,0.44465004325173474,0.5188636432878415,0.4179392791036944
1416,0.48775490381618963,0.452881451773417,0.5137791682309804,0.4173257721313847
1417,0.47024252162559926,0.4532264572483233,0.49477251344176615,0.41128450647044223
1418,0.43846569255252077,0.4497100422254844,0.48399256147881753,0.40655279089387025
1419,0.42454160822949005,0.45449722381255786,0.49612201796642,0.4066679522453357
1420,0.43661490165727723,0.47040842433517355,0.513454061241192,0.41099499829453323
1421,0.46266869508207,0.4899440109229958,0.5172778790313396,0.41735748952727325
1422,0.48456855133422716,0.5068978988429925,0.509151565684249,0.4182642814840047
1423,0.47870009234915406,0.5107503652136205,0.5009094537589963,0.41726054999805384
1424,0.46956104996119713,0.5060896530903409,0.5042704726667296,0.41706941266299824
1425,0.4798263353563251,0.5136022748681278,0.5232262247748336,0.42489249365724496
1426,0.49641766649569297,0.5252095836921451,0.5410350941649339,0.4312909537377697
1427,0.5046902824606928,0.5281683660430303,0.5375240615815261,0.4330422494877703
1428,0.4846901712249935,0.5202674544149332,0.51880892239957,0.4258656550874145
1429,0.459119380162651,0.5020374991179142,0.4997698040978481,0.4174476715465818
1430,0.45829108327782786,0.4877095846637668,0.49521008399794336,0.41668524597929496
1431,0.4742832611640818,0.47854714494211903,0.5022540558207034,0.4226956220872471
1432,0.4863433306388251,0.4932521522944145,0.5135962242152897,0.4355590100568944
1433,0.48001418752267166,0.5085821866190638,0.521130985957322,0.4361152239683171
1434,0.446132021588083,0.519776041766958,0.5185438639962663,0.4306119731612341
1435,0.4209920595672269,0.5200855541634939,0.5138452465708853,0.424554351984628
1436,0.4439970138086436,0.5112635556293481,0.5111834450440056,0.42605704269012845
1437,0.47623281464218936,0.5000425890383348,0.5112176919111658,0.43223624368734354
1438,0.48137663221075006,0.4926390796332274,0.5150943843794036,0.43944863447841
1439,0.4690159133893683,0.5012081127843929,0.519870027907693,0.44449857209765464
1440,0.4384631601121478,0.50157862636989,0.5222292687707776,0.44258519762757426
1441,0.4187779837934447,0.5005403605361023,0.5216318762725509,0.44484636562669283
1442,0.4322238280543278,0.5014883463456348,0.5193364191335035,0.4469940867794509
1443,0.45869047979033706,0.5053972701760601,0.5151789233174415,0.4483458639659593
1444,0.47335814496835577,0.5113259317646017,0.513702760282637,0.4481782730039347
1445,0.4809187765802581,0.5176938460258848,0.5156090912588311,0.4467684208729067
1446,0.48145710236820793,0.521440288117929,0.5175960305301415,0.45119923950251706
1447,0.47676873323541397,0.5228596370838441,0.5191345719449676,0.45073567747544313
1448,0.47772237851730187,0.5200937207121175,0.5198072676675097,0.4371152035132809
1449,0.4772746856028454,0.517658168460876,0.5200221959308738,0.4220920455149704
1450,0.4802517319931604,0.51267012771713,0.520310935700392,0.41485555850672456
1451,0.48260433314068624,0.5090236704068215,0.5216305840596729,0.41906943828341564
1452,0.4803149063653027,0.5094860705330215,0.5231514349780716,0.43397198238282986
1453,0.4734137392729691,0.5044130037887724,0.5237924985481085,0.44586398854062687
1454,0.46456085641926326,0.4980565019109788,0.5230319179096223,0.4393045099157221
1455,0.45701642839412454,0.49413326267109947,0.5216669848109186,0.42849307573643763
1456,0.4575028415369679,0.49565351461886886,0.5206990876744122,0.42656504287502306
1457,0.45921827258298353,0.5074228273769572,0.5209145947196104,0.4279277781021791
1458,0.45703090511450156,0.515957084321254,0.5210831642813324,0.431717901261449
1459,0.44819319970600063,0.5133557000748095,0.520506127019378,0.4333623595724017
1460,0.44171724459891143,0.4944426700296895,0.5188178834319265,0.43062981446086684
1461,0.44779199179295326,0.4833217415161734,0.516708671539526,0.4286589226986746
1462,0.45767115313246887,0.48378417775403176,0.5146624486644867,0.4312671433937385
1463,0.4590689957093926,0.49707564917312347,0.5154291221838044,0.4338717293590565
1464,0.4491505115133124,0.5104709656752805,0.5206366778423827,0.4341921315936483
1465,0.44409792835153494,0.5083881804490622,0.5254062654919172,0.43327752622644206
1466,0.45624691084136154,0.49977558309193815,0.529311448385519,0.4319544688316412
1467,0.47993782212611036,0.49218261946086156,0.525498251019062,0.4315852376737102
1468,0.4942168605147264,0.4986527673044061,0.5171477834432063,0.43118034870897304
1469,0.48698778742937593,0.5079429575711206,0.5120626443659403,0.430870149956472
1470,0.47480195487949284,0.5151629500855862,0.5151125618729486,0.4301562204656628
1471,0.4752223575347766,0.5122038292649034,0.5236635364230869,0.42974691357274625
1472,0.4906837501003137,0.504989774657764,0.5278558852409538,0.42983057354652926
1473,0.5008226337139033,0.4965681051612666,0.524750928195361,0.4300708967533155
1474,0.48759344070548627,0.4925381604827418,0.5155054319576089,0.4304321345744316
1475,0.46876976919175395,0.49353819115990594,0.5054195885678199,0.4278556143912124
1476,0.4617295304737369,0.49740873317968815,0.5024495475135762,0.4272205651303675
1477,0.46924870229420557,0.5018638939669245,0.5090652887217483,0.43280196641948976
1478,0.4757761747166734,0.5038468374810375,0.5185047256931721,0.4435199636748132
