,TP9,AF7,AF8,TP10
0,0.45857308164208443,0.5006955001525121,0.5153085384665546,0.43143406154443376
1,0.4606314704728468,0.5027580920959042,0.5170505057097997,0.43243714350252455
2,0.4640475793708865,0.5002155157196747,0.5131622555641512,0.4305570203764839
3,0.44752448175194903,0.49424630016906124,0.5045366377911354,0.4266246902089269
4,0.43364809062539567,0.4783352919093267,0.48725148705507737,0.41748827510572384
5,0.4342185913700182,0.4694839960759905,0.4789277219542567,0.4127132954609609
6,0.46062090365363284,0.4770425110615656,0.48604346954178845,0.41599235895218434
7,0.49129809414647324,0.49455893161069714,0.5039422706561381,0.4256705832017406
8,0.5030841989914555,0.5102665426966587,0.524433984436073,0.4354094923841808
9,0.4822563881766284,0.5150083825456526,0.5330348723680833,0.4400191423627173
10,0.4459936317352746,0.509873587095393,0.5288227968887548,0.440354772756784
11,0.4334847314216168,0.5024111716970945,0.5124302276448222,0.4381754973576576
12,0.4380068434534907,0.50706431658526,0.5057400858886592,0.44040205690638895
13,0.4530365822285952,0.5141934136984673,0.5057737130741866,0.4416483224209615
14,0.45635016032443465,0.5177205132661827,0.513693954705102,0.44240992912431143
15,0.4549376851321319,0.5189194811801784,0.5283627805298033,0.44164660375324927
16,0.4519400790314667,0.5143591165211866,0.5328144614153945,0.44350045775741886
17,0.4531256635823562,0.5065730485512884,0.5282728401763397,0.4434616292803012
18,0.4560285121487792,0.5000157780390124,0.5148101364730943,0.44010672755247
19,0.4578685351450038,0.4957564741447113,0.5065398344337647,0.4324692246947604
20,0.4564468132963331,0.49389998522355755,0.5061627320771777,0.4210952156040565
21,0.4540474952069039,0.4939153472302906,0.5109900626126973,0.40984660466047335
22,0.45445108040735216,0.49629719557192414,0.515828484809008,0.4085360291328087
23,0.4543268493426836,0.4980690389519401,0.51365822395925,0.41777452622400657
24,0.45475144668297934,0.5009855127171613,0.5069596535346862,0.42925065508451465
25,0.44741940504450695,0.5000776168569206,0.5024059587411807,0.4390301354703049
26,0.44380978596403137,0.5003734924927942,0.5053205477671564,0.44317191959602986
27,0.4555314454592338,0.5036324771055466,0.5133969521913478,0.4433570855597437
28,0.47040525310580716,0.5105458041065022,0.5179865340148985,0.4455631968060368
29,0.47281265267213907,0.5186071711514006,0.5184064640959851,0.44929642594329805
30,0.46669438593614393,0.521175874669959,0.5139320481703399,0.4494283047009956
31,0.46055730061596867,0.5183771725703457,0.508965459700542,0.44540029655485397
32,0.4603229178227697,0.5131648549653262,0.5090257785463488,0.4419116649517984
33,0.4812693937378327,0.5122279029195291,0.5119046168999485,0.4444126330657163
34,0.49568208118383156,0.5123076933107179,0.5155473888777514,0.4462448094788902
35,0.4792128756291737,0.5141320844999533,0.5152664493342514,0.4416478419723362
36,0.4563222770104641,0.5167099753785342,0.5135366946942199,0.4343192842489886
37,0.4546108596700994,0.5138618342944499,0.511609185681983,0.42972854128339133
38,0.46021671811674936,0.5086889171325327,0.5104963624389586,0.43289322851269463
39,0.46804890986153525,0.5013732255807536,0.5103525306789966,0.43988153107866146
40,0.46208469906369276,0.4956370140725741,0.5120797193681244,0.44248799251495363
41,0.4461388634095869,0.49067885772968545,0.5129396227384548,0.4371143842315522
42,0.4389767152080517,0.49139563239523293,0.5153819401234938,0.4300451959755699
43,0.45970039548356667,0.4962723820478577,0.5147074328274456,0.4280637346692184
44,0.48050187682374945,0.501338427072797,0.510186051407013,0.4278692479213336
45,0.47359342774613117,0.5066437660121162,0.5038688484428917,0.4294297981904157
46,0.45797570962562484,0.5110423949697426,0.49867247308324925,0.4264166592649249
47,0.4522931159161444,0.5111338381942645,0.4958905731522526,0.42511579680854217
48,0.4592229512610904,0.5074972361076537,0.49573024668385224,0.42885845106665893
49,0.46548083493893466,0.504853089310282,0.49779438597812825,0.4333821869885136
50,0.4618140962307592,0.5029826321552685,0.49651875528985556,0.4350759723200049
51,0.44599479261012237,0.5013541583666136,0.4961570390461758,0.43323207080859266
52,0.4352570339148076,0.49967851252481665,0.4975988244087498,0.429219578902158
53,0.4504116765969862,0.4966253632064874,0.5007246581748022,0.4270725512953574
54,0.4651812946826314,0.48972662707809955,0.5043861021432293,0.4285315071365882
55,0.4531880209986208,0.4834694762302995,0.5069691990264031,0.42933079824470416
56,0.4368860442473672,0.4827727626597225,0.5078948390052701,0.42497335329390873
57,0.4285668351875134,0.48796247134194026,0.5088094202113804,0.4217471455584947
58,0.4391389149013937,0.4949605836274275,0.5073900703781022,0.421526723038907
59,0.45206488992717503,0.49904511690749787,0.5027395650289344,0.4257743492279238
60,0.45180343546354074,0.5011372829980943,0.4959677712883907,0.42862487680770517
61,0.4340279606663067,0.5031663984860344,0.49063321699512835,0.42791664006315006
62,0.4206789325909632,0.5072673113860583,0.48516716010926264,0.4268172551579104
63,0.4273122222464327,0.5125259611023452,0.4858002459102186,0.42600117151443323
64,0.4404806579474695,0.5155323828850217,0.49166528110361474,0.42998455193697216
65,0.44990261523917624,0.5157188602323025,0.4977062844530667,0.43270930659626156
66,0.4477827353236777,0.5139993725928248,0.5046074948856614,0.43205231228903873
67,0.4437495602012859,0.5143273164021832,0.5095930151333339,0.42609175100254093
68,0.44761888738282196,0.5155902937014792,0.5110303788961859,0.42161756991176635
69,0.4518044711060095,0.5158009528218788,0.5098845645553246,0.42077767755759554
70,0.4543262412961977,0.5113744291637866,0.5113299910552098,0.4219605595566115
71,0.4491538546132757,0.5029344894422217,0.5112846673970799,0.42309951655333367
72,0.44684311671622906,0.494278479328669,0.5108112170697707,0.4166273715446302
73,0.4586963503386193,0.48733258894306974,0.5108982636497339,0.4151276760291761
74,0.4749506267674546,0.48382032549060705,0.5111843936791903,0.42527183370439003
75,0.4782966609229939,0.4832107493810046,0.5106166820812637,0.44056291573072065
76,0.47371823316729283,0.4809043169376517,0.5104655360231745,0.45041555061238236
77,0.46620362630178996,0.4791207526862755,0.5115672925847004,0.44838080638243455
78,0.47384346504758407,0.4822652590179052,0.5151122391795598,0.43778800990336475
79,0.48639204455044044,0.48358007333753855,0.5192983488522587,0.4270204655235543
80,0.48880104950967707,0.4827875972732841,0.5202160827259724,0.4264966594373864
81,0.45887154980268163,0.4827644201716787,0.513514152075472,0.42889095687523887
82,0.43273993790163723,0.4896255728611068,0.5060627081534668,0.4287123728413551
83,0.4474481636006928,0.501856640824236,0.5046998440095949,0.42839675421545675
84,0.47325607910557466,0.5121737886750855,0.5104201372908083,0.4306745347424468
85,0.4937805800681593,0.5131386063738418,0.5182314918535463,0.4292831581682933
86,0.47047644780515113,0.5038793575224894,0.5244577525321322,0.4209611449235454
87,0.441142357186851,0.4962499785178012,0.5271007478339477,0.4146932214509653
88,0.44330292585198533,0.4952756264678064,0.5278280412504707,0.41517466239423617
89,0.47415681098344387,0.5002406552233166,0.5321206389812508,0.4226151856115066
90,0.4956066722428167,0.5030997261672957,0.5337624994469686,0.4334032001374026
91,0.4790482107179339,0.5013538680580787,0.5357320965555509,0.4407700541450391
92,0.4499547769540542,0.4992474511483281,0.5293093539386441,0.43969903470895966
93,0.42429521081080285,0.498766077070802,0.5164176697072318,0.4372573087311651
94,0.43540991328130346,0.5001527164877286,0.49983593464347736,0.4380138637060614
95,0.4522393150449805,0.5044776054279585,0.48654126415110305,0.43814937142759613
96,0.44521463790121746,0.5050651257608667,0.4793922588341922,0.4381793662635415
97,0.4370113540920473,0.5001120952586567,0.47949850475011907,0.43785528915798594
98,0.4342799150262947,0.492998628133226,0.48499438918586396,0.4370602900332802
99,0.4379602671513329,0.48818880443678364,0.4877105899535395,0.43893955919688415
100,0.44113667002718926,0.48674497330838423,0.4883463960597562,0.43918624658326644
101,0.4415172990837362,0.4890039134752182,0.4909733941119448,0.4343631779139586
102,0.43070687061092816,0.4923558319013257,0.4980055933724385,0.4280935698151441
103,0.42285775120187125,0.491758320983745,0.5060024895234249,0.424608724598496
104,0.43038755178890786,0.4913739711619775,0.5133806593090742,0.42594267103832073
105,0.4409864541812238,0.4906490982658134,0.516012957000786,0.4321999873974225
106,0.4410921896459712,0.4903195456161724,0.5134714643800264,0.4391065914425808
107,0.43853259118663823,0.4924269842596108,0.5090712388763611,0.4385885361875162
108,0.4354812333089668,0.49661368062079936,0.509929571340953,0.4341433518342024
109,0.43698594687777964,0.5013455518233206,0.5108874800391183,0.43063136835786064
110,0.44450892107536244,0.5046468575273473,0.5107908581324201,0.42753847880282086
111,0.4498084177134444,0.5055787202105838,0.5095468125767154,0.42546861674082065
112,0.4444884843030998,0.5046592334350781,0.5095039870842003,0.4247577263584029
113,0.4386017555412338,0.5048568766216878,0.5141910885494378,0.42406561347780947
114,0.442053006467833,0.5052688437702507,0.5181508879226462,0.4230224555143988
115,0.4471855828785647,0.5054305456057427,0.5211152053921054,0.42344257646552624
116,0.4501988875990806,0.5054393657058606,0.5163429779895601,0.42386472786878204
117,0.44304069196090246,0.5053511647046831,0.5079753738029222,0.42109812056883106
118,0.4401274130657409,0.5057582319887277,0.5014169619891804,0.4192803086275794
119,0.45479181347912023,0.5046252311377711,0.5014446954629761,0.4226382414253412
120,0.4749838944736689,0.5047385312228668,0.5052687059844138,0.4341147151540771
121,0.48483641854851134,0.5068156994496206,0.5066438991224295,0.44767315389680384
122,0.4785977555876171,0.5102147020024904,0.5083566760892098,0.4540776005393477
123,0.4634624907206243,0.5136137045553603,0.5079462125626324,0.44966749824925334
124,0.4516006476289623,0.515690872782114,0.5109412142953899,0.439156060903164
125,0.45477869559624373,0.5158041728672096,0.5134882162099967,0.4313590819748016
126,0.4610767953809734,0.514671172016253,0.5150381621359466,0.42916141535194646
127,0.4594497546886728,0.5150488389665719,0.5151227046409984,0.4309393959687257
128,0.45873221565217864,0.5002596135851055,0.5141282921849931,0.42945272763783343
129,0.46024185789964317,0.5041046221901777,0.5185061520505488,0.42828765167863414
130,0.4587217136381587,0.4994194249116506,0.5159953095029248,0.42815987832995206
131,0.45449962488175444,0.4903912097649838,0.4995647410647069,0.4273889073710911
132,0.45170183518595614,0.4821106892238915,0.4837543200247834,0.4266803310553177
133,0.45412461856942016,0.47772663114997665,0.47843996642451664,0.42776561157935555
134,0.46610752012621415,0.47814310622868644,0.48496461989642003,0.4311865040407673
135,0.4768809842178378,0.481871043790972,0.4987911663292697,0.43637668307041577
136,0.4803983661559496,0.48318860237832206,0.5088038049279653,0.44162179805941876
137,0.4695807724859519,0.4788357158490681,0.5048973254225976,0.4418108088428284
138,0.4594609156452831,0.47808648510695206,0.5000484226100623,0.4366573867060064
139,0.4615508580765903,0.4798353297078383,0.5024738473379301,0.4288638227643902
140,0.4704725735827582,0.4823131748219459,0.5045132044439183,0.4242109767206558
141,0.47681950868717754,0.4910452115820443,0.5060925405883373,0.4245288381587046
142,0.47101628828812925,0.5038908190633095,0.5056270408818806,0.42765185870271255
143,0.4610610710225121,0.5201915610502752,0.5084453716778973,0.4316023287311212
144,0.4515462060400343,0.5304016404283327,0.5135558182283417,0.43540275232192993
145,0.4577809604038033,0.5289900133552574,0.5201080625361026,0.43977635305137963
146,0.4623142189931489,0.5198280891776705,0.524293667844736,0.4443309177366366
147,0.4482154298831493,0.4998897057469362,0.5248264767460765,0.4488406479465446
148,0.4289308249296603,0.5030599856934354,0.5227037790045901,0.44839341303969793
149,0.4191234888978657,0.5109978168000412,0.5204404972747207,0.44526322893098785
150,0.4384766681154082,0.5164759686920789,0.521467091608975,0.44570495906562413
151,0.4642748398297405,0.5030918336090938,0.5212090337567966,0.4463655786577457
152,0.4645768786209441,0.4859194718647426,0.5213817740656091,0.4459283244267914
153,0.4458259513178974,0.4795809790250227,0.520768689374838,0.4430425506088129
154,0.4309456044381973,0.4926224804156228,0.5221671710946485,0.4393547853853448
155,0.4416946179465715,0.526598228362624,0.5227988452691706,0.43773626844311947
156,0.46546837338745006,0.5348243047541742,0.5200557029328244,0.44081367604434557
157,0.4828672888616486,0.5257586171453132,0.5131515177634131,0.4444690959190002
158,0.47261671869802946,0.4953355745453541,0.5037275224446843,0.44330938912951406
159,0.45586216849874023,0.4750260451456814,0.5006324050671721,0.44034885218975806
160,0.4546056985987448,0.47380382112913305,0.5057261977231171,0.44065246919359063
161,0.45420351513189017,0.4989563395394962,0.5187318515395639,0.4433147745497359
162,0.4576880846367131,0.5232440546814625,0.5294493982367584,0.44127464111999515
163,0.44429763378833453,0.5245488629457516,0.5295998443889414,0.4319549869076413
164,0.4385769599996178,0.4986717977226217,0.5168431442853455,0.4154222956184352
165,0.46123152317632005,0.4720919027252387,0.5019560524486467,0.4070087345689837
166,0.487138319213315,0.47153345016293785,0.49631263663708924,0.418580961429183
167,0.4982649415246546,0.4909692120735136,0.5010455215702401,0.44039480821710697
168,0.4839029596504504,0.5195043881265416,0.5117534516194585,0.4452383095838129
169,0.46051943597378087,0.5344051765563224,0.5182351927170123,0.43523555317642404
170,0.4514877334991498,0.5269305535036193,0.5161485003908408,0.417486707670508
171,0.4696616657943963,0.5083358837633364,0.511796413755833,0.4074524854693983
172,0.4869897192845254,0.49988263177500264,0.5114397295740922,0.41393569035876787
173,0.47662855298116,0.4959014948498517,0.5144341481495898,0.4266829593108758
174,0.464088332350917,0.5005101572053708,0.5191136613206171,0.4326407639018156
175,0.45933716625023346,0.5057454632185215,0.5200716295396839,0.43089432558220436
176,0.46949561675084006,0.5026477794168526,0.5196917575148627,0.4319468097980191
177,0.4827380142371621,0.48977996581867583,0.5157014222987989,0.4313727200101209
178,0.48674597053311264,0.4833600625296946,0.5106028752351486,0.43356446970418633
179,0.48709052272366976,0.48257620337294066,0.5053269564294607,0.4348418437757535
180,0.48296228551264253,0.4895153007815762,0.502047488595193,0.43469813724954093
181,0.4901796085540503,0.5014555597100804,0.4993744384638012,0.4339471355376928
182,0.4924518081889615,0.5125210919300519,0.4990760138877549,0.43221313111585064
183,0.478637393444901,0.5207879893249834,0.5011300551316862,0.43069636362988517
184,0.4628502914794557,0.5253394440383405,0.5057028328844946,0.42917036469649733
185,0.45885927260947795,0.5270477556821551,0.5136796017257065,0.42748590796142727
186,0.46672162634889475,0.5232096590490014,0.523803938173964,0.4286652264225782
187,0.4764791093788388,0.5195872851066813,0.5298687448567255,0.42909144857265186
188,0.47671549936996893,0.5208541438010367,0.5291320693371505,0.4235395553529506
189,0.4581847967929318,0.5215570976897568,0.524453623798609,0.4141103423632603
190,0.4445817550430186,0.518267104736581,0.5180124016345246,0.4118500981001828
191,0.45470765642880995,0.5045746462442052,0.5157045624113044,0.42113502033802097
192,0.4709589358427167,0.49109352122323985,0.515426553253927,0.4368855646310715
193,0.4762275982337192,0.4880517875551728,0.5213146675085355,0.4509420076226355
194,0.4733719250026465,0.49764219121163816,0.5214601147705892,0.4509758067369795
195,0.46823092302807556,0.5134954492477141,0.5164466703528275,0.43588608156580944
196,0.47135731932642755,0.5223562306518572,0.5036581588001596,0.41591413910387365
197,0.47833300022547515,0.5182720502456752,0.4907311709783321,0.3996783325288517
198,0.48084725355494085,0.5028861522150657,0.49050449506154165,0.3892827676447262
199,0.4741450163231116,0.49243899952604697,0.5083076997980179,0.3874159010548547
200,0.46515805013773487,0.48657761469879784,0.5341123404750628,0.38429830266176074
201,0.4638648298392355,0.4880200028389673,0.5434596985529989,0.3862190656949676
202,0.4640659751636723,0.4954380149167416,0.5339316347483909,0.3946745823071927
203,0.4611817846477117,0.49887067899615295,0.5098164768851722,0.4097527591238731
204,0.45485097672817115,0.4972967213479108,0.4902975430262565,0.42448862095799994
205,0.45382702007621334,0.49280040790447205,0.48266517647634805,0.43423207928757396
206,0.4578879922732249,0.4892038209660764,0.4832528140923117,0.4361257747048709
207,0.4602629627456209,0.4896423383802242,0.48411772669699316,0.42906760496011564
208,0.45571709691667217,0.49540047037952883,0.48326762212834395,0.42492351906344644
209,0.43776814350815696,0.5043800925555976,0.47829220025694413,0.41753890513702746
210,0.42814078750244683,0.5119452511925614,0.47862030349506784,0.41096245680018406
211,0.4501081939150175,0.5139679604811374,0.4861210350365985,0.406893010023529
212,0.4766265338671726,0.509465565897887,0.49736225501255676,0.40980439952574804
213,0.48197509598521726,0.5035470215442795,0.507500021597548,0.41421987148298817
214,0.4651067815719198,0.49866050074053325,0.5183111133119797,0.4164413428390946
215,0.4461930676909947,0.49668289907835067,0.5183081805328132,0.4169056595794384
216,0.44818548395705066,0.499151644159328,0.5074726489919947,0.41737469265020855
217,0.47165313908376355,0.5037200148990114,0.4972371231014563,0.41502242717490684
218,0.49187177346515026,0.5057409815265425,0.4860382114945242,0.4113249882271783
219,0.4844525070281884,0.5078687098789035,0.47809283710288675,0.4079953969615128
220,0.4708290243708887,0.5096984796955533,0.47780088860880227,0.40331934451517815
221,0.46519702036427873,0.5114376692982917,0.48378221185295,0.3999981962001926
222,0.4705878712806398,0.5147527941434884,0.48401803866305304,0.39947855849375963
223,0.47798087390541555,0.5155195990579735,0.48637893668956667,0.4022544308665121
224,0.4774528576200341,0.5158929317183294,0.4905402614058474,0.40341011536707566
225,0.4754577067542879,0.5180765988836086,0.4962575769629247,0.40961482418148804
226,0.4739438312253892,0.5211204037445815,0.5010935852887897,0.42070829651030117
227,0.47532943935617383,0.5177126438285763,0.5047407558857182,0.4330108961582165
228,0.4760141746643499,0.5058285108403837,0.5045150394910674,0.44648539506416024
229,0.4754382058890332,0.49256420854938754,0.5018316372678536,0.45158728233445367
230,0.4725777724531922,0.48518750308131486,0.5009628254146796,0.4417644765985239
231,0.47003978360500964,0.4879612807232931,0.5010936036473699,0.42749713848419013
232,0.46983024492963865,0.4949867235186158,0.502395173422465,0.4209287140516673
233,0.47049355858755415,0.49943799435677827,0.5002658981217697,0.4241147577264215
234,0.47043636849894466,0.4978132031205491,0.4982611311148612,0.43251946810265846
235,0.47022996319111765,0.49511230438668463,0.5044908928336881,0.43696526468076424
236,0.468660337760722,0.49643731975636884,0.5148262081835515,0.4317126713163092
237,0.4732029953576981,0.5005052925533501,0.5277684085146214,0.4271876248010186
238,0.4742992451925797,0.50563588757776,0.5326294586690589,0.42917676423801315
239,0.4614913335814412,0.5077881592969203,0.5269815364634508,0.4359966188934981
240,0.4468238110721895,0.5062618076693993,0.5108306082537488,0.44100895364795867
241,0.44601553134763444,0.502184140861387,0.5014054132578905,0.4370538165330319
242,0.45083798232769823,0.4994389419570059,0.5034421449828481,0.42880449407848864
243,0.45674705848446284,0.49844097694954337,0.5106185917072187,0.42975245770843334
244,0.45277290258366115,0.49886142002411993,0.5238286780426493,0.4358316272126276
245,0.438490182500909,0.4992135179780447,0.5284608163008748,0.4465006543864369
246,0.43009404744659874,0.49902310704662883,0.5254829949931845,0.45182218920995587
247,0.4452699609359507,0.49923186312089346,0.5169037701181864,0.44553069474740736
248,0.4604757501703025,0.4994564062631576,0.5103790714470294,0.43261351187849867
249,0.4521784579209851,0.49976426694948317,0.5067117158670812,0.4245201684803018
250,0.4395151250111756,0.5000866378565589,0.50784256070502,0.4243936133473594
251,0.43107529246711207,0.5003238770676522,0.5121387566916709,0.4261757068978036
252,0.4373686091542995,0.5004510112785616,0.5136325621814194,0.4308402202477708
253,0.45035131337134054,0.5006232390035682,0.5149735863066258,0.43162767065416763
254,0.46303631251002164,0.5006308133257557,0.5150467330770917,0.43171074561432676
255,0.4619914945227062,0.5005550701038817,0.5143152653724337,0.4308799960127352
256,0.4604489101576616,0.5002159590395714,0.514723590492039,0.4308905926624694
257,0.45959403378056285,0.5027214553515907,0.5176344035895419,0.43175195424979684
258,0.45794044876052764,0.5018991361059506,0.5140405339014258,0.43376917029851125
259,0.4415008324745062,0.49335110977900387,0.5027700291200405,0.4277098075335836
260,0.43497280100143015,0.4805278816566412,0.48881567336760845,0.4156532249131255
261,0.44815689507486495,0.47270977749680076,0.4761917537290262,0.41277672730985515
262,0.4878689577932917,0.4741299503014113,0.4690810407212601,0.4186940001170032
263,0.5139644494393779,0.48352372920619224,0.4684912362137535,0.42958193074935463
264,0.49255432352580464,0.49367796837045447,0.4701246663067275,0.43715172819767667
265,0.4504701262493125,0.49628336159365594,0.464188375012544,0.4335261435141306
266,0.41632164790668535,0.49470759450922724,0.4644832633837737,0.4215773230070359
267,0.42405450608057843,0.4937679173986818,0.4718469618135695,0.4176469250376219
268,0.4517532212916192,0.49427289949606334,0.4843899613155651,0.4226765693903009
269,0.477705872896003,0.49384536436881254,0.4900371151652944,0.4269743487303576
270,0.4739410812959258,0.493209330326187,0.49653462993510644,0.43030603806098
271,0.4646823931385336,0.49430341086751234,0.5063369101280246,0.4297765809197282
272,0.4648534082233949,0.505238125829451,0.520857207278271,0.4305426926644749
273,0.4726489005665738,0.5175740715469078,0.5452850513112899,0.43699349962815837
274,0.47704296582879513,0.5231970519909014,0.5597750878122234,0.446539165414638
275,0.454781409741911,0.519410063087643,0.5510073622906493,0.4502574061349672
276,0.43252156404323594,0.5093999967599484,0.5245274504899669,0.44488994532197423
277,0.44272763895635814,0.5001392369823464,0.4972204830458718,0.43334717449697335
278,0.4618402394618516,0.4979067070709069,0.47962369254823967,0.4236081912977867
279,0.4750175784729767,0.5013500768564735,0.4806146602460016,0.4204933847157558
280,0.4651167086453874,0.50025209011771,0.4941518920912372,0.42172919387975966
281,0.43222998101284504,0.5025461210242268,0.5048389561783573,0.4229992991215177
282,0.4089508961234941,0.5021474383335565,0.5097545379049617,0.42160968175659613
283,0.4241170044736065,0.4981018590453788,0.5114799446327576,0.4210615507257811
284,0.4469763215184577,0.4884473694494929,0.5105493959458131,0.42193439810173383
285,0.4487837867206467,0.4787224678519983,0.5139202385772764,0.42325083704548244
286,0.4469686809302709,0.4781973461418419,0.5153230409561917,0.4244848515031482
287,0.4427790358873052,0.4918782487709978,0.5153995574495871,0.42368984431716794
288,0.4450871674603041,0.5075590396841944,0.5144614328550237,0.42684504480218316
289,0.44587521673270164,0.5179574551278278,0.5151481727574119,0.4314830588327822
290,0.4450627042693078,0.5122114577562107,0.5153578670315052,0.43576961629862276
291,0.4417592604216982,0.4977221893586354,0.5143804306809242,0.43592850600750965
292,0.4406538276917924,0.486546661304532,0.5124314204770227,0.4313674655808234
293,0.44098893331164823,0.48897988092814537,0.5104812397249935,0.4239811360558572
294,0.4403455050396575,0.49863450749402544,0.5062895901721056,0.42101690468441105
295,0.43760938496791163,0.5063112613824274,0.5078744667451094,0.42610291927374433
296,0.43356828867340363,0.5097779722093807,0.5127904561401213,0.4317666196808211
297,0.43120160740961616,0.5017953187292593,0.5171697318806167,0.4373439960378573
298,0.4330641032423827,0.49778948178738014,0.5182721937863154,0.4397733456910637
299,0.43632741347683723,0.49663405318891046,0.5145948630026257,0.4394200229956003
300,0.43766129966297207,0.5000617684317237,0.5073639052720728,0.43829900473796607
301,0.43243803204049625,0.5010057263403027,0.5043293922052895,0.4385628918996068
302,0.4306659154565603,0.4998780187019302,0.512013012250236,0.43856397683056986
303,0.44372185195942704,0.49651945438104644,0.5214481077769565,0.4397071208200936
304,0.46049129906274683,0.4933406261583927,0.525872561712087,0.43889542357816685
305,0.46300967178581115,0.4928802650881146,0.5188724506406454,0.4359889774191781
306,0.4579943481235711,0.4937751252057312,0.5030068272987301,0.4301300895264829
307,0.45176604094236894,0.49459214756842573,0.49685771520339705,0.4260116575428049
308,0.45494622140255553,0.49553426011077284,0.5068570348629222,0.42558016594101855
309,0.4694889917275422,0.49374638517620567,0.5227633814822763,0.4305643020851889
310,0.47837045472187495,0.49304506911259827,0.530580310999649,0.43525319878457525
311,0.47066780178922507,0.4951060164250111,0.5241194877748353,0.4346831357838024
312,0.45874215186298245,0.4980409794470046,0.5107127702618495,0.4300636839273571
313,0.4583748993498371,0.5074409588344565,0.49973017547714477,0.4263371780074812
314,0.45793698339207994,0.509942501254794,0.5016466586019708,0.4289588575256938
315,0.45836194312500883,0.502841322435065,0.5125629892987609,0.43531318386266854
316,0.4445693738560665,0.48253145377257783,0.5219043364724895,0.4425710220084478
317,0.43653964324856975,0.4683892058591304,0.5237371950605478,0.4455872521776199
318,0.4511392794046481,0.46597869449089474,0.5198409203824199,0.44562400111475337
319,0.4709306598061395,0.4851099516147356,0.5049320242636182,0.4445084941802129
320,0.478933488118697,0.5205024969101985,0.49772828828657595,0.44500202268924427
321,0.4673059455974087,0.49560794583833234,0.5146876312336575,0.4459525336630298
322,0.4529615454775914,0.4569238230914069,0.5431287120843218,0.437274256313715
323,0.4529774187099557,0.43672566021769893,0.5509300138566373,0.4487253974724657
324,0.47233173580218396,0.4520545375253467,0.5294277639474643,0.46109021127000127
325,0.497191310215397,0.5264344206983023,0.4945140466665861,0.46779502793935
326,0.487614916988308,0.5832956440613601,0.44603165279801804,0.4554497492849423
327,0.4538061331606718,0.5285098655777956,0.4683086435438282,0.42112326252460486
328,0.4139588520432823,0.43409501588570326,0.5188770335919107,0.3631610301726043
329,0.3857155769846586,0.4085820527304589,0.5532213523587626,0.34893855513538696
330,0.37298669853547955,0.4299122250914315,0.5409823036483078,0.4142019369238711
331,0.3723713003204666,0.52848101342684,0.48410461109351444,0.4973082467765577
332,0.38055257762189987,0.6104233598814159,0.43923720964972907,0.5777072016666145
333,0.3780363210680987,0.5192931196931534,0.45898935708416017,0.5725945219032967
334,0.3822613941798747,0.42345917112027276,0.5738659055076013,0.4481117947271661
335,0.37081734349406803,0.4257970114095109,0.6472587701793283,0.31568388624483845
336,0.36446946492944693,0.5204882550447996,0.6381542937920746,0.2854913562136683
337,0.3873191264827475,0.6542766670773645,0.5357337324305503,0.3411010493431533
338,0.4366366454800504,0.7178897922805775,0.41328416782236754,0.44531325071573313
339,0.49464303575406604,0.629662673177834,0.36225477161254216,0.5269956388125349
340,0.5360594234271656,0.4882304479819256,0.3891790989964763,0.5244840411118481
341,0.5490412107287402,0.4251352037987192,0.4540758029016666,0.48205746716205966
342,0.5397873797627852,0.399431152953298,0.47438889642205584,0.46072851130807146
343,0.5424434002501448,0.41740173580959644,0.48159221084090337,0.4585575260638014
344,0.5493288668379946,0.4259812446824429,0.49600999910235477,0.4568534129074473
345,0.5522385946715442,0.4165470382212332,0.5267978006141877,0.4448343237663893
346,0.5523973070988287,0.41704243793187107,0.5593262930194147,0.41260268265845645
347,0.546087979763708,0.4272639150099452,0.5893171442181685,0.37893615407581077
348,0.5593652294960902,0.441519066911967,0.5895114486315216,0.35663181955744094
349,0.5622037712135856,0.44983015910308644,0.561139800877378,0.35234723528883927
350,0.5399646462092154,0.45705366407987963,0.5369135023769993,0.36391668803154714
351,0.47718807751045517,0.4960127474371959,0.5099774570239036,0.36049616206579194
352,0.4231701956719709,0.5356604241867604,0.4900323194799759,0.35166103257076764
353,0.40530318044802605,0.5600980311561367,0.48962326571407666,0.3572374816759822
354,0.4395152447099858,0.5459337184789269,0.5014955656202358,0.379558265963824
355,0.49008261043928075,0.5025015953304608,0.5097763517607841,0.41511308366866556
356,0.5034824449262203,0.4629573585517718,0.5268326034659149,0.4426493299114791
357,0.47929831328693656,0.4527156203640039,0.5481867597299896,0.45024238785800674
358,0.4474120387655206,0.48464677155782293,0.5606096674204946,0.4313071626443863
359,0.45757387196505495,0.5140456386446346,0.5577653910428448,0.41481297363495523
360,0.4761935660926433,0.5345078002444048,0.5457277806499555,0.4166913675789839
361,0.484152482650213,0.5248243462112139,0.5297772790523988,0.42804911192768985
362,0.4745419014980595,0.5008539923956877,0.5244886443429798,0.44161116787093607
363,0.4668214089055245,0.48268029292211756,0.528605763655479,0.4444962447914498
364,0.4671915169294021,0.4808730612079418,0.5314174004091899,0.44071667148966126
365,0.49472334583406996,0.5060523687866201,0.5126844616276754,0.43282795864070217
366,0.513542127874561,0.5183432806071998,0.49400407283625136,0.4307933667036702
367,0.4923096890013987,0.5039140026555269,0.48631427728694376,0.43002376077882415
368,0.46251045575182415,0.4851856070315933,0.49818705236925687,0.4312058867997198
369,0.4599817803718872,0.48060024072562,0.5186566464756707,0.43122821609255346
370,0.4671897785605492,0.48672316210517497,0.5420069731493447,0.4309881859681873
371,0.4764621855160372,0.49854733279104074,0.5360220469919523,0.43053821123632824
372,0.4714437352856865,0.5137603529593222,0.516855336821168,0.43008318147655905
373,0.4507620869454335,0.5124644390971967,0.5083598634494603,0.42955658756754767
374,0.437973367650026,0.5032255246614511,0.5128910485727778,0.4305205226991286
375,0.4527397908941789,0.4968184236093223,0.5274187735809686,0.4307304640939787
376,0.4700560688307937,0.4890254448604169,0.5366411250701851,0.42929977486540183
377,0.4683926718451396,0.4842946489313825,0.5309606856935166,0.4269580936389133
378,0.4610882492103503,0.4845849004368248,0.5089835027971784,0.42325451397056113
379,0.45204081383595823,0.4856147326232512,0.5007535121141986,0.4217581698442181
380,0.45221157700259185,0.48490882353280784,0.5032517986717046,0.4234625165718169
381,0.4556962366081173,0.48772684498396696,0.5118939028593428,0.427279299230177
382,0.4605791023670153,0.49233815281313636,0.5159799887756562,0.42991833520674716
383,0.45983897976888555,0.4969494606423057,0.5157673512686158,0.43171101293548014
384,0.45916210845252553,0.5017242937163352,0.5145442785106811,0.43087447336392487
385,0.4605361302354614,0.5021122253593854,0.5170721979354791,0.432337400418668
386,0.4564801487437894,0.4983674985635524,0.5144099838919645,0.4338352475522838
387,0.4431678700625549,0.4898234628198281,0.5056145280450759,0.424094196333609
388,0.4352073792734668,0.48632383978391674,0.49174369400053713,0.41504131662977084
389,0.4517310695169508,0.4804412136442865,0.4872923858489899,0.4142264442600264
390,0.4702148323945662,0.47127949296596616,0.4816954285945799,0.4248330724678493
391,0.4775929887371923,0.4603350546516466,0.4718816253487493,0.4344040516763845
392,0.4603040671241627,0.4477106279492767,0.4563417604428744,0.4349929356577517
393,0.434653545589181,0.4401623837560218,0.44075077563144877,0.42024254909113123
394,0.42319820681483555,0.4354566837161041,0.42203563564898405,0.4020192425891804
395,0.4465289842536421,0.441031866069309,0.4184190726625637,0.39942083831665226
396,0.47206429411134126,0.451617132741433,0.4415532972648625,0.409917613544273
397,0.46265911756786265,0.47116593276373336,0.47432859828836077,0.42518226146900256
398,0.44219686883302245,0.49080980198236346,0.513676397988206,0.4342243353431061
399,0.4276828866635671,0.5020879616132711,0.5411539220631627,0.4383181721737753
400,0.44875842110775593,0.5061297231036865,0.5527997249657624,0.4362758083561578
401,0.47725720321380277,0.5027256893504848,0.5436696923835073,0.43395463889457714
402,0.4852060171882405,0.4976850917737827,0.5363661898005466,0.4331459102142138
403,0.4701846142022484,0.4871080755298833,0.5271752727665621,0.43501937023850484
404,0.4544213851539926,0.475164734365149,0.516770327871358,0.4337262907294607
405,0.4677351654206855,0.46506020259575215,0.510050889664004,0.4311561744441287
406,0.4871145072480859,0.4624111753737271,0.5097307063475388,0.4279138432675243
407,0.4958466053877228,0.46942630505864685,0.5137819502510156,0.42570686231378274
408,0.46811823932990226,0.4700054887063604,0.513514117930711,0.4232130547459496
409,0.43955050665583484,0.47207308495632133,0.5151766630170879,0.42370934031382135
410,0.4504753087104367,0.4745243917375027,0.5139979532534871,0.42667307505936625
411,0.47138082738894027,0.4827298498987568,0.5117033613094294,0.4305425665092745
412,0.4725231556871784,0.5014388476288892,0.5178711150581196,0.434631653233563
413,0.4559943673529922,0.5198269001053601,0.5283833237941131,0.4370820662147861
414,0.446176763459392,0.5281118312502779,0.5377840199434336,0.43722194867607844
415,0.44886193303852445,0.5189396585790307,0.5363460476475456,0.4359372228722912
416,0.48654956357621065,0.5037440932343258,0.5234142528358757,0.4370538225638721
417,0.5144065832987348,0.4865323553786008,0.5013307911262963,0.4355458199492858
418,0.4878757799086894,0.479963973773341,0.4911902717264903,0.4357825299023291
419,0.45072939669732454,0.47956712145610353,0.4978451664544726,0.43877271430281356
420,0.4523150066580962,0.4798915969963798,0.5115688181962469,0.4436188834900147
421,0.4628187916054554,0.47917397321390875,0.5237088939061806,0.44808498699070887
422,0.4747245994384761,0.4786543064409942,0.5228326273674541,0.4519023436994808
423,0.4666939570395701,0.48208294954979214,0.5152951582440803,0.45334533245667924
424,0.439120792129025,0.4913996723799285,0.5087799214549447,0.4491898199758431
425,0.42449324225054724,0.5040995170619941,0.5129883604706039,0.4432434932543534
426,0.4454291279316494,0.51474726288024,0.5216165036220153,0.4351089544051722
427,0.4720005536303685,0.5229105332652353,0.5265859610238302,0.42949970951586136
428,0.4757497646789027,0.5228872118022481,0.5231811428057367,0.4237627406885843
429,0.47175776259622765,0.5197221438282688,0.5120874408911558,0.4252251358800043
430,0.46388274990168715,0.5107793093755644,0.5074026492548489,0.4317408631918921
431,0.4727754668264263,0.50492672062477,0.5094199206334203,0.44033501424652155
432,0.47555435206017566,0.5031010041659465,0.5138485242248604,0.44978941742292605
433,0.4601370390348189,0.5062798399222828,0.5160739107632925,0.45425142189091705
434,0.4390700866188646,0.5119002961416799,0.5126350869057124,0.45302577728615384
435,0.4267327995885721,0.5135989240980757,0.5057253140008929,0.4560432887447645
436,0.44086832983785096,0.5133683632630881,0.5036741375555313,0.4613556759955403
437,0.4616334228189498,0.5122327641170082,0.5112730714663177,0.4581301078451462
438,0.461280337162105,0.5137906876847317,0.5214757896711598,0.44824945494253193
439,0.4434707449648306,0.5160953206904502,0.5288791101063172,0.4324706541711666
440,0.4298528096123342,0.5187459571247464,0.5296430844249701,0.421955301939621
441,0.4413404447067407,0.5190824652320815,0.5193950160339363,0.423470579891501
442,0.4591003364562816,0.5154892142392976,0.5096303969952054,0.435489381476229
443,0.47167908018706084,0.5091374235303227,0.5103422994574197,0.44170840168565934
444,0.4575529965783174,0.5034797286429298,0.516665289651594,0.44238198158208786
445,0.4410643410444622,0.49822732924886914,0.5245586691024744,0.4318705138032044
446,0.44593904588900746,0.49395760140837414,0.5266596579974553,0.4206634961578625
447,0.4555489935873832,0.4908278293695331,0.5230698074201358,0.42029911588588376
448,0.45926724112258327,0.48841957620229093,0.5187344715859759,0.4285568876887489
449,0.454922384959149,0.4846871895954994,0.5205348327173468,0.4399073859660832
450,0.4514127119872296,0.4857839294069407,0.524174880060804,0.44717461474236536
451,0.4526254099478852,0.4936957839004806,0.525761489055982,0.4498847960432525
452,0.46248591260371535,0.5056794710070025,0.5253788657544299,0.4499730461212418
453,0.4699031482832334,0.5180726025455328,0.5244796844616391,0.45311744021991535
454,0.46708407162808907,0.5259217209612967,0.5222210555090516,0.4554544421882791
455,0.46117612796010177,0.5271105945007876,0.5190872246544342,0.45816631690523063
456,0.46311765459534887,0.5244222305903605,0.514887133485255,0.45461499102186476
457,0.46282731563024093,0.5251504448412162,0.5102752002793405,0.4462298783245421
458,0.46152274403375293,0.5249975744636147,0.5064874073416726,0.4343175749966663
459,0.4485833829541693,0.5235663536081198,0.5065296538448888,0.42384770959903767
460,0.4405527781658161,0.5214925301985641,0.5098241359446052,0.4187110193156713
461,0.4535018511608152,0.5225221131735557,0.5112172884944306,0.419673955443737
462,0.4718376793502286,0.5127003512220488,0.5067499812139639,0.42199622272798454
463,0.48374216080943977,0.5135715477376378,0.5020600481320966,0.42219941897422403
464,0.46627110961771606,0.5302497467374048,0.5008822159930428,0.4194229011534432
465,0.4440990883884904,0.5564185245380021,0.5121663189237787,0.41674400700021563
466,0.44694105709346715,0.5807052754239951,0.5296721191024929,0.42663832514500655
467,0.47003569625869007,0.602213606484812,0.5383268150799003,0.4404158256760132
468,0.4867123864924926,0.6049859651350483,0.532085443337269,0.4485824583127694
469,0.4722770485236178,0.5845144980661676,0.5154732950438158,0.4458170866807424
470,0.4491076450029962,0.5641234983027482,0.502273127109281,0.4324868853111886
471,0.43314977663669646,0.535710775260064,0.49733408230767334,0.4211193678068022
472,0.44795028140984444,0.52410240884354,0.5017928295531022,0.4243797268497446
473,0.46799080642858903,0.5167451187069904,0.5048383307194101,0.439636064192514
474,0.46911996060227823,0.5082207437012577,0.5048696837825555,0.4481309531265357
475,0.4656656543581444,0.4921545520198596,0.5049176822256377,0.44873055491763225
476,0.4594988802753605,0.48719190290549885,0.504437697794816,0.4370053885074734
477,0.46823865172300755,0.4975464776504656,0.5048471264383234,0.42679081133568825
478,0.47094622456031726,0.5253074488621536,0.5040988249386228,0.42581109091954833
479,0.45327538533158357,0.5465052966047762,0.5041736550885929,0.43154908352419247
480,0.4314092852797215,0.5384763773933948,0.5055455411713772,0.44078520540747007
481,0.419844385574216,0.5176367757665549,0.5077904456704787,0.4452092093000458
482,0.43150769194609984,0.49478330260248315,0.5106917354712849,0.4446034113179081
483,0.4508160861591374,0.4817754977651708,0.5102003223065805,0.4419387347582463
484,0.45494306508962007,0.48212897541266386,0.5101544980741861,0.44342738506111934
485,0.4391808516553847,0.48907484572493176,0.5130480727311488,0.4434217525700025
486,0.42713315473975544,0.49384162503219997,0.5197871858966633,0.44260886260671783
487,0.4364057346195938,0.501443465823404,0.5266473635306327,0.4450036473383118
488,0.451737469203893,0.5078779008011143,0.5308797305881309,0.4447787972512391
489,0.46372847030525943,0.5149000223503902,0.5326502438570963,0.4412764911167254
490,0.4618673817227302,0.5194849748698289,0.5306137063431184,0.430894848094274
491,0.45674415698004395,0.5220674638133461,0.5291349805591697,0.42382333560760443
492,0.4583437075737126,0.5187934461127879,0.5257036108870026,0.42348047339694284
493,0.46098649118233703,0.514643803306743,0.5236171852291166,0.4360193807589668
494,0.4643357292799227,0.5068896522741114,0.5240351394000144,0.4483225158540579
495,0.4606135033482228,0.49821464196262877,0.5205986844222774,0.44628853642500754
496,0.4588502694594001,0.4974871028036875,0.513478901730939,0.42776161700013815
497,0.46858752508810714,0.4971313029004735,0.4973606486268377,0.4109306777511972
498,0.47949214470364837,0.49280235486853663,0.4856998199574167,0.4160456876344419
499,0.4801068252477,0.48122755913896914,0.48880378118321427,0.4334343956353822
500,0.47649026001347716,0.46918468254313767,0.5038089675385425,0.45024846247577105
501,0.47282407472180754,0.46633950136845037,0.5282908021089119,0.4547548648920836
502,0.47258151698978984,0.46560470442998514,0.5420119431793007,0.45222372927607274
503,0.4863173981631202,0.46232657778412856,0.5365307661231798,0.44876079136600844
504,0.49572336598227695,0.44987622309778486,0.5052534742493172,0.45699606591006625
505,0.48874733958818706,0.4398294633093768,0.48088247616931873,0.4639404223909642
506,0.4747679282564163,0.43074184442865615,0.4739259012003028,0.4598193002386564
507,0.464919614278111,0.4265242485827432,0.48570246159575337,0.4494739025704526
508,0.45781662515537475,0.43731922708438475,0.507944275863144,0.4399271639710722
509,0.45676916013084995,0.45461581309415944,0.5184727664364357,0.43196642211845904
510,0.45966875206297203,0.4780670516549997,0.5182525114838754,0.42904348922512603
511,0.45917909692518394,0.49730288771514625,0.5127123761690418,0.4307976336875892
512,0.46005570365802123,0.5008528663663989,0.5144278485464544,0.43132698260734237
513,0.4585822971197798,0.5030800312222706,0.5159255897096634,0.4316443759893958
514,0.45770732412826765,0.500403000745622,0.5098054926503585,0.43036601580994643
515,0.4556441283469656,0.49088023469879666,0.49813635278980145,0.42476387043528935
516,0.4573743075789928,0.475577827156438,0.48819586884768995,0.4227835587320815
517,0.4676446039620728,0.4685401972442844,0.483048904890276,0.43043934712989745
518,0.47827890002156526,0.4749864703958705,0.483479245217806,0.44203542544848917
519,0.47978144647833587,0.49128465225543694,0.48613685163885284,0.44938304306624555
520,0.47461989292055295,0.5066314125577005,0.4882524446480018,0.4448451720673407
521,0.4715747754739026,0.5106616690749549,0.4847580564057625,0.4302936369847307
522,0.46974018667799405,0.5092002686012113,0.4842950279383854,0.4178252746581085
523,0.48533271509635545,0.5087103109431047,0.4877377661777478,0.41739945284614133
524,0.494025309300557,0.5144466931459597,0.49308829580731905,0.4232908640901297
525,0.47158985003423104,0.5190263186157877,0.49962680507565754,0.4282684894931605
526,0.4440148819439626,0.5230340394548846,0.5046957553156696,0.4305393071771314
527,0.44268225679910206,0.5245722856778555,0.50678731951363,0.42960483448311093
528,0.45083835678254586,0.519864069624183,0.5067897139312858,0.42949424976248024
529,0.46145276487875564,0.5125660916327731,0.5054490321148533,0.4289995184366183
530,0.453376279362898,0.5033656155124804,0.5056631441343875,0.42888707838814694
531,0.42952708381636684,0.49631464375102885,0.5064774351344704,0.4305242975974814
532,0.418039185729921,0.4927703458237141,0.5071545780594386,0.4340433872087951
533,0.44690641487675026,0.49409253220393007,0.5040949621615624,0.438182134998878
534,0.47626255059597883,0.49723142882571203,0.4997527597371905,0.44072746580257927
535,0.4663689130717048,0.4966639638482133,0.5009857559669353,0.4392210165906965
536,0.44458162785224953,0.49907669033533786,0.5120972807485091,0.4344767908169853
537,0.4367067490063995,0.5037690931593087,0.5257579414628967,0.4303419237347234
538,0.44635497136516217,0.5128022271541016,0.5331510702774432,0.4277312553494197
539,0.45450621909311395,0.5186988324328715,0.5292564579185003,0.4270703634473182
540,0.45211082822787174,0.5188764939364772,0.5185719430581199,0.42751315294532094
541,0.42690875835464526,0.5120986718625504,0.5105090751425202,0.42782148420936433
542,0.4106176949181498,0.5025023659565988,0.5112992866254066,0.42764787472808574
543,0.4273200654526971,0.49882844111588026,0.5131851644300602,0.4274415048741253
544,0.45053404398426494,0.4978280408980457,0.5112752647111773,0.4283934877195893
545,0.4533026699997423,0.5034883844547418,0.503062649715595,0.4283436002788732
546,0.4488372849473283,0.5001433434317023,0.49707976335057635,0.42603316093825544
547,0.4430918638574575,0.4968424988698302,0.5011354299208166,0.4213161443823347
548,0.4486479582907957,0.48838790886696665,0.5127388762557016,0.4293170232998419
549,0.46316659386757136,0.4898663086959436,0.5254603881138631,0.44188068389857893
550,0.4718983051025242,0.5023963602515713,0.5307158466031909,0.4486154960676478
551,0.46935561659200864,0.5163562907932462,0.5289198646788402,0.4439183978111751
552,0.4647113057591883,0.5227769195161582,0.524799090708126,0.429092994599128
553,0.46658990072575585,0.5150253438755332,0.5255148984965242,0.414224454232173
554,0.47224517259541976,0.5055051593753368,0.5236227002522462,0.40901574898933607
555,0.47728471753519147,0.4954077781866841,0.5163122971636303,0.41461499277849045
556,0.4746423179468537,0.4976603849148468,0.5078416614311503,0.4153261420016966
557,0.472400610294784,0.4996358851659764,0.5019259738641566,0.4146732909212632
558,0.47775842773245725,0.5003026676140672,0.498724332670823,0.41347021481906737
559,0.48738615286470494,0.5026375005606731,0.49858746380797786,0.4148162094953585
560,0.4917847882410943,0.508520579645218,0.5020441537879837,0.4192390380269715
561,0.47889589232202384,0.5028507173100265,0.5102025640268727,0.42417298050354635
562,0.46266991593268214,0.48430107329358674,0.5215385230525865,0.42968751785194
563,0.4622505653640221,0.4690139453894454,0.5313118222236287,0.4340755209647679
564,0.47182794032252,0.46445065352259257,0.5359602930709926,0.4378264907346197
565,0.48056311277905206,0.4755456305139205,0.5350605670840611,0.4399972446582421
566,0.47358765862456376,0.4911543939616642,0.5336321153510745,0.44010036601788194
567,0.4584048609136059,0.4969825041763593,0.533118050973683,0.43750077193893927
568,0.4490489182977559,0.48482997809916556,0.5360325253255108,0.4323252866102188
569,0.46467072129551346,0.4746601816644506,0.5359365689339792,0.43157757601672775
570,0.4808991177326555,0.47427277365428794,0.5301707103177712,0.43426845540711617
571,0.47352119720175484,0.48023439009007746,0.520961518309855,0.43621044873275444
572,0.460214225035867,0.4900559654074133,0.5096603643865779,0.43394924368413423
573,0.45485230664226445,0.4943698753062242,0.5042126334195354,0.4295176801114285
574,0.4642355424012943,0.49452117527587125,0.5104975564943953,0.4246521984746122
575,0.46961157833991146,0.4907660859536518,0.5263997681414397,0.42185952505393026
576,0.4600147711923101,0.4881766876221883,0.5354095257406618,0.4231672570939092
577,0.43036513720890995,0.4868748653320202,0.5353731692662699,0.4239104100943695
578,0.4119261272746266,0.48715426628562825,0.5254005313649556,0.4234962444981417
579,0.4345872332365928,0.4884007116267272,0.5112887145657857,0.4229381630133093
580,0.46693604341835304,0.48667717483133627,0.503226236571381,0.4246401251772056
581,0.46924964413531994,0.48500278561738164,0.5017350742451074,0.42553561311181426
582,0.45496213298254684,0.4890842497428978,0.5041175178731196,0.41968221014471246
583,0.4399163442769842,0.4988958368252271,0.501109377649582,0.4138079414960387
584,0.4530881458953664,0.5109098067376402,0.5012662196681815,0.4138229859202972
585,0.4768597311588496,0.5210083823068328,0.5066322246063311,0.42069808011932386
586,0.48848890227761155,0.5230062876358583,0.5162820958899286,0.43171811002199495
587,0.45176331347219567,0.5212427825472126,0.5264623953918051,0.4409922092914508
588,0.41720434059555966,0.5231267656661046,0.5331926712864994,0.44231515372530433
589,0.43854637679550595,0.5279977435078891,0.5345146628154187,0.43993686138529686
590,0.4735346132711342,0.5360897848733439,0.532185140460916,0.441023348055001
591,0.48242794204307454,0.5367216913877478,0.5309355014783033,0.4420012671325853
592,0.46384382883858083,0.5325567222101408,0.5304290214842251,0.4431071728892154
593,0.44423618014731947,0.5282240775676371,0.5343863302857256,0.4399333956926818
594,0.4427125436997671,0.5293832513243324,0.5426146865530923,0.4428635326869359
595,0.4742466194707457,0.532309503573426,0.544973066265113,0.4525143790745344
596,0.49862189950311364,0.5394348666560644,0.538313953764297,0.4596810493994412
597,0.48545219965577957,0.5427280809411184,0.5257028352654067,0.4517806628613291
598,0.4653874140254775,0.5356224729068901,0.5100038756356391,0.4331325216118714
599,0.4634603946484582,0.5282119172321735,0.5053974437230271,0.41264412393042144
600,0.4630374113295392,0.5193436628854408,0.5102718574444159,0.4045234777991178
601,0.46506253045237567,0.5174520396929359,0.5219510580460535,0.4202049875026947
602,0.46015898990828685,0.519158411927599,0.5281498331893351,0.4393954406038213
603,0.45719152294028814,0.5162757628486925,0.5292161284744467,0.4480177844696369
604,0.4585914991866052,0.5039468767203068,0.5205426709538266,0.44413876648141887
605,0.46199236095747676,0.4882013680414038,0.5083448371958621,0.4352619295172577
606,0.46405274250010314,0.47185438022175885,0.499600131008128,0.42680346049663886
607,0.4596734949988587,0.4713771655542113,0.499045117040392,0.42674186120023505
608,0.4578390298462795,0.489243668756435,0.5103078486262237,0.4323851827554001
609,0.4663085630165361,0.5128674352930168,0.5197909781382378,0.4368801317490049
610,0.47897512258491526,0.5278307439603572,0.5228553113791112,0.4405761868660275
611,0.48366090377398946,0.5182653705320088,0.5184864303057265,0.4385670478305194
612,0.4793487402920618,0.4940459459978428,0.5136381468661034,0.43003713819755757
613,0.4733831636752483,0.47615766435712487,0.5114584723520822,0.4228227011685006
614,0.4711894077107904,0.48130324342177416,0.5172217445846085,0.419894598616536
615,0.48926078786660687,0.4964588311966372,0.5242795298186007,0.42204517468124436
616,0.4990102838233805,0.5088438384775904,0.5240053892406821,0.42723011172663644
617,0.4726045539835321,0.5079310250892864,0.5183885259459364,0.4311423688385252
618,0.44142898450794077,0.4992558695750329,0.5106043405422825,0.4303646066280494
619,0.4337716954557783,0.4970646837787139,0.5027828283530963,0.42828057655716273
620,0.44369555217874995,0.4974144321901468,0.4974822207169118,0.4285654827788588
621,0.463747137415464,0.5019123917308569,0.49634426963942585,0.43031650505984664
622,0.47031875498527076,0.5026983248949989,0.49754235890983445,0.43292351319560696
623,0.4561475688279931,0.49905133338885416,0.49732884904440294,0.43663710362061536
624,0.4474122134920691,0.49306125750896695,0.4979848917935334,0.4383068376038349
625,0.470409700259583,0.4877640771600718,0.4987322003822537,0.4369943543754965
626,0.4912152804888063,0.4861298126470534,0.4943814656840322,0.4320662243452248
627,0.4846790937244092,0.4894220450608454,0.49242784042511717,0.42971207713279236
628,0.46901716970454577,0.4880372468104438,0.4955891930263781,0.42975178401649317
629,0.46078660373515634,0.4878865570136822,0.5030539899502681,0.43467155884041325
630,0.47111773209366703,0.4956910136954601,0.5125649521419982,0.44235177948445514
631,0.4795636181870155,0.509747341224174,0.5162235787089897,0.44241191737164004
632,0.4738689927737265,0.5229912100491277,0.5165197388237568,0.4256298651085551
633,0.45215643873581196,0.5327010635903807,0.5179237289806442,0.408236366665527
634,0.43636586219169887,0.534579815708881,0.5259587245431815,0.40239379515773704
635,0.4413315803789147,0.5265351754993316,0.5330227489001198,0.408835588078894
636,0.4541869751047917,0.5197925662256503,0.5373396526738043,0.423611379503117
637,0.46164994363846457,0.5096503852854855,0.5375751201523689,0.4345042528989118
638,0.4610595108935133,0.5015904584407348,0.5352204453667229,0.434408084530182
639,0.4580405037264103,0.49848609363334445,0.5360053369619382,0.4296130382088731
640,0.4603682967710517,0.5007502954921716,0.5151183919511243,0.4319580380438567
641,0.45843134841709243,0.5030914107614783,0.5163425247760154,0.4320112999545654
642,0.45637324616143665,0.5013156153471872,0.5134046188522338,0.42719867796668937
643,0.45657258473599616,0.4886416358399031,0.505174003574893,0.4206058220217558
644,0.459436401497227,0.47676248714797664,0.49983373281454097,0.4084686627790744
645,0.46508344185902223,0.47271812864387763,0.49256564586877005,0.4133425505332207
646,0.4686811269494012,0.48170501842591457,0.48370568535919733,0.4268856999214394
647,0.46881990894877484,0.49397957995034,0.47497782594970345,0.4384025909621236
648,0.45870523063548774,0.4988239996801844,0.46748872988089063,0.43993580802539145
649,0.4543601720459668,0.4899391099056454,0.45556463616740256,0.4319651425910584
650,0.46283886246092293,0.47903487979116066,0.45575560207105725,0.42243749936267205
651,0.47450695546970145,0.4779357294073006,0.4688121209723823,0.4180716469449308
652,0.47763456888320327,0.4815352150871145,0.4835344885143256,0.4255912128008784
653,0.47274735509964344,0.4881068510571623,0.49983866658305987,0.4250931032089851
654,0.4662650703075522,0.48726906248618884,0.508149753904012,0.42396257401754
655,0.46412398624984635,0.4876114525969465,0.5088152629657039,0.423176321538991
656,0.47335636212453114,0.4904012307463657,0.5060500844921844,0.4246427341533305
657,0.4819078787064929,0.4978785619459723,0.5113133177633712,0.42725696180767236
658,0.4804064932934083,0.5046754693195366,0.5172807204175751,0.42696955799395586
659,0.4766215625980438,0.5077240018355358,0.5196128551777732,0.4274169520116853
660,0.47632378043372253,0.5067469537446587,0.5168880066030795,0.4293424020482246
661,0.47737926232608663,0.5040659805168168,0.508387801939242,0.4355558782410067
662,0.4771787540636387,0.5063546631493915,0.5030931689569708,0.44116503391567485
663,0.4727767314361232,0.5066360797049143,0.503533377999842,0.44162947984411133
664,0.4681184143748285,0.5053267249576725,0.5084711654712285,0.4361321227700649
665,0.46708403686512284,0.49811902655841916,0.5130107624381681,0.42701779214922964
666,0.46810522452131964,0.4930271565657445,0.5112819162941756,0.42581036473604966
667,0.4698791364499064,0.4973949675315408,0.5064574675519207,0.43008282292016825
668,0.46885766018064323,0.5077524119981792,0.5007083251908168,0.43598191884090765
669,0.4656884453456124,0.513245152883176,0.5009515288343575,0.4368772727302674
670,0.4635763076965379,0.5003075576641666,0.5058294914700986,0.43546724258931324
671,0.4675547123977892,0.48396141825457145,0.5090869926674944,0.4312761183699584
672,0.47103285068928824,0.47778153056144473,0.5102910013518226,0.42889907006864736
673,0.4672894095301521,0.4918435091214893,0.5098428117160486,0.4304945266884247
674,0.46201037548877494,0.5181216099911671,0.5114274777472985,0.43472747726653727
675,0.4597366282801698,0.5346894682459007,0.5160545264571235,0.4351977568736595
676,0.46563711515572975,0.5325713118036975,0.5207686259689541,0.43644122099198074
677,0.4683125012795124,0.5185187240953395,0.5215840618519936,0.4272493495462962
678,0.45731094063279104,0.5120753949656667,0.5173556321835134,0.41192537191202266
679,0.4396376917084898,0.507136493731321,0.5130134095262165,0.4011310772257091
680,0.4288609086438707,0.5038293479055457,0.5107886495398164,0.4080754266530457
681,0.44054907132704185,0.500143635148524,0.5116458517371385,0.4298337389496706
682,0.4576805857012623,0.4943921648362399,0.5121141774590703,0.44654448031158844
683,0.4572964760461445,0.48707388218427383,0.5119419639376575,0.4515349862475391
684,0.44399415880551146,0.4872303703212522,0.511689632456848,0.43495797879080594
685,0.4337974842692859,0.49585272078137144,0.5123481910483467,0.4209874323357236
686,0.4418241076131824,0.505962330803365,0.512371425129342,0.42195586188356693
687,0.4561901406201109,0.5165668028489752,0.5120705688395627,0.4322564383414372
688,0.46655635227857617,0.5224609517669018,0.5065633263650406,0.43729724027823763
689,0.4589944013967107,0.5259621571134471,0.5054745239701168,0.43309957382910313
690,0.4479809205675274,0.5225962943846064,0.5100460197649156,0.4261874335093641
691,0.44709214326734775,0.5151564523719291,0.5178339094631434,0.42059290843338243
692,0.44820295473598953,0.49938560172717567,0.5246209663185347,0.4237260653206973
693,0.4503731400556475,0.4823807242461359,0.5268547797846539,0.42794206097168663
694,0.44897620204318356,0.47013634830466156,0.5252520506597602,0.42732972314075857
695,0.44847447210777636,0.46963143008912406,0.522348307593748,0.4256760826276904
696,0.449382011905438,0.4722125086391738,0.5252513985025357,0.42058688757789914
697,0.4516517356700894,0.466925298343957,0.5257216727717403,0.4211586276247091
698,0.45416038531427383,0.4624794126928338,0.5259579069328929,0.42761383124272384
699,0.44981876537398324,0.47032546337934933,0.5213101549754534,0.43800395957292626
700,0.448179843235771,0.49151324405712643,0.5241146985275266,0.4470904496858075
701,0.4595016378867325,0.5154997302440902,0.5284822351317474,0.4524822032718854
702,0.47316969586014895,0.5342070499546123,0.5285476000812643,0.4528993029249502
703,0.47466792170610295,0.530842988550428,0.52443854812642,0.4503383485342847
704,0.4703964874242821,0.5094578919732449,0.5175258090843339,0.45127739260451916
705,0.4659050008308908,0.48652014052905157,0.5113575060164826,0.4512091803782532
706,0.46633265730338525,0.4804404351324841,0.5093401385490826,0.4543135336138408
707,0.48012854798735216,0.4881977916248172,0.5147127002798447,0.45909771811094763
708,0.49145001480761635,0.5022803486473734,0.5142310291041795,0.4565520258090908
709,0.48774282011585324,0.5113979626661249,0.5134055047664352,0.43855171969183615
710,0.4804122178473126,0.506461697318526,0.513041316197214,0.419043111936956
711,0.48079697675351596,0.4969652234393465,0.5147492282723981,0.4122413009095122
712,0.4815699558024411,0.4953240475018223,0.5150465609540137,0.42280995522041437
713,0.4825167180410977,0.5034549449414316,0.5109965453760202,0.4445576337678821
714,0.48179185907111677,0.5101682194341262,0.505704561528463,0.457611874960242
715,0.4780930352795493,0.5132767262338136,0.4983917416177481,0.4516924247147038
716,0.4735262041262881,0.5103987766595153,0.5067753429507443,0.4359179790192163
717,0.48046434416126765,0.5052343482990088,0.5214642619423172,0.42617106259969106
718,0.48310708536217223,0.5009949934618507,0.5322103071625222,0.42104154150011536
719,0.46453351888040556,0.5002552982262484,0.5306020497119998,0.4202641100719047
720,0.4433831893724149,0.5005695900992838,0.5211286336854761,0.4203862376075037
721,0.43914605377654387,0.49947269781205,0.5105746990003824,0.41854939075377195
722,0.44802881971720665,0.4992549348800614,0.5064182407166368,0.4173790343857211
723,0.4588401165444617,0.4962352258790927,0.5125136245326194,0.41862953911286627
724,0.4579672147604793,0.4964369309815741,0.5135586751913539,0.42047070271400844
725,0.4373210214990859,0.5010957861746012,0.5146970469557196,0.4208520168624909
726,0.4202095908326203,0.5080513423682915,0.5141094044365253,0.420026410408854
727,0.4240873963976559,0.5146899690179297,0.5124342549910037,0.41921731690253156
728,0.4338773812740361,0.5197984598491163,0.5076016699121534,0.4177273422471514
729,0.4373731825561641,0.521408545070372,0.5062511307817585,0.4165783295689853
730,0.435717545904745,0.5165371073408713,0.5097248817766643,0.4150956920264708
731,0.4333515926466061,0.5106963471997773,0.51820822607661,0.4130392029247696
732,0.4360878443474736,0.5023161508481844,0.5249631903767464,0.41184018993118054
733,0.4388020668667243,0.49569774910268655,0.5264978332732794,0.41177549040383943
734,0.44166412674243044,0.4920418191437926,0.5202518627854453,0.41251872034387915
735,0.43295464507463055,0.4932584724986404,0.5113416354576568,0.4120143512528565
736,0.4302429305144824,0.49574470815150135,0.5084245949645249,0.41204322165284507
737,0.4523853214500884,0.49755533869267954,0.5096650453174417,0.4125725123193019
738,0.47934681278592733,0.501014232543347,0.5135561972771991,0.41343862431895856
739,0.4861763746603674,0.49922857930126857,0.5155420752412029,0.4143047363186152
740,0.47586429857950036,0.4984570995784842,0.5156133263503749,0.414834026985072
741,0.4615645525704734,0.5044784768119939,0.5147813803954946,0.41486289738506055
742,0.45971120354177897,0.5192014425339173,0.5150435022342318,0.41457419338517504
743,0.48154092829227757,0.5294404464081949,0.5153967232151659,0.41468398703317577
744,0.5005641668305026,0.5270438725096955,0.5158367807129596,0.41503646829828
745,0.4965952778583783,0.5146646805771653,0.514889848247356,0.41350920800430774
746,0.4858888349865932,0.5031922621275756,0.5137668509223929,0.4147572899467842
747,0.48577173884004976,0.5050760369627857,0.5162644579548672,0.4169361349216339
748,0.48580298095681446,0.5161842572406468,0.5214425120920867,0.4186613961530087
749,0.4832894647017745,0.5259469261634852,0.5248578747931878,0.41945956754777824
750,0.47192026884481886,0.5261958597636142,0.5243773686080658,0.41740376506425503
751,0.463113915302793,0.5183993316075128,0.5191270032953792,0.41565139810715596
752,0.4657797395737884,0.5100050110752414,0.5164779648222927,0.41631511993661374
753,0.4735586540276986,0.5042418889364871,0.5140649298788339,0.42108040475537517
754,0.48052949328388805,0.5035320539940242,0.5098660566926557,0.42421758725131054
755,0.4728701573714729,0.5061429141953521,0.5018590688745139,0.4242208272374047
756,0.46372823744283687,0.50461308807495,0.49357965239122653,0.4240258662208616
757,0.46482908813508805,0.5022062485752922,0.48633351983496376,0.4285089962077784
758,0.474680052470324,0.5012480518638542,0.48624340530885446,0.4419608251283385
759,0.4812115655045063,0.5052303638719351,0.4930679568644544,0.45251562488704566
760,0.47663988506482347,0.5107697319398443,0.4970444271114721,0.4492253147285658
761,0.46700380015510884,0.5170654719022546,0.5030663327969384,0.43323606445154594
762,0.45790959085059335,0.5167600615125441,0.5084975547607642,0.41716994191227363
763,0.45865496668045447,0.5116941019456069,0.5116593516686763,0.4130574668124827
764,0.4615661225225397,0.5069770145352102,0.5126493475641114,0.4201835675016681
765,0.45986744933178525,0.5022789677858668,0.5151190226927413,0.43032101763571756
766,0.45926241014496666,0.49960187699550845,0.5152178347078157,0.4334523781147425
767,0.4588926639752442,0.49969462400979175,0.5142297145570716,0.4316516325066652
768,0.4615946528452022,0.4991667317028695,0.5150238171130517,0.43203204388984934
769,0.4617907998508452,0.49937876962411504,0.515619755085511,0.43143875151572264
770,0.44582739935695925,0.5032661315136161,0.5121593711945678,0.4278109829472378
771,0.431912773740838,0.5096272691509814,0.5015579272758491,0.4218295201148962
772,0.4419397644073489,0.5158011910482921,0.4916630222979258,0.4169255848351824
773,0.45779836276262026,0.5202502001579572,0.487544106626077,0.4133697584124991
774,0.46668482782802867,0.5204060733571864,0.4904987497854936,0.4115217636988995
775,0.46130190762638934,0.5172560075744304,0.4977081057086319,0.4101181133225122
776,0.43179694655295464,0.515248025596708,0.5008627985274583,0.40857665753302497
777,0.4087884773088517,0.5165015836650181,0.500626653926673,0.4050696146394761
778,0.4278363363991496,0.5156159483843318,0.5022408164742078,0.40518846224996097
779,0.45512440818026145,0.510001400332789,0.5091013854889526,0.40986281367382654
780,0.4527778332035299,0.5006205745844109,0.5138472114894669,0.41516507174669054
781,0.44499224415962857,0.48928704386276733,0.5175274927879844,0.41902474282269414
782,0.43785423896072423,0.47860129045884464,0.519733329520785,0.42394292442310294
783,0.43969952747728147,0.4848184404178398,0.5208748612260169,0.4327239793877897
784,0.460092036543838,0.502543020935692,0.5254201025192887,0.4408756258064901
785,0.4780415515932296,0.5146940648795362,0.5273706610329861,0.4456966502830417
786,0.4751717249697886,0.5192774512597487,0.5263708416479488,0.44153880369900345
787,0.46803745580911027,0.5145816189216069,0.5234583210753734,0.43207804366375996
788,0.47208117997620586,0.5049117570141075,0.5220084023119289,0.42029817190270696
789,0.4746599972410551,0.4996034690243264,0.5208988877912067,0.42021627187554195
790,0.474987555500064,0.5033770291320312,0.5208383688173491,0.42835848313512864
791,0.47406588000771654,0.503198555773272,0.5214435585559248,0.43687483862593496
792,0.4725081043956873,0.502094021088429,0.5214839641701772,0.4433390349993637
793,0.4747439630137416,0.5004059827030449,0.5207575575888446,0.44613527746696835
794,0.47713195024268634,0.502795706230335,0.5208301982469778,0.4444189579878615
795,0.4758239262470556,0.5026766749033428,0.5221619436460876,0.44120425050972395
796,0.4685243485226701,0.4995317358293942,0.5243411633900855,0.4427936496148579
797,0.4612268590752264,0.4845756732455232,0.5263429633692371,0.4422576157203702
798,0.45992564467831903,0.4741219312208654,0.5279953374459199,0.4436557401645373
799,0.4623224389882791,0.48420898665419293,0.528432507611708,0.4437135629273222
800,0.46466240092984573,0.5005237999884259,0.5267565984426803,0.4415819825277057
801,0.46279077183823547,0.5127766171821506,0.5258141899396933,0.43450822914137077
802,0.46196182953345943,0.502230987131879,0.5211239966102862,0.4294792133781436
803,0.46145858307942483,0.48682018286959056,0.5136184763936917,0.42987801215631527
804,0.4686215107577578,0.4798971592618466,0.5036986305797341,0.43493695789671566
805,0.4724087124190484,0.49662056422106493,0.49749508529087094,0.4448630385836514
806,0.4636272325145363,0.5191736732414989,0.49710603490905925,0.4486630937780677
807,0.4511603919233795,0.5266156475680979,0.5041424591414504,0.44363694499365225
808,0.4460889487678919,0.5236323753840879,0.514948406446586,0.43444030456831967
809,0.4496768213555582,0.5136460538278306,0.5202138679026438,0.4340214808566509
810,0.45974727225141976,0.5093612751651245,0.5195641106852562,0.43386767267550025
811,0.4666760038753688,0.5057080670956904,0.5142387514618842,0.4331387858351251
812,0.46096495439944074,0.5042253082319218,0.5100400271324503,0.42783114582200477
813,0.45398973792220654,0.5047819507559723,0.5077202853997627,0.4184739372619004
814,0.45380637723328454,0.4996712897067759,0.5084665262070527,0.41510423862955514
815,0.4583230496577534,0.4999580392345711,0.508419525791778,0.42200210188970866
816,0.46215934479204795,0.5069791614528916,0.5105998128019628,0.4326045935366523
817,0.4632354538300788,0.5172419273263484,0.5115475832292754,0.43795692476120995
818,0.4576578815955697,0.5268802521607282,0.5035798693693139,0.44061642432651865
819,0.45597984125722135,0.5343980860702758,0.49574459669716225,0.43979630819250426
820,0.46464839948565667,0.5386273375643603,0.4945942279685474,0.44082624850219626
821,0.4753730118136391,0.5301483856016084,0.5020836040515718,0.4410448428940553
822,0.47770897649753713,0.5162526051266103,0.5158618332313308,0.43795998520032053
823,0.4743720863098299,0.49637531789633055,0.5273001828980108,0.4396172489236635
824,0.4708375978440971,0.4811623176990905,0.5268217643985367,0.44451507513434185
825,0.47051568019993667,0.4680842494060242,0.520896039815253,0.4447303351666424
826,0.4816531752680991,0.47069290537398756,0.5184932718815283,0.4389692675297287
827,0.4990244163740665,0.48362880344217163,0.5182829466669542,0.4261716689846625
828,0.4909737381819948,0.4980235299266746,0.5183757787807707,0.41308087053996784
829,0.4516784819434612,0.5137948678371816,0.5170265230384175,0.41062165019986224
830,0.4160544529291621,0.5234329076713803,0.513966067215792,0.42355516788278885
831,0.3994413734029009,0.5233257501563164,0.5094005456204437,0.4375135512432574
832,0.4067869182860211,0.5195061798806263,0.5062857039553758,0.44643031426717084
833,0.44243307869982806,0.5218466167141977,0.5111208182989058,0.4489730594932243
834,0.4648524068844016,0.5196132311535017,0.5176441553465863,0.44493642686212714
835,0.4434514200185384,0.5129203170653343,0.5197631254870027,0.4425166398006046
836,0.4084220244133776,0.4993930147217711,0.5177642044605938,0.44159466078548787
837,0.40008494408092193,0.48096934238921185,0.5135505722774548,0.44118676535174245
838,0.4203244699052441,0.47134236132728924,0.5082281798469789,0.43914306147141435
839,0.4615485864595187,0.47566534883292827,0.5064085479525438,0.43596321766500046
840,0.49397183527420374,0.48885967230203076,0.50624582262165,0.43732898609083215
841,0.48924677556537555,0.49975996251983895,0.5030971168001938,0.4373961096649463
842,0.46052392079416127,0.5075535706731589,0.5015982398147781,0.4325660325173398
843,0.4406426782950504,0.5123164017014485,0.5015164828883009,0.4235881058196958
844,0.4424959732781412,0.5188542400431669,0.5039956156511897,0.4153156443306355
845,0.45619205659827644,0.5289680500490563,0.498867529549338,0.4107928817814399
846,0.4646313115327042,0.5346203751861454,0.4988494886757508,0.41137405954623796
847,0.4694793177843622,0.5349405265754675,0.5084029006648015,0.4149351213882531
848,0.47565416306247055,0.5313290576748622,0.5217892716262037,0.4143869028526784
849,0.4820538010552243,0.533944830979947,0.544011158609256,0.41451740366378925
850,0.49586143052971615,0.5367235338818181,0.553170312944651,0.4122140519934808
851,0.5026110442250094,0.5327139088561129,0.538441154163555,0.41252334156997145
852,0.49595009290057285,0.5213824149064469,0.5120885637406003,0.41783194281968844
853,0.48437292549049915,0.5069304048058239,0.49704636815794573,0.4266493978757368
854,0.48316826379468,0.49463913737712784,0.49261109898348476,0.43549159737728693
855,0.4893343354386112,0.4896202620734339,0.4998148923462235,0.44123660193894365
856,0.49293700842050564,0.4920889899629952,0.511927407091241,0.4423063473433704
857,0.48229821196918693,0.4953498704491662,0.510555241122404,0.4392397484913943
858,0.4630546794983628,0.4950669669159472,0.5082978446612468,0.4380172325068747
859,0.4557574639489447,0.493361512900688,0.5086962366054714,0.4356921277578508
860,0.460135445518123,0.4901106603330122,0.5096833880278407,0.4335542425465096
861,0.46698213433000674,0.48471701053343813,0.5071916676237462,0.4338854410609405
862,0.4636283026472246,0.4823415444075134,0.5071408320898995,0.4333151494204243
863,0.45222670494704004,0.4837920109192519,0.5108342346296518,0.42964908030474125
864,0.4442655707077463,0.4899215470549394,0.5223956641883704,0.4279552469722125
865,0.4552218290589923,0.4945261124160702,0.5310218154738476,0.4299811161933707
866,0.4656960968345244,0.49353411374303524,0.5306619089648444,0.4392456669532638
867,0.45678026695982316,0.4886500767661674,0.521194660465606,0.44628791016361163
868,0.44290015844188496,0.4853588607429487,0.5080568632383873,0.44552806908848963
869,0.4352218068472472,0.48856925998521855,0.5018719701359782,0.43692911097564435
870,0.4471213390625515,0.49664520814579827,0.50121006233773,0.42437699865432527
871,0.46558434045743907,0.4984472892637115,0.5044725812771566,0.4186265662234044
872,0.4747761187750024,0.5003956320927042,0.5036153479652336,0.42695073850150217
873,0.4686844268716509,0.5077797463910737,0.5027820258059467,0.43845373827496836
874,0.46025635441600565,0.52103319581846,0.5058292356670407,0.44087218814479623
875,0.466162336305152,0.5337807990354694,0.5034414778550192,0.4374135552349747
876,0.474987764251965,0.5465396161830504,0.49956809036323147,0.4242770027289729
877,0.47887452304523553,0.546571756584679,0.49467373367786865,0.4158209664498168
878,0.46653021206682754,0.53394696064398,0.4978863579652125,0.42702738636030146
879,0.4523719867354496,0.5228266041825563,0.5063801886616023,0.441928318612987
880,0.4613835396691033,0.5104266812736923,0.5143452846995704,0.44604268502580247
881,0.4715899502199514,0.5017831521322592,0.5171244898230417,0.4413601738270023
882,0.4609127055495014,0.49928300159312045,0.5098323573402574,0.42750040083165913
883,0.4388336311247552,0.5009829880271879,0.5035265135021322,0.41362354084711167
884,0.42897444179308236,0.4954492215962732,0.5018875924513162,0.41208677556958423
885,0.44311472600107893,0.4953252631301394,0.510942265382952,0.42107854606349676
886,0.4760803507090988,0.5015500758203872,0.5185857166235197,0.4348228587339619
887,0.5022911993788365,0.5100639703089475,0.5220672810674203,0.4427037860898242
888,0.4962864821701857,0.5146324695889138,0.5207051394525642,0.4399745185467593
889,0.4781522837387553,0.5134044855168871,0.5158357900161897,0.4313706027592695
890,0.4734190173948318,0.5072360375648773,0.5122161041436417,0.42432571173289413
891,0.4729277669351398,0.5006907372481474,0.5130514393583268,0.423882020475014
892,0.4723540660567537,0.49943523883161095,0.5149341199633115,0.4299663958944961
893,0.46668854807597143,0.5002969394385984,0.5149069422097242,0.4333458903067326
894,0.4612363432092437,0.5008503169932221,0.5144507533304473,0.43103454398898844
895,0.45800958865701497,0.5005960306333272,0.5145561203512433,0.43097902417454714
896,0.46085238943321516,0.5007555990477741,0.5146972755013541,0.4315193105596727
897,0.4552704322796939,0.502859377322211,0.5174638125392517,0.43078998336392466
898,0.45253015936667956,0.5000978049298817,0.5141009340193908,0.4275074084468463
899,0.45674413986426615,0.49452492076207927,0.5037596092597958,0.42263039200139585
900,0.46586411164085256,0.4755769099262015,0.4897537390311815,0.41949842780725244
901,0.48277518026087995,0.46711996099808895,0.47790048594638324,0.42199332604213347
902,0.49288117763800254,0.47569882427323923,0.4726863106875906,0.4257635735335348
903,0.4777837871622469,0.5061208760208913,0.4746107509047714,0.4266970536343197
904,0.4579068079408322,0.532713609325242,0.4793893153693347,0.4237742485710448
905,0.46221461361277233,0.5412314250925169,0.47328480350626895,0.4188156930500741
906,0.4753730519456024,0.5154016131589988,0.47350474364495476,0.4170409613807175
907,0.4833537981065561,0.47489741403405294,0.48358427772418094,0.4194109055558786
908,0.4726115907974003,0.45041623545980247,0.5010292202672247,0.42308172476067774
909,0.44425395537541384,0.4492310146208561,0.5188289982320959,0.4254287933483472
910,0.4232682387683535,0.4815709054478533,0.5301218728036279,0.42117268576978356
911,0.4278899509068937,0.5128877087600645,0.5313321155660247,0.42008366913241696
912,0.4430910242630901,0.5264016519511503,0.5257903611558958,0.4299088492159336
913,0.44149336132801986,0.5130070414041278,0.5265795216631065,0.4443159736494376
914,0.43980848646193466,0.4867569922130512,0.5284736305348804,0.45398827689916027
915,0.44439199488976183,0.46941345847881955,0.5293593758469475,0.4511804946633812
916,0.4673094612938998,0.4803746999165843,0.5256888060798596,0.4365717125214414
917,0.48568164930446384,0.5078233197202859,0.5162605591754891,0.4185909213901796
918,0.47998666897500236,0.5321556618339379,0.5069227912141694,0.4127436331041704
919,0.4632802974846127,0.5391135887186176,0.4996130599098317,0.41280084074224394
920,0.4530118543859414,0.5260235821412418,0.5019416631273095,0.41371347142361375
921,0.46719016177173445,0.4975651480841011,0.5126039227525855,0.414847047113666
922,0.4777276232956408,0.4829657586086383,0.519611409690958,0.4153190341032752
923,0.46441981082101197,0.4814470087397851,0.5245240320806717,0.4115196441748357
924,0.43300685182195464,0.4932204604292694,0.5180122297340024,0.4091321466042591
925,0.41310108615164237,0.506078249946379,0.507853162920077,0.41196789218850133
926,0.42352264863889044,0.5106674121760473,0.49932572897722116,0.4209719259693182
927,0.4473788389704165,0.5109903908223404,0.5026204997141536,0.43328075903900976
928,0.4643092142047008,0.5077606043594092,0.5137844286185399,0.44218441271768744
929,0.4613360208222037,0.5092490641026424,0.5303348063190894,0.442713578551215
930,0.454232038473422,0.508013471335874,0.5366738493695287,0.4363095266551117
931,0.45895185691144047,0.5081370306125509,0.5249751077158622,0.43116885787138143
932,0.46370232881203144,0.510019317458091,0.5047237598025857,0.42674593867276583
933,0.46643169068068013,0.514267130376254,0.4879326268773041,0.4248406380664734
934,0.4625011115840637,0.5196826138967393,0.4957719862386025,0.42468535341110564
935,0.4603088526890133,0.5196591917025478,0.5182639171214924,0.4241977054950071
936,0.46870664999755096,0.5129927940923013,0.535541975994945,0.4241363325439246
937,0.4798488163145988,0.5026154578302217,0.5316348796550974,0.42588752233113264
938,0.48661080208355445,0.4957401982369484,0.5128815221931793,0.43056613664207877
939,0.4802689665220419,0.49336316936520247,0.4905558041116136,0.4261877166047183
940,0.47051801144901256,0.49298144597792276,0.4899314613466663,0.4170017909577499
941,0.4708198665404634,0.49029835082556517,0.5081891705117589,0.4110306252247188
942,0.4797323537140178,0.48422696593969056,0.528270484253924,0.421637590906357
943,0.48613378156810555,0.4795078743681791,0.543408334152794,0.43970296305802214
944,0.48122973115495477,0.4772952992426439,0.5424987398326859,0.45303888495589806
945,0.47309812649359495,0.47856249210841495,0.5217659995849905,0.4491068240479496
946,0.46563029773844156,0.4797664910740939,0.5018640200823197,0.4341563427522011
947,0.4704591248490371,0.47470391988739846,0.49558476595703516,0.4266953428568053
948,0.4757930217070883,0.47370265244118526,0.50273668855385,0.43156528357881774
949,0.4699637723478654,0.48108909717029125,0.5183621889062906,0.4409516848654945
950,0.4630479238772937,0.49417120042356355,0.5233025116995822,0.44017467666656934
951,0.4620174705988289,0.5135869356330811,0.5112350518959784,0.4346849342601962
952,0.4645446108733806,0.523573183626423,0.4949221915386699,0.4270351933669117
953,0.4679542921214534,0.5164102768965313,0.48847364186664577,0.4237447995404846
954,0.4642762159224252,0.4934250515937896,0.4939033675104037,0.42404835793879536
955,0.4576251297439099,0.47976327639592375,0.5159379953119492,0.4240479923512903
956,0.4554278678705907,0.48000552148544523,0.53414565414261,0.4243758742506442
957,0.47237059709571894,0.49243015331460027,0.5367928781199777,0.42835356318477874
958,0.48621449482117657,0.5154887880026826,0.5294969133214942,0.4345981243005457
959,0.4725549263308536,0.5227335552720555,0.5177286028611007,0.4388770548075056
960,0.4517687138255707,0.5133055165007776,0.5096426294854409,0.44816572000323973
961,0.44921273385573823,0.4947736215342909,0.5103244160513024,0.44782996565040933
962,0.4591217320221435,0.48515554659119114,0.5137857064290947,0.43579006464974784
963,0.46853574353641675,0.48245838989962636,0.5124681703471511,0.42017917097579666
964,0.4614807579941197,0.4859202276805804,0.5111240256251114,0.4050146839854531
965,0.43914979086979666,0.49065532485537666,0.510915991639757,0.39163556293396906
966,0.4264107097043578,0.4846128991419102,0.5119736010480994,0.39143373058622094
967,0.44997762380558187,0.47850293650105086,0.5136138049668311,0.40313091540647045
968,0.4742184118994428,0.4780239100307576,0.5152958162066925,0.4115676574718762
969,0.4636767459273853,0.4828581144376923,0.5167222078252107,0.421896115082249
970,0.44480621578940305,0.49104424649197936,0.5177316891675886,0.42791815326759697
971,0.4352071275698134,0.49573369929965816,0.5178558431238484,0.428283835583339
972,0.4463748803135622,0.4897867110175479,0.5181182382121374,0.4253091500291745
973,0.458226406948012,0.48409196587507186,0.5172669010038456,0.42717010294353563
974,0.4583012986522428,0.4867809141541558,0.5163117530620797,0.42793387572806696
975,0.43622482016715153,0.4995873159439469,0.5156822853824153,0.4282507305633917
976,0.4196804192365304,0.5113345064335909,0.5178364316885513,0.4282872588401848
977,0.43026332652077137,0.5126464054035728,0.5227695993736435,0.4282748063114692
978,0.448069283629823,0.5011305629317909,0.5146927416045234,0.42891844417569525
979,0.45535448739551054,0.4844327280572685,0.5043855974283779,0.4288318432649492
980,0.4492733009885541,0.4808227290421216,0.4988463413790019,0.42878943041999457
981,0.44376790168070424,0.48680623958762687,0.5014776823218564,0.4290765763202597
982,0.4541807066661563,0.5005642629528462,0.5108232407156605,0.43366690280594833
983,0.4715001365182201,0.5087250210332879,0.5213723394081261,0.43615899653809814
984,0.47799216263712785,0.5084550695109513,0.523714098082352,0.4345769587031521
985,0.4740283087950608,0.501727235903086,0.51833648291881,0.4256108370305687
986,0.46826481589272856,0.4949897416424169,0.5193190205354855,0.4180969699025146
987,0.4687000067292801,0.4974359517514229,0.5207099202577564,0.4173771020933903
988,0.48330455334430344,0.5047731509659911,0.5205737836551878,0.4259896247582653
989,0.49245192483841715,0.5128208752934055,0.5180779459414295,0.43631864876235554
990,0.47827833584744256,0.5109756091433479,0.5139938478643705,0.4374812876753134
991,0.4600703565494417,0.5039007380251137,0.5109135186908607,0.4269370740214492
992,0.4590783683076966,0.4989501775193712,0.5054251850510507,0.4185287789410858
993,0.46346250395244554,0.49929066567984576,0.505533746765759,0.42515671915765313
994,0.47009368095887055,0.5032928183004656,0.5124214849963448,0.4394712875441333
995,0.4671817743977005,0.5084558468503723,0.5211050757683363,0.454248187328541
996,0.45516575457451813,0.5109963072198958,0.5303082929616425,0.4594993597836734
997,0.4486953142009521,0.5096279123006834,0.5359983189925264,0.45557072138672755
998,0.4619665351094483,0.5092682339078882,0.5361684261428056,0.4482475089117426
999,0.47567333716951754,0.5093142136707763,0.5336574264816736,0.45059443692848783
1000,0.4713430406920156,0.5093436741626995,0.5340204320587248,0.4514107786879795
1001,0.46140365112196124,0.5096925922369648,0.5361079724489077,0.4483256832019708
1002,0.45880120512673883,0.5094735434290015,0.5336475492498814,0.4437285229851535
1003,0.46299896917786154,0.5110673071245418,0.5201740344384596,0.439465519320054
1004,0.4656833264957558,0.5163997956956359,0.5064580027362369,0.4359291942600173
1005,0.45863162298833454,0.5092172898896843,0.5013107867621659,0.43368143044788304
1006,0.4461406665988721,0.4917746365501118,0.5062353676202964,0.43059719405846386
1007,0.44106953928313675,0.47874411715045107,0.5207524428713006,0.4288910452041764
1008,0.45612368386479046,0.4783163868114621,0.5328270278731249,0.4321451735220049
1009,0.4718380524479089,0.494395687425572,0.5279914024343615,0.4421931806843671
1010,0.46688062849153167,0.5151679046618644,0.5147140693658503,0.44911111065350423
1011,0.45500260539454784,0.5193103958105089,0.5067751583847157,0.4490127087526268
1012,0.4525017234949425,0.4979595354552949,0.5040350338073725,0.4373291429587976
1013,0.4573833436118319,0.47952642290694125,0.5076064518295562,0.43089055849277386
1014,0.4590446674787825,0.4678000264426133,0.5142773674925488,0.4323794041973096
1015,0.4508029600574235,0.47131699072249555,0.5151588486142316,0.436025283816895
1016,0.4333090398800885,0.4899933681746028,0.514948365074231,0.4381359810174017
1017,0.4252503437785174,0.5059393770168722,0.516734847144834,0.43348443391832914
1018,0.4362319739094877,0.5121646959196156,0.5205499610931166,0.4283169267969036
1019,0.45300422891504843,0.5100208817099485,0.5236784971396622,0.42571156472576677
1020,0.4593740036422354,0.5049503609904574,0.5252693970217192,0.43087458384047567
1021,0.4614542222525912,0.49817765403434744,0.5250398822706751,0.4314033775797011
1022,0.4587141827282443,0.4994886994330889,0.5242941357627057,0.43148083167897056
1023,0.45868032805951164,0.5011786287862365,0.5245776707368381,0.4310841824336468
1024,0.45843225377728053,0.5011073693920735,0.5157184034099893,0.4312182753062802
1025,0.4569919462755535,0.5026264100973213,0.5155445060895889,0.43109083285282884
1026,0.44848360226884565,0.49946677264536504,0.5123563885489139,0.42934760561733293
1027,0.4443488195748269,0.4910941216904888,0.5067803173595246,0.425627110408823
1028,0.4572247754931761,0.48225119478765693,0.5026408524796375,0.42346116567744285
1029,0.4724426243674382,0.474301480029719,0.49934498946574984,0.42068404699338696
1030,0.47950434167887135,0.468983249382148,0.49719575846978387,0.4170565806557013
1031,0.4654648982050673,0.46644231632923294,0.4957023674774085,0.41256547914740826
1032,0.44701256496549585,0.4631241350851793,0.49265291713583925,0.4096783468133539
1033,0.44733442248543714,0.4592709659679416,0.4887809617230331,0.404920714252749
1034,0.46430493053857674,0.4600702676627406,0.48772870863307644,0.40496266267159065
1035,0.4784863584774078,0.4553821258234719,0.4931176350166955,0.41014666546709394
1036,0.46404516698952286,0.45661435225902264,0.5022048653296131,0.41417972899741573
1037,0.4475072123126801,0.4685017117877678,0.5114224129956316,0.4198470091792882
1038,0.4406463810948078,0.4870226335103905,0.5188723303320566,0.4247947878633463
1039,0.46769106228406826,0.5047013543322213,0.5231052594166901,0.4292671132135411
1040,0.49440561387100324,0.515995832150101,0.5268756215851154,0.4304524307134387
1041,0.4863563785917024,0.5169683604033626,0.5323514408862873,0.4309179259652732
1042,0.4665859597566438,0.5116220060096393,0.5333942162398959,0.4277416173513865
1043,0.4592302066389574,0.5068128613230425,0.5272562423602223,0.42292537253702633
1044,0.4682687251495693,0.4943032519427952,0.5170846428310938,0.4211117660897971
1045,0.4752180733007097,0.47682923989813597,0.5091090194609207,0.42203775940727656
1046,0.4736365630574002,0.46442712360390587,0.5068107558912801,0.4243010036923756
1047,0.453124297200225,0.4647250215215717,0.5106582764857737,0.4246495307219845
1048,0.435949617765121,0.47699804871814666,0.5130137000707451,0.42245040021973357
1049,0.4388362394655353,0.49392591458041857,0.5160116898041376,0.4222347020670871
1050,0.4477357956418993,0.5055418302076685,0.5199633656078787,0.42574418389516483
1051,0.4430694054169337,0.5110531604157053,0.5239558880521235,0.43214073271752174
1052,0.443456294023684,0.5111102442594591,0.5272934657082712,0.44062789270464436
1053,0.44780667965030097,0.5104786600041403,0.5304659628781353,0.4438655069966289
1054,0.46242363932941494,0.5081962390263466,0.5311212936950339,0.44115666845494944
1055,0.4736217292563958,0.50503360948745,0.5289726879079207,0.4326477716632409
1056,0.46779871775114773,0.5013771552720633,0.5263098560505562,0.427502939520423
1057,0.4554245725239345,0.49891017321403885,0.5222837595594829,0.4269868259637616
1058,0.44751179396442053,0.49828633278165985,0.5180536806913787,0.43543263726421577
1059,0.45547707901570816,0.5002110535019628,0.5150314002210158,0.44423023254023286
1060,0.46624003756305354,0.4993205256403279,0.5133012879400735,0.44693924924392053
1061,0.46935691669687496,0.49762699709898894,0.5125981894888266,0.44040226622002926
1062,0.4592894832094616,0.4957317870202565,0.5126487224947353,0.4270429715660343
1063,0.4501118830689877,0.4952315535906182,0.5134452878181889,0.4206345666113007
1064,0.455445525885331,0.4970114703721431,0.5152826337503492,0.42675019205517656
1065,0.46212078318490335,0.4999496629008202,0.5158901796974615,0.43846535809958564
1066,0.4652898696198983,0.5015787027709063,0.5154256174237938,0.4433374135477498
1067,0.4563967450948297,0.5006003650429072,0.5125663709677283,0.44057385757377665
1068,0.4484971240404874,0.4968899988047716,0.5121558840697434,0.4290771705800294
1069,0.4552770775609632,0.49532630519088583,0.5157490527104511,0.4207959303505138
1070,0.4656878248934801,0.4980330128371492,0.5209970635282944,0.4203410529267455
1071,0.46858302269970664,0.5053052777467736,0.5275522618984471,0.42413702283087085
1072,0.46262832132514986,0.5140494648335285,0.5328075218834395,0.4245765366374887
1073,0.4593261489770485,0.508058488836055,0.5358740451930624,0.42453856325177636
1074,0.4618330569240983,0.4968578549450616,0.5360881379804275,0.4271417237157974
1075,0.4825990902217759,0.48923233597921245,0.5415329812598418,0.43132143494015107
1076,0.49837754295143494,0.49276419844971087,0.541364640902193,0.4395167714996884
1077,0.4889507415007062,0.5025683945968035,0.5340293397597471,0.44439821352316006
1078,0.47142978686545794,0.5155961117213579,0.5238519195860467,0.440296027022027
1079,0.4680181691364363,0.5174635916923903,0.514578980709922,0.43382841204787276
1080,0.471557506104698,0.5079390897498589,0.5045301330589377,0.42960879128120305
1081,0.47689006641757614,0.49985095143285824,0.5045446327582683,0.4280762472306892
1082,0.4730481109310213,0.493003027233896,0.5147143112370076,0.4290892472023361
1083,0.46074753652386763,0.4921845812373159,0.5244705734241524,0.4299042394448754
1084,0.4554397830824962,0.4974655947687585,0.5353263351089446,0.4275627651383585
1085,0.4722627460910149,0.5046209676999039,0.5421975150947415,0.42753309159659475
1086,0.4890568227031584,0.507043086774504,0.5420611353951973,0.4317262647550335
1087,0.48143675692613125,0.5072141764642139,0.5385924321318883,0.4345836094171118
1088,0.46749106342317387,0.5055032795671155,0.5417986417418181,0.43586484098883777
1089,0.46592065504495667,0.5059733951714513,0.5385107441831506,0.4376395861639756
1090,0.4749342351341798,0.5062739452555421,0.5288519061042781,0.43776267911915023
1091,0.4813323664554921,0.5062438902471331,0.514550310176895,0.43297268801249933
1092,0.4778301027825498,0.5056928817596332,0.5048935356804071,0.42278317278902283
1093,0.4608181942762458,0.5047912315073607,0.5045221578356767,0.4114337658006013
1094,0.4473251375860927,0.5038895812550882,0.5157384159202174,0.4006545610480255
1095,0.45607017614941636,0.5033385727675884,0.529143338204895,0.39741122493421427
1096,0.46676774364578194,0.5033085177591793,0.5359489973032733,0.40205952199124895
1097,0.4596416291285916,0.5036090678432702,0.5353988465580822,0.41086085282584567
1098,0.4505100164993754,0.5029115096627161,0.5288809708137063,0.41242511407393545
1099,0.4484950636377964,0.5047036341202874,0.5225774373882375,0.41305550120135803
1100,0.45207034816532804,0.5045244216745303,0.5177897337737805,0.4103723616787268
1101,0.4561582726100718,0.5012388601689829,0.5169334854580793,0.4142652545536797
1102,0.4526053999968562,0.4958624867962691,0.5169327190012389,0.4303282289970445
1103,0.4436275793428037,0.4910271751358303,0.5191003444432305,0.4516219173705565
1104,0.43852275010468716,0.48611842849345815,0.5176714673635585,0.4628343801862962
1105,0.4562287796527417,0.4861015345613835,0.5154020277544296,0.4561547293302949
1106,0.4717433963298634,0.4908694984364669,0.514473728890188,0.44398091821544594
1107,0.4494937033079154,0.495154595314702,0.5155824412028214,0.4288436167008572
1108,0.42530391196569073,0.4999724855773714,0.5187281407939397,0.42436577206429693
1109,0.4269687512569775,0.5021297212222426,0.5233284108887328,0.4271634723462857
1110,0.45643724626172644,0.504509638531532,0.5243644329127284,0.43157995868464455
1111,0.4820382194264845,0.5039730375090001,0.5197026992569462,0.431314320825597
1112,0.4781832945207911,0.49964737332700204,0.5132463549606215,0.4304443422347997
1113,0.43330546990128604,0.4899015005976974,0.509892319509786,0.42789292543276164
1114,0.3998932450106941,0.4777584505725126,0.5099871873092938,0.42534834842104907
1115,0.42780095434939314,0.4665873824873617,0.5125337478901622,0.42587790745980686
1116,0.471047041561577,0.4663794174304549,0.512710717717864,0.42861025689809656
1117,0.487039025881839,0.4790159435000974,0.5136283575705562,0.43108878393660854
1118,0.47889047157287257,0.48931847175767823,0.5176295645882166,0.4329797605628698
1119,0.4632232481396287,0.4970822406700943,0.5265612467591141,0.43142799070629956
1120,0.4654373722398649,0.5032987411151189,0.5351544936951683,0.4262594736688282
1121,0.48169707019528074,0.5077796444818722,0.5354258637080475,0.42436446968051245
1122,0.4926443699496141,0.5144251997005594,0.5307374385063685,0.42748257984814986
1123,0.478880037374082,0.5211585419874836,0.5210163414658501,0.43629103058968066
1124,0.46400830534689225,0.517686629284161,0.5120126814791857,0.44409031426355206
1125,0.4687288653939707,0.5038056214095288,0.5036045590012563,0.4424003222101868
1126,0.47783447560475506,0.4891145095598627,0.49912078973995977,0.42866692918305527
1127,0.4826728518077786,0.4824420144774368,0.4932016575361736,0.41735273500453296
1128,0.4782837288147254,0.4932416634055223,0.49377247191676943,0.4168210638529681
1129,0.4723012316875559,0.5119931097818222,0.49905050967818027,0.42504565000481603
1130,0.4700690559790272,0.5169823520443823,0.5043785875308242,0.4377690393193407
1131,0.47593149660966627,0.495307705791631,0.5098123786581877,0.44427532672476844
1132,0.48033833098209594,0.46446018408021333,0.5132451160693398,0.44110843793422616
1133,0.4754980430063408,0.4503804294848921,0.5146371830189145,0.43413121094244433
1134,0.47022192677894215,0.46455307304119675,0.5140430036783844,0.4312524318035454
1135,0.4705193383692296,0.4943064976445783,0.5149213475112128,0.43155869650659573
1136,0.47243232931460993,0.5160812076759963,0.5137892346156941,0.4348358676824643
1137,0.4744051926895046,0.5204281110341076,0.5115052360286145,0.4372885982102324
1138,0.47113160555579886,0.5151320309325754,0.5095752684491313,0.4361757313587246
1139,0.47068644112035185,0.5141124004965298,0.5095547298475357,0.43072375033057747
1140,0.4744049492294698,0.5149958619110775,0.5107372533785276,0.42709270858015663
1141,0.4845464154590676,0.5152265022914584,0.5113058739823666,0.4291410386471797
1142,0.4933449449527713,0.5151397138496916,0.5116060581189287,0.43333011077237577
1143,0.49325083148641213,0.5147609850626471,0.5091195093809157,0.4348427120368267
1144,0.4882405176353205,0.5142126860143171,0.5101349679669774,0.4328458305652416
1145,0.48507684385834204,0.5139614957284038,0.5132079964373769,0.42963397492612915
1146,0.4900540068120322,0.5120727648961207,0.5162708549632388,0.4272410647525857
1147,0.4913024233732846,0.5086211848290747,0.5178960959216059,0.42871483972212887
1148,0.4860894796227871,0.5046717888831685,0.5171297233094364,0.4310959472395321
1149,0.47334088270191627,0.5012609538825065,0.5148791730065772,0.4316184136956392
1150,0.46116221305171845,0.4998765640157725,0.5132093522601149,0.43124933609604904
1151,0.45651919657189394,0.5001704901680408,0.5149666050205107,0.4310609681573276
1152,0.4591658479546036,0.500858739585785,0.5151988548741849,0.43107138468627476
1153,0.4544545126435839,0.5019887605732332,0.5162932094457243,0.4323330571438156
1154,0.45287060082026565,0.4999690860624881,0.5140479039397672,0.4305325752410139
1155,0.45568854478381066,0.4946046645472956,0.5053613946715013,0.4249504862450405
1156,0.46791381742397364,0.4875301874643853,0.4948823134455023,0.41840892426251686
1157,0.4782663237646564,0.48256026436828126,0.49203606981970127,0.41222322353700513
1158,0.4716523157113737,0.48067305301620494,0.5027935159740532,0.4081836749061614
1159,0.4604158440367512,0.48003755898292894,0.5180382643974903,0.40672928804740466
1160,0.4558489579872872,0.4774624344809698,0.5257347328572067,0.40649349425223014
1161,0.4677039480265096,0.4731217630018694,0.5229162651049918,0.40485177439135106
1162,0.47845263947501304,0.4699194491441059,0.5107690598003302,0.4046846422055904
1163,0.473566370613368,0.4681520292389127,0.505206334261358,0.4071871756024949
1164,0.4552175375527816,0.4678909202309941,0.509713713144107,0.4023141467190512
1165,0.4410996381059697,0.47190686260125203,0.5230975858339604,0.4018105902345373
1166,0.4498344714055509,0.48291655751309276,0.5312658063319301,0.4094751616061175
1167,0.46279830613261375,0.49833094280250556,0.5282581218131709,0.4235924537712403
1168,0.46894097671724616,0.5122705197079941,0.5195675997466613,0.43921609718607096
1169,0.4552583798095178,0.5196686640556637,0.5136285573109318,0.449379705318386
1170,0.44175503011838885,0.5204334301954765,0.5161657772531171,0.4467263339255811
1171,0.4492012303861228,0.5180946520702826,0.5273935184518403,0.4356812447942274
1172,0.4619573777711706,0.5204667350322856,0.5341367464058968,0.4298267539082973
1173,0.46579031466396115,0.5230391389521529,0.5264973434542252,0.42858635687819496
1174,0.46046446198776747,0.5190396736275342,0.5100512090442427,0.43212703775574074
1175,0.4545802062510071,0.5068716040786667,0.4992870271595944,0.4366070583962856
1176,0.4578207541272166,0.4937466165843174,0.4963084218017916,0.4388765692283664
1177,0.46988027434782853,0.48405201495397754,0.5015267436709522,0.43543875974559654
1178,0.47597861060998337,0.4869883165477219,0.5114735645134927,0.4310289171628869
1179,0.46179362820131975,0.49981930788824924,0.511667552056289,0.4278731099017248
1180,0.44729910941923656,0.503671785412665,0.512052039686689,0.42950541744464504
1181,0.4518736989366987,0.4994212577099816,0.5138185354500258,0.43162726961720915
1182,0.4618381691120475,0.4927403083770903,0.5203814522421859,0.43670143157424257
1183,0.4671298827020339,0.48552983857882964,0.5256208660827837,0.4356632240050071
1184,0.4615462517375654,0.49221951201347824,0.5313578707008075,0.4295228315721417
1185,0.45570519365877354,0.5125924672825292,0.5313453074457388,0.42557766387413176
1186,0.4551750606383366,0.5289803344923165,0.5252984701588223,0.42637282105219665
1187,0.46483101766529716,0.5313576049890539,0.5202174604135815,0.4303465177786253
1188,0.4731652809181038,0.5241074838968913,0.5137694661723214,0.434551484368
1189,0.47095896385055436,0.5091431667944761,0.5095380113393235,0.4361001459530609
1190,0.46640014782093525,0.49728262935727763,0.5067579840254536,0.4304440162519211
1191,0.4646929743448052,0.4975857572423837,0.5051383962074156,0.42893132473358375
1192,0.46784322277568596,0.4976054428608189,0.5028508240538063,0.43301810506142774
1193,0.47014829179059836,0.499651824382424,0.5029208292375796,0.44020685923214703
1194,0.4649696310608051,0.49867893390508844,0.507035560985364,0.4435729577839963
1195,0.4587116155402966,0.4954844587527512,0.5121286075162369,0.43299113737612227
1196,0.45788758395512924,0.49103081232372875,0.5156953076493127,0.4218613217633094
1197,0.45985122389938515,0.48417337967551144,0.5154168131150363,0.42518685995434674
1198,0.46473953890479697,0.4805747609141299,0.513363679484751,0.43869952010525926
1199,0.4613167993070095,0.4842160317957316,0.5131510177439222,0.44862935152493555
1200,0.4509308866017749,0.4918137737897106,0.5115082041019873,0.44459344476284635
1201,0.4367104937051733,0.4967251052910242,0.509231728111707,0.42698743194170763
1202,0.43717197710366906,0.4987811939476183,0.5039962815146195,0.4124019234566164
1203,0.4532170005891422,0.49769999278946997,0.4983895303602766,0.420002043747169
1204,0.47244626621342856,0.49619256710320053,0.49564609353509065,0.4327539773340032
1205,0.48729029829973436,0.4980624103197933,0.4924414549280691,0.43726684447192193
1206,0.4890035206695486,0.5013887907465624,0.49466625948162,0.4335236004325227
1207,0.4854725489281748,0.5039646317695886,0.4997685560651612,0.4270347465044257
1208,0.47827241811488885,0.505998924190764,0.5085271358463526,0.42684515734479633
1209,0.47921123330747606,0.5065813776812275,0.5170988370562132,0.43178240091967496
1210,0.4812028433961472,0.5085251845380432,0.522052028568127,0.4357597756560589
1211,0.4833312499718052,0.5085451379936092,0.5234218865674505,0.4324592809433915
1212,0.4805802209391475,0.5060772148301291,0.520133781642122,0.4280382511499581
1213,0.47078678796684487,0.5030225761868649,0.5181112055230012,0.42573033522700654
1214,0.4582499316041258,0.5001876003851343,0.513700338223891,0.4292957676718961
1215,0.44070315500571783,0.4970588547225098,0.5090872304509099,0.43429379323244033
1216,0.43305033770755147,0.4970674639931525,0.5081656493297095,0.43494422951050293
1217,0.4510280519302822,0.5002679535777991,0.5083642917575184,0.43486323017225204
1218,0.47130277576264157,0.5033899050676178,0.5068949104298885,0.43575794052029737
1219,0.4668027130757732,0.5066816841295989,0.5005336657243917,0.4394064608366788
1220,0.4557717626429661,0.50909465302109,0.49770660530439265,0.4402607086825755
1221,0.446059369644896,0.5097410649677326,0.5010276238137733,0.43754172414801257
1222,0.4543799445091925,0.5079155682039204,0.5091094631169731,0.43233399796671546
1223,0.47583263726407654,0.5058731636184051,0.5164122328547902,0.42726759160591127
1224,0.487776988721061,0.5002309590652817,0.5170573817376942,0.4257882367770045
1225,0.4661021843647877,0.493167293054833,0.513013232175088,0.42654149522541235
1226,0.4426308152467997,0.48613352931366594,0.5088869019652351,0.4271656505930135
1227,0.44871680335036673,0.48199702834130026,0.5087339785052571,0.4267674498602058
1228,0.46322761130261647,0.48239575114649647,0.5107169411378564,0.4267388864465745
1229,0.4693891734943645,0.4874015194753614,0.5136379763377444,0.4270625453025331
1230,0.46195780753764387,0.4930018269521878,0.5160626471582793,0.42692850235407426
1231,0.45682311217372423,0.4963632564029549,0.5177930473041024,0.4257038940620827
1232,0.4585939116329287,0.491768227326248,0.5183052219308921,0.4266669910086071
1233,0.4793405064105375,0.4876832075979004,0.5183710622822137,0.43217758394761635
1234,0.494222040122488,0.49098069832872093,0.5175626389929171,0.43913660145663985
1235,0.4822921419009523,0.5055336988358049,0.51718618750906,0.44206959364024256
1236,0.464087463879615,0.5205359386324873,0.5205380719516443,0.438161877933006
1237,0.46294134612891796,0.5247912980562374,0.5219503277236763,0.42992556166945195
1238,0.46691571839493945,0.5133746387321831,0.519296098175459,0.4267565196229869
1239,0.4724240721878661,0.4956316605253164,0.5115973269388614,0.4268282522490483
1240,0.4686179423945226,0.48851945410548736,0.5035681964688147,0.42648032062569363
1241,0.45751906962325345,0.4917758560011875,0.5050950966175175,0.41927893111299375
1242,0.4520249111469745,0.5008679057639989,0.5162855463258205,0.411898641942725
1243,0.4643900684437791,0.5066190767223706,0.5307793029921691,0.41123830991973814
1244,0.47738141022620567,0.5056501557105584,0.5276939535661495,0.41949236209600677
1245,0.4739291576813027,0.4973486445824237,0.513461665415705,0.43025868673676193
1246,0.46546472763336183,0.4902848653487793,0.49756131875244136,0.43329519423721413
1247,0.46204113666190283,0.4879802179365017,0.4978112474136283,0.43436918669603125
1248,0.4659949158249533,0.49221569125780645,0.5112401169118094,0.43432335063539823
1249,0.4688761695417829,0.5001609168911296,0.5291471626388536,0.4409751798578538
1250,0.46827298327178524,0.5054015212991986,0.5321413276139009,0.4466024140317611
1251,0.45926586886678505,0.5008411689410732,0.515322035502217,0.44641839147591117
1252,0.4506665985962207,0.49234785590370705,0.4996015637103485,0.4394872634937219
1253,0.4531741721118227,0.4895433742499202,0.49314693413901367,0.42872433293347967
1254,0.4563478405597349,0.4939431155583548,0.5013219847964211,0.42532646126127593
1255,0.4508372389528671,0.49933153377699147,0.5156569476346615,0.42980221860522916
1256,0.441770833247509,0.5002637739322436,0.5287793706585201,0.43988113243256893
1257,0.43799272381986054,0.49559025307263516,0.5303181092894669,0.4474823436514305
1258,0.4508760026277319,0.48811110840054056,0.5294156995373595,0.45125129153801696
1259,0.4675650505216962,0.48392711603000904,0.5284813985895835,0.45074660594269605
1260,0.4733433302098788,0.4864309055835661,0.5274438192654609,0.4490707973748294
1261,0.45606809970592926,0.4965997569207555,0.528192506658634,0.44975810748335754
1262,0.43720794899124366,0.5040444245298644,0.528922081802534,0.449301488457568
1263,0.43397637149871393,0.5065278151915849,0.5274416704291249,0.44811468741584043
1264,0.45115820129363676,0.49840152265062004,0.5245208157817678,0.44868631146312815
1265,0.4752194370964288,0.4894049983443806,0.5208989594563709,0.4482633082991204
1266,0.4840357872335174,0.48838015310283855,0.5183635939394006,0.44532407407903474
1267,0.48052485104542947,0.4956204958651912,0.5172837598052713,0.44166633187494553
1268,0.4708134806239764,0.5100006151945176,0.5173076473531716,0.43853709137262714
1269,0.46784647815463437,0.5146894066865885,0.5170047963411863,0.4374432388228946
1270,0.4675951873795503,0.5057005808056901,0.5160973485695616,0.43929732986271375
1271,0.4727899161875454,0.4864283179464049,0.5156144849324575,0.441278268837397
1272,0.47894984886868236,0.4763505859559828,0.5157358698986598,0.4405734786233404
1273,0.4788670959734648,0.47859504269868963,0.51595836245305,0.4385279652694273
1274,0.47342436637677204,0.49111587836534876,0.5156133727998387,0.43611240872743645
1275,0.4650111286911024,0.5051714263767481,0.5151781175827437,0.43341595816588224
1276,0.4593727711128721,0.5073299877120868,0.5147428623656486,0.43158009587030927
1277,0.45747633151076195,0.5027330480085024,0.5144768730663128,0.43098501450635585
1278,0.45880661895024855,0.49921343181646377,0.5144623645590763,0.43075997633048
1279,0.4593457698661469,0.5000234760908068,0.5146074496314413,0.43135538065465856
1280,0.4589251398740035,0.5005743960177488,0.5147581777527444,0.43108827944713485
1281,0.45831380734094446,0.5025297835904897,0.516895565973151,0.43109857441205446
1282,0.46013271605102174,0.500454411469821,0.5140287294596287,0.4312873154355811
1283,0.46129797478536616,0.4936231674139936,0.5072529926466902,0.43159616438317006
1284,0.45891666173825246,0.48439166106148357,0.49091748169186494,0.4324644842099938
1285,0.45053462554096185,0.4763499226604892,0.4819521919963438,0.43097481259581627
1286,0.43603777581271186,0.47247610179842936,0.48711092294160496,0.43084327872770734
1287,0.4387078664999354,0.47329016613144137,0.5038431178840502,0.43449848281982345
1288,0.4538264189719079,0.4755856034222093,0.5218292456763496,0.4402189754082542
1289,0.4690157239702492,0.47316580426959537,0.5285632577479743,0.4437245902583852
1290,0.4702527932228941,0.4733392052620944,0.529279687979187,0.4420812418217268
1291,0.4597140637038497,0.47653309143944167,0.527755488644082,0.4367825080553466
1292,0.4476358092681009,0.4822181301043842,0.5354519216284584,0.4325853385992391
1293,0.446084152859567,0.48580167032274757,0.5406978474148857,0.434703336712315
1294,0.46153400803259526,0.4888535792222579,0.5465251696736286,0.4398791229933062
1295,0.46747256265600373,0.4934982653845173,0.5465064477454564,0.443366124808709
1296,0.4620729917043144,0.49604930706071976,0.5405231094186126,0.4426701517287515
1297,0.4536263799536065,0.49923592766304675,0.5344290364985468,0.44030663426040434
1298,0.4497998600967949,0.4975193486377576,0.5275599393337149,0.43911870034559397
1299,0.45622780382655187,0.4909963500583437,0.5268199660357572,0.44217956704843103
1300,0.46297738617589984,0.48275059096042616,0.5246053959074408,0.44337379401519883
1301,0.4589020506573559,0.4823641121096901,0.5180297248731915,0.43685600009719017
1302,0.44590929461009526,0.4870697610502057,0.5077706178434929,0.4285811916822924
1303,0.4383764483650956,0.4962596321671303,0.5028816068112377,0.4240354569167893
1304,0.44602908436971744,0.5006550206648883,0.5041069108988185,0.42821973050870593
1305,0.4597572446032927,0.49891604879164897,0.5096211667764565,0.4352965217186347
1306,0.4693761196751776,0.49359280039347664,0.5119919947479775,0.43939237821846594
1307,0.4674733541097193,0.4918408967373165,0.5040178863324012,0.43496129312120757
1308,0.46244124114911206,0.49638013605609144,0.49729999217631554,0.42644247149815334
1309,0.4653269862434777,0.5046911579128645,0.4950424410901695,0.42723203036650026
1310,0.46853577444094574,0.5106677327328817,0.4975502737820434,0.431434850302675
1311,0.46981022652211346,0.5085077649408846,0.5006333559202316,0.435682787565666
1312,0.4611590004333512,0.5040781481754141,0.5049893492124005,0.43561424286963557
1313,0.454520176033289,0.4993995857931584,0.5090413284170583,0.4334223626965382
1314,0.4623568075341308,0.49927187260665734,0.5131313293046937,0.4303182746593801
1315,0.4732069514547108,0.5023953462722849,0.5171977716819658,0.4290094909610027
1316,0.478481213859418,0.5071940683219844,0.5199097307603454,0.431171962945934
1317,0.472153969671758,0.5131951586469564,0.5201373222225782,0.43000451392709627
1318,0.4632101329667184,0.5136664111075815,0.5178132637036318,0.42819790442483396
1319,0.46084506141433834,0.5068082161070955,0.5167377553999339,0.4282560680103345
1320,0.46983197489447476,0.49701853659529616,0.515200670757769,0.4286374043782883
1321,0.47802200874512474,0.4866260565083022,0.5142613412542238,0.42725132489897505
1322,0.4733680814703474,0.48071685914122914,0.5143713536422125,0.42494575159389175
1323,0.4676581699719445,0.48084053967790413,0.5147503196398797,0.41947735850350876
1324,0.4663984490015582,0.4840754371241911,0.5140702974492819,0.41765302488599887
1325,0.47172522649812565,0.48370691662242044,0.5130885068000959,0.4253590619890331
1326,0.4784395585212228,0.48443509120395695,0.5177446732303455,0.4358454264502455
1327,0.4800622478300818,0.48186477232709063,0.525612472074083,0.4395129963629713
1328,0.48023218265717604,0.4829798897473328,0.5320438379474853,0.4338397369620711
1329,0.48036578181874634,0.4841363704963534,0.5331508751067165,0.4235668508372326
1330,0.486534193038776,0.4937781183887997,0.5253402590768386,0.41465223071763974
1331,0.48838447092191056,0.5059536715621258,0.513372469020917,0.41756661732085865
1332,0.47934351979714795,0.5133387520736442,0.5045826053125196,0.4264076547201275
1333,0.46758140708010765,0.5172772377563066,0.5073616390646275,0.43270345137062693
1334,0.46410879556499474,0.5092399297044374,0.5144148521924536,0.4365691811562243
1335,0.46928689073844343,0.50088356577635,0.5217328917260997,0.43785109078151613
1336,0.473620676748955,0.49407412017838553,0.5246296816861857,0.4382912347741979
1337,0.4673579919929978,0.49705298419919147,0.5221705897243649,0.4380542865997008
1338,0.45186495437888247,0.5005394853080775,0.5189744074450496,0.43799554146151626
1339,0.44347183944304747,0.5052047111987789,0.5174897768590642,0.4384825490690146
1340,0.44620966190110156,0.5090283712925551,0.5187023961993055,0.4412746904326057
1341,0.4517104618037223,0.5079385770936716,0.5186567816672074,0.44539758694097253
1342,0.4486985230833599,0.5112210621635743,0.5189914666235143,0.44690986507212505
1343,0.4425876896767845,0.5135565301775665,0.5190558795868507,0.4446693460810118
1344,0.4394117933119412,0.5156654766713903,0.517539498208729,0.4393588131277044
1345,0.44765009378121723,0.5161396572938146,0.515318382925034,0.43513109877713646
1346,0.4554092064424612,0.5147063414437173,0.5103145140572318,0.43551207758060595
1347,0.4506707411383831,0.5137016812168795,0.5078664726488854,0.4377530971078912
1348,0.4426590504690643,0.516055825953983,0.5112883286244505,0.43975299775637217
1349,0.44013205788377857,0.5162637746896089,0.5200259616456974,0.438820271840322
1350,0.44348763415566184,0.5161340347439343,0.5216643261525923,0.43522998227537846
1351,0.44689244689715496,0.5114182063493756,0.5164987443161179,0.43140654890131286
1352,0.44854992376661296,0.49655451253517263,0.5098827951539963,0.42962733652645535
1353,0.43827108875114706,0.4813581538807604,0.5082461997533977,0.4303105100585406
1354,0.43096495952735786,0.4764381315536584,0.5166387310078764,0.43139720683593163
1355,0.44029666220354247,0.4853744687796482,0.5244753771990256,0.43210987065740747
1356,0.45173192430232156,0.5061643905679858,0.5328436880415501,0.43080996500723445
1357,0.45429604527291023,0.5271061207582218,0.5232674788533485,0.42893015420460623
1358,0.4492999507153712,0.5285275237534347,0.5077585004886623,0.42827096572192536
1359,0.4402558214606105,0.5142224136967102,0.49559740050611895,0.426844904201561
1360,0.4400446955096083,0.4960331488483987,0.4922564482426351,0.43237177678577804
1361,0.45297015190934875,0.4833030604751617,0.49712247799354387,0.43703721709671656
1362,0.4661511472851387,0.4821735517813107,0.5069508441099732,0.4374842859343681
1363,0.4684693076586547,0.48896653279043817,0.513257305803336,0.4325879949889505
1364,0.46456014573348764,0.4929672861753248,0.508944920020711,0.42509088375544335
1365,0.4581755248727633,0.49442672499170864,0.5112175012860866,0.41844398523482457
1366,0.4558625186337927,0.49453939890536275,0.5161907076027488,0.4180161435309315
1367,0.45800827794996024,0.49341265976882154,0.5200182578485947,0.4232801881606216
1368,0.45835109824864284,0.49363829078999555,0.5244380585015431,0.42426694458400405
1369,0.45890530255927536,0.4940881368630147,0.5253020799039934,0.42444265245102775
1370,0.46139024447107163,0.4940431522557128,0.5200824002575752,0.4237534724963812
1371,0.4591349839062593,0.49321843445517766,0.5129640786308479,0.4238388675655777
1372,0.4551537456815331,0.4918688962361202,0.5041787254980188,0.42508773772537906
1373,0.4523183698203737,0.4905718245683842,0.4981197943217446,0.4280437263617619
1374,0.45603371214247246,0.4895897071138845,0.4963212496973202,0.4295410058492604
1375,0.4647424505191078,0.48956046247197904,0.49819185971966423,0.42968659570294876
1376,0.47278702533294015,0.4902988745772666,0.4951210966874089,0.4288607158004521
1377,0.47478675323927527,0.49062112484815396,0.4943326377405987,0.430998533176438
1378,0.46645391378290657,0.49109332381004767,0.49913344897239104,0.4358714653585357
1379,0.46021271678632697,0.49138188984231607,0.5084594283520052,0.4414559202001017
1380,0.4600342614044098,0.49139762980771257,0.5194462866764131,0.44571024804156945
1381,0.46466424333945133,0.49124023015374796,0.5285299477005575,0.44730085314925294
1382,0.4666642749692623,0.4917074507285517,0.5286958163019686,0.44663603374131633
1383,0.4646208430703228,0.490463188658105,0.5207916178659888,0.4460665745809182
1384,0.460151175228267,0.4905876148651497,0.5128028048037401,0.446197266735301
1385,0.45542495589079873,0.492868761994302,0.5052200597196616,0.4454946593876883
1386,0.4593855946051166,0.49678624517820097,0.5014900080411849,0.44876841109000987
1387,0.4616760381819117,0.4999898230654505,0.5026856992106488,0.45313086553741544
1388,0.4515035303525216,0.5022517315056131,0.5044534215471079,0.44588520976414436
1389,0.439230505751919,0.5029095222186155,0.502755219143163,0.43224567323902
1390,0.43940263815088354,0.5044840215703684,0.5010602160896821,0.4198703318237465
1391,0.44297563790315586,0.507988510980172,0.4976289506241969,0.41502063113079457
1392,0.44511821492824455,0.5068487692763529,0.49498367413017647,0.41907437323242613
1393,0.4385623256485554,0.4988052151395509,0.49764125017327776,0.4272572943821799
1394,0.42182429560496354,0.4899327382148336,0.5082968675193549,0.4283493476942099
1395,0.4134968584102118,0.485480461830836,0.5194382290997581,0.42277529190434043
1396,0.426195644826374,0.487810271101923,0.5226090472703261,0.42326850165610325
1397,0.4437397996628506,0.49310888774419936,0.5153874340487583,0.4261056718917006
1398,0.44733140950752354,0.4963028840839329,0.5062912308396994,0.4321860741280374
1399,0.44396854961958687,0.48896646705366925,0.504822644381584,0.4344775622094916
1400,0.4396505115358039,0.4844826244479385,0.5122255379133536,0.43424737001831626
1401,0.444699653353039,0.4942096087068309,0.5234799184556086,0.43339878121144215
1402,0.4554747577648047,0.5070158793370765,0.5275350836455422,0.4327618211021364
1403,0.4641705413260792,0.5158793680206,0.5240890839832386,0.4334503244326601
1404,0.46455029322467245,0.5151474293188234,0.5188314959872434,0.4336361822171467
1405,0.46058617134324287,0.5070942300699447,0.5157093833938072,0.433020081638706
1406,0.4579787014777855,0.49751208244406914,0.5138249194888225,0.4304413388098369
1407,0.45847645864400755,0.49869311072168615,0.5139248505652708,0.43075974400220735
1408,0.4590069491549766,0.5003656128702401,0.5144251385699363,0.431531566479999
1409,0.4590069491549766,0.50039781861638,0.5181196969179173,0.431808528875562
1410,0.4590069491549766,0.5009882572956122,0.5145557344859006,0.43042169038994105
1411,0.4590069491549766,0.5019544296798104,0.5028891378654605,0.4274462555547626
1412,0.4590069491549766,0.5021223852227498,0.48421606254240157,0.42454370816351156
1413,0.4590069491549766,0.5051074744257588,0.4696223575890386,0.4221037010662812
1414,0.45900120884873835,0.504900215119521,0.46578720034334953,0.4207242330635705
1415,0.45870383263644543,0.5001879650311976,0.4727448673452393,0.42029241033502446
1416,0.4599604990686043,0.49311136594700056,0.4823246120315883,0.4195107974458308
1417,0.4593079395448267,0.48700230430724817,0.4827328346939655,0.41860744966117525
1418,0.45647796077209324,0.479387441885591,0.48288878797761364,0.41952619802436736
1419,0.45512295143561143,0.47947044381268666,0.48281875518613976,0.41573175173072197
1420,0.4568923058689045,0.48777698896014093,0.49141156450404866,0.416229204477759
1421,0.4639255317672455,0.4966527815030816,0.5039412154141756,0.4227519407396731
1422,0.4706839601771804,0.5066146080828761,0.5164946249135832,0.4393453528829604
1423,0.47144499489114255,0.5116630511197688,0.5252038947579171,0.45220399644649856
1424,0.4635562809042846,0.5120718632579206,0.5233216086343048,0.44983520454475845
1425,0.46016204287701873,0.5104301880389595,0.5263826448171918,0.4364706667199683
1426,0.46776984372136887,0.5127291654369458,0.530357037586183,0.4269604740826192
1427,0.48708520559727236,0.5194183220791362,0.5334927224714144,0.43128886387208354
1428,0.49566946096650333,0.5205914364667245,0.5348524908849687,0.4424740861374386
1429,0.4773905617675033,0.5132967139272783,0.5299663536387457,0.45057644801610053
1430,0.4414362342473218,0.5009695143146297,0.5134387479135666,0.4433735240460156
1431,0.42612341197581804,0.48554199963075406,0.49941491048838604,0.431551591136036
1432,0.44095608499861216,0.47841215927909864,0.4988551360773115,0.42463028599462654
1433,0.4683182189112092,0.4859994999896225,0.5016985119551025,0.4231730919027988
1434,0.4857965338975256,0.5024644650731055,0.5116189586713918,0.4228283958404677
1435,0.4776701390295689,0.5193170900408582,0.520386621631745,0.4244876585370079
1436,0.4599511937583731,0.5275614725060859,0.518592134152746,0.42384269590449364
1437,0.44955482423899984,0.5216423505931572,0.5124751997222049,0.4249454219620499
1438,0.45485577102593155,0.5019602418264546,0.5064743035946574,0.4237871096576783
1439,0.4580368098209504,0.4887592943840741,0.5065612311200685,0.4217314285363208
1440,0.4617081672818919,0.4869466917280601,0.5174500521041747,0.41734263869347743
1441,0.46491783562664013,0.49911475861423654,0.5375197625344796,0.4174535462275577
1442,0.46812988806588973,0.5152776837759132,0.5492696628723468,0.4293297911455688
1443,0.4606345515281312,0.5238318408311513,0.5491414622675054,0.4415249991018119
1444,0.4482569889625366,0.5246919252314453,0.5280759719617917,0.44564257295837806
1445,0.443115602267931,0.5077779946214466,0.49921645503889883,0.4390520078219925
1446,0.45897828038670635,0.48951961882325457,0.486446700255192,0.42609153121843496
1447,0.47570784815507433,0.4796203822904513,0.4890678043259357,0.41681891324741205
1448,0.4800751023634909,0.48188790415813637,0.503768049752979,0.4208891339237631
1449,0.46554306697457914,0.4948386382908797,0.5102788096262183,0.4307836049533162
1450,0.44101900189468646,0.5126398703777001,0.5173141942007595,0.4335472241961962
1451,0.4291102561507104,0.5155644687948255,0.5229349718034928,0.432523599659034
1452,0.4357053111271759,0.4962301154872791,0.5360994344130009,0.42770935623486045
1453,0.44762279107686453,0.47848520806711375,0.549032186897559,0.42343850316991455
1454,0.44527811945992285,0.4643462752136086,0.5649955728699642,0.4245903391887986
1455,0.4363635191118205,0.47635550388272174,0.5647726172254255,0.4276511004751885
1456,0.4310614444528,0.5048147982018503,0.5469512675485323,0.43060907414382366
1457,0.44875107050517193,0.52704039391907,0.5273366410104745,0.43075256113082466
1458,0.4673938938235288,0.5257710844529195,0.5031124665037549,0.4303083687444607
1459,0.4698462179448025,0.5107114097490323,0.4962639932072995,0.4279410438590141
1460,0.4536505152155249,0.49925089691717534,0.509731288653737,0.4273622978520402
1461,0.43743128618599747,0.49808238936449023,0.48006733739574425,0.42122217614885893
1462,0.4407653096907789,0.5093777120730516,0.4399939421398648,0.4333993610453174
1463,0.4634299611038482,0.5094187291226089,0.41002846331172543,0.45816884926128326
1464,0.4814378881395442,0.502209418612451,0.43769317913981187,0.486740126061306
1465,0.47292565926768054,0.49919716669009245,0.4972281409618734,0.4619653151557509
1466,0.45859959635980635,0.5007998586823519,0.5536503563127421,0.36793458751054475
1467,0.43759425314783096,0.4920357014119405,0.5684280183258354,0.3059654163513048
1468,0.4501903171402896,0.46467707355823407,0.5246118922165871,0.3288128308147068
1469,0.47098837393237464,0.43476093007409156,0.5007581760500744,0.48307543692422694
1470,0.5012543682265658,0.4196431922822863,0.4527878858981106,0.6125918324504445
1471,0.4975291086961431,0.4245501316845898,0.4868363988552719,0.6099491732461312
1472,0.45168809978441077,0.44751581781854655,0.5295716810850416,0.4680699416756161
1473,0.382894528921786,0.4464323082562492,0.5668146132603551,0.28921827204841705
1474,0.3226934106349757,0.446597543142095,0.5710955052742908,0.2237622441156182
1475,0.3052722149984133,0.4593997484851994,0.5364284181204729,0.27062345020182443
1476,0.303599362273027,0.5150114787668583,0.4991343036192637,0.38361717712273363
1477,0.3159728695395504,0.5564269996715636,0.48073747042413084,0.44734265868608714
1478,0.3109898136409628,0.5326671591694685,0.5059117523280581,0.4784821272106701
