,TP9,AF7,AF8,TP10
0,0.45850425789948857,0.5013921820891539,0.5140204019254474,0.4310061866220034
1,0.45754994470951454,0.5016521808243101,0.5172506497868281,0.4315719512432676
2,0.46243350871722927,0.4967167957725106,0.5159083032580495,0.43231651650431485
3,0.46729936879677475,0.48294803174096296,0.5062041560871622,0.4296102313914154
4,0.4666868676869128,0.47054873297016026,0.4904804978295936,0.42217517001678895
5,0.4341849245621322,0.46363065130024667,0.4762342308634723,0.4192850246877611
6,0.41014526957542896,0.47522630212122224,0.4668707930694971,0.42072247874254315
7,0.43244713419985154,0.48295509458177927,0.4641773382231655,0.4255345982012625
8,0.4783817396978483,0.47836305740383106,0.46478842398070364,0.4285681132320246
9,0.5078751449777982,0.4492059294070162,0.4612965626160255,0.42465287574040944
10,0.48619668968847823,0.4258071619718568,0.4570712921150694,0.4172710222201505
11,0.4283063438178531,0.42663057202892674,0.45898080479326536,0.4119964236442025
12,0.3820979991212472,0.4466447869631919,0.46731763512919494,0.41543596356499957
13,0.40581741437877833,0.47807658359275124,0.4765473129844339,0.4232940044068326
14,0.44974727168081663,0.49041730036989983,0.48281634715853294,0.4353186560450457
15,0.4626138689302991,0.47960841030922563,0.48817889751109544,0.4371024265921822
16,0.456364279126079,0.4663161172812796,0.4956190118138858,0.4286455899518535
17,0.4444209458943765,0.4730205376458401,0.5071829992885389,0.41556882934998396
18,0.45099819712834166,0.4794329645587232,0.5120000217144663,0.4032205068503197
19,0.46549864929395146,0.48312014071831416,0.5035371147335969,0.39935550434684336
20,0.47476922157943086,0.4781543822374585,0.4810948954047079,0.4012616744712717
21,0.4518838914563415,0.4641318985228293,0.4611220519543819,0.40302642621737883
22,0.4332211010025638,0.45355072525220297,0.4616937962122026,0.40078625607557083
23,0.4562608243836247,0.464325670186229,0.48065313469589943,0.40222987264461607
24,0.4867021491946959,0.48204669469067085,0.501161829532437,0.40158280866259843
25,0.4989283212108108,0.4973537079158973,0.5130964345421553,0.40198144927215257
26,0.4831621141629597,0.5014478082463053,0.5176849480655262,0.4085055862930996
27,0.4613774223051796,0.49297745175859087,0.5155718326868204,0.41974611217034674
28,0.4550954400067244,0.4845592926808511,0.5175161626839518,0.4319381809914544
29,0.48003439437834283,0.482713680658811,0.5223297967706694,0.44399290392107515
30,0.5024576310976975,0.4915372848649454,0.5234645744046145,0.44648636996786045
31,0.4946967276349657,0.5046981773077964,0.5205965992764442,0.4335368478426562
32,0.4812601502032347,0.5083250219947028,0.5158974574452402,0.42096014356205913
33,0.474166797868132,0.5035193537961572,0.5104938229153579,0.416461833257371
34,0.48439046884083947,0.4953876404294004,0.5079585119758309,0.4241399485566719
35,0.4924900169821891,0.4904472620612987,0.5079782212791909,0.43441380225712173
36,0.4769664290607424,0.49026825212655384,0.5112555657009505,0.4376668897580669
37,0.4580431218220348,0.49535285601917206,0.5133323117798763,0.42286902591985803
38,0.45529475863013424,0.5048879184632064,0.5108667525883458,0.4105330179962879
39,0.4636719278399272,0.5153074982168322,0.5029029237617051,0.4199453381868678
40,0.4703496117831645,0.5183196144241313,0.49668033655400706,0.4362869495044303
41,0.4645680563536361,0.5116068451737865,0.4962834591641195,0.4468625076224267
42,0.4400469765338494,0.5023336768574109,0.5104611698571376,0.4425055910562295
43,0.42263435719237924,0.4931616985430613,0.527026045331021,0.43047902695483387
44,0.4271436363418204,0.4888670417375898,0.536593966219465,0.41932631684746213
45,0.43515027520611893,0.49165745579857006,0.5326931383113465,0.4204108338590676
46,0.4305467667354255,0.4951358721907243,0.5197423293424762,0.42514662564443373
47,0.4170040477237463,0.4931720254183804,0.506744331651037,0.4211987725715208
48,0.4092288843220843,0.49188764955415704,0.500097168862778,0.42028690898653787
49,0.42444120060199547,0.49066217450115923,0.500007349229778,0.4287087136881848
50,0.443921640694386,0.48944559630112333,0.4987377394357275,0.43635382408634277
51,0.4440592814230086,0.4905301197854861,0.5007068116826768,0.4393994511728524
52,0.435403335288596,0.49109774975416354,0.498450457939257,0.42906772768198786
53,0.42728907849072334,0.4961284682291826,0.49864964703650894,0.4180577136143757
54,0.4322094268342154,0.5015934767199265,0.5012847323688734,0.42082673704602247
55,0.4494633082489444,0.5046084858705449,0.5056306027185323,0.43487976722261595
56,0.46248696644827325,0.5048344970468104,0.5103965793091427,0.44608986061327327
57,0.45030844815687265,0.5002632189786722,0.5137470144962639,0.4430604783346607
58,0.4371066034872698,0.49757983439515324,0.5145863564604546,0.4321528504304411
59,0.446793327844635,0.49871032785993147,0.51394692179334,0.42201834259604865
60,0.4601740989028575,0.5080635177742444,0.5144149727590738,0.4261169260037252
61,0.4631013553404848,0.5136820586000492,0.5137637421302154,0.4344682173120948
62,0.4578716264428802,0.5136076620860434,0.5122994647324962,0.4372030165738551
63,0.45214176580703325,0.5067762124330214,0.510002420789778,0.4382197909973425
64,0.4565694174593882,0.496976612259306,0.5076333310420215,0.4363006301574655
65,0.4698001489961379,0.4917993887909544,0.5060525313926796,0.4336683941574311
66,0.47792650891449606,0.4902101769985506,0.5048744732767912,0.4330145877575839
67,0.45665239823672993,0.4919800497300287,0.504014357784372,0.43242921449314836
68,0.43913944221621803,0.4920625240213107,0.5090562757596332,0.4345736272797665
69,0.4595304368864919,0.49164635490841346,0.5120830510353364,0.4342750441030303
70,0.4886234293690524,0.49184465184267845,0.4982773579764846,0.432933776721216
71,0.4939186595814272,0.49162432415870455,0.48413651904077504,0.4230510413604021
72,0.4828060793884189,0.48897774604585703,0.4837219197250921,0.41904372553328856
73,0.4730505014525896,0.4911672828420613,0.5082235539796366,0.42448578423119815
74,0.47293614771910436,0.49938084866867816,0.542003595759945,0.44421069125826607
75,0.5090092074173811,0.5109492467241721,0.5576724755076741,0.461770180800798
76,0.5364946855554382,0.5213450135296124,0.5345418463146956,0.4628542555915163
77,0.5165536116356662,0.5256734231504092,0.49744020075912543,0.4480935882805327
78,0.4870118342494054,0.5283163909224463,0.4825318085116972,0.4272475044995206
79,0.48902069926275915,0.5254589959380471,0.48950251781745174,0.4204524853416349
80,0.49607460899476064,0.5200664524508426,0.5099663837896442,0.4216336890438835
81,0.5045874236248371,0.50997706773641,0.522357519746161,0.42959664221321575
82,0.49852272098164435,0.5015831202176007,0.523925995344595,0.426453511280086
83,0.47861009862189374,0.4905849140847655,0.5202820025773472,0.42689491235558075
84,0.46666264105239214,0.490810076984186,0.5205168698302649,0.4324387220417067
85,0.49113150991234233,0.5031323974144655,0.5209239764404985,0.4490355016704871
86,0.5138851260610641,0.516816502770987,0.5213161198279871,0.46280524672725687
87,0.49634445312886133,0.530911740313929,0.5168220737338328,0.45880396322649747
88,0.4691480026567917,0.542021662025165,0.516981333548204,0.4468422095640975
89,0.46290824330895197,0.5423071710598584,0.5211319713242183,0.438486380890219
90,0.4736484688512469,0.5329492187490426,0.5341782086033742,0.44985040432313694
91,0.48278055688736016,0.5290128714119808,0.5371339041435118,0.45901077652302585
92,0.481337552649532,0.5263231631803893,0.5182803446260769,0.4483826457207221
93,0.45364135583874154,0.5205665114093717,0.4871801450855335,0.42519280848671276
94,0.42806684198285705,0.5023756680905321,0.4689566277044408,0.4110042019253525
95,0.4340303859258958,0.48795631234022707,0.47909759167197247,0.41794024623909154
96,0.44220059935232264,0.48295030633510405,0.5032983418262902,0.4386707718811342
97,0.4361560910707089,0.4912531427079525,0.5338363992100489,0.4546179686833076
98,0.41204762709030957,0.5157474834916881,0.5391949127112059,0.4465082556145226
99,0.3973022306562406,0.5306837508027266,0.5291143192552137,0.4331539534888053
100,0.4246376109257905,0.5191179686970728,0.510134764568954,0.4340689196588385
101,0.46372536759218885,0.49374929791581706,0.49874161402229883,0.4368171891101999
102,0.4697184430598035,0.47497034349663414,0.49839177650221106,0.4401906589550838
103,0.4553747572315327,0.4620547652105804,0.5121547081624294,0.440072359922883
104,0.4412995137489883,0.46240086610084385,0.5307362994134925,0.43187763707838706
105,0.44285255934314954,0.4637878053293153,0.5334672860761381,0.42395412945272665
106,0.49292495722209195,0.4636602342811918,0.5233768321238077,0.4231260221796282
107,0.524281062378528,0.47235834757639095,0.5034143937199546,0.42463680561541556
108,0.4821426762657132,0.48824155079808346,0.49154844441608286,0.42426023905225163
109,0.42486948286394044,0.5034491723822517,0.49228005075633685,0.4242624431007718
110,0.4124781668684759,0.5145904849202172,0.5046505926642884,0.42418338084829416
111,0.43124717809012514,0.5149609552263252,0.5195356966125443,0.42455365256031524
112,0.47350206436089315,0.5069068952392605,0.5292603897310083,0.42515955172544073
113,0.5045365904878922,0.5030977827853187,0.5323827626228734,0.4260015356130118
114,0.4951330672180107,0.5000877570855827,0.5309176674038001,0.425663553157696
115,0.4722322813887521,0.5020136268632189,0.5285863459162841,0.4257545752132672
116,0.4652897913277433,0.49348833336185083,0.5293487933497356,0.42685107479834306
117,0.46531205007292553,0.4786722743636239,0.5303855738565394,0.42856724663815654
118,0.46485332849693284,0.4602839775134168,0.5367174173714558,0.4321197475151345
119,0.4683549181840837,0.4594161387755052,0.5397566384467172,0.43371587856264615
120,0.46803084246620763,0.4871433002015419,0.536295169303117,0.4298478668906012
121,0.4626050165402876,0.520719032753736,0.5273486369341364,0.42498852927183006
122,0.4560885575668429,0.5359006670449888,0.5172824243411742,0.42336381288293984
123,0.4519301414098918,0.5257007430544542,0.5123265967914408,0.42471024273284985
124,0.4519459527528031,0.5094188068435856,0.5122712459752482,0.42853141909936954
125,0.4558054307075877,0.49599470990900496,0.5154919777425879,0.4323815714879023
126,0.4605170144241905,0.4972347033824017,0.5146072711575976,0.4320377903697138
127,0.4599138886997818,0.5022531250755586,0.5145935912123759,0.4307164736350417
128,0.45554696837804254,0.5009203126543135,0.5147632172777378,0.43098331471363904
129,0.45628149797683887,0.4994143747253271,0.5194526430837377,0.434205880831332
130,0.4579244377877441,0.4984475593007469,0.513840010957626,0.4312624307841179
131,0.45675982344632193,0.506435916970542,0.49766401237873326,0.42225125631529714
132,0.44734197930835623,0.5136700965594827,0.4704748847898228,0.4036204529046609
133,0.4298673842563551,0.5137680954188573,0.45084493728198255,0.3913462405568067
134,0.4351111897773252,0.5050905745445621,0.4486298358934709,0.39286465321718184
135,0.46202819547948293,0.4972398902917182,0.4626607274510044,0.4067618201814409
136,0.4830937429286249,0.49621352282741876,0.479882233909772,0.42290774058406844
137,0.48284555942482754,0.509231959305182,0.4810612668152992,0.42876627698903064
138,0.45171993272689465,0.5223956204319666,0.4818862716348008,0.42801049390944057
139,0.4183504747189317,0.5220749741346403,0.48592612267895774,0.42593987257037713
140,0.40909736781885714,0.5114784715438543,0.5002431027337725,0.4340401093576672
141,0.43740584954765055,0.5021642639367471,0.5122744394935127,0.44293835057359615
142,0.45779962587643097,0.5022886430354664,0.5231043145313253,0.4507622533116
143,0.4506799400735997,0.5140669358236194,0.5234443440370077,0.45600494655174345
144,0.43428681265601055,0.5253048635334072,0.5136884232649839,0.45427581003680584
145,0.429692414454533,0.5082115416241682,0.5059328318009285,0.4510586918173434
146,0.4369586317116338,0.4829551797699077,0.4965641051092277,0.44635918093116245
147,0.43982269746613606,0.46907591148719496,0.49066671086469593,0.4367312601429026
148,0.43774022411804947,0.48297815046532194,0.4891132090219374,0.4249804338243128
149,0.40445473471726195,0.5085373716382885,0.49249672703327263,0.4131822361243299
150,0.3843603114807354,0.5361081012817713,0.49398852679789745,0.40602824949652916
151,0.4188127971789062,0.5288174086449551,0.4972571995943424,0.40547661253848166
152,0.46042764432731487,0.5037844500713157,0.5002593964746962,0.4126559654497789
153,0.4767273281434732,0.4904316842411773,0.5018127953256353,0.4221492357935062
154,0.45075823152753985,0.4878528066339091,0.502977628301539,0.42278956503981935
155,0.4156098208387453,0.49321915657041765,0.5014573107938983,0.41748256951830465
156,0.40286331929270675,0.4983184947157451,0.49847709107241195,0.4133560462498195
157,0.4480221262106952,0.501043971189438,0.49410632420663486,0.416691009796902
158,0.49673057482913296,0.4927050276099883,0.48834386340534325,0.425810576667618
159,0.5037419902265399,0.49201903986385914,0.48547077406286704,0.4343117983862464
160,0.48776606409376944,0.4916789180684833,0.48977715954775575,0.43910677988367985
161,0.4603282679218042,0.4951346710802293,0.49574228799732645,0.4380836494581825
162,0.4593179677354914,0.49395490993670005,0.4929481700853154,0.4406419423673327
163,0.4642801117641286,0.4918852576833449,0.49026378743632193,0.4438591146083682
164,0.4702680588381855,0.4842627850373355,0.4907170419816634,0.4472476032553061
165,0.4641026121856185,0.48290951561861717,0.49677423582407604,0.4472372254563677
166,0.4572028567469232,0.5016436912053611,0.5053373210333884,0.44414517265015857
167,0.45247758324398474,0.5251649534776148,0.5088905913410449,0.4394850907278727
168,0.44893012956722517,0.5346923363934054,0.5031559230203918,0.4321288483578346
169,0.4474308790165791,0.5230821997502989,0.4951121668550416,0.4250582102965321
170,0.4452837637577805,0.49805593385646546,0.4935147394215942,0.42060141480386076
171,0.44591773017562303,0.47452635670494425,0.49378721122204017,0.4192196201713797
172,0.4472616893768904,0.4752210459377262,0.49591425170035563,0.41744728431520955
173,0.4422061708335603,0.48874505704679827,0.49300518406098603,0.4202768990621657
174,0.43760284229015145,0.5020299808191574,0.4928586740344059,0.4274179418117297
175,0.4435552334294984,0.5113055021983944,0.4965547960088421,0.43755427553135645
176,0.4632350883591435,0.5078767897185504,0.5079998919351074,0.44680342502330983
177,0.4873995993337648,0.48857988841381655,0.5189274503738676,0.45293921480541505
178,0.5006264297021564,0.46840564980809973,0.5139768306370125,0.45357631668838533
179,0.4916190288256575,0.4552186757119715,0.5045770752537985,0.45087742243273665
180,0.47219793699362533,0.46399548138818053,0.49933436649903284,0.4479967884266798
181,0.4633721937430651,0.49565453441814755,0.5079723953421915,0.44513121937257
182,0.4748038914635133,0.5310986780225834,0.5230452891811559,0.4488475192746094
183,0.48169412636015924,0.5445950842810695,0.5328741106171502,0.44982015506486844
184,0.45643532904596146,0.5324852135598811,0.5259865306037279,0.4376492998199005
185,0.4223508967325891,0.5082440158320642,0.5117446724989788,0.42349220240707525
186,0.41327975801728,0.4791877887418366,0.5056099350388535,0.4168633244527519
187,0.4229849451795136,0.4718546005305831,0.5023348857011029,0.4208746272178451
188,0.436895398284781,0.48350260606847134,0.5034910961865661,0.4336940355448871
189,0.4407871874585083,0.4992908547128898,0.5049819648572901,0.4456603202247857
190,0.4116450674826282,0.5211909878705339,0.5050688086479401,0.44459601789102027
191,0.3891612350073666,0.5307807298970988,0.5055328467997978,0.43960671162492954
192,0.40878588579767494,0.5176181994034166,0.5067020363298337,0.44319010801695385
193,0.43574830166211714,0.4736984085023558,0.5034464098752056,0.44371030674340733
194,0.43474217235981405,0.44296230188791635,0.4992324344616583,0.4395170704766217
195,0.42839062950893414,0.43811319760778356,0.4978238477920291,0.42833283929303156
196,0.4200230270643801,0.4689769346220079,0.49949701801415197,0.4229760108690422
197,0.42649222339115983,0.5135512992447119,0.5032065952359267,0.42271186366995245
198,0.4452631119509161,0.551840158652883,0.5067450332913204,0.42649033627881844
199,0.45559539749536265,0.5403465481613552,0.5071342885727993,0.4297561721925947
200,0.4279948711433833,0.5021670060888244,0.5036059485549452,0.4261997044482382
201,0.40346604835078614,0.4780255564045022,0.5045321171389673,0.42356280257241286
202,0.4238147585453918,0.4722541510540065,0.5079513630538413,0.4262050616290524
203,0.45554022298602015,0.49266693169949827,0.5118065520545324,0.4361432271333756
204,0.46271142041242014,0.5228603887834053,0.5151865656560577,0.441001770454221
205,0.4499674250816347,0.537146715040894,0.517383291065041,0.44205746687707537
206,0.43925369666723874,0.5128339692343481,0.5170393313358987,0.4399065473724968
207,0.4417565668596448,0.4966343132828022,0.5154239792219735,0.4383150002314557
208,0.4749811451510033,0.4738874455560953,0.5144087862269676,0.4429972926254138
209,0.503814270355754,0.4787056075732652,0.5121168351629053,0.4443984907502664
210,0.49964246191170925,0.5036809585181312,0.5142006658351899,0.4346146448978601
211,0.4889907156046756,0.5224636195064122,0.51386695294821,0.421991888130257
212,0.4949779286003967,0.5225425693946205,0.5090453165072834,0.4196598634913321
213,0.5055120463514118,0.5070636777486782,0.501435175080671,0.4239082979483343
214,0.5098434787750133,0.48513951005457295,0.489351710449396,0.42817860405763686
215,0.4918821143001728,0.4737920632583693,0.4827636062481371,0.4281024871782149
216,0.4701584385897038,0.480412446945786,0.48941793110602516,0.4091387089013189
217,0.46939938144914756,0.482125515923038,0.5107330639973138,0.3976726569958884
218,0.47967478820441306,0.4821566361281951,0.5303850054009749,0.4170373269206795
219,0.4891241280761527,0.4787862701133879,0.5375342595764826,0.441954557024945
220,0.48402480317342866,0.4796092834297387,0.5251971116420687,0.44828828453165354
221,0.46314889137126786,0.4834341737193945,0.5058351705827562,0.44263397337330446
222,0.44684035625459134,0.49496983280700135,0.49473526913747334,0.4298662845680361
223,0.4571730381630048,0.5106865175432094,0.4980549794588601,0.4218056688703141
224,0.47038143419431433,0.5287885636861919,0.5155686317205719,0.4318026056043913
225,0.46345022773925537,0.5378273528944881,0.5285472604768839,0.4415885596656868
226,0.45419326058719994,0.5347500648826051,0.5315453687773062,0.4377000093377535
227,0.4504792410015167,0.5270447671461248,0.5267901652221123,0.43158836676113793
228,0.4580760207367736,0.5145844156915944,0.5171320375293208,0.43447621519586266
229,0.4620875007877006,0.5080995949910352,0.5050883940207307,0.4351695221066189
230,0.4507532771754358,0.5061947766737157,0.5021802928057635,0.4274026914267788
231,0.43011111294354565,0.5075327119698992,0.512957816291966,0.4152100153192631
232,0.41643746859919545,0.5051954909430774,0.5275423106524775,0.41029482373186105
233,0.42512427354099636,0.5072606980013303,0.5391654422111464,0.422550652202083
234,0.4394981162204834,0.5147214065643019,0.5401435898440823,0.4402783294314056
235,0.43847972965774085,0.5258656819424612,0.5324890426288925,0.44558692279945666
236,0.42645784797428576,0.5365354776317042,0.5232439106591595,0.43772944737618513
237,0.4159510050309512,0.5421793249314918,0.520092752356023,0.42872027059006096
238,0.42746834142179607,0.5422414882632073,0.5228145207884496,0.4360096212325066
239,0.4374586589417872,0.5443210288776639,0.5228927484503696,0.44795722605277677
240,0.43932260856940214,0.5379962253350381,0.5219824459967185,0.453337106493099
241,0.4110098770758529,0.5201537724167898,0.5205763488725363,0.4362691939873647
242,0.38698269925766804,0.49664185365666913,0.5231638886009707,0.4187557944226745
243,0.40290918027190864,0.4779924029546834,0.5259226114079604,0.4265589568910924
244,0.4318978735200141,0.4639721855834157,0.5138929363220011,0.44018976095232737
245,0.4395324483970707,0.4658667582661148,0.4990180110899127,0.44027037782417944
246,0.42773136543135487,0.4782356494600686,0.4924046397043282,0.4270822463160221
247,0.4176625081541486,0.4889575059158725,0.4985241846599351,0.419965865346738
248,0.42010040596567766,0.5012467969032249,0.5140584477761169,0.42753053350775966
249,0.44960876692033575,0.509631445603836,0.529483479900953,0.4551181052449135
250,0.47387427078848704,0.5099765082234139,0.5300126091767055,0.47433327054924995
251,0.4690017794655569,0.5044673813526188,0.5203128205134621,0.4654032973116656
252,0.45711083207161485,0.5036801776845302,0.5170491841242584,0.4450703002130999
253,0.45849006614298854,0.5015005887345134,0.5146995096931676,0.4329526454407972
254,0.45839885149381415,0.5001686177095032,0.5140668307295871,0.42822456084849625
255,0.4593109979855578,0.5000959647445026,0.5143355090365408,0.4299323481320056
256,0.4589612043957788,0.5005795071186121,0.514816161655238,0.4313640293572775
257,0.45836104864308275,0.5036544138366602,0.5165284316463651,0.4320768631688272
258,0.46029998224092006,0.5003660838300797,0.5144672933394083,0.4308645343942361
259,0.46203203493240563,0.4919035472439248,0.5056086624080108,0.4278613272357739
260,0.4535533943972024,0.47037481945493,0.49571725279618983,0.4203649921727031
261,0.4402910437762171,0.45839706377421796,0.4924403336269627,0.4172303339895864
262,0.43682848101337896,0.4650755003204707,0.49342731767445797,0.42485021637016385
263,0.4473469354893432,0.4872717440507664,0.49594210242632286,0.43643404181735856
264,0.45857751464287677,0.5108721427914166,0.49543052439833957,0.4413257780953296
265,0.4631179676601711,0.5225672123805789,0.48798456541665214,0.4343451857120441
266,0.44464413588584173,0.5232639728291584,0.4827912283473716,0.41988599909817265
267,0.4259844697866117,0.5162963683433639,0.48646827744627186,0.41060341154085933
268,0.4288738250410551,0.5182001468300943,0.49460473761044227,0.4152777547103976
269,0.44862533304600366,0.5194564158556975,0.5009717927993929,0.42995500380072577
270,0.4757165695521627,0.5193307889531372,0.5056176712992698,0.43867374949836124
271,0.48115512450320136,0.5170276290728647,0.5070247844403174,0.4333631039634806
272,0.4737462818214533,0.5132588219960551,0.5065083911214786,0.42200445255231045
273,0.46033763238559805,0.5103544809385631,0.5051886589896669,0.41644713227226726
274,0.4619120767088143,0.5054579230003381,0.5009423880856642,0.4258810087703846
275,0.47365772237625586,0.505591635903573,0.49544416258212554,0.43950561265010546
276,0.4837735297910618,0.5116024680354224,0.48902581973368514,0.44443629671251583
277,0.476053349755987,0.5189639058674121,0.48672083871989946,0.4382695556724452
278,0.4558614036043,0.524768536615356,0.4892130299746514,0.4312306629182065
279,0.44913073720288027,0.535449789999343,0.49643381342959175,0.43683729258721393
280,0.45381239333443946,0.5351164607773642,0.49755749709252767,0.44505831947485713
281,0.4690773219742633,0.521657463876887,0.49553620147925326,0.4485750325414423
282,0.47869350227438756,0.5047418590629823,0.49690390598361955,0.43737874494111095
283,0.47050274577233847,0.48918600479359764,0.5056200188812308,0.4265005099813127
284,0.4575562258870239,0.47164775625956074,0.5220202232131962,0.42635462818900005
285,0.4496253527169062,0.47172235220093794,0.5337759491206844,0.4334741488348503
286,0.46044551676624385,0.48988223357978444,0.5343405764050637,0.44236883570603247
287,0.4796608631614422,0.5079246192284077,0.5237396969706828,0.4443750480559041
288,0.48998017316263454,0.5262802828036858,0.5166378598391521,0.4433557778165527
289,0.4869450587653966,0.5435003304025676,0.515917483646717,0.44097669186952326
290,0.4636978323944785,0.5436689097219413,0.5191226225284319,0.4419046253472564
291,0.4460052012923541,0.5278536897845062,0.522111810123403,0.4419274994001279
292,0.45956671430307344,0.5151173368550153,0.521863593780769,0.44126291150325236
293,0.48675583971698116,0.5004538402818278,0.5203469270174458,0.43844661268966445
294,0.4993995514480533,0.49042005127548266,0.518564706359182,0.44086191217311466
295,0.4898599103109226,0.4900104875017473,0.5165555864880663,0.4412980286005282
296,0.45187372974625006,0.4966312450602977,0.5148071953851568,0.43429939689398717
297,0.4108975424496736,0.4976426158423061,0.5139927357639136,0.42388227955006696
298,0.4062441035795995,0.4998782238715519,0.5141973260530437,0.4187563370220715
299,0.43199763672312963,0.5028262696883903,0.513880287370958,0.42421190841678164
300,0.4591368023761203,0.502783977088826,0.5127844639666983,0.4353581496754557
301,0.4760879852639326,0.49948349294228633,0.509870839197715,0.4444098379094774
302,0.4682498213527794,0.49583813159423495,0.5081878019075173,0.44121221144892353
303,0.45793120974311613,0.49189569732604277,0.5091561012343208,0.433852646488917
304,0.4697513703729073,0.48948643193992536,0.5123726519684485,0.4304406587785807
305,0.49050593510502205,0.489355017464319,0.5162530610089947,0.4312717799238384
306,0.5032567059242298,0.490669162220383,0.5163735452339477,0.43296912375023383
307,0.49675931083752534,0.49101668910579105,0.5163263116999789,0.4320513948482929
308,0.4857338066011713,0.48891352844157326,0.5196131293289168,0.4305562424436447
309,0.4870606282082487,0.4875883953648132,0.5266957265983185,0.42916621272148214
310,0.4974359199446712,0.4943854621664289,0.5297212117127041,0.42883311662329615
311,0.5054829336702006,0.5026102111055476,0.5216396824947185,0.4293127892164399
312,0.501778484471844,0.5083619688930466,0.5106793541795398,0.42872518515519825
313,0.49470213109623823,0.5053833143731864,0.5075667707117809,0.4287249867261313
314,0.48568483342783836,0.4999928161460094,0.5165619241014224,0.4298523050294188
315,0.5004890036244047,0.4977181409512352,0.5338891875720045,0.4319103356998072
316,0.5067279358248106,0.5047937026927103,0.5391834777552316,0.43655539568439866
317,0.4693642327157244,0.5140877242760455,0.5192782057565306,0.43493183213635167
318,0.4298140739886578,0.5210820499298218,0.49286537757449794,0.4305907703214516
319,0.4164388264973769,0.5192452945010622,0.4841694751333118,0.4215503050077579
320,0.43628216195601927,0.5106467591589849,0.49386703514467845,0.42557138552228957
321,0.46836756152206827,0.5072936910643443,0.5154539347712637,0.4355622026088495
322,0.48046466722764264,0.5143693229668747,0.5393078955518685,0.4436654918323878
323,0.4517836088931659,0.5245506842887058,0.5400344307013681,0.4463918513630843
324,0.4242281167638015,0.5265329674210361,0.5141555790903527,0.4417364284458103
325,0.4384565922040829,0.5168658368655212,0.49146500104425483,0.4388372399582582
326,0.4556446372838054,0.4932878898069793,0.4853493145670814,0.4398369540712546
327,0.4597689030561689,0.47755222934995706,0.5019560481742232,0.4463503954209131
328,0.44232357646891307,0.4779776038086953,0.536377711533167,0.4433772234594307
329,0.4236605454847866,0.4913028928374743,0.5552357795311416,0.43849269998467416
330,0.42058207574891476,0.4991073402842787,0.5387980855821202,0.4355293198140033
331,0.42779118851756226,0.49860776386446154,0.49787919924394414,0.43495236555753986
332,0.43566316444928277,0.49165558912851604,0.4682174525830976,0.4336280144758603
333,0.43843145991076704,0.4787874522889448,0.4725096028923069,0.43613583083988716
334,0.443745440615933,0.47444770196185065,0.5018851507453868,0.4407845594639325
335,0.4551510193274228,0.48026505792566193,0.5337625136740303,0.44789734586752417
336,0.4668626998438587,0.49140441975118926,0.5395235506083941,0.45413139178431217
337,0.46346557427737706,0.5001708680676953,0.5271357342879798,0.45972421621234916
338,0.4536193533521452,0.504976153349417,0.5081672405322022,0.4593117671547702
339,0.4440463796584152,0.5049715191876565,0.5045810424035387,0.4579925017549396
340,0.45868781615722376,0.500302853068171,0.5117133803641793,0.45300804901130026
341,0.46895173902358384,0.5004389607574474,0.512964838209787,0.4405267752698309
342,0.4485146147366253,0.5031841387013283,0.5113437033678802,0.4246395043180517
343,0.41591046603416293,0.5072177497926218,0.5056403299243589,0.41001028384984883
344,0.3992275904458342,0.5134221816949684,0.5042866598786994,0.40627535094409106
345,0.4138638564488924,0.515906008051981,0.5046070289460913,0.41663679784287877
346,0.4455224508213099,0.5125251338349659,0.5044035411072584,0.43072741720655716
347,0.4746205649671796,0.5052941813617499,0.5052424704886291,0.4359780669566574
348,0.46559382627102336,0.49998499947447533,0.5043498959738926,0.42854408218539475
349,0.4536883204750663,0.49653182061420725,0.5074683000865274,0.41943984454823974
350,0.4737334199389295,0.49633208005575186,0.5199420580455727,0.4266816554437015
351,0.49530968089905075,0.4981207542622249,0.533614072422307,0.4415290211614071
352,0.49925792880828135,0.4972584993389837,0.537370020291347,0.4497747995375269
353,0.49227236678127506,0.4972624658119241,0.528889005719282,0.443023246973334
354,0.48420424987771593,0.4965779548708801,0.514306096988141,0.428680224331659
355,0.48538563793281875,0.4962616436081959,0.49952958269139097,0.41512583982222157
356,0.5043873832264195,0.4976103261392351,0.49687791328872327,0.4169843225992582
357,0.5210257702617387,0.5003006897385837,0.4997619319334093,0.42201105208662093
358,0.5183014817479596,0.503329307573217,0.5010722330902685,0.41938001445920636
359,0.5116091311471593,0.5058968708480167,0.5003990136309509,0.41524490654632074
360,0.5110341897514085,0.506900942117077,0.4999480972469338,0.41346901167829647
361,0.5208682754322645,0.5062485813867164,0.4974381112414784,0.4202197956528708
362,0.5255447230062744,0.5039294887994569,0.49539451883260105,0.42829716224721603
363,0.5051738282292275,0.5000115066794854,0.491892476528242,0.4290887001534051
364,0.48108764640547597,0.495558209631101,0.5046550283637954,0.4247622632791958
365,0.4788446763568643,0.4923718430794744,0.5230248395164127,0.42075690076906946
366,0.49412589566921683,0.49173513219185283,0.5403384079953869,0.42150266324206587
367,0.5039844607935828,0.4911250785373102,0.5399785839033712,0.4296837598915585
368,0.4865790840623545,0.4912416202204626,0.5265204139399597,0.436448680675884
369,0.44322027024757604,0.49310906284231426,0.5109833796717352,0.4366245714408061
370,0.4193545455095231,0.4972937900157319,0.5070465390668374,0.43601653793717216
371,0.4279856991640729,0.5022704589324407,0.5148855795432927,0.43863044109428806
372,0.4420343897281844,0.5076463057561107,0.5146450955216123,0.44146627580120645
373,0.43583454621696294,0.5075851924335901,0.5116891151397921,0.4431395539777915
374,0.41513707478777795,0.5026783714627553,0.4995724012490369,0.4417239407192988
375,0.39946901547499947,0.4922902785397223,0.4960932584277944,0.44067438847657214
376,0.4017341787422512,0.48788385065519113,0.4999427504838673,0.4413971265306969
377,0.41044611528430835,0.4899022707941624,0.5097021058245619,0.4422773562016856
378,0.40171985896307716,0.4966648040538434,0.5171800212460886,0.44153232310446167
379,0.3994009977504889,0.5030645099617681,0.5228334966969962,0.4387621127714025
380,0.40914692947835,0.5039131638730139,0.5240544729751925,0.4344345656594769
381,0.4296033661700154,0.5017899404475205,0.5219198019276343,0.4310686849488049
382,0.45076961166544965,0.4987232090357647,0.5221030087440336,0.4307895496709469
383,0.4628301373186445,0.5010197204786236,0.522285198467983,0.43084420880190466
384,0.45786799647399645,0.5007006223286765,0.5146423707178643,0.43025423390395684
385,0.46037431490411096,0.500682576656051,0.5164016259676537,0.4302862723612671
386,0.4637523178598824,0.500351739324583,0.5142765174943815,0.43159463358478833
387,0.4635880538753716,0.4998103691458171,0.5093321014404526,0.4311137288425667
388,0.4359715970326926,0.4981127671187907,0.4956237952309811,0.4253033684521593
389,0.41839146898611695,0.5012506253321045,0.48858429835802325,0.41994735853398363
390,0.4306602943441684,0.5008857101050008,0.4935679336121871,0.4216423559414042
391,0.4798001653783653,0.49470689166582277,0.5109121181735791,0.42630588394534547
392,0.5186063253153056,0.4842406527893923,0.5273462486791595,0.4294098657567526
393,0.49630575240849095,0.47408660251255486,0.5322540315447795,0.4275297074762143
394,0.44106504718164674,0.4669712182745981,0.527017130459927,0.41924904017239667
395,0.4021023003518859,0.46669995962737226,0.5186608427207896,0.41211271916423403
396,0.4314938143510499,0.47155485513844714,0.5209435008626363,0.4124924645496255
397,0.48469115103452104,0.47442780173768945,0.5265817654167996,0.4177134703044857
398,0.5249772833376293,0.4714135752654629,0.5319377171727563,0.4178764328341051
399,0.5128207632559768,0.4733280306007357,0.5324915350358544,0.40965942843000297
400,0.4871172898155873,0.483088323272616,0.5283236293362751,0.4059317903367192
401,0.4913203912490391,0.49739371054742293,0.523752568137105,0.4178912429876165
402,0.5032574616978732,0.5158519021405039,0.5212930642870581,0.43434610392557166
403,0.5130976824600785,0.5253007344885136,0.5215433410193612,0.44597884408483374
404,0.503203162975693,0.5215050838861593,0.5240106818777732,0.44243759301575825
405,0.4916133356392271,0.509147047697816,0.5238439300890357,0.4293869319386594
406,0.48652831276168185,0.5031635223900898,0.5216278655454414,0.4215064084735604
407,0.5047222884735432,0.5004118125217683,0.5158256809912379,0.4322486196412629
408,0.5228798602712076,0.5012787529363905,0.5120780561026762,0.44403644958945054
409,0.5171614351903067,0.4998279840831574,0.5116611882775728,0.44129451461173924
410,0.5037931663543342,0.4906320999302998,0.5153255976484923,0.43476248240119647
411,0.49945428144286474,0.4807016794493664,0.5239388641937865,0.4307975146163866
412,0.5061465499662489,0.4726551729543447,0.5260566174829074,0.4373262885778975
413,0.5113648305011561,0.4704681223463468,0.5187435426018523,0.44037276050522434
414,0.5091789677752365,0.4750317990039603,0.5059994974807477,0.4301816714928407
415,0.4948390827940823,0.47310285151049597,0.48358389105369187,0.41261835565105287
416,0.4804172027154259,0.4633812293921673,0.48122698865093255,0.4047632330871708
417,0.4966181363114351,0.44957426532611255,0.5031159207086111,0.40909115862468554
418,0.5073870489719249,0.43767273006488705,0.5356263128255043,0.4184492124210285
419,0.47525205714700974,0.43246313574182643,0.5516579212820957,0.4194476663344394
420,0.4388786111314224,0.43432511754111114,0.5477785128580278,0.4078106790120801
421,0.4328856838169022,0.4394821355581293,0.5279785350266667,0.4055944160565211
422,0.4459241777440982,0.4396208090224605,0.5029813966626092,0.42914065541214946
423,0.4644496748350231,0.4378955311726477,0.5025747279095412,0.45566149969314684
424,0.46842563215328603,0.4366322161579569,0.5095980686226101,0.46761450432298807
425,0.43986526238241075,0.42522882184822575,0.5195254001450097,0.4633100708893554
426,0.417287194356289,0.4170751766506071,0.5247561320471613,0.445620657192643
427,0.4284132735579614,0.4322256598113534,0.542597780581255,0.43263066367398784
428,0.44693528487406364,0.5175382337648886,0.5631699106446082,0.4337988120834219
429,0.44397581770044325,0.5792343952694624,0.4736055989248982,0.43614984488513064
430,0.44307373658032806,0.5787633779904395,0.39912520327158274,0.445068891384143
431,0.44545364001061327,0.4940192681174446,0.38662326092944665,0.4496913329755564
432,0.48840525495023984,0.3741812497944797,0.463722798654249,0.4492731572581146
433,0.5043255457579361,0.346848193964591,0.5933565355570523,0.37284932468237036
434,0.41478018495135777,0.4269400945155004,0.7231201977263942,0.30397556484867694
435,0.3062392690050798,0.5527278511796381,0.7351380786097035,0.2647359038120287
436,0.2771541478096602,0.616177768190416,0.644829948009488,0.3038595699725898
437,0.3837215433869359,0.6390506764747552,0.5939699185216806,0.43894526047124466
438,0.5504748124287697,0.6175741783346228,0.5326696635203261,0.5531331053758395
439,0.6632061297175755,0.6048721740695804,0.5069132107320434,0.5847730027268425
440,0.629064894635913,0.6145211456883951,0.5027311569883124,0.5261047037903852
441,0.5274908947554586,0.6110869992146108,0.5330479865102623,0.47594953206692725
442,0.48457523494504834,0.6149296679679452,0.5268761015091883,0.4219398512459657
443,0.47718893014834457,0.620485842162076,0.5040441739952135,0.4247129859322957
444,0.4826593655241643,0.6157086048363857,0.43905467970143025,0.4449073591040977
445,0.4673396922620998,0.5744532970713935,0.3983871221878299,0.44119807047691384
446,0.4594294531691276,0.5204721708382746,0.4167923794553988,0.44233929065114846
447,0.45283347129468865,0.4693237493169077,0.48931176339211924,0.4435322556871042
448,0.43038783892457017,0.45705049453501484,0.590669580248271,0.44454521492834737
449,0.41068608865204526,0.48873851041023547,0.6343379897460829,0.4454785112502408
450,0.4000480980103222,0.523365662667721,0.603159723314392,0.4464711826761523
451,0.41156720194582486,0.5392027431157156,0.5204876104682181,0.44968890841122716
452,0.4391225193675786,0.5168788341505899,0.4748750023525554,0.4495803305266251
453,0.46553780419046675,0.492262360522675,0.4660380475115724,0.44499935947881364
454,0.46513735041020116,0.4701436909679987,0.49345994067606963,0.4379735848463872
455,0.4556842587487683,0.4786203821103284,0.529663325192134,0.43008514450843394
456,0.45530809604268657,0.49544391507497876,0.5327974340361915,0.4254530099126698
457,0.45473727643972545,0.5092366684514251,0.5163185131705753,0.4244875191666302
458,0.4546826476087542,0.5162366501912334,0.5105630466015664,0.4253359867240156
459,0.4567973240621916,0.5098831934931399,0.5199180666055403,0.422632284295339
460,0.45193719193232257,0.5080811168389279,0.5319612749570377,0.41989794307911094
461,0.4524042825741918,0.5060499974657712,0.5385739151310667,0.4185981983010299
462,0.45874633088286365,0.5082770502785406,0.5379557053937113,0.41982802335725866
463,0.47945278841753436,0.5078817218291346,0.5316443857288381,0.42269943070594973
464,0.4950358084302131,0.507606904436759,0.5261021207924164,0.42483543260374734
465,0.484671281674706,0.5072445439464438,0.5213718170804589,0.42634524045574157
466,0.46353138686183326,0.50808600092096,0.5183144095799185,0.4241584321639019
467,0.4564827587611295,0.5104421471243954,0.5175178244855642,0.4236399847326052
468,0.46895099551020136,0.5113579974891794,0.5169594142163917,0.42991708584505633
469,0.47696156016569685,0.5078218520354411,0.51568339844759,0.4405813191633982
470,0.46513196819723923,0.4990078245107539,0.5156348677586186,0.4411672197844785
471,0.43129631000351315,0.49033892411165253,0.5166292138699223,0.4326435348647808
472,0.41173199230768875,0.4864769665887824,0.5150798033802885,0.4231676691868953
473,0.4173254551733821,0.48818350700190655,0.5156369066951845,0.4198283651157314
474,0.42842568032999784,0.4928698066377115,0.515047709262942,0.42773264265839656
475,0.42441745664746156,0.49263811854121753,0.5225894899777557,0.43878995357141654
476,0.41230384045930146,0.49265995981377597,0.5350045638961486,0.44363558436571904
477,0.4032943945450365,0.49605064322083114,0.5423291722587152,0.44021870282314224
478,0.40883573817359975,0.5034166001345577,0.538097566439282,0.4397477845409169
479,0.41635067859298663,0.5104749689756073,0.5173590931920476,0.44013611738471875
480,0.4163864004867198,0.5145906802333297,0.499316622538517,0.4398686582840719
481,0.40517023611936953,0.5152960334370325,0.4934291215761302,0.44000749543939843
482,0.4003815127056267,0.5129060859207798,0.5131582800222864,0.44058219137810667
483,0.42556283712656723,0.5136075833617991,0.5298831044846479,0.4454353099649661
484,0.45465968191358935,0.5110465418553823,0.5330243760403454,0.4477839319030455
485,0.45685705838155966,0.5067192485987384,0.512883767158946,0.4405350861159993
486,0.44204429298094816,0.4999871814016332,0.4925449519443918,0.4320089278163195
487,0.430452078945549,0.49586842879110776,0.492347867725616,0.4271642221976019
488,0.4411557568325589,0.4982240777582342,0.5087726529508613,0.4331149423176762
489,0.4786291316584719,0.502464863047894,0.5306006789075114,0.4412242764250319
490,0.5050654961807618,0.5061073169223003,0.538460653947532,0.4446999267202848
491,0.4989396913494566,0.5037431189037693,0.5365708648576826,0.43341224791632044
492,0.4867760604434973,0.49851602533619654,0.5285500775640982,0.4218300956394165
493,0.4932467831966395,0.49414521133176215,0.5287229474958479,0.4232298203430441
494,0.5061031339576363,0.49525601407100367,0.528332971282203,0.43098486391365853
495,0.5155731184851763,0.4987294817029237,0.5299785342500831,0.43638844551292544
496,0.5102355669002542,0.5015012821442507,0.5298472217215113,0.43056085594382576
497,0.5012692413664563,0.5018944244361176,0.5292822054968014,0.4235671806896006
498,0.501576090423543,0.4986797961570938,0.5251168431350359,0.42220262722839963
499,0.5056426478067549,0.4950735159002164,0.5161462747217711,0.42844731900971966
500,0.5091290861994276,0.49287873478733285,0.5064681729324819,0.4345025317375876
501,0.5066276496765171,0.4914527853291836,0.5030202455731863,0.4318411194138299
502,0.5011115331641093,0.49083676012732114,0.5092594428455537,0.42612376934792506
503,0.4955986389880882,0.48924078874579563,0.5187978149708802,0.4247452826004219
504,0.5038211622755868,0.48612944948426384,0.5244898653570172,0.4303499303836618
505,0.5075345973276058,0.4833012743144704,0.5196913890821406,0.43631806567012654
506,0.49854108434027267,0.4824466565356303,0.5114037261257944,0.4372594525812986
507,0.48248868463270406,0.4814106993168223,0.5069434657304638,0.4352443405272448
508,0.46555010452033646,0.4827142318904792,0.508607131643326,0.4315681351644938
509,0.4559596119709393,0.48744166196142064,0.5130346254986717,0.43074775644522945
510,0.455421846585521,0.4934084950509905,0.5154813918376905,0.4306755524273407
511,0.46079950043970436,0.49875680533578204,0.5152582007264933,0.43139759260622823
512,0.45936444798584003,0.5005759158465367,0.5164574457408988,0.4287591492782325
513,0.4582921246809462,0.5038276944712419,0.5149472749849727,0.4289863743318065
514,0.461077350726051,0.5003605329862618,0.5092094818106242,0.4289636518264491
515,0.45669682543063495,0.4917701060813625,0.4939398547269038,0.42884067185729996
516,0.4346498800981403,0.4679982904304175,0.4848622758076932,0.42727819880936824
517,0.42251414181888775,0.45544582152668966,0.49159841394605064,0.4262800148339225
518,0.4602292481618696,0.46438586486959677,0.5092270000289486,0.4285393661890014
519,0.4976367749774113,0.48775488624152324,0.523302436104545,0.43149555471500106
520,0.5062661510347997,0.5252878337411729,0.5216385045339563,0.43209414671618235
521,0.47522964020040537,0.5385812613080035,0.5103320611814733,0.4293050628010648
522,0.4152317364938549,0.5249004430316239,0.49961139603229227,0.42392026935573823
523,0.37821413306243445,0.47954759276768416,0.5041187110268355,0.41933371037545447
524,0.39961934854401676,0.45365767661444284,0.5120360173981497,0.41996382704091906
525,0.43810590931318755,0.4530406143490533,0.5163154785174326,0.42289910900411803
526,0.4403039562868738,0.4796303817456173,0.5148345359983252,0.42317834160301726
527,0.43332590528478887,0.5162436459365286,0.5117302008041951,0.4195934538604146
528,0.4255478467692022,0.529090195713991,0.5119039496941571,0.4199753635620465
529,0.4382135961396191,0.5290106364909682,0.5143539237269535,0.4302796990933593
530,0.4611887868310112,0.5188967969073791,0.5156192299135027,0.44594083358414277
531,0.47202541909904033,0.5209332397936842,0.5123171654215798,0.45401666055511275
532,0.4640104466138415,0.5218097765695289,0.507665144355893,0.43946110936637894
533,0.4559168038139294,0.5223581398990544,0.5049273181022829,0.4206256669122182
534,0.46649690244702396,0.5236503739150505,0.5069088548972157,0.416636327977934
535,0.48914030963723376,0.518422099655554,0.5121230458106818,0.43168730290492946
536,0.5006458410563999,0.5150991960816482,0.5166139987819782,0.4472346435704895
537,0.49640658401848303,0.5239275092799983,0.5174205801208281,0.44683137486241775
538,0.4877647376767569,0.5381504155211845,0.5165595597664877,0.43198121286316604
539,0.4938690151406033,0.539722948822597,0.5148662105941074,0.41632955957254375
540,0.5035480839411008,0.5253218726835289,0.5144904789203403,0.4167232621209322
541,0.5062678518528136,0.5029868346926419,0.5158893766202046,0.4219349260503863
542,0.4874790676961753,0.48590100887210164,0.5197541213515606,0.42500983066069425
543,0.47026981482810293,0.4896922162931955,0.5239269757313704,0.42435826250043507
544,0.47814022824600877,0.5006589866754039,0.5232988590071648,0.42342253840586486
545,0.4944033683660288,0.5047253199766571,0.5170571092687579,0.4244969474546511
546,0.4999671637691959,0.49871072788677917,0.5072180038063188,0.4222094444028625
547,0.4924529267172737,0.4896163402400642,0.5006813952063863,0.4224381947080414
548,0.4863714991432895,0.4827177306155357,0.4999001995294316,0.4265060277102631
549,0.4856898834745062,0.4809657571818743,0.5048876690437563,0.43310045459010676
550,0.5103342851643087,0.48297919776831827,0.5100588859802334,0.4418627371287384
551,0.5268624600916948,0.4871192287726507,0.5130589095641684,0.4458160135012877
552,0.5050682732239092,0.49500307212654887,0.5138250274895694,0.43942173501554765
553,0.47582168232857736,0.5016935996076395,0.5127823799499698,0.4299105585745006
554,0.47383543099432673,0.5079256604832812,0.5100301884996121,0.4291344339066529
555,0.48436886795114936,0.51348589048874,0.5069752674962615,0.43121568994048576
556,0.49308279633290264,0.5169445665221012,0.5093854911235268,0.4351457229639059
557,0.4849023379382992,0.5153035939387032,0.5163904396699583,0.43468681450944435
558,0.4495563388578677,0.5122256324957396,0.5348459819559388,0.4301493921864251
559,0.42428624880525423,0.5082205099919804,0.5437662746378429,0.42798789183813746
560,0.441968861651053,0.5038937507463974,0.5299572816615009,0.43481005963448327
561,0.47748930335150475,0.5012496200963189,0.5045231603958298,0.4413313394934218
562,0.47789522977975385,0.5011053947881328,0.4893839496418557,0.43928042487608815
563,0.4480699767326501,0.5025476478699938,0.4969887124493129,0.43420968565215057
564,0.41600308095876554,0.5039594272058147,0.5188655899875174,0.43273248700978556
565,0.40983444850060213,0.49773883701013677,0.5369536564436985,0.4349071549121793
566,0.4371562732663235,0.49846820121712376,0.5283692470394897,0.43664469454930405
567,0.47626528509629557,0.5131163951453356,0.5083647041791844,0.4331164518933714
568,0.49530445027897524,0.5267224556620553,0.4995727819419034,0.42713000746766583
569,0.48993742696610626,0.5313478562322509,0.5127301324657378,0.4252377158751741
570,0.4859406731985981,0.5220124218582045,0.5336114427764345,0.43393285195965897
571,0.48544161049242335,0.5065522388356016,0.5356081911031455,0.4430998499940843
572,0.48547658596108234,0.4956676114111002,0.5227524124810392,0.4440773399876867
573,0.48616253659808567,0.5036590977417008,0.4975937699858153,0.4309125937268982
574,0.48705055733133307,0.5125976994526933,0.4857480989708537,0.4185752110653957
575,0.486424080622182,0.514186446215887,0.4985646411979141,0.4261811277055666
576,0.480784514875332,0.5139495655393492,0.5232733563575216,0.4399497228993655
577,0.47118424100381134,0.5119791237718175,0.5393569847182822,0.4483739099765536
578,0.4611599727971112,0.5109141263432061,0.5447904164563031,0.4434145083034337
579,0.4544664782742436,0.5157462533430309,0.546155946631099,0.4349514749916567
580,0.4528427593116064,0.5153116014745288,0.5402780021318028,0.43147968872977793
581,0.4537782312708489,0.5065544758543052,0.5448005098219371,0.44756369109615335
582,0.4574411489904623,0.4857148904125064,0.5445124641823063,0.4617609013846964
583,0.44864125011881106,0.46625532673987063,0.5392316274557422,0.46056500831573255
584,0.4450663845206936,0.46765992275913865,0.5305902582668192,0.4510685808902856
585,0.47303990072417984,0.48881143702539254,0.5220078239984798,0.4468132988289401
586,0.49847575859946597,0.5215137789338997,0.516892286591997,0.44323046112165015
587,0.5020666624503218,0.5313334300424412,0.5155956091830446,0.43772283305724036
588,0.46683357448170415,0.5187214531818622,0.5189028388671121,0.4247965215793554
589,0.4191490771923604,0.487020736672294,0.5203546734703397,0.41357209444089943
590,0.4014871653894909,0.4689257320435767,0.5236219204102506,0.4132253044737302
591,0.4319879891873631,0.47196361968707196,0.5280204011761542,0.42913346024350596
592,0.47736256237339786,0.4873156301777317,0.529822104666167,0.44611237749363375
593,0.4908224106745036,0.5054299048361827,0.5279603610406466,0.44214998986014575
594,0.4842244379341473,0.511260078331168,0.5241967608377531,0.42998777539184435
595,0.4645924669098928,0.5104154460757148,0.520651764385867,0.41977673294237877
596,0.45898213172999436,0.5061492050695126,0.5167558102291423,0.4335423989554814
597,0.46068604710528516,0.5084748198448383,0.5144647458322543,0.44861851145719933
598,0.4593118283534116,0.5108733064370206,0.5135419238790011,0.45429003996177336
599,0.4609348423150862,0.514504631067157,0.5120768713451785,0.4402960801212635
600,0.46078765289115536,0.5179122141939742,0.5114311661500682,0.42063353530236075
601,0.4617242877969588,0.5171659157929261,0.5111517444291834,0.4106343951463813
602,0.4586571680402049,0.5131109424309103,0.5109047781403617,0.41060306511293
603,0.4506916108872852,0.5109371266005318,0.5123699307000207,0.4164629023097303
604,0.4467801669947042,0.5139682258336682,0.512731001249327,0.41373036378759565
605,0.4583115846389082,0.524377856511195,0.510897441574753,0.4141874241627309
606,0.470928974701764,0.5267476426846155,0.507845260083768,0.4158435339357905
607,0.47608959575475124,0.5135823047121427,0.5031385283782823,0.4196451065390517
608,0.4653102992660073,0.48932283742592236,0.5017600701148712,0.4247110955578454
609,0.4491341357408119,0.47238789992430674,0.5069920105174139,0.42895386833264
610,0.4411899367075185,0.47418380943119354,0.5130904546083296,0.43143357510000235
611,0.45469012675783277,0.4878904107061991,0.5155359854049416,0.4313715333576316
612,0.4690512367182243,0.4989466739052457,0.5122512480696342,0.43126387181251297
613,0.45970822730346694,0.49532285726043024,0.5072045200200711,0.429718614725812
614,0.4453305684185367,0.4867613761689784,0.5073457267087625,0.4285306097030748
615,0.4406408772481768,0.4778010768834718,0.5120777259706227,0.42732085674046294
616,0.4498097957444425,0.4779754195993353,0.5162497634888693,0.43185713090969646
617,0.45543861478542375,0.4859638374908445,0.5111191651434812,0.42914879463290767
618,0.4458259991769264,0.49808791704967087,0.5068782235266505,0.4236949237851961
619,0.4189823660808922,0.4943629240176222,0.5066983117352764,0.42014696494953346
620,0.40049545292180766,0.48830722771414764,0.518531712917275,0.4217535023321838
621,0.41551145837555303,0.4821821740021769,0.5292051604788077,0.42833064863964815
622,0.4382200827453754,0.4900371692129234,0.525409910024105,0.4363730713178689
623,0.4376472280474173,0.5072528742661515,0.5159792345268,0.4391420473223471
624,0.422861516036746,0.5306484624810006,0.5094028111106828,0.43291910593642413
625,0.41262832983392345,0.534416020447714,0.514979919674556,0.43242550266571306
626,0.42279480933780483,0.5100733199817671,0.5300859036719999,0.4330384966094375
627,0.44551650739999205,0.4859216019892824,0.5388829478279183,0.4362381062420566
628,0.46417155346750716,0.46974676065997467,0.5304891137932857,0.43837764694174036
629,0.45460861826102417,0.476660145728567,0.5146884452019909,0.43759661747496925
630,0.445612147595401,0.49411197105850607,0.5042212282729193,0.43400776507166616
631,0.46599168834198607,0.5201377820609568,0.49900585895464755,0.43432251463702104
632,0.49044857347503173,0.5232462795489957,0.4994453996342853,0.43755951016556643
633,0.5026336454833213,0.5148054928096141,0.5016558889824536,0.44069699444890853
634,0.4940308302886572,0.5052074992451195,0.4985413254987589,0.4412307268937151
635,0.47252613779323405,0.499568560278456,0.49640193330401716,0.4376647908972631
636,0.453654387561626,0.4971899164669071,0.49737217044806026,0.4327518093174495
637,0.4544882459890453,0.499051782317896,0.5019747411612192,0.4299650402161599
638,0.4609166846772578,0.5024808614158085,0.5076650996590393,0.4310458371692416
639,0.4591296214569711,0.5001816245785424,0.5129599048490304,0.4311923828512616
640,0.45889822324888707,0.5010597836652088,0.5155097301429814,0.4308195893024578
641,0.4606833792547081,0.49945895542311286,0.5130122875530312,0.432903340657399
642,0.45732781653635074,0.4943259702926597,0.5084342482074684,0.43361627057422075
643,0.44819278495407305,0.4851217171666343,0.5029823353804439,0.4231765376418143
644,0.4402601525589657,0.4824907102516486,0.4991378280266847,0.41101301489168873
645,0.4478983277530355,0.4775419248447476,0.49893012095464306,0.413348108341117
646,0.4701282161731433,0.4679087557914679,0.501679314090155,0.4264021188432214
647,0.48898894004958743,0.4530536178247755,0.5033068743150155,0.44562474923338063
648,0.4879039203286328,0.4427937574560924,0.5046821999625754,0.4573665237473266
649,0.4703685510493633,0.4260676608079199,0.5051343257810071,0.4500635440113257
650,0.45851994728048334,0.4263523619451374,0.5054049484296937,0.43590324908696376
651,0.46039692035541613,0.44497806453835553,0.5037480050195414,0.432876149768223
652,0.4879620995956241,0.4661366814729794,0.5028370240143829,0.43764682547442885
653,0.5036327326202555,0.48896157019302366,0.5064020251594361,0.4424221007331405
654,0.47909342899916313,0.5025884574299799,0.5154289656324829,0.44869810484274664
655,0.44570369760455514,0.5033730401028235,0.5225338591890921,0.4457122037029631
656,0.4436986182425777,0.49628434180623093,0.5219001793255214,0.434293627992193
657,0.4549844557289381,0.499612208847641,0.5125017186233136,0.42069680405805115
658,0.4650670446129943,0.5009177968626727,0.49834353326599,0.4074230642829488
659,0.462124440568994,0.49989593564521534,0.4925197909280361,0.4000645518491916
660,0.42529899561990164,0.5000738346101454,0.4975660716295339,0.3984638793651986
661,0.3966949014849366,0.5025781872020204,0.5086486213689653,0.4004475896562427
662,0.4126322781846915,0.507202564684659,0.5169546833646321,0.4020591391050003
663,0.4382450472503149,0.5102890783858846,0.5205870083370384,0.4041024139662304
664,0.4358515269262804,0.5174070223219985,0.5184365561988599,0.40598839218551336
665,0.42839342827466,0.5171235621525048,0.5182446989043674,0.4069154487799949
666,0.42000208108192516,0.5076434501372759,0.5171467686154764,0.4091820124528497
667,0.4277966026249788,0.4951082641195904,0.5122163517941077,0.40942241502981813
668,0.44337869338543273,0.4818756157199071,0.5044125959756675,0.4080863489307362
669,0.4527780728297342,0.4744878908506719,0.4956078045284397,0.40481037330685615
670,0.41875773414921513,0.47399519196657874,0.49159151524958444,0.3994616887566109
671,0.3915237896148,0.47809680019700856,0.4912101383402875,0.39476427621596727
672,0.43249000923309233,0.47256508386055146,0.4920482867083347,0.3976490436897384
673,0.4826009420810023,0.471208749373951,0.48797644613231983,0.40678690262591405
674,0.48357231855979765,0.472594946060372,0.4848257888941668,0.4159565467301729
675,0.4510559691416471,0.4825471535796928,0.48290038724862877,0.42379239405281044
676,0.41763555776339717,0.4940998197317279,0.48279536534069034,0.42682247907384935
677,0.41239517357481265,0.5008413084512595,0.4838455844200747,0.4271777974971286
678,0.46015263364023395,0.500144864797408,0.48372776184825245,0.4252713081790028
679,0.5030199109014452,0.49403631795551556,0.4830310104843349,0.42190888483351874
680,0.484470989188386,0.4929517954318914,0.4831006856207266,0.41619843340192664
681,0.4588328862078772,0.4954418184904817,0.4854384692809153,0.40995536145585093
682,0.4671216382855644,0.5042572279680648,0.48526285874508823,0.40722797285663337
683,0.47794937747593463,0.5089687941673683,0.48647530576297743,0.40798051791524303
684,0.4809432917456166,0.5063144545711841,0.48707257680667676,0.41072473936110315
685,0.4748805915734552,0.5020607299686894,0.5082661012399721,0.4120038110978263
686,0.47353186896192645,0.5056316969485716,0.5331623623912242,0.41881219187135854
687,0.4791279912660204,0.5128229709941021,0.5522893434692379,0.43218685179963295
688,0.5092587319585691,0.5170083666957361,0.5526293090567537,0.44733389345039143
689,0.5266602518090129,0.5138200165043059,0.5275392329129761,0.45357123573517305
690,0.4903859812197121,0.5024458352293906,0.4985292459650671,0.44338299236017575
691,0.4456866189186017,0.4887258686498037,0.48386031042100364,0.4275217126547269
692,0.4507975577455345,0.4859251938067023,0.49373322915760653,0.41710466397177137
693,0.47260348373876426,0.49055080978050986,0.5044394963197122,0.4202309837739983
694,0.49309720980331173,0.49609273615533817,0.5189422781427147,0.4311520607013742
695,0.4763586764073785,0.49939687743315797,0.524000002361458,0.4397783024875605
696,0.4327452178605589,0.5000786628748242,0.5216664902559017,0.44126720342020875
697,0.407952906800851,0.5024003689612926,0.5213113037976539,0.4400147803001616
698,0.4536382509697187,0.5072277332322531,0.5210240202287021,0.440268331547072
699,0.50161761747205,0.5165800509397448,0.5210596366698881,0.44060152400200553
700,0.4843058140214633,0.5248387289669484,0.5218717433236435,0.4412736610278962
701,0.44921646046422636,0.5253109870440017,0.5228962399814684,0.44119715713654684
702,0.4369521826937402,0.5159125877056697,0.5224690284531922,0.43946654851338024
703,0.4523385183656802,0.5058168164977634,0.520970282492993,0.44079784422680385
704,0.46453347908983916,0.5035376168391175,0.5182254145758723,0.43788464767502283
705,0.46195610534520676,0.508218381281814,0.5149024798841163,0.4308113522953904
706,0.4255710017560993,0.5128665061615129,0.5140726674400056,0.41729073051467197
707,0.3954625663834873,0.5121777394144321,0.5133845754104654,0.40751330634963234
708,0.4011735542515651,0.5072747159354519,0.5116566942747337,0.40697132236276057
709,0.4172547121717606,0.5042193922364205,0.5069277787752144,0.41723454863671283
710,0.4118367424561269,0.50790276827375,0.5054177504267962,0.4334099287663732
711,0.41296240144077156,0.514518741533865,0.5075181040298312,0.4436112218262517
712,0.4185073244919127,0.5172138165118263,0.5088191336629427,0.44893590674890343
713,0.4353486405673113,0.513997048940351,0.5066887727357767,0.44840605449754617
714,0.4491252589251906,0.5079187174645942,0.49687809705392105,0.44933403970561986
715,0.44548103940288925,0.502764968776012,0.4898688409542038,0.4485713101676874
716,0.43190330604696947,0.5000615708434357,0.4948095579453889,0.44842650825905495
717,0.41983552455477696,0.5013945331476816,0.5061181047265073,0.4475327155643372
718,0.43863216558723933,0.5030748185464697,0.51220269734125,0.44738020224591657
719,0.45828303217088123,0.5056992979026728,0.5071511169821068,0.451755926144096
720,0.4492599246480924,0.5077375291108777,0.49788310690536425,0.44604869211321135
721,0.42462409141096696,0.5106509883341444,0.49334181499695934,0.4335322732672723
722,0.4095408486098146,0.5144908965301511,0.5019242372895946,0.4222756586872934
723,0.42069704458907825,0.5175088778594888,0.5131137387335724,0.41823672082715524
724,0.4480588148142794,0.5175645132294353,0.5151119165398371,0.4225872768626587
725,0.4733664043422551,0.515010159982985,0.5142730274698502,0.431862137518388
726,0.4681033281218622,0.5133151410542713,0.5122636514347169,0.4372527505017865
727,0.45653104491462676,0.5111996121221692,0.5142472242570021,0.43286661372653035
728,0.4612651333985503,0.5099067888858846,0.5186832634187216,0.4322036507990983
729,0.4645229124578978,0.5098362712548145,0.5222400345797946,0.43191905121508384
730,0.4670506756444059,0.5105414475655152,0.5220513861237048,0.4320339182048864
731,0.46072774752008894,0.5111610479878848,0.519327661040004,0.43066858982757555
732,0.45846471959510887,0.5085970704100754,0.5237603040501018,0.4303516189480719
733,0.4727886052195859,0.5088534681678563,0.523405439608274,0.43576308391391755
734,0.49157951226149543,0.5116645074980445,0.5178984103311297,0.4408212002686324
735,0.4980728629251486,0.5247055895024807,0.5007448012552773,0.44099010707536246
736,0.49023975767406525,0.5330353012397271,0.4884650444172323,0.42902304632799
737,0.4796272921235955,0.5265836226366257,0.4920707935798754,0.41783984776281335
738,0.47768681198076207,0.509423860863885,0.5114093278538381,0.41585021192710364
739,0.5019495688317136,0.4838645976024323,0.5355061651725697,0.42574349478093804
740,0.5166701361111169,0.47397890609035465,0.5481798026252509,0.43958682826641404
741,0.48932790593583897,0.4841452779198294,0.5519292383212849,0.4447287094849756
742,0.4544731393937838,0.5057085016852124,0.5483010724804213,0.44334210630807075
743,0.4446084982423929,0.5159157299416626,0.549758555032027,0.4397372948954593
744,0.4565788089218265,0.516349815085243,0.5546770914874295,0.4441113745645993
745,0.47327111194160815,0.5100213386047859,0.5544016737901711,0.4477607076656812
746,0.47430079539551717,0.501635767549267,0.5473947449505463,0.448043805199461
747,0.4456488300728572,0.5044336217948806,0.5380241477661867,0.44253306568388645
748,0.42425773813295453,0.5079393479248377,0.528006420820547,0.4374006746535739
749,0.437215385181517,0.5080768457418011,0.5202678074624566,0.43636456634692505
750,0.46123263983830354,0.5054954958363659,0.5188578388501555,0.44392896061869774
751,0.47277313878343197,0.503940871817229,0.5197841280056591,0.44197979397334886
752,0.4700994290451359,0.5029391292328449,0.5194490594880202,0.43266139989297087
753,0.45789134526378783,0.5007154361216509,0.5242587246463688,0.42244356794929117
754,0.4472587709721558,0.4974584915743832,0.5305935838367946,0.4189052303713678
755,0.445668777241391,0.4937559017623008,0.5374853857503631,0.4247583384556248
756,0.44739734404636755,0.4899514114525294,0.5392643120611362,0.432490589768433
757,0.4478638977069145,0.48963289614893,0.5381843054864119,0.4360711482589472
758,0.449173965263783,0.4953297612811808,0.5309194077530037,0.4293570950695896
759,0.4491704302112843,0.4998497205157504,0.5227095217003432,0.4290111388150896
760,0.4445622298286379,0.5005463903923103,0.5137834390370545,0.4289464278192133
761,0.43200493694023245,0.498800595966898,0.5081812534183817,0.4295403978223015
762,0.42454779472752746,0.49636638941155853,0.5056052700460033,0.42971325550236084
763,0.42769377126617286,0.4951385647324126,0.5048031907840282,0.4303092607041106
764,0.4401874183810892,0.49837993220297927,0.5082256316067073,0.43090526590586026
765,0.4548027305015477,0.5016159978790206,0.5102436764421394,0.43126949130692954
766,0.4619008661550441,0.5012254457069986,0.5130349264854802,0.4312893581469879
767,0.4612970809797113,0.5002577539132601,0.5148751034905035,0.43109068974640463
768,0.45965403686596756,0.5015510497658588,0.5144287523053114,0.43182348385449765
769,0.4604887223757889,0.4991591149247697,0.5136198747308615,0.4322528106256638
770,0.4580350462650799,0.49401572991631987,0.5148648609404161,0.428474703210288
771,0.4388866368188622,0.48731750618782627,0.5183581359301589,0.4157060358022831
772,0.4313907019610564,0.4816055807229804,0.5228687785406487,0.4097894771557172
773,0.44925415338320046,0.48031920240514847,0.5266426499789172,0.41582576386253794
774,0.49750621461932354,0.4832478024254488,0.5283045223405671,0.44058578015257804
775,0.5268724135999009,0.48635990422597,0.5277602071318701,0.4575657794875051
776,0.4922304621664928,0.4891742706535669,0.5262163435593908,0.4493639978733648
777,0.4303958645250299,0.48919035382634074,0.5291540407198823,0.4202442040922669
778,0.3929957213073114,0.4874630427028265,0.5288893386501402,0.3978124689740017
779,0.42159489242631465,0.4887567560657465,0.5240364673715352,0.40120439449639606
780,0.47770801081385406,0.49417490449599266,0.5160954052792726,0.4202776090884254
781,0.5205608838099043,0.5006507364769499,0.5076575450231239,0.4422192513523968
782,0.5109413803884211,0.507329051804166,0.5033316683642949,0.44573560227593884
783,0.4877656625271525,0.5114135208575049,0.506361255249712,0.44287297382710333
784,0.49132905142092187,0.5074308735379062,0.5060296852568676,0.44052863303431644
785,0.5050457589637931,0.49608421084396503,0.49043678427454546,0.4425459965457718
786,0.5130403943409432,0.4925199729486829,0.48082970082849985,0.44315548655494597
787,0.4980037928531789,0.5080880262004497,0.482914278983625,0.4384971257156295
788,0.4773319240117227,0.5276753694102827,0.5004808059326142,0.4373070787175373
789,0.4687638094531805,0.5383472490132488,0.5196721266612723,0.43932845242186286
790,0.4750345678301667,0.5308390761945811,0.5273474949751205,0.4407913082445914
791,0.48217578974120606,0.5126967585592163,0.514184997951256,0.438457141603255
792,0.47629224868312603,0.5011426331485291,0.501638615500896,0.4276643696199563
793,0.4588628358210792,0.5072465606138589,0.5024281336745419,0.4159639201573559
794,0.4476844437019278,0.5167784465816552,0.5130973085728074,0.41209255002155337
795,0.4502218628572955,0.5154165140260365,0.5244659476424368,0.42303862258467995
796,0.45625189597884386,0.5113819485109341,0.5212422656185525,0.43158417240080144
797,0.45309960575749497,0.5041718715093806,0.5131173843527986,0.4294795130529372
798,0.44829579191898733,0.5015904478200741,0.5078680869403829,0.42141754160912387
799,0.44495797697866507,0.503362208733116,0.5105957910754206,0.41547714289221177
800,0.45597416222199716,0.5091468030425645,0.5151868823575222,0.41980178643268823
801,0.46370270325971413,0.5142261280795655,0.5165925390417628,0.4281204563025676
802,0.4496443093880386,0.5177708607221906,0.511883867545626,0.43568378797915375
803,0.43097521346498086,0.5181698892181031,0.5091038491281856,0.4359400218703403
804,0.42833331909253575,0.5189548056855563,0.515299795125904,0.4337722376592207
805,0.43526216255848005,0.5193145432855173,0.5216120759632802,0.4341932744144371
806,0.4414562296275548,0.5157267002406662,0.5184830530268664,0.43447163149696144
807,0.4408997950489088,0.5104114743379263,0.5145843006346453,0.4349149958795706
808,0.41929965216546067,0.5041792287441904,0.513318101320229,0.43425442977246786
809,0.4017393449416542,0.5024336199376035,0.5221486367370144,0.4332639407693872
810,0.40908956170901767,0.5047328961423426,0.5289916183734091,0.43741598082006655
811,0.4221084750471664,0.5019818001565961,0.5291840044831279,0.4392976961360528
812,0.4217165808950047,0.49081953574301124,0.5172454185295409,0.43508834507578725
813,0.41628348861514125,0.4675721823270968,0.5046311765477389,0.42749861041260145
814,0.41320539876889634,0.45698607496093724,0.5048778749524931,0.4200279345956841
815,0.42205912679775787,0.4681236936282687,0.5099145767767362,0.41631165805945614
816,0.43895159148187324,0.4957267836023103,0.5153029200756125,0.4184274829439862
817,0.4459170673220244,0.5222462867407501,0.5106982914369514,0.42253977315344193
818,0.44176599238628955,0.5353938135570494,0.505960787382178,0.42113717653368904
819,0.4362398960923244,0.5354527564103186,0.5042899912441265,0.4200020566126105
820,0.43872160663389825,0.5283246075563277,0.5085391385377658,0.42037083213027865
821,0.4498150681985201,0.5314948531829563,0.5202214350494168,0.42164251659138613
822,0.46123471454680376,0.5311159454296612,0.5189854317813936,0.4191638189170852
823,0.45147518987663604,0.5343905033940297,0.51185618545939,0.4191592854997172
824,0.44600968057261103,0.5341189601975563,0.5058993090417941,0.42387262808277976
825,0.4714315509409252,0.5285815422625758,0.5078378789313984,0.4310934238157047
826,0.49984750627072616,0.5196568701926102,0.5158682728913531,0.44286185375460185
827,0.5048802279145911,0.5103890186905014,0.5250952228972059,0.4489211285666075
828,0.4953745897855351,0.5088311763594592,0.5293826629944655,0.4401985648786587
829,0.4811761740596747,0.5067673417298978,0.5223490555147573,0.42749452422527645
830,0.4764653921895278,0.5012668895671143,0.5201623753655304,0.42627120364297183
831,0.49709141166059756,0.48402376959466786,0.5150517642601967,0.4297594312365135
832,0.5159220553495749,0.47027057314683074,0.5203480461631367,0.4357559198176281
833,0.5105027121338943,0.4683377784583669,0.5268692758734571,0.4390009084365744
834,0.5017005954142353,0.47903204074603845,0.5353343923321692,0.432993119058685
835,0.5030618416177209,0.49385427204633314,0.5347978164298753,0.42702293720917117
836,0.5098193357939026,0.501962531426222,0.5187600572440892,0.42893787072135864
837,0.5131766954732634,0.5040983286068909,0.4974757422604422,0.4315560451023642
838,0.4974065120963349,0.49945473115618344,0.4813635962953045,0.43086401234280874
839,0.48004103416838545,0.49546740694304664,0.4922084814957321,0.4294872226080875
840,0.4794041708919575,0.4944755863193943,0.5123315582111252,0.4293552314299253
841,0.49709470435426634,0.49239977641848753,0.5316202175671941,0.4305861895412447
842,0.5065308329157471,0.48881766068178784,0.5304057992937447,0.4329655501596131
843,0.48184392236390106,0.48407319666081744,0.5182255745150814,0.4331732245701593
844,0.43886414076817376,0.47780961229284735,0.5029847538797589,0.4277372781973751
845,0.4142068640950735,0.47431163593781484,0.49622782863391046,0.42399618952047186
846,0.42845768118364064,0.4733740684593795,0.5044020772349179,0.4311786763966911
847,0.45159200657094634,0.4753181308729695,0.511278498972287,0.4401454056754122
848,0.4489327058523258,0.4758766428766627,0.5167759409038415,0.4435376682569007
849,0.42465672434915713,0.47766927669864306,0.5201958723615704,0.4378695966890091
850,0.4052915414963192,0.4793196459027026,0.5202522646197872,0.4270751551244732
851,0.4140230810634946,0.48093535387377023,0.5184133648328397,0.4199268949751359
852,0.42951651838643806,0.48094553056114836,0.5187621911392486,0.42375602968028464
853,0.4375166973330692,0.4794146283182319,0.5189833576392378,0.43146412171965326
854,0.4313234116118255,0.478103482026777,0.5198303999796211,0.4340527524975277
855,0.4221965205520241,0.477286667417421,0.52166154873562,0.4358850128398539
856,0.4217705399177586,0.4742727701282078,0.520789927747251,0.435828163111264
857,0.42287820646685015,0.4744312463202156,0.5215266236962792,0.4361610918298301
858,0.4253109585729825,0.47876577854282726,0.5249991018860927,0.4359195806036886
859,0.42207194226760414,0.48486513288577693,0.5305496428283281,0.4352875881648661
860,0.4211202888652408,0.4917112603857435,0.5353756418987069,0.4347909463044435
861,0.4276610892960896,0.4938054731373043,0.5417630742648861,0.43784325735560836
862,0.4363189185129044,0.4939672129048068,0.5425859704324211,0.44076342417701436
863,0.43910258876168395,0.49572287309401797,0.5351606996320862,0.4394694664781638
864,0.43269895949716464,0.5015607863863312,0.5242441022022081,0.4348936098434866
865,0.42896491406021026,0.5057750849716818,0.5097626716505116,0.429029662490094
866,0.4404537489640926,0.506308382225333,0.4977755852989803,0.42553989799586783
867,0.4603702578015068,0.5045612892675756,0.4921000166389179,0.42616719253484125
868,0.4700307751921515,0.5028253705150432,0.49297460079107047,0.42785040416321257
869,0.45774680025524334,0.5051039265606209,0.4910290058145198,0.4263276923612242
870,0.4495512077469692,0.5084154521347771,0.49376185129657335,0.42410888026111354
871,0.4708823301342971,0.5096100896650279,0.5007067120988463,0.42320725198916104
872,0.5104850053330794,0.5073240098741155,0.5093759559538776,0.4241757545255997
873,0.5324484210198009,0.5057057726823488,0.5174546857970451,0.4250085579309287
874,0.5057304356533217,0.5054800246771791,0.5188615914441708,0.42000678004749603
875,0.4629961760784262,0.5048650591387434,0.5187201582516591,0.416367768581279
876,0.44982564006783576,0.503887502190165,0.5197382281797147,0.41781925088316435
877,0.46505901844317227,0.5026001967532352,0.5286158393882426,0.4229316290041156
878,0.4838641961603039,0.4984934303053508,0.5366736270435217,0.4292410215967229
879,0.46942916772345583,0.4983590543275726,0.536123915652732,0.43223346857336464
880,0.44595537629121906,0.5072277888090344,0.5219596857369387,0.4304458831445466
881,0.4376516027201657,0.5150996552536644,0.5035585104110688,0.4278893462761491
882,0.4643806496496946,0.5193793629668926,0.49486483329775716,0.4309341087159518
883,0.49671046819838466,0.5150412890121425,0.5008879786759844,0.43353890295977465
884,0.5016029404364016,0.5057884892438906,0.5179732757288755,0.4324571235997305
885,0.49683430349242447,0.49786784326505623,0.5321385434782241,0.43036765730950743
886,0.4954914354421059,0.497422188613089,0.5329240001763421,0.4301661392862614
887,0.5063159381900595,0.5003634888957431,0.5159743876724974,0.4332656818516061
888,0.5136862702758315,0.501675451233558,0.5010424636470188,0.4374517212482693
889,0.5093385438297833,0.5023377953291994,0.4987532334660071,0.44087782101141215
890,0.49033664150502476,0.501271368971128,0.5076377388568956,0.44118120887629503
891,0.4686747066230538,0.5015414244188797,0.5181453510194499,0.43990295114643585
892,0.45979622069203435,0.5015414244188797,0.523375818576828,0.4397709784785608
893,0.45830945790414196,0.5015414244188797,0.5189354363535268,0.4400790917079819
894,0.45721750811534323,0.5015414244188797,0.5124604844105998,0.44002800493831284
895,0.45998926959956943,0.5015414244188797,0.5136633811768158,0.44002800493831284
896,0.45856805770548065,0.5012176873815215,0.5153866879588708,0.4318605636490829
897,0.4604327709709163,0.5011220819509692,0.5142215702606584,0.43156410945371665
898,0.45686522051846346,0.4993693157241774,0.5101602341059289,0.42987587062942917
899,0.4506881555086019,0.496501152807609,0.502921035969583,0.42245642946622775
900,0.43448531475777913,0.4919253631510975,0.501719717701916,0.41792022611417295
901,0.4347789790276916,0.4952954771441349,0.498281759187798,0.42621245481468084
902,0.4557950449111217,0.4946875836915997,0.4904131240924143,0.4363985433309882
903,0.4824926800113102,0.4862516909274356,0.4781852093517852,0.44072647610766946
904,0.500931686828556,0.4705643654994403,0.4664306716074332,0.43606534320070595
905,0.4986704718741478,0.45519572483995274,0.45666973732522514,0.4219027592339712
906,0.48568170762875473,0.4460218310684846,0.4571287586605808,0.4111258108699614
907,0.47201729631986505,0.44624823665803287,0.46275732200601055,0.41962526719936893
908,0.47599138426773513,0.447642193317387,0.4675990680100693,0.4315931286182543
909,0.4771901667506129,0.4463990528636392,0.47500690262634604,0.43434544551605525
910,0.47827619329984666,0.4557532721536027,0.4853001070366706,0.4293546812811233
911,0.47780727060600564,0.4735173116265375,0.496145079905316,0.41876066873452755
912,0.4761679904642452,0.49059500874943107,0.5048745698726742,0.41695958750388573
913,0.47105728441355943,0.4996658924131012,0.5122113078568913,0.4313298250914565
914,0.46135178172086094,0.4982441337629944,0.5138687349865568,0.44860950935911975
915,0.45346255314280265,0.4906749333431159,0.514532477060678,0.4568250664858755
916,0.45076467298122447,0.4882137492626646,0.5124721635204957,0.456955265347189
917,0.45515487783705993,0.48921056666322055,0.5134812790203079,0.4500394190411853
918,0.45880870902634574,0.4935989691115106,0.5139902486737676,0.44834231945082065
919,0.46239611617126236,0.49656398998535806,0.5111462594478354,0.4497967179822927
920,0.4529520304513859,0.49810975336414454,0.5120744633601905,0.446802750432877
921,0.4467620756161391,0.4969645540846098,0.5140262874482927,0.44227175909032956
922,0.46105646612583057,0.4952248921696691,0.5149501908879272,0.4372682835074927
923,0.4791556057781588,0.4949822023864604,0.5147265659973694,0.43214678784794847
924,0.4814027164526462,0.4967648865671602,0.5101712912582501,0.42773827235575035
925,0.4745679807701713,0.4986819175166913,0.5066352357309898,0.42522556646155873
926,0.4684565517748767,0.4986092223424436,0.5077367907145259,0.42224738969876724
927,0.4706369844742264,0.49818552222600476,0.5172448582091451,0.42253193295901376
928,0.4902691030214925,0.4982026362167535,0.5231529630452922,0.42460339382470086
929,0.5065296342962929,0.4990506555056167,0.5226452303359103,0.42599855382387003
930,0.5040709485280905,0.5005305527299678,0.5192356071718295,0.4235108562371767
931,0.4980376264659883,0.4995136803038428,0.5167015586847874,0.4225334937834817
932,0.4976613522959862,0.49726259942267237,0.5203605534573262,0.4296628522846812
933,0.5118123479408458,0.5004217500510663,0.5256375635132097,0.436750482296508
934,0.5175817790913502,0.5078034041696091,0.5292369808168099,0.4404882218869198
935,0.48839270808566587,0.5265653623414412,0.529368203265128,0.4326469329932661
936,0.4534130572178171,0.5361050152111634,0.5294222122086855,0.42306934839824517
937,0.45109834992019876,0.5273530039979302,0.5336915300280708,0.4285187414732853
938,0.4627413991377174,0.5050281976438364,0.5369362152872462,0.44123006210649435
939,0.4752633589119744,0.48504681242259357,0.5389277358724499,0.44572355566842203
940,0.4701658614659173,0.47654584913481074,0.534024621082568,0.43537500021288555
941,0.4358880591997574,0.4792805455679806,0.5234980258046219,0.410023487400107
942,0.41019693224638537,0.488481376029062,0.5127212250745812,0.3930375278364252
943,0.42694997617616576,0.48725086817890634,0.5044349744207595,0.41280673406898716
944,0.4486012130540699,0.4860552500943059,0.5014036237060998,0.439387427023013
945,0.43927671708545674,0.48505339003470527,0.5019616659989887,0.44823893468400117
946,0.4259120280832601,0.48416386220395397,0.5036893323803203,0.434515182762201
947,0.41672336993877,0.48427556402032007,0.504474098372458,0.415411629504328
948,0.4279084364319475,0.48489731329809205,0.5000375455206756,0.4152593366004736
949,0.444641597985174,0.4871124510957618,0.5004812008058539,0.43789122162896843
950,0.4522610857112177,0.49131210449051604,0.5086148810341216,0.4550474668212885
951,0.44507637873868516,0.494446340464124,0.5212145491957842,0.44651473452204854
952,0.4365626712108787,0.4968318754474809,0.5366541789321847,0.4282402545093347
953,0.4430539580684968,0.4919239879925565,0.544574862042347,0.4096830002343314
954,0.45150675420519587,0.4900407227321105,0.5411135701622608,0.4123371652410415
955,0.45527594520115733,0.4938483401761616,0.5309970941610029,0.42366414436517147
956,0.44329682775818613,0.507898237231362,0.5242507751769722,0.4299806710066631
957,0.43081330929419237,0.5204155510909542,0.519674680761048,0.4349489547652803
958,0.435113538533653,0.5216166791095622,0.5234550452450836,0.4377027328453689
959,0.4437130933122577,0.5120467397460491,0.5325911561287602,0.4390355700884732
960,0.44480182156373005,0.4964952807056094,0.5418516835991461,0.4386950449066122
961,0.4358100473264347,0.4895350509819766,0.5539892298744256,0.4396721623577604
962,0.431238677797319,0.4892960261908968,0.5508002628674364,0.4407729845437135
963,0.4390128814068932,0.49534026724313446,0.5300754438627886,0.4406902109412152
964,0.45765565746103454,0.49942535791169057,0.49402287032503067,0.44156228578883666
965,0.46960960379397193,0.5028136048518749,0.4659499551961098,0.4387404983898926
966,0.4632443435957681,0.5031032356468395,0.4666662797800831,0.4294288902484089
967,0.456481246567041,0.5004533793891227,0.48308858815660316,0.42050912362390563
968,0.46447806257536695,0.4938310687480578,0.49522331691343696,0.4164090180955327
969,0.48870434317972095,0.48655383516525624,0.48753832499104355,0.420619869493326
970,0.5014741565988443,0.4866134203395763,0.4678021632723464,0.42927227142771657
971,0.4720862744236537,0.4952021531098277,0.4550403535946147,0.43862841620700616
972,0.4358831658795792,0.5087256129318781,0.46820559988413113,0.4430788309553344
973,0.4218186906382685,0.5192217136640759,0.4890839422027117,0.4451528862093688
974,0.45214258641650235,0.5223178991480782,0.5064994821126301,0.4482400622143072
975,0.49429406836624784,0.5179873764739896,0.513893991382752,0.4497900360391205
976,0.5134423638492044,0.5144548207519728,0.5029540707989668,0.4504488180787768
977,0.49150565099234755,0.5138414566367421,0.488568033129834,0.44790975742581446
978,0.45615539872794286,0.5137694997420077,0.4836050771405509,0.44446561764065495
979,0.4427038353508198,0.5144890686893506,0.4861019187592171,0.441466759305914
980,0.44211176526741036,0.5142467646962243,0.4952045027150161,0.440101012908381
981,0.45006505239249806,0.5142541077282602,0.5019343772315923,0.43829767341354936
982,0.44902001041967265,0.5142533734250566,0.5008450647385334,0.43877477551693617
983,0.4483755668543165,0.5142399111996575,0.5003454295455524,0.4417940538693837
984,0.4482504370272329,0.51421788210355,0.5053937828239616,0.4463683191174171
985,0.44502360415465514,0.5139136183640076,0.5113936894152145,0.45122360105194975
986,0.4424613566054549,0.5147468600689127,0.5170466674199495,0.4533324917864849
987,0.4482977551028627,0.5146614553726787,0.5207126119696392,0.45277903840821554
988,0.45907243448083407,0.5131165078658236,0.5215148734084998,0.45608465270437715
989,0.48502257710330793,0.510573948397566,0.5220860137819091,0.45758380658253145
990,0.4992618437672541,0.5074619138072384,0.5205891480922489,0.44939155784190427
991,0.4769414382636982,0.507585593512598,0.5195123269306648,0.43346789179960193
992,0.4443069556505946,0.5074487407417285,0.5207037183613226,0.412075827213848
993,0.44113967443602453,0.5051379298290503,0.5210458226891717,0.4013126913722781
994,0.4524613012371463,0.499489500143905,0.5180683776505806,0.4142608407410977
995,0.46256431811942156,0.49398401156321126,0.5127630958394491,0.43368580003359647
996,0.4615163600012469,0.49048025278047086,0.5040398204502815,0.43875592286190584
997,0.42328644890387124,0.4900897860936728,0.5016904536139234,0.432205073913844
998,0.3946489635121103,0.49179361504572,0.506565937444083,0.422555521492207
999,0.41553123162517125,0.49149030417686235,0.5157846220664544,0.4224704934131395
1000,0.4470926985706679,0.49125842462664887,0.5204365010533233,0.4343049038568633
1001,0.4465889466686153,0.490536476838727,0.5225353165058715,0.4444337379685154
1002,0.4396140596221918,0.4914338442187225,0.5230444371976963,0.4392851330843686
1003,0.43043065869926744,0.494182441988109,0.5234788981108409,0.4322547190391009
1004,0.4371283430779478,0.4978255382907379,0.5281662904755271,0.4295985650562485
1005,0.457206653450395,0.5007760820994119,0.5306520519449932,0.43984570902655207
1006,0.46781119528767645,0.5025385421234966,0.5294148576577948,0.44757627112068166
1007,0.4426265907776159,0.5027129331061942,0.5262652618664967,0.4402869099474504
1008,0.41824117419470586,0.5010991891503576,0.5248498156436082,0.42791387035895445
1009,0.4314517636205212,0.49872862890607156,0.5246520975107705,0.4174115762813719
1010,0.45490735170588076,0.4954066282452458,0.5242910691105328,0.41697895712891364
1011,0.46275092076510543,0.4928113233723883,0.5259187270980596,0.4235418608117491
1012,0.4494800930443239,0.49171406836134063,0.5286593178951198,0.43125599992662683
1013,0.4407358729324658,0.4911392423010707,0.5311473124544764,0.4301289842516655
1014,0.4520191177823862,0.4922665641627872,0.5349814440171502,0.42889434067782445
1015,0.48534257735655134,0.4939086768745533,0.5358843900258176,0.43244823350348166
1016,0.5133801032086889,0.5000033468856347,0.537427729886133,0.4341678574426619
1017,0.5072244392090378,0.5118772372939387,0.5384803018653775,0.4341930006014433
1018,0.48425510934922134,0.5224238011363871,0.537148657872009,0.43268290298544115
1019,0.46806804148210673,0.5263403264435562,0.5310583375485827,0.43071850047027
1020,0.4602805161219289,0.5216329554428696,0.5227651657804041,0.43045328375423153
1021,0.4585616070514677,0.5124003012185416,0.5155789041390118,0.4308462742332581
1022,0.457092535355304,0.5030101077313068,0.5124185690656344,0.4315510917116926
1023,0.4599641560548129,0.4998565008132621,0.5142887917121512,0.4310731020173278
1024,0.4598984395773349,0.5012291510294719,0.5143992697716698,0.4318076252142625
1025,0.4588344034945265,0.501131826051727,0.5168320511762484,0.4312058828107255
1026,0.45681336240261633,0.49934753479307165,0.51471407754663,0.4281916111458276
1027,0.4515341644607448,0.4964277854607264,0.5090361305330452,0.4235541835317349
1028,0.4518770072841851,0.4931082251037968,0.4920034150790968,0.41571733645913517
1029,0.46520555558230464,0.4925233669188945,0.4832587066273478,0.414115404869878
1030,0.48126531692588354,0.49230609863377434,0.48935395583882646,0.420454869088471
1031,0.48815226361002256,0.49108038777600876,0.511300059681824,0.4308307552004974
1032,0.47951019041914883,0.4871576719622668,0.5357775150072498,0.4398747924713088
1033,0.46429572129879376,0.48355937274100763,0.5399624327601157,0.4443819966576839
1034,0.45381821659117444,0.48176368203915926,0.5260202030793693,0.44411411962904196
1035,0.4576427065664339,0.48089913013071967,0.5020042709040831,0.44202685573204525
1036,0.46294741717853766,0.481756519356124,0.4972066292792232,0.44393411657514803
1037,0.4570075151251062,0.4809165170185437,0.5051944464909635,0.44388545947262925
1038,0.4480264073041427,0.48645174787539447,0.5257494852159187,0.4431675413722386
1039,0.4419086507923856,0.5017297064022225,0.5399240004937921,0.4443129634408436
1040,0.4444121257639779,0.5171190903997609,0.5384314445776159,0.44792963222443205
1041,0.4569757068587923,0.5244964942424862,0.5225392667345804,0.45064961517800844
1042,0.45355715977953137,0.5184359289345392,0.5062949364242668,0.44848394425319305
1043,0.4404611230988393,0.5002224967078391,0.5059587630477962,0.4452831808197619
1044,0.4197588482392877,0.4794308436368668,0.5184003839447877,0.44324911811188134
1045,0.4249690042190286,0.4841414344316683,0.5371177114580036,0.44682644383316356
1046,0.44916463726568867,0.49772987833772114,0.5409279878303793,0.45271790777420207
1047,0.47665630912908663,0.5051332081657467,0.5275818291037645,0.4536218103447182
1048,0.49093742316956845,0.5044489488739671,0.5046404864293957,0.446293693644149
1049,0.48308489118566594,0.4815627589469865,0.49131566864367865,0.4383307772569374
1050,0.4749015102336721,0.4659463688985322,0.4883387886513702,0.4360980012576003
1051,0.4692332125486708,0.48135022509409614,0.4926475775042714,0.4356368782716349
1052,0.4770338832531997,0.5181049729916571,0.49800610253699323,0.4344547120927888
1053,0.4751828798318723,0.5345678065493531,0.49866911107016915,0.42920615743321683
1054,0.4724050695242858,0.5296898746965464,0.499190045690688,0.4263318369086881
1055,0.4707820689748531,0.49980533872470273,0.4974606451688319,0.42848872148616485
1056,0.46829886601131865,0.4710979923688424,0.49671148089534334,0.43968050153351484
1057,0.46480762532716424,0.4742775421285812,0.49830835118725997,0.447437909455011
1058,0.4621975653688515,0.4921740455830259,0.5044899342795995,0.442648612093107
1059,0.45955337044511607,0.5087035221305013,0.5155575144555888,0.43380489596688226
1060,0.4627289277672456,0.5151690963592275,0.5258748554313203,0.4310903023303561
1061,0.46449289020974943,0.5154435321086156,0.5287137003403802,0.43510583386901575
1062,0.4638873992330614,0.5119450372515894,0.5231427997892568,0.4397407501448977
1063,0.44841282384819753,0.5126320596197635,0.5151269108221336,0.44057300524364085
1064,0.43857924233107504,0.5127576757146034,0.5089433039838664,0.43182865500809675
1065,0.45654112652710765,0.5132049939477777,0.507489315728892,0.4252328625649925
1066,0.48166748298143564,0.5143458974574093,0.5094690067563542,0.43020254003254754
1067,0.48584937615901697,0.5151581774295034,0.5114424645266985,0.4378460262978128
1068,0.47656920220498195,0.516722777128038,0.5121667049851766,0.44238340971909457
1069,0.46739115839492995,0.5142994212175759,0.5121318513881118,0.4391336517556053
1070,0.46634640434486346,0.5088965038652523,0.5112240036238385,0.4298408300108078
1071,0.49497876245480454,0.5028180413901513,0.510149944139631,0.4194814000146015
1072,0.5172481393144668,0.4997117044785512,0.5074970954501616,0.41326818074811394
1073,0.5025891020230525,0.500883386655576,0.5074948445371382,0.4109314411213153
1074,0.4805847025001179,0.5058145396686309,0.5147733465577379,0.41005410506384987
1075,0.48098202093995635,0.5102274287128904,0.5237715588305132,0.41056186020737134
1076,0.48855933811916535,0.5091746744275668,0.5272065352683106,0.41219505083328345
1077,0.4930654604972284,0.5062574881613607,0.5172355226188453,0.4120844842627944
1078,0.4876520291946501,0.5026310059380446,0.5030606630414431,0.4088305134176022
1079,0.4621915415788152,0.5011661715922,0.49747334492019374,0.4083554187297439
1080,0.4390858487336984,0.49997837015687496,0.5082827927110313,0.41533770046439206
1081,0.4434375739581369,0.4986306631134998,0.5222799583514875,0.4235378045835011
1082,0.45870351085383276,0.4957781904091824,0.5238981277365329,0.42880334149778
1083,0.4668078435445654,0.49312167710518245,0.5168126704672379,0.42801031665551276
1084,0.4652651294869687,0.4915025816474075,0.5088315938784298,0.41990014519021146
1085,0.4595725080837327,0.49299071827216295,0.5131126886969215,0.41539098248011713
1086,0.45359892800878937,0.4913405578159407,0.5198875459548573,0.41538905400704396
1087,0.4560361028794448,0.4905686775610656,0.5220366782115068,0.41893556924539305
1088,0.4617677322369903,0.4930053004509215,0.5141572253421675,0.42121679332371964
1089,0.461862893875081,0.4975776483978094,0.506342949879695,0.4257605759446495
1090,0.46136060054135253,0.5034616353548805,0.5067203136483251,0.43050481924849976
1091,0.4601101373502883,0.5093784238335435,0.5113064388036724,0.43451995938046567
1092,0.4592918718902008,0.5118420588512737,0.516656708987009,0.4365758260725194
1093,0.45836911706675854,0.5122903890168549,0.5175518548900223,0.4358055990481501
1094,0.45886136571796254,0.5118003427903681,0.5170296888430009,0.4352210220340918
1095,0.45975476998669634,0.5058819631818373,0.5164503629874488,0.4326970080570324
1096,0.465533804884189,0.4978730585373714,0.5182356037836874,0.4348934425531968
1097,0.46939478605163754,0.49158930814405905,0.5194008359812714,0.4346018304273429
1098,0.45538154617209414,0.48824865103443127,0.5157996669098691,0.4310134015502694
1099,0.44513780609112624,0.4885701507366612,0.5133255802501026,0.4203798793835157
1100,0.45110711426772915,0.4904454699168622,0.5192100306147642,0.4118797131900715
1101,0.4818573294766674,0.4889325289405432,0.5261996581743987,0.4143018960859956
1102,0.5016514443165591,0.48754565670551925,0.525590980378511,0.4225396550612368
1103,0.474978247014955,0.4861587844704954,0.521707387350335,0.42933843671059063
1104,0.42777476593968733,0.4853112514379807,0.5184904376996796,0.418783405204022
1105,0.3976614845256305,0.48526502236347996,0.5199550472383604,0.4093070114717727
1106,0.41477350269656404,0.48572731310848793,0.529537397054395,0.4166332658045848
1107,0.4539513350291945,0.48524797454624186,0.5356249406924964,0.43452703415633753
1108,0.4865571745506336,0.48622369948797206,0.5291762721686742,0.44585342267538414
1109,0.4786684858167852,0.48671690720369065,0.5171130967736983,0.4404693436148534
1110,0.46561162761084035,0.4835006713053074,0.5083137357573366,0.4205425722202102
1111,0.48284152007091796,0.48068480218637116,0.5019422812213996,0.40592976853142143
1112,0.49960858237164263,0.4786117844645954,0.5006753502357321,0.4138266878525363
1113,0.5017515194190016,0.4826957556031812,0.5004739029041231,0.4300389288443624
1114,0.4966196972620943,0.49638101994575257,0.5007941394221654,0.43966022685369227
1115,0.49092712851298786,0.5181819612926446,0.5022672192769658,0.4454292909554673
1116,0.49183580640279256,0.5306189668547309,0.5049068050899277,0.4451438916383625
1117,0.5088393161662919,0.5272111377443683,0.5072999806519288,0.44223799122198226
1118,0.5215417423366819,0.5113381554676989,0.5038632243262243,0.4432984919258365
1119,0.5134786202311945,0.4921036226684966,0.5091956107120904,0.4429789516553488
1120,0.5010695135206944,0.48308140631117036,0.5209045994717425,0.44209144493370395
1121,0.49857380029162374,0.4848709199877011,0.5307967297276432,0.4440608711145083
1122,0.5085678591915299,0.4916354137374461,0.5307467058918842,0.4435316409699246
1123,0.5130013264363363,0.48945868087134753,0.522694597608212,0.4373788229296837
1124,0.4895953365273849,0.4895408507582943,0.511757047270613,0.4286508184099019
1125,0.4574915212641005,0.4946175187442818,0.5070075562579566,0.42352099865630155
1126,0.4509173329432788,0.5044114130642237,0.5139292120780121,0.4246838455725702
1127,0.45997098465770225,0.5128546397419335,0.516061853244563,0.43288078575250266
1128,0.47065923223400136,0.521983310654617,0.5162115108710034,0.4406227998151301
1129,0.4680360907960666,0.5219716619727007,0.5157095860421534,0.44037475403855103
1130,0.44196307502477,0.5127459187107145,0.5144622986491106,0.434781356363481
1131,0.41906695911175695,0.503914402635794,0.5110281131819802,0.43000266328556724
1132,0.42654263355666194,0.495698353606714,0.5079918494027993,0.43411308320001024
1133,0.4374510184751839,0.4846262092072064,0.5011500078210381,0.4384972055749978
1134,0.4287877215515541,0.48479920063904225,0.49991211084608594,0.43351535553393383
1135,0.4092764652444441,0.49731294030384837,0.5065017237300625,0.42547094891582826
1136,0.400636267630672,0.5112953703941224,0.5232963674543996,0.4213381296442281
1137,0.4355404657776132,0.5257739972474166,0.5355743616762605,0.4248712061773099
1138,0.4728153929727573,0.5367991466231622,0.5322073670597911,0.43515373209943664
1139,0.48893403617694164,0.5371209970839042,0.5164777662416372,0.4435823768701889
1140,0.4484787986299354,0.5287779348810072,0.5003075189681169,0.44019377546650984
1141,0.40002416728459095,0.5244979622524709,0.4948978597820873,0.4344106948413395
1142,0.38942424182712354,0.5207881810828768,0.49558957355983335,0.4350312551941855
1143,0.4325764358083622,0.5169319697628114,0.49852349774364874,0.4357015995942426
1144,0.489810049048497,0.5138759247347651,0.49345171036701535,0.43725531419086333
1145,0.5077965946756271,0.5116165986689324,0.48852080360766736,0.4365998265684299
1146,0.49988231459416815,0.5072635600636101,0.48809305173217565,0.43491122626961815
1147,0.4746360979006999,0.5058758915820457,0.4926491403601863,0.43273576165417
1148,0.4694341286596947,0.5063780987121957,0.49906558609992513,0.4315028515616993
1149,0.4682748003872389,0.5073060666419668,0.5072666076090696,0.43101293473232627
1150,0.4686893195270481,0.5052507210903878,0.5136247054124886,0.43086699561382574
1151,0.4701329370976237,0.5042336203670935,0.5160287564617307,0.43130187101298567
1152,0.4615854079459797,0.5010558371043408,0.5139119972575836,0.431798060458531
1153,0.4618398114759579,0.5023336558243319,0.514009060860044,0.43043483092255913
1154,0.44614246183400913,0.4994378910032095,0.5157885602384847,0.4277817041372851
1155,0.434135693926008,0.4927741752481467,0.5187004683122969,0.4238862822029257
1156,0.4362418879400311,0.4851385914513958,0.520808842472401,0.42133266546056375
1157,0.4583716446327401,0.47951090949298586,0.524195683792975,0.4216374548999555
1158,0.4783875241903191,0.4771464262134329,0.5264614666182948,0.42648644028644245
1159,0.47156255527355223,0.4777090953901112,0.5208304161285998,0.4270771611832841
1160,0.4413515596247073,0.4768587024944857,0.5095042273523144,0.4229348308694956
1161,0.42175557812767234,0.4748095223567129,0.4950430839380273,0.4115325668607095
1162,0.4460298977387086,0.47746144812852426,0.4844399041293341,0.4018637842791771
1163,0.4833908702955475,0.4708846079628338,0.4766441303379255,0.4036640549203921
1164,0.502523393308925,0.4733401626614505,0.47912743261163704,0.41408921644694974
1165,0.4936666873069817,0.48897772908972964,0.48648445008678864,0.4288213483534921
1166,0.4819123128388204,0.5132790441000863,0.4950915444563416,0.43909973937487273
1167,0.48424432635694725,0.5359083710644394,0.5047950647016223,0.44484203421901625
1168,0.518797793359183,0.5515297916347423,0.509628418254109,0.4452205373400978
1169,0.5418382213831952,0.5576270914439242,0.5097728276158562,0.44718797044643827
1170,0.5091135884122313,0.5436260912507862,0.5091355421412243,0.4478542990913021
1171,0.4642716989595359,0.5269336279299843,0.5129868605835698,0.4455390438337947
1172,0.46205291225645223,0.5010509246564178,0.513133505708976,0.4456463395611441
1173,0.47583907592372654,0.4795547292676468,0.5114569807009671,0.4410655303727662
1174,0.490442258752636,0.4668138946150532,0.5052755460610544,0.4330226425035144
1175,0.4840615868599198,0.4681737804910516,0.49524233110301824,0.420633343127834
1176,0.44459728626989187,0.47768812205823097,0.48773921740189563,0.4124605341939784
1177,0.4159588698592712,0.4861122742834581,0.4864548617004234,0.4127590420976991
1178,0.43662533951371585,0.4979881826143645,0.4915384590501297,0.42109156783940127
1179,0.46306042799020464,0.5069591214113602,0.4963048000871354,0.4320535259304007
1180,0.4532327251297281,0.5093077362801152,0.5037873598412624,0.4354482024561116
1181,0.43812553982728025,0.5068796545816604,0.510815887200245,0.43455393621821936
1182,0.43288454578700086,0.5071190486777377,0.5188228149798763,0.4307996543447168
1183,0.43955617918484685,0.5087604729999795,0.5270365363884134,0.4327435204413326
1184,0.44486935055735793,0.51077183344844,0.5337890053321728,0.43648608061660826
1185,0.4447585093333772,0.5092450297387289,0.5340148267410294,0.4392347232481849
1186,0.427166855292273,0.5088970971595363,0.5295150261859588,0.43782216822753856
1187,0.4131076675937862,0.5130834438943548,0.5281580357764177,0.4328834103149584
1188,0.4200972432954268,0.5217736659780923,0.5257845912824717,0.4283323208883347
1189,0.43164538753018644,0.5308601264948826,0.5243341529806158,0.4255660722669343
1190,0.43065072072361416,0.5362412538762127,0.524255038164151,0.42564063076216996
1191,0.4284631966716698,0.5426112002784131,0.5250461863287996,0.4257879275326929
1192,0.42603679815700046,0.538544482731626,0.5241954518343661,0.4261047093862095
1193,0.42692339954790665,0.5276185451428194,0.525956507153018,0.4287933218703123
1194,0.4334417287067078,0.5108546551079849,0.5257804016211528,0.4249552684202365
1195,0.44045004509616703,0.49710338327582354,0.522471120242155,0.4174370229971499
1196,0.4318089405853264,0.480376134748895,0.5174299941706068,0.4135435160614874
1197,0.4266768042006999,0.48125306694170555,0.5121934532555656,0.41760617577592
1198,0.44512740795824907,0.49972910255700953,0.5083184758940043,0.43291930398789336
1199,0.46644442877977954,0.5204121123109042,0.5074891487823872,0.44983236510923263
1200,0.4687272332515791,0.5415150765889577,0.5086729929058897,0.45447633835330026
1201,0.459518640357462,0.5572149436397204,0.5083582367173847,0.43459848917938526
1202,0.4520057049490182,0.562766777165973,0.509506764267695,0.4168876497407716
1203,0.4587339964385632,0.5478943870242987,0.5117162960960217,0.4185799459269277
1204,0.4865241214410477,0.5295830284532099,0.5101665010858508,0.42990569406231266
1205,0.5058627745306631,0.502740616101326,0.5106311174962656,0.4415386218852568
1206,0.5013554831663052,0.48096703998980334,0.5136699487919185,0.43486752163915404
1207,0.4924305991139358,0.4690574642962144,0.5238571983300429,0.4216016938938475
1208,0.49656778257912526,0.47250670670748735,0.5304049989816424,0.41401351158233257
1209,0.5078337263077259,0.48015827776530773,0.5291841257915821,0.4309604180100883
1210,0.5152882348743384,0.48452339018474827,0.5150320017669663,0.44810106615334355
1211,0.5062216034293726,0.4902384606319775,0.5012529661558148,0.4426918716971276
1212,0.4938582467884808,0.49509497476979203,0.5051267896442551,0.43144468279154846
1213,0.49263061971340005,0.49518475309932064,0.5156661554931941,0.4225991302343842
1214,0.5023066489670369,0.49107639170757783,0.5238865221139026,0.43209669517379057
1215,0.5077336595319828,0.4883539322446355,0.5202279129910831,0.44271435222400035
1216,0.4933877493678851,0.4849544966130931,0.5054182564663044,0.4406620683349345
1217,0.4687407122693605,0.48287706372715056,0.49766832864301475,0.42636183879769163
1218,0.4588271465464787,0.4832001604141678,0.5071895882686771,0.4163467114849183
1219,0.4643548338060566,0.4833887210769021,0.5209567140624176,0.42239308605782205
1220,0.47352467410875976,0.48207002245753305,0.5267564912182108,0.43403690260246025
1221,0.46821603697499065,0.4847716681655525,0.5264751617812579,0.44332907688891027
1222,0.45409725628437564,0.4896791098790328,0.5209282620680795,0.44083483730456297
1223,0.4443837280653109,0.4974749487617262,0.5142656350289148,0.43487291190184013
1224,0.46615282577460204,0.5051670516280717,0.5169038127123374,0.436704733966678
1225,0.4834770445103207,0.5106397207778202,0.5173746308148949,0.4363930976337011
1226,0.4592693457252588,0.5067221103685968,0.5175177195800158,0.43437596674272094
1227,0.42746652131248836,0.49698034576071404,0.5204509299418071,0.4275254556241315
1228,0.4190849241029459,0.4878727041294328,0.5213369591930676,0.4220684230847689
1229,0.4315217631354163,0.48302790981121885,0.517901522953245,0.4237509800710577
1230,0.44866921935600884,0.48563110882045185,0.5002671359255536,0.42921608647484777
1231,0.45546007637444,0.4916194598901385,0.48787450903191226,0.4306642939188277
1232,0.4319081084696527,0.49285682590470353,0.4899455237740949,0.42817311899135424
1233,0.4102228783811954,0.4916647099220209,0.5179116679646679,0.4273952558796186
1234,0.4171497550215737,0.49526088340390767,0.5441488623477956,0.42996184925006714
1235,0.42764089416566,0.5026445494718623,0.5478462053990396,0.43776569344541255
1236,0.4262388757383597,0.5099222708375829,0.529208388530295,0.4436272119804811
1237,0.4172513892552164,0.513557659730697,0.5011986592420555,0.44308611863696495
1238,0.41295309761739935,0.5138602214580543,0.48930047965513007,0.44048168842694535
1239,0.4334676284201803,0.5123081609111247,0.48901052221293784,0.4411739899404894
1240,0.45647391374363155,0.5156056991744302,0.49649057755932907,0.44326604582211926
1241,0.4555231410750107,0.5199708834065631,0.49292693000430743,0.44341713218458356
1242,0.4428686080175063,0.5188825726687127,0.4930436430561203,0.4378761538606756
1243,0.43308789237880274,0.5099914082151092,0.4951872457237343,0.4319056845081817
1244,0.4384954576077648,0.4967460313802235,0.49950583858603886,0.4300048443036761
1245,0.4655051467507533,0.4882386934342325,0.5017345105412171,0.43166817742873986
1246,0.487896601171418,0.4897223383965876,0.5032126799120873,0.4354539470318284
1247,0.48533812088448736,0.5004464996318381,0.506555743509683,0.43796232417760333
1248,0.47511044059133417,0.5101002369070969,0.5086595475830326,0.43598484947810884
1249,0.48276732886164136,0.5098598287645045,0.5102530778680114,0.4334841260375969
1250,0.48446904110569455,0.5044470311577026,0.5092213866132271,0.43393232581342195
1251,0.47961190843178,0.4972415216427819,0.5036506170949993,0.4345438863072313
1252,0.457948789237058,0.4937524635078048,0.49984726916345024,0.4341543599670993
1253,0.4409299825377684,0.4988100787276801,0.5035841078201014,0.4333773639283489
1254,0.45121734713156797,0.5048282133808787,0.5100795666895315,0.43601680577767915
1255,0.4719490350299407,0.5077327532781003,0.5148696892357434,0.43681556961461043
1256,0.4808000037946976,0.5059124195948522,0.5188209751427942,0.43428891114363916
1257,0.4684024243679181,0.5004714711731213,0.5200090456986115,0.42290789540221074
1258,0.457359693345933,0.492772938897876,0.5208970962326605,0.41362003059365154
1259,0.4631152753241876,0.49257558786093925,0.5225742919991895,0.4186360975953811
1260,0.48975595002244615,0.49732093103523695,0.5211049408645106,0.4288149771427183
1261,0.5104223248887939,0.5006127202430365,0.516970044627688,0.43629425999980104
1262,0.5026973049489298,0.5017687935743065,0.5134855898864505,0.4298176782361782
1263,0.4879611735317219,0.5009709705594835,0.5129875713517084,0.4177054188243138
1264,0.4825550084179653,0.5005495259618882,0.514537036756858,0.41023825547939796
1265,0.49282289781240385,0.5023542417502793,0.516313763489454,0.4201040574424102
1266,0.5030712274210439,0.5070135711819849,0.5136216871693717,0.4333331804771596
1267,0.4959127366815184,0.5090162264463407,0.5126592909151406,0.4358656161500001
1268,0.4850250364712053,0.5066750869728142,0.5172055351103357,0.4349221805982815
1269,0.48024940617858186,0.5066289526278925,0.5256350968547473,0.43099221088539347
1270,0.491147354978969,0.5083896648973888,0.5294835007643366,0.4342556939676609
1271,0.49582536352574913,0.5122316625159696,0.5241833558366907,0.4374732107930378
1272,0.4781825926925487,0.5122230195526876,0.5112145373160016,0.4365937077022745
1273,0.44789203818225126,0.5033381326588094,0.5008530094246563,0.42746529958960333
1274,0.42769134137738596,0.4926953247347112,0.5007442402740329,0.4192803018654592
1275,0.4315388926607082,0.48696688212772093,0.507130484137758,0.4181307428029749
1276,0.4494005696945736,0.49068365668729497,0.5132640410941287,0.4226986766232271
1277,0.4640464375703462,0.49638393292436117,0.5157504522249091,0.42993419663197263
1278,0.46236002692294437,0.5025794363167692,0.5154024969191662,0.43206555152598447
1279,0.4573304102709927,0.5019633309306941,0.5140757644056145,0.4322258995811701
1280,0.4606496091097743,0.5013109845098417,0.5149297842369307,0.43133014550225635
1281,0.4594640950933768,0.5025236552350631,0.515826798929521,0.4341757784349597
1282,0.4469170980528215,0.49909926025229745,0.5137879145119686,0.4285290128543846
1283,0.4374672372242251,0.4894935046207371,0.5083738178513295,0.42172608195040684
1284,0.4454676630158719,0.48497674468378676,0.503403598198182,0.41772755197556466
1285,0.4655042794317822,0.4770124815597122,0.49833568650834914,0.42435759779779164
1286,0.4730890612803999,0.4650513870550724,0.4941726361887132,0.4314507163965627
1287,0.46098147444626253,0.45160024951581,0.49149882307164644,0.43369391180445427
1288,0.4138369489254272,0.43873150681143797,0.4897451330437578,0.42233775561339537
1289,0.3772877861019517,0.4252870200254257,0.48356131029483396,0.40712302049603455
1290,0.40652556000581985,0.4235015932738295,0.484126968565871,0.40660942249625054
1291,0.45461242246972855,0.4366308642198835,0.49069221780818395,0.4160118936997045
1292,0.45817533919715414,0.4510605294062188,0.5017492465198521,0.4300632235199678
1293,0.4396869716408778,0.4696346597130155,0.5158273777246225,0.43593388552710327
1294,0.4245319208851471,0.48130103207422803,0.5267848828086299,0.4373623994683952
1295,0.427773776845446,0.48473384713691564,0.5330640864998282,0.4345843570961854
1296,0.47332219747410803,0.48398579711585415,0.5316702615839722,0.4349635390010443
1297,0.5130379449020557,0.4878515560268373,0.5307261652395368,0.43514835978217237
1298,0.5084414786471905,0.49107651005469627,0.5250750985212224,0.43493819151655827
1299,0.49292285914972406,0.49131302841159213,0.5211930595208801,0.4350156343537965
1300,0.49730550994442796,0.4880754351904612,0.5167999091312656,0.4360613377576404
1301,0.4976246930165778,0.48493833853781415,0.5120767085312,0.4350535039910622
1302,0.4987000012633988,0.486925086149787,0.5090921861145807,0.43255851061898887
1303,0.4967997430477602,0.49075810863438346,0.5071470898674446,0.42475901615745765
1304,0.49596938020341913,0.49451094598404793,0.508305049585593,0.42079048606033487
1305,0.49556530963868906,0.49586568499057454,0.5139222193063785,0.42283759296441403
1306,0.5095022312178406,0.49437093561861856,0.5186486148244281,0.43625864285801225
1307,0.5180695049574561,0.4948394041010424,0.5089622906917096,0.44769803043126916
1308,0.4946610397314304,0.5048945693641516,0.5013219687279998,0.4397824117122484
1309,0.4668691626792988,0.5143054075591881,0.5046279912714434,0.42721676675867076
1310,0.4711177985936703,0.5168525421179788,0.5218690446021224,0.42593713474844913
1311,0.48837862501451634,0.5109938214607277,0.5359690834329356,0.43820022119226354
1312,0.5013259272367177,0.49908312263764343,0.5368066403647529,0.44779492991982894
1313,0.49429278364180623,0.4918175746428779,0.5196599940065725,0.44426701822003434
1314,0.4595549671721977,0.49464797956666945,0.49781709109087385,0.4250394358064103
1315,0.43207589468644675,0.5008351555061504,0.4915307374122643,0.40943741757842594
1316,0.4444886874073407,0.5010754282924771,0.49331228064158544,0.4140956747192943
1317,0.46374293537590283,0.499896744307689,0.49894300241339024,0.42500905558494984
1318,0.4585729560890697,0.4980247002866782,0.498786162076222,0.4302466576588256
1319,0.45181061203697415,0.4977096770856631,0.4996534139531787,0.42718486816132956
1320,0.4481195426818832,0.500972584518045,0.5001947329689637,0.4243093896691311
1321,0.45361920103473086,0.5050792288417757,0.5006535050206364,0.4315153417323766
1322,0.4564788874933194,0.5050451865856658,0.5019194769488904,0.4388624478541189
1323,0.4495036266300737,0.5018299287617246,0.5027086254982139,0.4428887675530659
1324,0.43493894338537437,0.4975226944023389,0.5029240159596003,0.44009939976743206
1325,0.4275396256865065,0.4938628575550555,0.502672798619689,0.4321517254256627
1326,0.4331187075995622,0.4923364539112511,0.5026567584726951,0.4240697010480925
1327,0.4383815298622448,0.49266297113153945,0.5029927529614103,0.42290603046408304
1328,0.43001259455605895,0.49328442440835896,0.5020879894197107,0.4241552845413516
1329,0.4147900839611011,0.4942265948955657,0.5021784657738806,0.42333657517680284
1330,0.40425908656500115,0.49444204295174526,0.5038371989336634,0.42341110020883216
1331,0.41092408055009744,0.4881579693926528,0.5068363354443326,0.4246961176332164
1332,0.4219493853730253,0.48187271107451246,0.5087190577014747,0.4248783048329572
1333,0.42400683988455323,0.4836898639562908,0.5103713674719141,0.4228887217285431
1334,0.40730248241736133,0.4879511297120792,0.5121042948496067,0.412767561642738
1335,0.39954567109048417,0.49079682758112114,0.513882584579557,0.4118657881363943
1336,0.427290627651832,0.48907810949946706,0.5168511471963128,0.4239614889093043
1337,0.4625845251519982,0.4810801722293336,0.5183488917006878,0.4385927172827234
1338,0.4718291276936838,0.47373021187288594,0.5183608437423473,0.4442579502423629
1339,0.46220830068086244,0.47490462054416405,0.5175131968722629,0.43874032035695615
1340,0.4484154075989708,0.4794307623415657,0.5180018654985415,0.42975798502528123
1341,0.4568904977099329,0.4773527410869908,0.5180817728678994,0.42583593545357
1342,0.4834809349857362,0.4755987220244575,0.5182456044738539,0.4361581375396879
1343,0.49892167935362847,0.48090893510784916,0.5184990312594737,0.4424504157149816
1344,0.46987955616469185,0.4958236022323116,0.5190647442864074,0.4417380097171326
1345,0.4410018070469264,0.5118477245342481,0.5199584059393618,0.43822261687975417
1346,0.4569785538208112,0.5282483987476027,0.5219281900473094,0.4397539040294752
1347,0.4826277166290427,0.5256770630158839,0.5205950561479242,0.43904436078647735
1348,0.4967539384233905,0.5027785681580079,0.5162888667359363,0.43549890411434466
1349,0.48010634335274943,0.480115579964336,0.5116093196562994,0.427489529393313
1350,0.46076872881091974,0.4683881659280908,0.5091712707164818,0.42088737211271143
1351,0.46138955297178513,0.4681543859551859,0.5102677177771314,0.41987059172855223
1352,0.48879788160486193,0.4755338488546751,0.5140245675493391,0.4247092660502533
1353,0.5116915799863871,0.4844516152865666,0.5173943560864926,0.43195891469886993
1354,0.4983209269105517,0.48280877085455065,0.5164202266725955,0.4345481516313654
1355,0.48089041801962756,0.4783717955088441,0.5145690516040882,0.43346257167124086
1356,0.47461076569290633,0.4787511790925345,0.5128220987487094,0.4314632254031056
1357,0.5003819185589862,0.4832020192012486,0.508570854192194,0.43404108333086294
1358,0.5228680606026461,0.49471868677391645,0.5059709866704795,0.4416851026317721
1359,0.5046347681419556,0.5117230420125896,0.5130592555083526,0.44147713669386124
1360,0.47544052389307184,0.5277102159897044,0.5349761014504484,0.43283229634585657
1361,0.4687629088389197,0.5363113494412423,0.5518190813919502,0.42079923764099914
1362,0.4802791823138636,0.5237024836752848,0.5538870712639123,0.40947478340219434
1363,0.49273529124327653,0.4986864857318602,0.5420164080419745,0.40482383165613645
1364,0.4832381698257162,0.48496905253101574,0.5161146829517657,0.4057188496579316
1365,0.45432587621317333,0.4882950051216426,0.5052550469508474,0.4061996684613676
1366,0.4379649604712513,0.5046540537680274,0.5162094130731788,0.40295950758667787
1367,0.4787997764475723,0.5156528255867977,0.5355770424803827,0.4033535272117935
1368,0.5129235935188746,0.502812133967574,0.55275813668234,0.4051527723076278
1369,0.49220351320937256,0.47718475535337257,0.5690267088090161,0.410999050085991
1370,0.4418709737919236,0.4690334403596976,0.5611436397593484,0.421089657443579
1371,0.4036104773670339,0.48705345671787675,0.5269809267654167,0.4314566043586796
1372,0.4183711195730539,0.5074017297662474,0.4772484547603595,0.4402835224060113
1373,0.46078729584522826,0.5193562280391404,0.4461848253691619,0.44307160142778135
1374,0.5016488012575864,0.5166359341838884,0.46514374220775423,0.4382808912039909
1375,0.49446458492392537,0.5085824385861135,0.5184895361179689,0.4322622864623962
1376,0.47115441764469573,0.5141586494000082,0.5551976816436525,0.4277731273080249
1377,0.4539838371210122,0.5203637834478065,0.5436359875857796,0.42725819235449064
1378,0.45447829473114004,0.5189613033753232,0.506213909296187,0.4285039442853816
1379,0.459913301639106,0.5077257056980837,0.4692515111139355,0.42711531338856423
1380,0.46435307849299745,0.48883466540718884,0.4754968416800572,0.4200923188334696
1381,0.47066250948054783,0.4805405912193955,0.5115007030707611,0.4177167285432762
1382,0.4708369612835009,0.4939553067382542,0.5416072144777443,0.4255734147408099
1383,0.4648169104505854,0.514394766237731,0.5487506659728572,0.44062521004669325
1384,0.4386873342126459,0.519838498843101,0.536193999313672,0.4495710576090174
1385,0.42625204412718637,0.5097079174205194,0.5174541455222182,0.43513272033069667
1386,0.44333241908142934,0.4850768565250943,0.4996460334193341,0.4175493117403308
1387,0.49082326691793604,0.4704507716026532,0.49760885488000256,0.41196028097498083
1388,0.5186521242579716,0.48206740271551063,0.501544291569669,0.4249867182205598
1389,0.48311179217408706,0.5121693601383085,0.5007225365552819,0.44319040480642025
1390,0.4224766510854835,0.5302718619738492,0.4983993765635374,0.45218546427407186
1391,0.38328377603511515,0.5307851003316608,0.4980796299440654,0.44696864643878054
1392,0.4121596297183114,0.5154280677872878,0.5007911852984027,0.4369710319909582
1393,0.4674508354643173,0.49737741306454347,0.5057477262132071,0.43662764691138983
1394,0.5075101907875685,0.4892367961428018,0.5094191224271913,0.43742532667132294
1395,0.4976379393305338,0.48798044000320495,0.5099272668296791,0.43818565765028794
1396,0.47327030146833654,0.49276316834999795,0.5071665090825025,0.4354209909005831
1397,0.4743015389421974,0.4938893340013786,0.5033188998348891,0.43302347897023324
1398,0.48251153086353527,0.49572588313319355,0.5020469511337421,0.43204344948935464
1399,0.489202113083071,0.4959334750914631,0.5024248471131962,0.4322536060667584
1400,0.48506361559210265,0.49068718609032597,0.5019265322493593,0.43419097424621134
1401,0.4772538995606656,0.48246156038894367,0.5017645727109011,0.43649355407171564
1402,0.4718504681961685,0.479412333790536,0.5043422222993127,0.4376388819868802
1403,0.4722676331591753,0.4830835681609199,0.508560194353077,0.4383497429542524
1404,0.4717521268417684,0.49169215048218273,0.5127781664068414,0.43931937089656947
1405,0.46600290548834206,0.49937005986371313,0.5153558159952529,0.43936195612944384
1406,0.46108387369144443,0.5026031119855552,0.5154964150637117,0.4389361038006999
1407,0.4580777987044515,0.5011049554395726,0.5140904243791236,0.43907805457694793
1408,0.45984009395837083,0.5010832430101043,0.5146901578620955,0.4315868553808538
1409,0.45903053538822036,0.5023424666803976,0.5176454921656347,0.43228163533319974
1410,0.4491058046440708,0.49953109950740465,0.5141012835255785,0.4302867389595863
1411,0.4436249807506013,0.4929098818246447,0.5036479213475223,0.42520102151442907
1412,0.4571933152720083,0.48334971825591966,0.4872409340531393,0.42113032391382077
1413,0.47361639866745103,0.4765616098613899,0.4747876715701024,0.41667159237793583
1414,0.4827454247748672,0.47562760559827694,0.4720328831576275,0.41242412347814716
1415,0.4727187984732226,0.47986870165281004,0.47865739359188886,0.4090069495899234
1416,0.45658712806670265,0.4843506833390042,0.48881120917784515,0.4046189714522252
1417,0.4428663661473121,0.48375589729755886,0.4836267306451135,0.40271473429016175
1418,0.4627465166978759,0.4840447715733197,0.4845295687985733,0.40512889957327275
1419,0.47956199831292284,0.4865785406337784,0.4961938407884673,0.39921495791710054
1420,0.4558249307983158,0.494175954989163,0.5186787399112855,0.39243219767419685
1421,0.4259069856125197,0.49532455938605635,0.5405886083489821,0.3946115977406898
1422,0.418473422042633,0.4992925313740884,0.5539779723942411,0.40539179672297454
1423,0.4300318927165555,0.5063732322010226,0.5542861240725533,0.42289565399504775
1424,0.4462019980472432,0.522533388495904,0.5471604771303171,0.4399874011477563
1425,0.4511732382053796,0.5365748732360276,0.551624353636357,0.4474380508620765
1426,0.4287613818795544,0.5389108096060388,0.5517489403440913,0.44600723720567487
1427,0.4096477897950591,0.5245209208135975,0.543861185107389,0.44853462823723916
1428,0.42009684221998983,0.4979279804617423,0.5245099509122952,0.44846669165259645
1429,0.43328145962564363,0.4770767209739902,0.49326380466126335,0.44764957410028433
1430,0.43134461060228946,0.47267162192040907,0.47442138061539313,0.4482717386843182
1431,0.41889191894821853,0.4892727009144414,0.4823558817018809,0.44640822858481743
1432,0.4120476511592247,0.5062498128915026,0.5088020119610401,0.44941821288869443
1433,0.437433441682032,0.518050932243351,0.535175408398116,0.4493316852476017
1434,0.4661826070461875,0.5152184939985534,0.5482199359783001,0.4524678289985421
1435,0.46535253457273773,0.5074007958488932,0.5456503616396119,0.4413972300098527
1436,0.44799012709573527,0.5048616911343972,0.5377666553650519,0.4258148937932506
1437,0.4350271338752908,0.5138641649809697,0.5395781851477465,0.41449866921190026
1438,0.4438628718036616,0.5209732657060053,0.539599009191036,0.41296102305825505
1439,0.4786720897117336,0.5207587927599396,0.5429940830986592,0.4218710697716029
1440,0.5069394042255204,0.5155230239365985,0.540312315482263,0.42859488640870286
1441,0.5019528704683924,0.5090612087146202,0.5297215829801382,0.43257208475801034
1442,0.49050134523819333,0.5047164374895795,0.514334840892584,0.4243861507196789
1443,0.496953174393225,0.5024016810873038,0.5017113902475938,0.42376750444012545
1444,0.5072057077829385,0.5035867109133615,0.48903352277873463,0.4242623233222935
1445,0.5134075172981871,0.5037575823630259,0.48843263358361333,0.4264247432773154
1446,0.5040185979097367,0.5027716916978555,0.502037390307814,0.4252092941223067
1447,0.49147376309061197,0.50057116849865,0.5157819254208984,0.424753016350671
1448,0.49154433236126505,0.49763780718259454,0.5316019770868561,0.42684432746360035
1449,0.49800552796980924,0.4992858082738316,0.5406143858127892,0.4333535518396362
1450,0.5036444297328064,0.4989322125163412,0.5453860404126781,0.43963433927573015
1451,0.49996942361575014,0.494337580112684,0.5402425515011005,0.4414906619177948
1452,0.4891774577397236,0.48550660760789366,0.5350219859883709,0.43660560915182406
1453,0.4816752284904954,0.4771786674849331,0.5246977377557557,0.4302168445798278
1454,0.4865131584860124,0.47107493793578653,0.5142283864869684,0.4293758600180644
1455,0.4941396293622755,0.47087225189284504,0.5078304496004874,0.4312373900888807
1456,0.4951411361060909,0.47528693108414616,0.5074814712248612,0.43393190695955036
1457,0.4953033046599916,0.47728637040688165,0.5111974291695744,0.43461646582888436
1458,0.4924956057474889,0.478531547202467,0.509823867055399,0.4357207799015408
1459,0.49974754368816343,0.4802049165906818,0.5086243762595013,0.43682326134834953
1460,0.501984988058837,0.482641546018347,0.5095968346348787,0.43873307169025405
1461,0.4856207347944345,0.48564809213574095,0.5128679569682386,0.43977683609577833
1462,0.4663836722281861,0.4908853338417332,0.5237317994872018,0.4396561226810749
1463,0.46446646973068456,0.4899166387993765,0.5311456964270999,0.43898492280706386
1464,0.4728414347948886,0.4903770538400956,0.5277045586902104,0.4410258400196029
1465,0.47964622834182513,0.49518254088844466,0.510388137644128,0.4400764039092142
1466,0.4731982334278412,0.5055733870607616,0.49579808300967015,0.4347486939967176
1467,0.4477078849769515,0.5152418183365195,0.49528902219214926,0.4262517369879635
1468,0.42906708101108915,0.5221401494730613,0.5092242086725223,0.4208857353459714
1469,0.4368248645969335,0.5223478383460725,0.5241297030140439,0.4215956534979451
1470,0.44584340108324527,0.517373332555275,0.5201148919115783,0.4277148861155769
1471,0.43241844447279143,0.5177044134182708,0.5080525109694302,0.4343102466727315
1472,0.4103690546732012,0.5127204146047958,0.49920976936084993,0.43572570704126906
1473,0.397670008417682,0.5048110665469602,0.5047889013738702,0.4355780526454284
1474,0.4168559003795193,0.4917491771629125,0.5168290496490802,0.4356062005828196
1475,0.44301355466002657,0.4833494765718945,0.5260982322559169,0.4375712732190476
1476,0.44292414552818055,0.4877115623458652,0.5256311996972678,0.43984980321922645
1477,0.4258722913873264,0.49748807225500485,0.5206225679301318,0.4397638761416631
1478,0.41200836101446836,0.5035535104662171,0.5177856517814404,0.4362472715467044
1479,0.42197801147191805,0.49960429493460995,0.516272213135677,0.4338445029382654
