timestamps,TP9,AF7,AF8,TP10,Right AUX
1728632452.932,-62.500,-46.875,-53.223,-48.828,0.000
1728632452.936,-49.316,-46.875,-52.734,-52.246,0.000
1728632452.939,-24.902,-48.340,-48.340,-26.367,0.000
1728632452.943,-25.879,-52.734,-47.363,-23.926,0.000
1728632452.947,-44.922,-58.105,-45.410,-39.062,0.000
1728632452.951,-52.734,-59.082,-43.457,-45.410,0.000
1728632452.955,-37.598,-57.617,-43.457,-50.781,0.000
1728632452.959,-13.184,-42.969,-42.969,-32.715,0.000
1728632452.963,-27.344,-46.387,-48.340,-26.855,0.000
1728632452.967,-48.340,-46.387,-45.410,-36.133,0.000
1728632452.971,-50.781,-35.156,-41.016,-36.133,0.000
1728632452.975,-38.086,-32.227,-29.785,-34.180,0.000
1728632452.979,-7.812,-28.809,-20.996,-30.273,0.000
1728632452.982,0.977,-26.367,-28.320,-13.672,0.000
1728632452.986,-18.555,-29.297,-24.414,11.230,0.000
1728632452.990,-31.738,-31.738,-25.879,-0.977,0.000
1728632452.994,-22.461,-33.203,-31.738,-28.320,0.000
1728632452.998,0.977,-33.691,-28.809,-22.461,0.000
1728632453.002,12.695,-25.879,-22.949,-4.883,0.000
1728632453.006,-5.371,-17.578,-22.461,-1.953,0.000
1728632453.010,-32.715,-24.902,-24.414,-7.812,0.000
1728632453.014,-18.555,-28.320,-24.902,-10.254,0.000
1728632453.018,19.043,-15.137,-16.602,-1.953,0.000
1728632453.021,12.207,-13.184,-19.043,7.324,0.000
1728632453.025,-13.184,-22.949,-27.344,12.207,0.000
1728632453.029,-35.645,-33.203,-34.180,-10.742,0.000
1728632453.033,-39.551,-35.156,-41.992,-36.133,0.000
1728632453.037,-16.602,-34.180,-31.250,-24.414,0.000
1728632453.041,1.953,-43.945,-25.391,-17.090,0.000
1728632453.045,-6.348,-53.223,-31.738,-15.137,0.000
1728632453.049,-43.945,-54.688,-42.480,-30.762,0.000
1728632453.053,-57.617,-46.875,-42.480,-54.688,0.000
1728632453.057,-31.250,-35.645,-40.039,-53.223,0.000
1728632453.061,-20.508,-38.086,-41.016,-45.898,0.000
1728632453.064,-41.016,-47.852,-38.086,-38.574,0.000
1728632453.068,-64.453,-57.129,-42.480,-36.621,0.000
1728632453.072,-75.684,-57.129,-44.922,-50.781,0.000
1728632453.076,-59.570,-49.805,-44.434,-52.734,0.000
1728632453.080,-39.551,-50.293,-45.410,-43.457,0.000
1728632453.084,-31.250,-59.082,-50.293,-35.156,0.000
1728632453.088,-52.246,-67.871,-56.641,-40.527,0.000
1728632453.092,-71.777,-65.918,-57.129,-52.246,0.000
1728632453.096,-50.781,-49.805,-55.176,-43.945,0.000
1728632453.100,-28.809,-30.273,-55.664,-28.809,0.000
1728632453.104,-22.461,-34.668,-49.316,-13.184,0.000
1728632453.107,-36.133,-43.457,-40.039,-11.230,0.000
1728632453.111,-44.922,-37.598,-40.527,-28.809,0.000
1728632453.115,-21.484,-40.527,-34.668,-25.391,0.000
1728632453.119,-3.418,-37.598,-35.645,-18.555,0.000
1728632453.123,-13.672,-36.133,-43.945,-24.414,0.000
1728632453.127,-28.320,-38.086,-37.109,-25.879,0.000
1728632453.131,-39.551,-34.180,-42.969,-33.203,0.000
1728632453.135,-28.809,-39.062,-39.551,-43.945,0.000
1728632453.139,7.812,-31.250,-26.367,-24.414,0.000
1728632453.143,1.953,-31.738,-28.320,-8.301,0.000
1728632453.146,-18.555,-42.480,-38.574,-17.578,0.000
1728632453.150,-38.086,-39.551,-45.898,-34.180,0.000
1728632453.154,-34.180,-24.414,-34.180,-41.992,0.000
1728632453.158,-6.836,-10.742,-27.344,-15.137,0.000
1728632453.162,-4.395,-12.207,-35.156,-5.859,0.000
1728632453.166,-21.484,-20.996,-37.598,-8.301,0.000
1728632453.170,-39.062,-24.902,-36.133,-10.742,0.000
1728632453.174,-28.320,-20.996,-30.273,-20.996,0.000
1728632453.178,-6.348,-22.949,-21.973,-24.902,0.000
1728632453.182,4.883,-25.391,-16.602,-13.184,0.000
1728632453.186,-15.625,-29.785,-21.484,-13.672,0.000
1728632453.189,-36.621,-38.086,-29.297,-24.414,0.000
1728632453.193,-31.250,-36.133,-28.809,-22.461,0.000
1728632453.197,-13.184,-36.621,-22.461,-18.066,0.000
1728632453.201,-0.977,-40.527,-22.949,-12.207,0.000
1728632453.205,-24.414,-43.457,-32.227,-12.207,0.000
1728632453.209,-64.941,-55.176,-39.062,-34.668,0.000
1728632453.213,-62.988,-60.059,-41.016,-51.758,0.000
1728632453.217,-33.691,-48.828,-36.133,-28.809,0.000
1728632453.221,-21.973,-43.457,-36.133,-22.461,0.000
1728632453.225,-35.156,-42.969,-37.598,-35.156,0.000
1728632453.229,-50.781,-39.062,-40.527,-37.598,0.000
1728632453.232,-60.059,-40.039,-40.527,-47.852,0.000
1728632453.236,-43.457,-51.270,-41.016,-43.945,0.000
1728632453.240,-30.273,-51.758,-40.527,-40.527,0.000
1728632453.244,-41.992,-47.363,-45.410,-39.062,0.000
1728632453.248,-57.617,-54.199,-49.316,-34.668,0.000
1728632453.252,-57.129,-55.176,-45.898,-41.016,0.000
1728632453.256,-19.043,-38.086,-35.645,-24.902,0.000
1728632453.260,-5.859,-18.555,0.000,-4.883,0.000
1728632453.264,-24.902,-25.879,0.000,-10.742,0.000
1728632453.268,-37.598,-30.273,0.000,-27.832,0.000
1728632453.271,-56.641,-34.668,0.000,-42.969,0.000
1728632453.275,-51.270,-33.691,0.000,-41.016,0.000
1728632453.279,1.465,-25.391,0.000,-21.973,0.000
1728632453.283,7.324,-31.738,0.000,-10.254,0.000
1728632453.287,-26.367,-31.738,0.000,-14.160,0.000
1728632453.291,-36.133,-23.438,0.000,-19.043,0.000
1728632453.295,-16.113,-26.855,0.000,-23.438,0.000
1728632453.299,12.207,-30.273,0.000,-15.625,0.000
1728632453.303,7.324,-28.809,0.000,-12.695,0.000
1728632453.307,-11.230,-25.391,-34.668,-10.254,0.000
1728632453.311,-22.461,-18.555,-21.973,-3.906,0.000
1728632453.314,-11.230,-19.043,-23.438,-1.465,0.000
1728632453.318,6.348,-19.043,-23.438,-4.883,0.000
1728632453.322,7.812,-17.578,-22.461,-6.348,0.000
1728632453.326,-14.160,-25.391,-32.227,-19.531,0.000
1728632453.330,-32.715,-35.156,-40.039,-29.297,0.000
1728632453.334,-23.926,-22.949,-37.598,-30.273,0.000
1728632453.338,-4.395,-12.207,-33.203,-22.949,0.000
1728632453.342,-3.906,-18.066,-34.180,-13.184,0.000
1728632453.346,-22.461,-31.738,-34.180,-14.160,0.000
1728632453.350,-47.852,-41.504,-36.621,-42.480,0.000
1728632453.354,-53.711,-40.527,-35.645,-53.711,0.000
1728632453.357,-22.949,-42.480,-32.715,-41.016,0.000
1728632453.361,-15.137,-46.387,-38.086,-39.062,0.000
1728632453.365,-41.504,-38.574,-50.781,-40.527,0.000
1728632453.369,-67.383,-43.945,-52.246,-53.711,0.000
1728632453.373,-62.012,-55.176,-40.039,-57.129,0.000
1728632453.377,-29.297,-43.945,-41.016,-41.992,0.000
1728632453.381,-28.320,-43.945,-50.781,-41.504,0.000
1728632453.385,-29.785,-42.969,-44.434,-40.039,0.000
1728632453.389,-46.875,-39.551,-34.180,-43.457,0.000
1728632453.393,-71.777,-42.480,-35.156,-60.059,0.000
1728632453.396,-35.645,-46.387,-33.691,-26.855,0.000
1728632453.400,-8.789,-42.969,-38.086,-15.137,0.000
1728632453.404,-20.020,-35.645,-37.598,-37.598,0.000
1728632453.408,-51.270,-33.203,-38.086,-23.438,0.000
1728632453.412,-41.992,-32.715,-45.898,-30.273,0.000
1728632453.416,-3.418,-38.086,-42.969,-33.691,0.000
1728632453.420,5.371,-35.156,-37.109,-16.602,0.000
1728632453.424,-7.812,-33.691,-34.180,-11.719,0.000
1728632453.428,-28.320,-32.227,-36.621,-17.578,0.000
1728632453.432,-35.156,-23.926,-33.203,-17.090,0.000
1728632453.436,-15.625,-20.508,-23.438,-9.766,0.000
1728632453.439,5.371,-18.066,-24.414,-5.371,0.000
1728632453.443,3.906,-14.160,-29.785,-5.371,0.000
1728632453.447,-15.137,-24.414,-28.320,-12.695,0.000
1728632453.451,-30.762,-30.273,-24.902,-15.137,0.000
1728632453.455,-20.508,-22.461,-20.996,-21.484,0.000
1728632453.459,17.090,-16.602,-16.113,-7.324,0.000
1728632453.463,14.648,-11.230,-14.160,13.184,0.000
1728632453.467,-26.367,-17.578,-25.391,1.465,0.000
1728632453.471,-40.039,-27.832,-39.062,-21.973,0.000
1728632453.475,-29.297,-23.438,-39.062,-22.949,0.000
1728632453.479,-11.719,-23.926,-31.250,4.395,0.000
1728632453.482,-18.066,-30.762,-28.809,4.395,0.000
1728632453.486,-36.621,-32.227,-25.879,-19.531,0.000
1728632453.490,-41.992,-24.902,-34.668,-50.293,0.000
1728632453.494,-50.293,-22.461,-35.156,-37.109,0.000
1728632453.498,-27.832,-23.926,-24.414,-6.348,0.000
1728632453.502,-8.301,-18.555,-33.203,-14.648,0.000
1728632453.506,-29.297,-32.227,-32.715,-11.719,0.000
1728632453.510,-47.363,-42.480,-33.203,-31.738,0.000
1728632453.514,-44.922,-27.832,-31.250,-39.062,0.000
1728632453.518,-15.625,-11.230,-24.414,-20.020,0.000
1728632453.522,-21.484,-22.949,-33.691,-27.344,0.000
1728632453.525,-58.105,-45.410,-52.246,-41.504,0.000
1728632453.529,-66.895,-42.969,-52.734,-54.199,0.000
1728632453.533,-65.430,-41.504,-47.852,-61.035,0.000
1728632453.537,-38.086,-40.039,-48.828,-54.199,0.000
1728632453.541,-29.297,-36.133,-45.410,-42.969,0.000
1728632453.545,-54.688,-39.062,-46.875,-52.246,0.000
1728632453.549,-72.266,-49.316,-55.176,-58.594,0.000
1728632453.553,-72.754,-57.617,-55.664,-48.340,0.000
1728632453.557,-41.992,-48.828,-41.016,-42.969,0.000
1728632453.561,-26.367,-32.227,-37.109,-48.340,0.000
1728632453.564,-32.715,-25.879,-41.016,-44.922,0.000
1728632453.568,-44.434,-29.785,-41.504,-28.320,0.000
1728632453.572,-57.617,-24.414,-43.945,-41.016,0.000
1728632453.576,-30.273,-23.926,-33.691,-42.969,0.000
1728632453.580,15.625,-22.949,-25.879,-31.250,0.000
1728632453.584,8.789,-13.184,-31.738,-24.414,0.000
1728632453.588,-23.438,-11.230,-41.504,-25.391,0.000
1728632453.592,-36.621,-18.555,-34.668,-40.527,0.000
1728632453.596,-10.254,-20.996,-21.973,-18.555,0.000
1728632453.600,15.137,-12.695,-18.555,9.277,0.000
1728632453.604,-1.953,-9.766,-19.531,5.859,0.000
1728632453.607,-32.715,-21.973,-25.879,-4.395,0.000
1728632453.611,-47.852,-24.414,-29.297,-15.137,0.000
1728632453.615,-33.691,-24.902,-28.320,-20.996,0.000
1728632453.619,-8.301,-20.020,-11.719,-16.602,0.000
1728632453.623,-3.906,-8.301,-14.160,-16.602,0.000
1728632453.627,-29.785,-17.090,-31.250,-16.113,0.000
1728632453.631,-48.340,-20.996,-34.668,-25.879,0.000
1728632453.635,-17.578,-16.113,-29.297,-36.133,0.000
1728632453.639,0.977,-18.555,-30.762,-10.742,0.000
1728632453.643,-29.297,-29.785,-33.691,-6.836,0.000
1728632453.647,-41.992,-33.203,-31.738,-28.320,0.000
1728632453.650,-38.574,-28.809,-30.762,-37.598,0.000
1728632453.654,-18.555,-32.227,-29.297,-19.531,0.000
1728632453.658,-5.371,-34.668,-27.344,-17.578,0.000
1728632453.662,-5.859,-33.203,-28.320,-21.973,0.000
1728632453.666,-27.832,-32.715,-32.227,-27.344,0.000
1728632453.670,-58.594,-34.668,-33.691,-46.387,0.000
1728632453.674,-41.992,-44.922,-40.039,-51.758,0.000
1728632453.678,-16.113,-50.293,-40.039,-39.551,0.000
1728632453.682,-25.391,-36.621,-41.504,-20.996,0.000
1728632453.686,-47.852,-38.086,-50.781,-28.320,0.000
1728632453.689,-72.266,-46.875,-47.852,-42.969,0.000
1728632453.693,-65.918,-40.039,-41.016,-51.758,0.000
1728632453.697,-33.203,-36.621,-38.574,-51.758,0.000
1728632453.701,-30.762,-49.316,-43.945,-44.922,0.000
1728632453.705,-50.293,-54.199,-41.504,-55.664,0.000
1728632453.709,-58.105,-45.898,-32.715,-60.547,0.000
1728632453.713,-58.105,-42.480,-35.645,-45.898,0.000
1728632453.717,-43.945,-38.086,-38.086,-48.340,0.000
1728632453.721,-22.949,-36.133,-34.668,-37.598,0.000
1728632453.725,-28.809,-37.598,-24.414,-11.230,0.000
1728632453.729,-58.105,-45.410,-26.367,-25.879,0.000
1728632453.732,-49.316,-46.875,-30.762,-37.109,0.000
1728632453.736,-18.555,-39.062,-23.926,-19.531,0.000
1728632453.740,-17.578,-41.992,-19.531,-18.066,0.000
1728632453.744,-23.438,-41.016,-28.809,-23.926,0.000
1728632453.748,-23.438,-42.969,-25.879,-24.902,0.000
1728632453.752,-35.156,-41.992,-13.184,-33.203,0.000
1728632453.756,-24.902,-39.551,-11.719,-26.367,0.000
1728632453.760,-6.348,-37.109,-22.461,-15.625,0.000
1728632453.764,-5.859,-31.250,-27.832,-9.277,0.000
1728632453.768,-29.297,-36.133,-28.809,-15.137,0.000
1728632453.772,-38.574,-31.738,-24.414,-27.344,0.000
1728632453.775,-15.137,-24.414,-22.949,-19.531,0.000
1728632453.779,2.441,-21.973,-25.391,-13.672,0.000
1728632453.783,1.953,-20.996,-17.090,-8.789,0.000
1728632453.787,-12.695,-21.973,-26.855,-18.555,0.000
1728632453.791,-40.039,-24.902,-38.574,-29.297,0.000
1728632453.795,-22.949,-24.902,-25.391,-23.926,0.000
1728632453.799,-0.488,-22.949,-23.926,-23.926,0.000
1728632453.803,-16.113,-20.020,-27.344,-22.949,0.000
1728632453.807,-34.180,-21.484,-19.531,-18.066,0.000
1728632453.811,-47.852,-31.250,-24.902,-30.273,0.000
1728632453.814,-36.621,-32.715,-30.762,-56.152,0.000
1728632453.818,-20.020,-30.273,-28.320,-46.387,0.000
1728632453.822,-23.438,-31.738,-32.715,-33.203,0.000
1728632453.826,-50.781,-39.062,-40.039,-39.551,0.000
1728632453.830,-66.406,-40.527,-40.527,-45.898,0.000
1728632453.834,-59.082,-33.203,-38.086,-45.410,0.000
1728632453.838,-36.621,-38.086,-42.969,-43.945,0.000
1728632453.842,-29.785,-41.016,-55.664,-51.270,0.000
1728632453.846,-64.941,-42.969,-62.012,-57.129,0.000
1728632453.850,-81.543,-39.551,-58.105,-75.195,0.000
1728632453.854,-68.848,-33.691,-56.641,-58.594,0.000
1728632453.857,-31.250,-34.668,-54.688,-29.785,0.000
1728632453.861,-18.555,-35.645,-49.805,-36.133,0.000
1728632453.865,-48.828,-38.086,-50.293,-41.992,0.000
1728632453.869,-72.266,-43.945,-54.199,-43.945,0.000
1728632453.873,-48.340,-42.480,-45.898,-46.875,0.000
1728632453.877,-10.742,-26.367,-37.598,-38.574,0.000
1728632453.881,-13.672,-21.484,-40.039,-16.113,0.000
1728632453.885,-29.785,-27.344,-47.363,-5.859,0.000
1728632453.889,-46.387,-25.879,-45.898,-15.137,0.000
1728632453.893,-37.598,-18.555,-39.062,-22.949,0.000
1728632453.897,-5.859,-11.230,-38.086,-10.742,0.000
1728632453.900,20.020,-15.625,-37.109,8.301,0.000
1728632453.904,2.441,-18.555,-41.016,6.348,0.000
1728632453.908,-23.438,-25.879,-46.875,-2.441,0.000
1728632453.912,-20.996,-24.414,-41.016,-12.207,0.000
1728632453.916,0.000,-13.184,-29.785,-13.672,0.000
1728632453.920,0.000,-5.371,-29.297,-5.371,0.000
1728632453.924,0.000,-10.742,-36.133,-13.672,0.000
1728632453.928,0.000,-19.531,-43.457,-20.996,0.000
1728632453.932,0.000,-29.297,-33.203,-20.020,0.000
1728632453.936,0.000,-29.297,-21.484,-13.672,0.000
1728632453.940,0.000,-26.367,-24.902,-18.555,0.000
1728632453.943,0.000,-27.344,-32.715,-21.973,0.000
1728632453.947,0.000,-36.621,-30.762,-27.344,0.000
1728632453.951,0.000,-38.574,-32.227,-41.016,0.000
1728632453.955,0.000,-34.668,-35.645,-38.086,0.000
1728632453.959,0.000,-38.086,-26.855,-26.855,0.000
1728632453.963,-15.137,-42.969,-32.227,-22.949,0.000
1728632453.967,-45.898,-48.828,-36.133,-24.414,0.000
1728632453.971,-46.875,-51.758,-39.062,-41.016,0.000
1728632453.975,-25.879,-41.504,-47.852,-39.551,0.000
1728632453.979,-20.508,-42.969,-39.551,-26.855,0.000
1728632453.982,-20.996,-46.387,-42.480,-27.832,0.000
1728632453.986,-47.363,-43.945,-52.246,-34.180,0.000
1728632453.990,-67.383,-49.805,-44.922,-44.434,0.000
1728632453.994,-42.480,-46.387,-39.551,-50.781,0.000
1728632453.998,-17.578,-48.828,-36.133,-33.203,0.000
1728632454.002,-19.531,-47.852,-34.180,-7.324,0.000
1728632454.006,-44.434,-50.781,-41.504,-19.043,0.000
1728632454.010,-51.758,-46.875,-47.852,-38.574,0.000
1728632454.014,-36.621,-32.715,-51.758,-25.879,0.000
1728632454.018,-5.371,-27.832,-49.805,-4.395,0.000
1728632454.022,-11.719,-33.691,-45.898,-10.254,0.000
1728632454.025,-38.574,-46.875,-42.480,-18.555,0.000
1728632454.029,-53.223,-45.898,-42.969,-31.250,0.000
1728632454.033,-34.180,-42.480,-35.156,-22.949,0.000
1728632454.037,3.906,-34.668,-33.203,-9.277,0.000
1728632454.041,-1.953,-30.273,-32.227,-17.578,0.000
1728632454.045,-17.578,-28.320,-22.949,-16.602,0.000
1728632454.049,-26.855,-24.902,-21.973,-7.812,0.000
1728632454.053,-26.855,-34.668,-18.066,-8.301,0.000
1728632454.057,2.441,-29.297,-19.043,-4.883,0.000
1728632454.061,9.277,-18.555,-21.484,0.488,0.000
1728632454.065,-27.344,-31.250,-18.066,0.000,0.000
1728632454.068,-34.180,-38.086,-19.043,-9.766,0.000
1728632454.072,-20.996,-25.879,-19.531,-19.043,0.000
1728632454.076,1.465,-19.531,-13.672,-15.137,0.000
1728632454.080,16.113,-25.391,-19.531,-1.465,0.000
1728632454.084,-11.719,-22.949,-29.785,-7.324,0.000
1728632454.088,-30.273,-20.508,-32.715,-29.785,0.000
1728632454.092,-20.020,-29.785,-30.273,-32.715,0.000
1728632454.096,-10.742,-29.785,-29.297,-21.973,0.000
1728632454.100,-12.207,-25.391,-29.785,-18.555,0.000
1728632454.104,-26.367,-37.109,-32.715,-13.672,0.000
1728632454.107,-43.945,-46.387,-39.551,-22.949,0.000
1728632454.111,-52.246,-43.945,-39.551,-47.852,0.000
1728632454.115,-27.344,-41.504,-33.203,-33.691,0.000
1728632454.119,-13.672,-36.133,-31.738,-13.184,0.000
1728632454.123,-34.668,-37.598,-41.992,-26.855,0.000
1728632454.127,-43.457,-37.109,-44.922,-36.133,0.000
1728632454.131,-33.203,-42.480,-31.738,-30.762,0.000
1728632454.135,-22.461,-50.781,-37.109,-27.832,0.000
1728632454.139,-20.508,-49.805,-47.852,-27.344,0.000
1728632454.143,-30.273,-49.805,-40.527,-40.039,0.000
1728632454.147,-33.691,-55.176,-38.574,-42.480,0.000
1728632454.150,-51.758,-56.641,-43.457,-35.156,0.000
1728632454.154,-32.227,-46.875,-34.180,-24.414,0.000
1728632454.158,-3.418,-25.879,-27.832,-4.883,0.000
1728632454.162,-24.902,-22.461,-34.180,-17.090,0.000
1728632454.166,-43.945,-38.086,-40.039,-28.320,0.000
1728632454.170,-43.457,-48.340,-36.621,-12.207,0.000
1728632454.174,-20.508,-41.992,-23.438,-5.859,0.000
1728632454.178,6.836,-28.809,-21.973,-3.418,0.000
1728632454.182,-0.488,-36.133,-25.391,-6.836,0.000
1728632454.186,-30.273,-38.574,-35.645,-19.043,0.000
1728632454.189,-37.109,-33.203,-36.621,-24.414,0.000
1728632454.193,-6.348,-25.879,-24.902,-16.113,0.000
1728632454.197,7.324,-17.578,-19.531,-15.137,0.000
1728632454.201,3.418,-12.207,-23.438,-12.207,0.000
1728632454.205,-10.254,-16.113,-27.344,-9.766,0.000
1728632454.209,-42.480,-35.156,-35.645,-20.996,0.000
1728632454.213,-30.273,-36.133,-35.645,-27.832,0.000
1728632454.217,10.254,-24.414,-24.902,-14.648,0.000
1728632454.221,12.695,-28.320,-20.508,-17.090,0.000
1728632454.225,-17.090,-26.855,-29.297,-35.156,0.000
1728632454.229,-40.039,-30.273,-38.086,-30.762,0.000
1728632454.232,-35.645,-37.109,-31.250,-24.414,0.000
1728632454.236,-3.906,-32.715,-25.391,-34.180,0.000
1728632454.240,13.672,-44.922,-30.273,-24.414,0.000
1728632454.244,-11.719,-40.039,-34.668,-20.996,0.000
1728632454.248,-37.598,-33.691,-38.574,-28.320,0.000
1728632454.252,-31.738,-43.457,-40.039,-38.086,0.000
1728632454.256,-17.090,-38.574,-37.598,-47.852,0.000
1728632454.260,-16.602,-36.133,-41.504,-40.527,0.000
1728632454.264,-38.574,-43.457,-37.109,-36.133,0.000
1728632454.268,-60.547,-45.410,-34.180,-48.828,0.000
1728632454.272,-50.781,-48.828,-33.691,-43.945,0.000
1728632454.275,-22.461,-46.875,-30.273,-47.852,0.000
1728632454.279,-21.973,-48.340,-30.762,-44.434,0.000
1728632454.283,-35.645,-56.152,-34.668,-34.180,0.000
1728632454.287,-57.129,-64.453,-35.645,-43.945,0.000
1728632454.291,-62.012,-62.988,-34.180,-34.668,0.000
1728632454.295,-34.180,-40.039,-24.414,-31.250,0.000
1728632454.299,7.324,-19.531,-20.996,-28.809,0.000
1728632454.303,-3.418,-18.066,-30.762,-9.766,0.000
1728632454.307,-49.316,-31.250,-32.227,1.465,0.000
1728632454.311,-50.293,-38.574,-34.668,-9.766,0.000
1728632454.315,-20.020,-41.504,-32.715,-26.855,0.000
1728632454.318,1.953,-40.039,-24.902,-18.555,0.000
1728632454.322,8.301,-36.621,-22.461,-13.672,0.000
1728632454.326,-20.508,-39.551,-27.344,-21.973,0.000
1728632454.330,-42.480,-48.340,-31.250,-12.207,0.000
1728632454.334,-14.160,-40.527,-24.902,-4.883,0.000
1728632454.338,2.930,-27.344,-22.461,-11.719,0.000
1728632454.342,-6.836,-31.738,-24.902,-12.207,0.000
1728632454.346,-39.551,-41.504,-27.832,-19.531,0.000
1728632454.350,-55.664,-52.734,-28.809,-36.133,0.000
1728632454.354,-17.090,-51.270,-23.926,-29.297,0.000
1728632454.357,1.953,-46.387,-25.879,-12.695,0.000
1728632454.361,-8.301,-49.805,-31.250,-11.230,0.000
1728632454.365,-22.461,-41.992,-30.273,-11.719,0.000
1728632454.369,-38.086,-28.320,-23.438,-29.785,0.000
1728632454.373,-30.762,-27.832,-18.555,-40.527,0.000
1728632454.377,-4.883,-39.551,-23.926,-26.855,0.000
1728632454.381,2.930,-48.340,-32.227,-12.695,0.000
1728632454.385,-22.949,-41.016,-34.668,-6.836,0.000
1728632454.389,-49.316,-34.180,-44.922,-26.855,0.000
1728632454.393,-23.926,-44.434,-47.363,-34.180,0.000
1728632454.397,18.555,-35.645,-30.762,-13.184,0.000
1728632454.400,-4.395,-28.809,-25.879,-18.066,0.000
1728632454.404,-48.340,-45.410,-26.367,-23.438,0.000
1728632454.408,-61.035,-56.152,-29.785,-21.484,0.000
1728632454.412,-49.805,-41.016,-27.832,-30.762,0.000
1728632454.416,-31.738,-29.785,-22.949,-37.598,0.000
1728632454.420,-18.066,-39.551,-31.250,-39.062,0.000
1728632454.424,-29.297,-45.898,-35.156,-36.621,0.000
1728632454.428,-65.430,-52.734,-39.551,-37.598,0.000
1728632454.432,-63.965,-50.293,-43.457,-42.969,0.000
1728632454.436,-38.574,-44.434,-49.805,-47.363,0.000
1728632454.440,-26.367,-38.574,-46.387,-44.434,0.000
1728632454.443,-21.973,-37.598,-42.969,-26.855,0.000
1728632454.447,-56.641,-51.270,-49.316,-23.926,0.000
1728632454.451,-57.129,-51.758,-46.875,-29.785,0.000
1728632454.455,-21.484,-40.039,-42.480,-12.207,0.000
1728632454.459,-18.555,-37.109,-40.039,-17.578,0.000
1728632454.463,-33.691,-41.992,-44.434,-29.297,0.000
1728632454.467,-53.711,-47.852,-50.293,-21.973,0.000
1728632454.471,-47.363,-44.434,-46.387,-22.461,0.000
1728632454.475,-20.996,-28.320,-34.180,-21.484,0.000
1728632454.479,0.000,-26.367,-33.203,-22.949,0.000
1728632454.482,-10.742,-39.062,-34.180,-12.695,0.000
1728632454.486,-35.645,-35.645,-29.785,-2.930,0.000
1728632454.490,-33.203,-29.297,-26.855,-18.066,0.000
1728632454.494,-11.719,-36.621,-24.414,-18.555,0.000
1728632454.498,4.395,-46.387,-18.066,-4.883,0.000
1728632454.502,2.930,-41.992,-20.020,-10.254,0.000
1728632454.506,-22.949,-25.879,-25.391,-13.672,0.000
1728632454.510,-32.715,-24.902,-19.043,-17.578,0.000
1728632454.514,-1.953,-24.414,-11.719,-12.207,0.000
1728632454.518,19.043,-15.625,-18.066,-5.859,0.000
1728632454.522,10.254,-29.785,-21.484,-7.324,0.000
1728632454.525,-18.555,-42.480,-20.020,-17.578,0.000
1728632454.529,-53.223,-40.039,-18.555,-43.945,0.000
1728632454.533,-33.203,-36.133,-16.113,-34.668,0.000
1728632454.537,8.789,-29.297,-16.602,-12.695,0.000
1728632454.541,1.953,-34.180,-21.973,-21.484,0.000
1728632454.545,-32.227,-44.922,-27.344,-29.785,0.000
1728632454.549,-62.988,-51.758,-20.996,-31.738,0.000
1728632454.553,-41.992,-41.992,-15.137,-23.926,0.000
1728632454.557,-6.836,-49.316,-9.277,-18.555,0.000
1728632454.561,-10.254,-59.082,-22.949,-28.809,0.000
1728632454.565,-57.129,-57.617,-36.621,-34.180,0.000
1728632454.568,-68.848,-59.082,-35.156,-48.828,0.000
1728632454.572,-41.504,-61.523,-35.156,-56.152,0.000
1728632454.576,-21.484,-62.988,-41.016,-47.852,0.000
1728632454.580,-30.762,-50.781,-39.062,-47.363,0.000
1728632454.584,-66.406,-51.758,-20.508,-51.270,0.000
1728632454.588,-60.059,-65.918,-19.531,-49.805,0.000
1728632454.592,-32.227,-62.012,-29.297,-30.273,0.000
1728632454.596,-23.438,-45.410,-41.504,-46.387,0.000
1728632454.600,-6.836,-51.758,-59.082,-41.016,0.000
1728632454.604,-44.922,-62.988,-33.691,-31.250,0.000
1728632454.607,-139.160,-45.410,-40.527,-82.031,0.000
1728632454.611,-95.215,-59.082,-35.156,-68.359,0.000
1728632454.615,-16.602,-72.754,1.465,-69.824,0.000
1728632454.619,-53.223,-60.547,8.301,-80.078,0.000
1728632454.623,-60.547,-46.387,-1.465,-54.199,0.000
1728632454.627,-46.387,-32.227,-89.355,-17.578,0.000
1728632454.631,-87.402,-38.574,-77.148,-61.035,0.000
1728632454.635,-24.902,-45.410,-54.688,-73.242,0.000
1728632454.639,-119.629,39.551,-2.930,-171.387,0.000
1728632454.643,-228.027,63.477,46.875,-206.543,0.000
1728632454.647,25.391,-109.375,-89.844,65.918,0.000
1728632454.650,84.961,-140.625,-128.906,126.953,0.000
1728632454.654,73.730,-139.648,-48.340,113.770,0.000
1728632454.658,167.969,-105.469,-120.605,172.852,0.000
1728632454.662,-104.980,-61.035,-37.109,-25.391,0.000
1728632454.666,-460.938,33.203,6.348,-355.957,0.000
1728632454.670,-191.895,-63.965,-38.574,-196.777,0.000
1728632454.674,-14.160,-104.492,-25.391,-80.078,0.000
1728632454.678,4.395,4.395,-66.406,-59.570,0.000
1728632454.682,215.332,-136.230,-116.211,201.172,0.000
1728632454.686,164.551,-137.207,-166.504,220.215,0.000
1728632454.690,19.531,-98.633,-43.457,35.645,0.000
1728632454.693,-64.941,-80.566,-19.043,-114.746,0.000
1728632454.697,-125.488,-87.891,-77.637,-101.074,0.000
1728632454.701,-15.625,-164.551,-43.457,-35.156,0.000
1728632454.705,20.508,-57.129,-147.461,32.227,0.000
1728632454.709,1.465,-48.340,-105.957,13.184,0.000
1728632454.713,67.383,-62.012,-78.613,106.934,0.000
1728632454.717,96.680,-62.012,-82.520,145.020,0.000
1728632454.721,39.551,-89.355,-6.348,54.199,0.000
1728632454.725,0.977,-94.727,-46.387,46.875,0.000
1728632454.729,17.090,-134.766,-92.773,79.102,0.000
1728632454.732,0.977,-90.820,-32.715,35.156,0.000
1728632454.736,76.172,-129.883,-19.531,12.207,0.000
1728632454.740,15.137,-75.195,-127.441,-8.301,0.000
1728632454.744,-15.625,-56.641,-101.074,62.988,0.000
1728632454.748,-4.883,-38.574,-92.285,61.035,0.000
1728632454.752,-22.949,-17.578,-92.285,-5.371,0.000
1728632454.756,43.457,-107.422,-23.926,14.160,0.000
1728632454.760,68.848,-112.793,-44.922,16.113,0.000
1728632454.764,73.242,-99.121,-64.453,76.172,0.000
1728632454.768,-21.484,-33.691,-72.266,20.996,0.000
1728632454.772,-36.133,-18.066,-57.129,-57.129,0.000
1728632454.775,82.520,-63.965,-36.133,26.367,0.000
1728632454.779,68.848,-102.051,-34.668,19.043,0.000
1728632454.783,16.602,-69.336,-75.195,-17.578,0.000
1728632454.787,21.484,-30.762,-86.426,58.105,0.000
1728632454.791,-4.883,-45.410,-32.715,44.434,0.000
1728632454.795,-15.625,-45.898,-2.441,-8.789,0.000
1728632454.799,79.590,-34.180,-38.086,12.695,0.000
1728632454.803,18.555,-45.410,-70.312,8.789,0.000
1728632454.807,-34.180,-69.824,-51.270,18.555,0.000
1728632454.811,-52.246,1.953,-56.152,-15.625,0.000
1728632454.815,-50.293,-2.930,-49.805,-13.672,0.000
1728632454.818,32.227,-71.777,-22.949,-16.602,0.000
1728632454.822,0.000,-37.598,-37.109,-38.574,0.000
1728632454.826,-3.418,-19.531,-53.223,3.418,0.000
1728632454.830,0.000,-24.902,-50.781,7.812,0.000
1728632454.834,-19.531,-6.836,-46.875,-12.695,0.000
1728632454.838,-2.441,-12.207,-37.109,-3.418,0.000
1728632454.842,11.719,-39.551,-32.715,1.465,0.000
1728632454.846,-35.156,-33.691,-35.156,-24.414,0.000
1728632454.850,-50.293,-34.668,-34.180,-28.320,0.000
1728632454.854,-14.160,-25.879,-27.344,-23.438,0.000
1728632454.857,0.977,-22.461,-28.809,-11.719,0.000
1728632454.861,-19.043,-21.484,-40.527,-13.672,0.000
1728632454.865,-52.734,-22.461,-39.551,-30.273,0.000
1728632454.869,-62.500,-23.438,-36.133,-32.715,0.000
1728632454.873,-37.109,-28.320,-29.785,-23.438,0.000
1728632454.877,-1.953,-28.320,-27.344,-20.996,0.000
1728632454.881,-6.348,-21.973,-26.367,-16.602,0.000
1728632454.885,-43.457,-23.438,-24.414,-19.531,0.000
1728632454.889,-48.340,-30.762,-29.297,-24.902,0.000
1728632454.893,-21.973,-19.043,-31.738,-25.391,0.000
1728632454.897,-5.371,-12.207,-30.762,-27.344,0.000
1728632454.900,-20.996,-18.066,-32.715,-21.484,0.000
1728632454.904,-42.480,-28.320,-29.297,-14.160,0.000
1728632454.908,-50.781,-18.555,-37.109,-23.926,0.000
1728632454.912,-38.086,-13.184,-36.133,-37.598,0.000
1728632454.916,-24.902,-28.809,-30.273,-27.832,0.000
1728632454.920,-29.297,-31.250,-36.621,-20.996,0.000
1728632454.924,-34.668,-28.809,-40.527,-31.250,0.000
1728632454.928,-46.387,-13.184,-36.133,-36.133,0.000
1728632454.932,-29.297,-1.953,-26.367,-27.832,0.000
1728632454.936,6.836,-0.977,-22.949,-12.695,0.000
1728632454.940,6.348,5.859,-18.555,-3.906,0.000
1728632454.943,-11.230,4.395,-7.324,-11.719,0.000
1728632454.947,0.000,1.465,-15.625,-25.879,0.000
1728632454.951,0.000,-5.371,-24.414,-18.555,0.000
1728632454.955,0.000,-12.207,-21.484,-14.160,0.000
1728632454.959,0.000,-14.648,-29.297,-18.555,0.000
1728632454.963,0.000,-28.320,-29.297,-33.203,0.000
1728632454.967,0.000,-39.062,-31.738,-37.109,0.000
1728632454.971,0.000,-24.414,-35.645,-45.410,0.000
1728632454.975,0.000,-19.531,-23.926,-40.039,0.000
1728632454.979,0.000,-29.785,-28.320,-29.785,0.000
1728632454.982,0.000,-31.250,-34.668,-32.227,0.000
1728632454.986,0.000,-31.738,-27.344,-31.250,0.000
1728632454.990,0.000,-29.785,-31.250,-40.039,0.000
1728632454.994,-41.016,-30.273,-29.785,-36.133,0.000
1728632454.998,-7.812,-38.574,-33.691,-33.691,0.000
1728632455.002,-26.855,-45.898,-41.504,-41.504,0.000
1728632455.006,-68.848,-52.734,-32.715,-45.898,0.000
1728632455.010,-53.223,-49.316,-29.785,-44.922,0.000
1728632455.014,-35.156,-46.387,-25.879,-30.273,0.000
1728632455.018,-32.227,-47.363,-17.578,-30.762,0.000
1728632455.022,-30.762,-22.949,-34.180,-34.180,0.000
1728632455.025,-55.664,-36.621,-34.668,-35.156,0.000
1728632455.029,-54.199,-44.434,-25.391,-43.945,0.000
1728632455.033,-29.297,-30.273,-28.320,-39.062,0.000
1728632455.037,-16.602,-29.297,-36.133,-36.133,0.000
1728632455.041,-35.156,-27.344,-38.574,-39.062,0.000
1728632455.045,-39.551,-32.227,-33.203,-37.598,0.000
1728632455.049,-17.090,-29.785,-32.227,-44.434,0.000
1728632455.053,-8.301,-24.902,-32.715,-40.527,0.000
1728632455.057,-6.836,-25.391,-29.297,-30.273,0.000
1728632455.061,-9.277,-28.320,-18.555,-20.020,0.000
1728632455.065,-20.996,-19.531,-19.043,-19.531,0.000
1728632455.068,-43.945,-14.648,-27.832,-36.133,0.000
1728632455.072,-41.016,-12.695,-30.273,-35.645,0.000
1728632455.076,-11.230,-14.648,-29.297,-17.090,0.000
1728632455.080,-15.625,-13.184,-33.691,-16.113,0.000
1728632455.084,-44.922,-24.902,-32.715,-18.555,0.000
1728632455.088,-55.176,-30.762,-32.715,-39.551,0.000
1728632455.092,-35.645,-21.484,-33.691,-52.734,0.000
1728632455.096,-13.672,-21.973,-24.902,-47.852,0.000
1728632455.100,-25.391,-20.996,-29.785,-45.410,0.000
1728632455.104,-47.363,-22.949,-30.762,-32.227,0.000
1728632455.107,-47.852,-21.973,-30.273,-39.551,0.000
1728632455.111,-40.527,-26.367,-35.645,-41.504,0.000
1728632455.115,-34.668,-33.691,-32.715,-28.320,0.000
1728632455.119,-22.949,-28.809,-27.832,-22.949,0.000
1728632455.123,-39.062,-30.273,-22.949,-35.645,0.000
1728632455.127,-62.988,-42.480,-22.949,-43.457,0.000
1728632455.131,-54.688,-35.645,-18.555,-36.621,0.000
1728632455.135,-37.598,-14.160,-12.695,-39.551,0.000
1728632455.139,-44.922,-8.789,-15.625,-32.227,0.000
1728632455.143,-57.617,-21.484,-22.949,-24.902,0.000
1728632455.147,-67.871,-18.555,-24.414,-46.875,0.000
1728632455.150,-70.801,-8.789,-21.973,-43.945,0.000
1728632455.154,-27.832,-7.812,-20.508,-28.320,0.000
1728632455.158,-7.812,-14.160,-21.484,-13.672,0.000
1728632455.162,-32.715,-14.648,-22.949,-20.508,0.000
1728632455.166,-37.598,-12.207,-16.602,-25.879,0.000
1728632455.170,-33.691,-19.531,-15.137,-10.254,0.000
1728632455.174,-14.160,-14.160,-18.555,-22.461,0.000
1728632455.178,1.465,-12.695,-23.438,-19.531,0.000
1728632455.182,-15.625,-14.160,-19.043,-15.625,0.000
1728632455.186,-30.762,-10.742,-18.555,-22.461,0.000
1728632455.190,-33.691,-11.230,-34.668,-29.785,0.000
1728632455.193,-24.414,-9.766,-32.715,-35.645,0.000
1728632455.197,-12.207,-3.418,-26.855,-33.203,0.000
1728632455.201,-10.742,-5.859,-26.367,-22.461,0.000
1728632455.205,-26.367,-8.789,-32.227,-20.996,0.000
1728632455.209,-39.062,-3.906,-31.738,-36.621,0.000
1728632455.213,-37.598,3.418,-24.414,-51.270,0.000
1728632455.217,-17.090,4.883,-27.344,-36.621,0.000
1728632455.221,0.977,4.395,-28.809,-5.859,0.000
1728632455.225,-40.039,0.488,-30.273,-13.184,0.000
1728632455.229,-51.758,-2.441,-35.156,-33.691,0.000
1728632455.232,-15.137,-5.371,-27.832,-26.367,0.000
1728632455.236,0.977,-10.254,-24.902,-10.742,0.000
1728632455.240,-24.902,-0.488,-30.762,-18.555,0.000
1728632455.244,-47.363,-2.930,-38.086,-31.250,0.000
1728632455.248,-53.711,-20.020,-38.086,-33.203,0.000
1728632455.252,-50.781,-20.020,-36.133,-34.180,0.000
1728632455.256,-32.227,-4.883,-35.156,-32.715,0.000
1728632455.260,-31.250,-5.859,-34.668,-28.809,0.000
1728632455.264,-40.039,-20.508,-40.527,-22.949,0.000
1728632455.268,-62.500,-22.461,-31.250,-40.527,0.000
1728632455.272,-62.012,-22.461,-23.438,-48.340,0.000
1728632455.275,-43.457,-32.227,-30.273,-34.180,0.000
1728632455.279,-46.387,-33.691,-35.645,-34.180,0.000
1728632455.283,-53.711,-36.621,-44.434,-37.109,0.000
1728632455.287,-62.988,-40.039,-41.504,-45.898,0.000
1728632455.291,-47.852,-29.297,-38.086,-44.922,0.000
1728632455.295,-23.926,-28.809,-33.691,-22.949,0.000
1728632455.299,-20.996,-32.715,-30.762,-18.066,0.000
1728632455.303,-46.875,-45.898,-40.039,-22.461,0.000
1728632455.307,-55.664,-59.082,-42.480,-20.508,0.000
1728632455.311,-41.016,-42.480,-36.133,-26.367,0.000
1728632455.315,-23.926,-32.227,-29.785,-32.227,0.000
1728632455.318,-16.113,-34.668,-33.691,-23.438,0.000
1728632455.322,-44.922,-31.738,-42.480,-20.020,0.000
1728632455.326,-69.824,-40.527,-38.086,-31.250,0.000
1728632455.330,-46.875,-36.133,-31.250,-35.156,0.000
1728632455.334,-10.742,-33.691,-26.855,-19.531,0.000
1728632455.338,-3.418,-38.574,-27.832,-4.395,0.000
1728632455.342,-8.301,-23.926,-39.551,-10.742,0.000
1728632455.346,-33.203,-24.902,-40.039,-24.902,0.000
1728632455.350,-43.457,-32.227,-34.668,-36.621,0.000
1728632455.354,-10.742,-23.926,-30.273,-36.621,0.000
1728632455.357,-3.418,-9.277,-24.414,-19.531,0.000
1728632455.361,-24.414,-8.789,-20.996,-22.949,0.000
1728632455.365,-42.480,-19.531,-32.227,-33.203,0.000
1728632455.369,0.000,-17.090,-44.434,-50.293,0.000
1728632455.373,0.000,-19.531,-33.691,-40.039,0.000
1728632455.377,0.000,-17.090,-29.297,-20.020,0.000
1728632455.381,0.000,-13.184,-41.016,-24.902,0.000
1728632455.385,0.000,-25.391,-38.574,-24.414,0.000
1728632455.389,0.000,-27.832,-27.832,-23.926,0.000
1728632455.393,0.000,-24.414,-21.973,-28.809,0.000
1728632455.397,0.000,-28.320,-20.996,-20.508,0.000
1728632455.400,0.000,-33.203,-20.020,-3.906,0.000
1728632455.404,0.000,-32.227,-21.973,-18.555,0.000
1728632455.408,0.000,-31.738,-24.902,-34.668,0.000
1728632455.412,0.000,-31.250,-21.484,-20.508,0.000
1728632455.416,-0.977,-24.414,-24.414,-20.508,0.000
1728632455.420,-7.324,-15.625,-24.902,-36.621,0.000
1728632455.424,-24.414,-23.926,-27.832,-41.016,0.000
1728632455.428,-40.527,-29.297,-41.504,-48.340,0.000
1728632455.432,-42.969,-26.855,-42.969,-53.711,0.000
1728632455.436,-26.855,-26.855,-47.852,-57.129,0.000
1728632455.440,-27.832,-32.715,-58.105,-64.941,0.000
1728632455.443,-47.852,-46.387,-54.199,-61.035,0.000
1728632455.447,-68.848,-34.668,-55.176,-58.105,0.000
1728632455.451,-44.434,-20.020,-50.293,-63.477,0.000
1728632455.455,-3.418,-15.625,-39.551,-62.988,0.000
1728632455.459,-16.113,-18.555,-44.434,-47.363,0.000
1728632455.463,-38.574,-25.391,-45.898,-29.297,0.000
1728632455.467,-48.340,-26.367,-41.016,-41.016,0.000
1728632455.471,-29.297,-23.438,-36.133,-39.062,0.000
1728632455.475,-0.488,-31.250,-33.691,-16.602,0.000
1728632455.479,-9.277,-31.250,-35.645,-11.719,0.000
1728632455.482,-35.645,-31.738,-37.598,-5.371,0.000
1728632455.486,-47.852,-33.691,-38.086,-13.184,0.000
1728632455.490,-32.715,-27.832,-41.016,-23.926,0.000
1728632455.494,-21.973,-29.297,-41.504,-20.020,0.000
1728632455.498,-10.254,-34.668,-34.668,-18.555,0.000
1728632455.502,-7.812,-30.762,-26.855,-5.859,0.000
1728632455.506,-26.855,-29.785,-25.879,-5.859,0.000
1728632455.510,-38.574,-34.668,-24.414,-25.391,0.000
1728632455.514,-15.137,-36.621,-17.578,-23.438,0.000
1728632455.518,-6.348,-25.391,-24.902,-33.203,0.000
1728632455.522,-25.391,-35.156,-33.203,-32.715,0.000
1728632455.525,-38.086,-50.293,-35.645,-26.855,0.000
1728632455.529,-40.039,-49.316,-39.062,-37.598,0.000
1728632455.533,-15.137,-54.199,-37.598,-16.113,0.000
1728632455.537,-6.836,-53.711,-35.645,-5.371,0.000
1728632455.541,-27.832,-48.340,-32.227,-22.949,0.000
1728632455.545,-44.922,-47.363,-29.297,-29.297,0.000
1728632455.549,-52.734,-42.480,-34.668,-36.133,0.000
1728632455.553,-39.551,-34.668,-44.922,-37.109,0.000
1728632455.557,-33.203,-38.574,-39.551,-29.785,0.000
1728632455.561,-53.223,-46.875,-41.992,-27.832,0.000
1728632455.565,-79.590,-53.223,-46.387,-33.203,0.000
1728632455.568,-63.477,-56.641,-41.992,-40.039,0.000
1728632455.572,-34.668,-51.758,-40.039,-42.969,0.000
1728632455.576,-27.832,-46.875,-38.574,-40.527,0.000
1728632455.580,-30.762,-36.621,-39.062,-40.039,0.000
1728632455.584,-42.969,-24.902,-41.992,-43.945,0.000
1728632455.588,-50.781,-36.621,-38.086,-54.688,0.000
1728632455.592,-32.715,-45.410,-39.062,-48.340,0.000
1728632455.596,-11.230,-35.156,-38.574,-36.621,0.000
1728632455.600,-22.949,-27.832,-32.715,-26.367,0.000
1728632455.604,-39.062,-30.762,-35.645,-27.832,0.000
1728632455.607,-45.410,-32.715,-38.086,-49.805,0.000
1728632455.611,-37.109,-25.391,-40.039,-49.805,0.000
1728632455.615,-6.836,-10.742,-40.527,-36.621,0.000
1728632455.619,-6.348,-16.602,-32.715,-23.926,0.000
1728632455.623,-28.809,-24.902,-35.645,-20.996,0.000
1728632455.627,-41.992,-29.297,-41.992,-34.668,0.000
1728632455.631,-26.367,-18.555,-30.273,-30.762,0.000
1728632455.635,-16.113,-9.766,-21.973,-13.184,0.000
1728632455.639,-17.578,-25.879,-29.785,-21.484,0.000
1728632455.643,-35.156,-30.273,-30.273,-33.203,0.000
1728632455.647,-52.734,-23.926,-29.297,-27.832,0.000
1728632455.650,0.000,-28.809,-28.320,-30.762,0.000
1728632455.654,0.000,-27.344,-21.973,-30.273,0.000
1728632455.658,0.000,-30.762,-20.508,-22.461,0.000
1728632455.662,0.000,-39.551,-25.391,-31.250,0.000
1728632455.666,0.000,-32.227,-34.668,-39.551,0.000
1728632455.670,0.000,-26.855,-35.156,-35.645,0.000
1728632455.674,0.000,-29.785,-27.832,-34.180,0.000
1728632455.678,0.000,-27.832,-26.855,-23.926,0.000
1728632455.682,0.000,-32.715,-29.297,-18.066,0.000
1728632455.686,0.000,-42.969,-32.715,-28.809,0.000
1728632455.690,0.000,-37.109,-29.297,-46.875,0.000
1728632455.693,0.000,-28.809,-23.438,-48.828,0.000
1728632455.697,-37.598,-43.945,-28.320,-49.316,0.000
1728632455.701,-51.758,-57.129,-32.715,-50.781,0.000
1728632455.705,-54.688,-52.734,-28.320,-40.527,0.000
1728632455.709,-54.688,-42.480,-22.949,-41.992,0.000
1728632455.713,-30.273,-36.133,-25.879,-35.156,0.000
1728632455.717,-11.230,-27.832,-29.297,-26.855,0.000
1728632455.721,-25.879,-23.438,-30.273,-21.973,0.000
1728632455.725,-47.852,-25.391,-32.715,-20.508,0.000
1728632455.729,-47.852,-18.066,-32.715,-34.668,0.000
1728632455.732,-23.926,-7.812,-34.180,-44.922,0.000
1728632455.736,-13.672,-5.859,-43.457,-38.574,0.000
1728632455.740,-15.137,-20.508,-43.457,-20.996,0.000
1728632455.744,-28.320,-29.785,-42.969,-14.648,0.000
1728632455.748,-43.945,-11.230,-44.922,-27.344,0.000
1728632455.752,-21.484,0.000,-36.133,-24.902,0.000
1728632455.756,3.418,-15.625,-32.715,-18.555,0.000
1728632455.760,-6.348,-20.508,-36.621,-21.973,0.000
1728632455.764,-38.086,-15.625,-41.016,-36.621,0.000
1728632455.768,-49.805,-17.090,-46.387,-49.316,0.000
1728632455.772,-19.043,-11.719,-42.969,-35.156,0.000
1728632455.775,3.906,-15.137,-37.109,-12.695,0.000
1728632455.779,-12.207,-18.066,-39.062,-10.254,0.000
1728632455.783,-36.133,-25.391,-36.621,-19.531,0.000
1728632455.787,-41.016,-34.180,-38.086,-30.273,0.000
1728632455.791,-27.344,-41.504,-33.691,-39.062,0.000
1728632455.795,-16.113,-34.668,-27.832,-38.086,0.000
1728632455.799,-18.555,-27.344,-30.273,-32.715,0.000
1728632455.803,-34.180,-34.180,-26.367,-24.902,0.000
1728632455.807,-47.363,-37.109,-25.391,-22.949,0.000
1728632455.811,-37.109,-36.621,-19.043,-19.531,0.000
1728632455.815,-9.277,-33.203,-18.066,-16.113,0.000
1728632455.818,-3.906,-34.668,-21.973,-11.719,0.000
1728632455.822,-27.344,-38.086,-18.066,-12.207,0.000
1728632455.826,-51.758,-45.410,-26.367,-27.832,0.000
1728632455.830,-44.922,-46.387,-34.180,-32.715,0.000
1728632455.834,-15.137,-34.668,-33.691,-19.531,0.000
1728632455.838,-8.789,-42.480,-24.414,-21.973,0.000
1728632455.842,-22.949,-45.410,-20.508,-26.855,0.000
1728632455.846,-43.945,-44.434,-30.273,-28.809,0.000
1728632455.850,-48.340,-52.734,-35.645,-42.480,0.000
1728632455.854,-21.484,-47.852,-33.691,-40.039,0.000
1728632455.858,-14.160,-42.969,-36.621,-26.367,0.000
1728632455.861,-38.086,-42.969,-38.574,-27.344,0.000
1728632455.865,-46.387,-51.758,-41.504,-33.203,0.000
1728632455.869,-34.668,-44.922,-45.898,-34.180,0.000
1728632455.873,-12.695,-39.551,-40.039,-28.320,0.000
1728632455.877,-2.930,-46.875,-37.109,-24.414,0.000
1728632455.881,-8.789,-39.551,-39.551,-26.367,0.000
1728632455.885,-30.762,-38.086,-41.992,-25.879,0.000
1728632455.889,-35.645,-45.898,-42.480,-34.180,0.000
1728632455.893,-19.043,-41.504,-41.992,-29.297,0.000
1728632455.897,-17.090,-31.250,-43.457,-28.320,0.000
1728632455.900,-24.414,-32.227,-41.504,-29.785,0.000
1728632455.904,-36.133,-44.434,-39.062,-35.645,0.000
1728632455.908,-43.457,-45.410,-37.598,-38.086,0.000
1728632455.912,-13.184,-25.879,-28.320,-22.461,0.000
1728632455.916,2.930,-14.648,-29.297,-22.461,0.000
1728632455.920,-22.461,-25.391,-43.945,-25.879,0.000
1728632455.924,-34.180,-45.898,-51.758,-23.926,0.000
1728632455.928,-39.551,-45.410,-52.734,-30.273,0.000
1728632455.932,-28.320,-24.902,-49.316,-26.855,0.000
1728632455.936,-9.277,-23.438,-40.039,-18.066,0.000
1728632455.940,-29.297,-33.203,-39.062,-20.508,0.000
1728632455.943,-50.293,-41.992,-38.086,-25.391,0.000
1728632455.947,-49.805,-57.129,-35.645,-36.621,0.000
1728632455.951,-30.273,-52.246,-34.180,-30.762,0.000
1728632455.955,-14.648,-46.875,-36.621,-21.973,0.000
1728632455.959,-20.508,-47.852,-37.109,-23.438,0.000
1728632455.963,-38.574,-44.922,-38.086,-33.203,0.000
1728632455.967,-46.387,-47.852,-42.969,-43.945,0.000
1728632455.971,-32.227,-52.246,-41.992,-36.621,0.000
1728632455.975,-24.902,-47.363,-38.574,-42.969,0.000
1728632455.979,-32.227,-45.898,-36.621,-47.852,0.000
1728632455.983,-53.223,-49.316,-39.551,-24.902,0.000
1728632455.986,-70.312,-53.223,-45.410,-34.668,0.000
1728632455.990,-46.875,-52.734,-38.086,-42.969,0.000
1728632455.994,-22.949,-50.293,-27.344,-24.414,0.000
1728632455.998,-19.531,-56.641,-26.367,-9.766,0.000
1728632456.002,-40.527,-56.152,-28.320,-12.695,0.000
1728632456.006,-62.988,-55.176,-39.062,-33.691,0.000
1728632456.010,-47.852,-50.293,-45.410,-27.344,0.000
1728632456.014,-30.762,-35.645,-42.969,-17.578,0.000
1728632456.018,-35.156,-22.949,-43.945,-20.508,0.000
1728632456.022,-51.758,-22.949,-46.875,-27.832,0.000
1728632456.025,-64.453,-37.598,-46.875,-40.039,0.000
1728632456.029,-62.988,-35.645,-41.016,-43.945,0.000
1728632456.033,-30.762,-15.625,-38.574,-32.227,0.000
1728632456.037,-8.301,-12.207,-40.039,-27.832,0.000
1728632456.041,-29.297,-28.809,-44.922,-38.086,0.000
1728632456.045,-55.664,-31.250,-49.805,-44.434,0.000
1728632456.049,-31.738,-7.324,-41.016,-39.551,0.000
1728632456.053,2.930,4.883,-33.691,-28.809,0.000
1728632456.057,4.883,-2.441,-39.062,-22.461,0.000
1728632456.061,-20.020,-11.230,-40.527,-32.227,0.000
1728632456.065,-35.156,-14.160,-37.598,-50.781,0.000
1728632456.068,-21.973,-10.254,-36.621,-40.527,0.000
1728632456.072,3.418,-7.324,-31.738,-21.484,0.000
1728632456.076,9.277,-6.836,-33.691,-19.043,0.000
1728632456.080,-9.277,-11.230,-34.668,-30.762,0.000
1728632456.084,-37.109,-23.926,-38.574,-37.109,0.000
1728632456.088,-51.758,-35.645,-39.062,-27.344,0.000
1728632456.092,-14.648,-31.738,-31.250,-28.809,0.000
1728632456.096,-3.906,-14.160,-34.180,-37.109,0.000
1728632456.100,-34.180,-8.789,-34.180,-31.738,0.000
1728632456.104,-52.734,-19.531,-36.621,-30.273,0.000
1728632456.108,-62.500,-19.531,-39.551,-41.992,0.000
1728632456.111,-49.316,-10.742,-33.691,-43.457,0.000
1728632456.115,-25.391,-23.438,-33.691,-39.062,0.000
1728632456.119,-26.855,-35.645,-40.527,-38.086,0.000
1728632456.123,-60.547,-40.527,-41.992,-39.551,0.000
1728632456.127,-65.918,-41.504,-41.992,-45.898,0.000
1728632456.131,-31.250,-32.715,-36.133,-31.250,0.000
1728632456.135,-11.719,-20.020,-30.762,-36.621,0.000
1728632456.139,-28.809,-22.461,-36.621,-41.016,0.000
1728632456.143,-59.570,-30.762,-41.016,-29.297,0.000
1728632456.147,-59.570,-25.879,-41.504,-40.527,0.000
1728632456.150,-27.832,-26.855,-41.016,-40.039,0.000
1728632456.154,-11.719,-25.879,-42.969,-44.434,0.000
1728632456.158,-19.531,-27.344,-47.852,-44.434,0.000
1728632456.162,-25.879,-34.180,-57.129,-44.922,0.000
1728632456.166,-41.016,-39.551,-59.570,-48.340,0.000
1728632456.170,-36.621,-38.086,-54.688,-38.574,0.000
1728632456.174,-17.090,-37.598,-53.223,-26.367,0.000
1728632456.178,-21.973,-37.598,-51.270,-24.414,0.000
1728632456.182,-37.109,-40.039,-54.199,-33.691,0.000
1728632456.186,-43.457,-33.691,-61.035,-41.992,0.000
1728632456.190,-27.344,-22.461,-57.129,-41.016,0.000
1728632456.193,3.418,-19.043,-52.246,-20.508,0.000
1728632456.197,0.000,-23.926,-44.922,-20.996,0.000
1728632456.201,-29.297,-25.391,-38.574,-32.715,0.000
1728632456.205,-52.246,-25.391,-44.434,-34.180,0.000
1728632456.209,-41.016,-19.043,-41.504,-34.668,0.000
1728632456.213,-6.836,-19.531,-30.762,-28.809,0.000
1728632456.217,2.930,-31.250,-31.250,-27.832,0.000
1728632456.221,-15.625,-35.645,-40.039,-21.973,0.000
1728632456.225,-43.457,-36.621,-41.504,-34.668,0.000
1728632456.229,-40.527,-29.297,-40.527,-40.039,0.000
1728632456.233,-11.719,-31.738,-38.086,-27.344,0.000
1728632456.236,-4.395,-38.574,-34.180,-21.973,0.000
1728632456.240,-19.043,-44.922,-31.250,-7.812,0.000
1728632456.244,-52.734,-50.781,-35.156,-23.926,0.000
1728632456.248,-57.129,-47.852,-33.691,-47.852,0.000
1728632456.252,-22.461,-37.109,-26.367,-30.273,0.000
1728632456.256,-21.484,-39.551,-27.344,-14.160,0.000
1728632456.260,-40.039,-51.270,-32.227,-20.020,0.000
1728632456.264,-52.734,-56.641,-34.180,-39.551,0.000
1728632456.268,-54.688,-60.059,-30.762,-41.504,0.000
1728632456.272,-37.598,-46.387,-24.414,-32.227,0.000
1728632456.275,-28.809,-39.551,-26.367,-24.414,0.000
1728632456.279,-45.410,-45.410,-40.039,-19.531,0.000
1728632456.283,-54.688,-47.852,-45.410,-20.020,0.000
1728632456.287,-51.758,-51.758,-51.270,-41.016,0.000
1728632456.291,-23.438,-38.574,-52.734,-49.805,0.000
1728632456.295,-12.207,-33.203,-50.293,-29.297,0.000
1728632456.299,-30.762,-42.480,-56.152,-21.484,0.000
1728632456.303,-44.922,-42.480,-56.152,-22.949,0.000
1728632456.307,-48.828,-46.387,-48.828,-25.391,0.000
1728632456.311,-14.160,-36.621,-42.969,-21.973,0.000
1728632456.315,18.066,-17.090,-41.016,-10.254,0.000
1728632456.318,7.324,-7.812,-42.969,-12.207,0.000
1728632456.322,-33.691,-14.648,-44.434,-16.602,0.000
1728632456.326,-35.645,-19.043,-44.434,-15.625,0.000
1728632456.330,2.930,-10.254,-43.945,-14.160,0.000
1728632456.334,17.578,-9.766,-37.109,-4.395,0.000
1728632456.338,3.906,-15.137,-35.645,0.488,0.000
1728632456.342,-21.484,-20.508,-39.062,-19.043,0.000
1728632456.346,-37.598,-21.973,-45.410,-31.738,0.000
1728632456.350,-17.578,-12.695,-47.363,-23.926,0.000
1728632456.354,12.207,-17.578,-33.203,-3.418,0.000
1728632456.358,8.789,-17.578,-31.738,6.348,0.000
1728632456.361,-15.137,-16.602,-38.086,-16.602,0.000
1728632456.365,-31.738,-20.508,-33.691,-21.484,0.000
1728632456.369,-20.020,-28.809,-26.855,-14.160,0.000
1728632456.373,6.836,-35.156,-27.344,-14.160,0.000
1728632456.377,-2.441,-33.203,-32.715,-18.555,0.000
1728632456.381,-17.578,-37.598,-33.691,-21.484,0.000
1728632456.385,-20.508,-38.574,-28.809,-29.785,0.000
1728632456.389,-41.016,-41.016,-27.344,-24.414,0.000
1728632456.393,-30.273,-44.434,-26.367,-11.719,0.000
1728632456.397,-7.324,-51.270,-22.949,-16.602,0.000
1728632456.400,-21.973,-48.340,-23.438,-16.602,0.000
1728632456.404,-48.340,-48.828,-25.879,-28.320,0.000
1728632456.408,-47.852,-55.664,-32.227,-41.016,0.000
1728632456.412,-23.438,-55.176,-33.203,-25.391,0.000
1728632456.416,-22.461,-48.828,-33.691,-29.297,0.000
1728632456.420,-41.992,-46.387,-36.133,-33.691,0.000
1728632456.424,-54.199,-56.152,-40.039,-33.203,0.000
1728632456.428,-48.828,-48.340,-41.504,-40.039,0.000
1728632456.432,-13.672,-37.598,-39.551,-28.809,0.000
1728632456.436,0.488,-46.875,-39.062,-17.090,0.000
1728632456.440,-19.043,-45.410,-41.016,-19.043,0.000
1728632456.443,-43.945,-38.574,-40.039,-27.344,0.000
1728632456.447,-40.527,-31.738,-32.715,-26.855,0.000
1728632456.451,-8.789,-33.203,-27.344,-12.207,0.000
1728632456.455,7.324,-28.809,-24.902,-7.324,0.000
1728632456.459,1.953,-18.066,-33.691,-15.137,0.000
1728632456.463,-16.113,-32.227,-38.574,-14.160,0.000
1728632456.467,-22.461,-28.809,-42.969,-15.625,0.000
1728632456.471,0.000,-10.742,-44.434,-9.766,0.000
1728632456.475,20.508,-4.883,-45.898,0.000,0.000
1728632456.479,21.484,-16.113,-55.664,1.953,0.000
1728632456.483,-11.719,-26.855,-56.152,-7.324,0.000
1728632456.486,-29.297,-18.066,-47.363,-17.090,0.000
1728632456.490,-0.488,-13.672,-42.969,-13.184,0.000
1728632456.494,11.719,-12.695,-40.527,-4.395,0.000
1728632456.498,-3.418,-9.766,-44.434,-1.465,0.000
1728632456.502,-16.602,-17.090,-41.992,-2.930,0.000
1728632456.506,-23.438,-13.184,-32.227,-8.789,0.000
1728632456.510,-14.648,-5.371,-21.973,-3.906,0.000
1728632456.514,1.953,-15.137,-19.043,10.254,0.000
1728632456.518,-11.719,-19.531,-26.367,0.000,0.000
1728632456.522,-29.785,-22.949,-27.832,-2.930,0.000
1728632456.525,-41.016,-29.785,-33.691,-25.391,0.000
1728632456.529,-41.504,-31.250,-31.738,-42.969,0.000
1728632456.533,-22.461,-32.715,-27.344,-30.762,0.000
1728632456.537,-33.203,-42.480,-37.109,-29.297,0.000
1728632456.541,0.000,-46.875,-37.109,-31.738,0.000
1728632456.545,0.000,-42.969,-33.691,-38.574,0.000
1728632456.549,0.000,-45.410,-35.156,-44.922,0.000
1728632456.553,0.000,-46.875,-29.297,-33.691,0.000
1728632456.557,0.000,-44.922,-26.367,-20.508,0.000
1728632456.561,0.000,-45.410,-30.273,-24.902,0.000
1728632456.565,0.000,-53.711,-37.109,-37.109,0.000
1728632456.568,0.000,-67.383,-36.133,-45.410,0.000
1728632456.572,0.000,-63.477,-29.785,-43.457,0.000
1728632456.576,0.000,-39.551,-33.203,-29.785,0.000
1728632456.580,0.000,-44.434,-43.457,-33.691,0.000
1728632456.584,0.000,-59.082,-49.805,-55.176,0.000
1728632456.588,-52.246,-51.758,-41.504,-48.340,0.000
1728632456.592,-21.973,-45.898,-41.504,-33.691,0.000
1728632456.596,-9.277,-42.480,-46.387,-27.832,0.000
1728632456.600,-31.250,-50.781,-49.316,-30.273,0.000
1728632456.604,-52.734,-57.129,-57.129,-40.039,0.000
1728632456.608,-39.062,-43.945,-58.594,-45.898,0.000
1728632456.611,-10.742,-38.574,-53.711,-34.668,0.000
1728632456.615,-6.836,-40.039,-53.711,-32.715,0.000
1728632456.619,-29.297,-36.133,-56.641,-31.250,0.000
1728632456.623,-57.617,-39.062,-55.176,-30.273,0.000
1728632456.627,-56.152,-39.551,-52.246,-39.551,0.000
1728632456.631,-21.484,-30.273,-44.434,-28.809,0.000
1728632456.635,-4.395,-16.113,-28.809,-15.625,0.000
1728632456.639,-11.230,-18.555,-32.227,-5.371,0.000
1728632456.643,-30.762,-31.738,-45.898,-24.414,0.000
1728632456.647,-41.016,-25.879,-39.062,-36.621,0.000
1728632456.651,-23.438,-13.672,-30.273,-17.578,0.000
1728632456.654,-3.418,-13.184,-31.738,-17.090,0.000
1728632456.658,-18.555,-23.926,-39.062,-17.578,0.000
1728632456.662,-59.082,-33.691,-39.551,-20.996,0.000
1728632456.666,-56.152,-33.691,-33.203,-32.227,0.000
1728632456.670,-32.715,-29.297,-34.668,-25.879,0.000
1728632456.674,-27.832,-33.691,-33.691,-25.391,0.000
1728632456.678,-28.809,-45.898,-35.156,-18.555,0.000
1728632456.682,-53.223,-46.387,-36.621,-26.367,0.000
1728632456.686,-66.406,-49.805,-35.156,-42.969,0.000
1728632456.690,-42.969,-48.340,-29.785,-25.391,0.000
1728632456.693,-20.996,-41.992,-20.996,-9.766,0.000
1728632456.697,-26.855,-46.875,-27.344,-20.996,0.000
1728632456.701,-52.734,-53.223,-39.551,-39.062,0.000
1728632456.705,-60.547,-51.758,-37.598,-45.898,0.000
1728632456.709,-44.922,-41.504,-32.715,-41.504,0.000
1728632456.713,-20.996,-31.738,-36.133,-30.273,0.000
1728632456.717,-13.184,-28.809,-38.574,-24.902,0.000
1728632456.721,-29.785,-35.156,-47.852,-25.879,0.000
1728632456.725,-42.480,-37.109,-46.875,-27.832,0.000
1728632456.729,0.000,-25.391,-35.645,-11.719,0.000
1728632456.733,0.000,-21.484,-31.738,-6.836,0.000
1728632456.736,0.000,-31.738,-29.785,-6.836,0.000
1728632456.740,0.000,-29.297,-35.156,-6.348,0.000
1728632456.744,0.000,-20.020,-40.527,-9.277,0.000
1728632456.748,0.000,-18.555,-37.109,-14.160,0.000
1728632456.752,0.000,-27.344,-33.691,-12.207,0.000
1728632456.756,0.000,-20.508,-27.832,-6.348,0.000
1728632456.760,0.000,0.000,-28.320,-11.230,0.000
1728632456.764,0.000,-15.625,-30.273,-12.207,0.000
1728632456.768,0.000,-14.160,-22.949,-11.719,0.000
1728632456.772,0.000,3.906,-22.949,-15.137,0.000
1728632456.776,5.859,0.488,-21.484,-16.113,0.000
1728632456.779,-11.719,-6.348,-26.855,-14.160,0.000
1728632456.783,-23.926,-12.695,-34.668,-23.438,0.000
1728632456.787,-31.250,-19.043,-24.902,-26.367,0.000
1728632456.791,-14.648,-16.113,-20.508,-16.602,0.000
1728632456.795,-10.742,-25.391,-19.531,-9.277,0.000
1728632456.799,-29.297,-28.320,-20.508,-6.836,0.000
1728632456.803,-42.480,-27.832,-25.391,-14.648,0.000
1728632456.807,-50.293,-34.180,-23.926,-30.762,0.000
1728632456.811,-22.461,-25.879,-20.020,-22.461,0.000
1728632456.815,2.930,-26.367,-19.531,-17.090,0.000
1728632456.818,-30.273,-33.203,-24.902,-35.645,0.000
1728632456.822,-55.664,-43.945,-32.227,-35.645,0.000
1728632456.826,-51.270,-58.105,-30.273,-33.203,0.000
1728632456.830,-30.762,-53.711,-17.578,-34.668,0.000
1728632456.834,-15.625,-40.039,-21.484,-24.902,0.000
1728632456.838,-25.391,-46.875,-25.391,-7.812,0.000
1728632456.842,-42.969,-47.852,-22.949,-13.184,0.000
1728632456.846,-46.875,-39.062,-33.203,-42.480,0.000
1728632456.850,-33.203,-37.598,-31.250,-28.320,0.000
1728632456.854,-8.301,-32.715,-33.691,-7.324,0.000
1728632456.858,-18.066,-33.203,-42.480,-19.531,0.000
1728632456.861,-53.223,-30.273,-34.180,-20.020,0.000
1728632456.865,-65.430,-19.531,-39.062,-33.203,0.000
1728632456.869,-31.250,-19.043,-43.945,-47.363,0.000
1728632456.873,-40.039,-16.602,-30.273,-48.340,0.000
1728632456.877,-56.152,-7.324,-29.785,-52.246,0.000
1728632456.881,-54.199,4.395,-58.594,-67.383,0.000
1728632456.885,-91.797,-16.602,-80.566,-73.242,0.000
1728632456.889,-39.062,-48.340,-15.625,-38.086,0.000
1728632456.893,-8.301,-38.086,-5.859,-52.734,0.000
1728632456.897,-38.086,-20.508,-62.012,-83.984,0.000
1728632456.901,-51.758,1.953,-30.273,-47.852,0.000
1728632456.904,-20.996,-46.387,-49.316,9.766,0.000
1728632456.908,36.621,-49.316,-84.473,34.180,0.000
1728632456.912,-29.297,-4.395,-8.789,-61.523,0.000
1728632456.916,-171.387,74.219,-4.883,-205.566,0.000
1728632456.920,-154.297,40.527,-33.691,-133.301,0.000
1728632456.924,-136.230,-44.922,84.473,-144.043,0.000
1728632456.928,-61.523,-80.078,33.203,-124.023,0.000
1728632456.932,75.195,-91.797,-125.977,14.648,0.000
1728632456.936,61.035,-79.102,-119.141,36.621,0.000
1728632456.940,22.949,3.906,-84.473,101.074,0.000
1728632456.943,-83.008,11.719,-67.383,17.578,0.000
1728632456.947,-101.074,-61.035,-48.828,-117.188,0.000
1728632456.951,78.125,-53.711,-135.742,18.066,0.000
1728632456.955,175.781,-118.652,-123.535,151.367,0.000
1728632456.959,-149.414,-81.055,-20.020,-111.816,0.000
1728632456.963,-198.730,-67.871,-28.809,-154.785,0.000
1728632456.967,-7.812,-140.137,-24.902,-21.484,0.000
1728632456.971,-10.254,-120.117,-7.812,-32.715,0.000
1728632456.975,68.848,18.066,-136.230,-15.137,0.000
1728632456.979,95.703,-35.645,-164.062,101.074,0.000
1728632456.983,55.176,-93.750,-119.629,130.371,0.000
1728632456.986,-28.320,-75.684,-112.793,102.539,0.000
1728632456.990,-26.367,-125.000,-73.242,79.590,0.000
1728632456.994,73.242,-58.594,-94.727,116.699,0.000
1728632456.998,4.883,-30.762,-31.250,33.691,0.000
1728632457.002,21.973,-61.523,-58.594,4.395,0.000
1728632457.006,-11.230,-55.176,6.348,-19.043,0.000
1728632457.010,-12.207,-79.102,18.555,-34.668,0.000
1728632457.014,60.059,-7.812,-128.418,64.941,0.000
1728632457.018,24.902,-4.883,-125.977,116.211,0.000
1728632457.022,52.246,-50.781,-104.980,95.703,0.000
1728632457.026,31.738,-53.711,-106.445,5.859,0.000
1728632457.029,49.316,-73.730,-91.797,59.570,0.000
1728632457.033,39.551,-80.078,-56.641,64.941,0.000
1728632457.037,-7.812,-36.133,-50.293,-18.555,0.000
1728632457.041,1.465,-32.227,-52.246,-25.879,0.000
1728632457.045,-18.555,-61.035,-72.754,21.973,0.000
1728632457.049,-40.527,-39.062,-76.172,16.113,0.000
1728632457.053,42.480,-48.340,-23.926,-2.441,0.000
1728632457.057,48.828,-39.062,-8.301,-3.906,0.000
1728632457.061,-1.465,-36.621,-20.996,-2.441,0.000
1728632457.065,-11.230,-44.922,-72.266,13.672,0.000
1728632457.068,-14.648,-22.461,-51.270,7.324,0.000
1728632457.072,-5.859,-42.480,-9.277,-3.418,0.000
1728632457.076,10.254,-27.832,-58.594,7.324,0.000
1728632457.080,-27.832,-6.348,-64.453,-9.277,0.000
1728632457.084,-32.715,-57.129,-20.020,-9.277,0.000
1728632457.088,-6.836,-57.617,-12.207,-26.367,0.000
1728632457.092,9.277,-51.270,-26.367,-15.625,0.000
1728632457.096,1.465,-33.691,-38.574,20.508,0.000
1728632457.100,-28.320,-48.340,-35.645,0.000,0.000
1728632457.104,-35.156,-54.688,-35.156,-21.973,0.000
1728632457.108,-39.062,-47.363,-31.250,-32.227,0.000
1728632457.111,-17.090,-40.527,-34.180,-51.270,0.000
1728632457.115,-8.301,-26.855,-38.086,-46.875,0.000
1728632457.119,-26.855,-32.227,-43.945,-27.344,0.000
1728632457.123,-55.664,-52.246,-49.805,-42.969,0.000
1728632457.127,-48.340,-39.551,-42.480,-40.039,0.000
1728632457.131,-12.695,-25.391,-39.062,-28.320,0.000
1728632457.135,-15.137,-26.855,-42.480,-28.809,0.000
1728632457.139,-28.809,-30.762,-41.504,-24.902,0.000
1728632457.143,-39.551,-31.738,-42.480,-20.996,0.000
1728632457.147,-39.551,-24.414,-46.387,-21.484,0.000
1728632457.151,-1.953,-14.648,-41.504,-17.578,0.000
1728632457.154,4.883,-9.766,-33.203,-16.602,0.000
1728632457.158,-18.066,-6.836,-40.039,-18.555,0.000
1728632457.162,-31.738,-8.789,-45.410,-30.762,0.000
1728632457.166,-31.738,-11.230,-48.828,-34.668,0.000
1728632457.170,-5.371,-7.812,-50.293,-27.344,0.000
1728632457.174,8.301,-11.230,-40.527,-26.367,0.000
1728632457.178,-20.996,-16.602,-41.504,-31.250,0.000
1728632457.182,-46.387,-21.973,-47.852,-41.016,0.000
1728632457.186,-43.945,-24.414,-41.016,-37.109,0.000
1728632457.190,-32.715,-8.301,-41.992,-30.762,0.000
1728632457.193,-21.973,-8.789,-43.457,-24.902,0.000
1728632457.197,-19.531,-24.902,0.000,-17.578,0.000
1728632457.201,-27.344,-31.250,0.000,-22.461,0.000
1728632457.205,-45.898,-32.715,0.000,-37.109,0.000
1728632457.209,-37.109,-21.973,0.000,-42.969,0.000
1728632457.213,-9.277,-23.926,0.000,-29.785,0.000
1728632457.217,-15.625,-31.250,0.000,-23.926,0.000
1728632457.221,-47.363,-26.367,0.000,-35.645,0.000
1728632457.225,-56.641,-23.438,0.000,-37.598,0.000
1728632457.229,-31.250,-34.668,0.000,-29.785,0.000
1728632457.233,-18.555,-43.457,0.000,-27.344,0.000
1728632457.236,-32.227,-46.387,0.000,-38.086,0.000
1728632457.240,-47.363,-48.828,0.000,-38.574,0.000
1728632457.244,-64.453,-48.340,-27.344,-39.062,0.000
1728632457.248,-67.383,-41.504,-23.438,-59.570,0.000
1728632457.252,-40.039,-38.574,-18.066,-44.922,0.000
1728632457.256,-41.016,-52.246,-16.113,-24.414,0.000
1728632457.260,-58.105,-53.711,-23.438,-41.016,0.000
1728632457.264,-57.617,-42.969,-31.250,-53.223,0.000
1728632457.268,-49.316,-36.133,-30.273,-43.945,0.000
1728632457.272,-22.949,-32.227,-31.250,-38.086,0.000
1728632457.276,-15.625,-27.832,-31.738,-34.180,0.000
1728632457.279,-44.434,-24.902,-30.273,-31.250,0.000
1728632457.283,-40.039,-33.203,-28.809,-38.086,0.000
1728632457.287,-23.438,-34.180,-26.855,-47.363,0.000
1728632457.291,-14.648,-34.180,-29.297,-30.762,0.000
1728632457.295,-17.578,-33.203,-35.645,-32.715,0.000
1728632457.299,-25.879,-31.738,-38.086,-45.898,0.000
1728632457.303,-39.062,-30.762,-38.086,-37.109,0.000
1728632457.307,-40.039,-22.949,-33.203,-37.109,0.000
1728632457.311,-5.859,-21.484,-19.531,-20.996,0.000
1728632457.315,0.000,-20.020,-26.367,-22.461,0.000
1728632457.318,-20.996,-25.391,-31.738,-34.180,0.000
1728632457.322,-46.875,-33.203,-24.902,-44.434,0.000
1728632457.326,-43.457,-26.367,-26.367,-51.758,0.000
1728632457.330,-20.508,-29.785,-29.785,-37.109,0.000
1728632457.334,-10.254,-40.039,-31.738,-32.715,0.000
1728632457.338,-28.320,-35.645,-31.738,-35.645,0.000
1728632457.342,-50.293,-42.969,-28.320,-30.273,0.000
1728632457.346,-56.152,-59.082,-27.344,-29.785,0.000
1728632457.350,-40.039,-62.500,-27.832,-32.227,0.000
1728632457.354,-20.996,-59.570,-23.926,-27.832,0.000
1728632457.358,-29.785,-58.105,-27.832,-23.926,0.000
1728632457.361,-49.316,-60.059,-32.715,-20.508,0.000
1728632457.365,-49.316,-56.641,-34.180,-38.574,0.000
1728632457.369,-26.855,-57.617,-34.668,-41.504,0.000
1728632457.373,-28.320,-62.988,-30.762,-32.227,0.000
1728632457.377,-41.016,-71.777,-30.273,-43.945,0.000
1728632457.381,-49.316,-81.055,-30.762,-39.062,0.000
1728632457.385,-62.500,-69.824,-31.738,-54.199,0.000
1728632457.389,-46.387,-69.336,-26.855,-54.688,0.000
1728632457.393,-8.789,-71.777,-23.438,-27.832,0.000
1728632457.397,-16.113,-63.477,-22.461,-35.156,0.000
1728632457.401,-45.410,-69.824,-22.949,-37.598,0.000
1728632457.404,-56.641,-74.219,-26.855,-36.621,0.000
1728632457.408,-45.410,-74.707,-31.738,-43.457,0.000
1728632457.412,-20.508,-69.824,-28.320,-46.875,0.000
1728632457.416,-40.039,-62.012,-23.438,-53.223,0.000
1728632457.420,-71.777,-73.242,-28.320,-51.758,0.000
1728632457.424,-60.059,-82.031,-32.715,-53.711,0.000
1728632457.428,-42.480,-68.359,-30.762,-67.383,0.000
1728632457.432,-42.969,-56.641,-23.926,-59.082,0.000
1728632457.436,-42.969,-51.270,-27.832,-56.641,0.000
1728632457.440,-52.734,-58.594,-36.133,-62.012,0.000
1728632457.443,-63.477,-62.988,-35.645,-58.105,0.000
1728632457.447,-58.105,-60.547,-40.527,-59.082,0.000
1728632457.451,-31.250,-61.035,-39.062,-62.012,0.000
1728632457.455,-14.160,-56.152,-37.598,-50.781,0.000
1728632457.459,-39.062,-59.570,-33.691,-40.527,0.000
1728632457.463,-53.223,-61.523,-34.668,-39.551,0.000
1728632457.467,-43.457,-52.246,-37.598,-38.574,0.000
1728632457.471,-17.090,-45.410,-36.133,-33.691,0.000
1728632457.475,-3.418,-41.992,-25.879,-35.156,0.000
1728632457.479,0.000,-42.480,-21.484,-34.668,0.000
1728632457.483,0.000,-56.152,-20.996,-25.391,0.000
1728632457.486,0.000,-55.664,-21.484,-31.250,0.000
1728632457.490,0.000,-50.781,-19.043,-24.414,0.000
1728632457.494,0.000,-56.641,-19.043,-20.020,0.000
1728632457.498,0.000,-66.895,-25.391,-31.738,0.000
1728632457.502,0.000,-63.477,-31.250,-44.434,0.000
1728632457.506,0.000,-39.062,-31.250,-48.828,0.000
1728632457.510,0.000,-33.203,-20.020,-37.109,0.000
1728632457.514,0.000,-38.574,-22.949,-32.715,0.000
1728632457.518,0.000,-41.504,-29.297,-34.668,0.000
1728632457.522,0.000,-52.734,-21.484,-43.945,0.000
1728632457.526,-67.871,-53.711,-20.508,-45.410,0.000
1728632457.529,-41.992,-41.992,-28.809,-39.062,0.000
1728632457.533,-17.578,-49.805,-30.762,-33.691,0.000
1728632457.537,-25.391,-57.129,-26.367,-22.461,0.000
1728632457.541,-51.270,-47.852,-30.762,-31.250,0.000
1728632457.545,-50.781,-44.922,-35.156,-42.969,0.000
1728632457.549,-34.668,-36.621,-26.855,-43.457,0.000
1728632457.553,-11.719,-26.855,-27.344,-38.086,0.000
1728632457.557,-6.836,-26.855,-34.668,-30.762,0.000
1728632457.561,-42.480,-31.738,-38.086,-34.668,0.000
1728632457.565,-59.082,-33.691,-40.527,-50.293,0.000
1728632457.568,-34.180,-24.902,-41.992,-52.734,0.000
1728632457.572,-3.906,-26.367,-35.645,-36.621,0.000
1728632457.576,-11.719,-30.762,-36.621,-30.762,0.000
1728632457.580,-40.039,-24.414,-40.039,-35.645,0.000
1728632457.584,-45.410,-26.367,-34.180,-39.551,0.000
1728632457.588,-34.180,-21.484,-27.344,-34.668,0.000
1728632457.592,-11.719,-15.625,-28.809,-29.297,0.000
1728632457.596,-22.461,-24.902,-37.598,-21.973,0.000
1728632457.600,-64.453,-32.715,-38.574,-37.598,0.000
1728632457.604,-69.336,-42.480,-39.551,-50.293,0.000
1728632457.608,-45.410,-42.969,-28.809,-40.527,0.000
1728632457.611,-20.508,-27.344,-24.414,-36.621,0.000
1728632457.615,-14.648,-32.715,-31.250,-23.438,0.000
1728632457.619,-34.668,-44.922,-27.344,-28.809,0.000
1728632457.623,-49.805,-50.293,-25.879,-41.992,0.000
1728632457.627,-29.297,-41.992,-22.461,-33.691,0.000
1728632457.631,1.465,-29.785,-19.043,-23.438,0.000
1728632457.635,-2.441,-39.062,-23.926,-25.391,0.000
1728632457.639,-32.715,-49.805,-25.391,-32.227,0.000
1728632457.643,-52.734,-48.340,-26.367,-44.922,0.000
1728632457.647,-26.367,-39.551,-26.367,-38.574,0.000
1728632457.651,-10.742,-39.062,-22.949,-17.090,0.000
1728632457.654,-21.973,-41.992,-20.996,-28.809,0.000
1728632457.658,-37.598,-42.480,-22.461,-29.785,0.000
1728632457.662,-52.734,-47.852,-25.391,-18.066,0.000
1728632457.666,-53.711,-46.387,-30.273,-36.133,0.000
1728632457.670,-27.832,-28.320,-21.484,-35.645,0.000
1728632457.674,-10.254,-31.250,-10.254,-26.367,0.000
1728632457.678,-40.527,-41.992,-16.602,-26.855,0.000
1728632457.682,-52.246,-32.715,-20.996,-25.391,0.000
1728632457.686,-39.551,-28.320,-19.531,-30.273,0.000
1728632457.690,-13.672,-23.926,-27.344,-26.367,0.000
1728632457.693,7.324,-21.484,-35.156,-25.879,0.000
1728632457.697,-14.160,-32.227,-31.738,-31.738,0.000
1728632457.701,-39.062,-30.762,-37.598,-36.621,0.000
1728632457.705,-24.414,-24.902,-47.852,-34.668,0.000
1728632457.709,-9.277,-22.949,-40.527,-34.668,0.000
1728632457.713,-6.348,-27.832,-38.086,-27.832,0.000
1728632457.717,-16.113,-40.527,-46.875,-28.320,0.000
1728632457.721,-35.156,-44.434,-48.828,-35.156,0.000
1728632457.725,-43.945,-43.945,-44.922,-43.457,0.000
1728632457.729,-31.738,-44.922,-40.039,-38.574,0.000
1728632457.733,-17.090,-36.621,-37.598,-24.414,0.000
1728632457.736,-22.949,-32.227,-38.086,-7.324,0.000
1728632457.740,-43.945,-46.387,-40.527,5.859,0.000
1728632457.744,-60.059,-51.758,-41.016,-13.184,0.000
1728632457.748,-46.387,-42.480,-31.250,-25.391,0.000
1728632457.752,-13.672,-40.039,-25.391,-23.438,0.000
1728632457.756,-26.855,-38.574,-27.344,-39.062,0.000
1728632457.760,0.000,-47.363,-27.344,-45.898,0.000
1728632457.764,0.000,-60.547,-27.832,-44.922,0.000
1728632457.768,0.000,-47.363,-28.809,-36.621,0.000
1728632457.772,0.000,-45.410,-25.391,-32.227,0.000
1728632457.776,0.000,-58.594,-22.461,-33.691,0.000
1728632457.779,0.000,-49.316,-28.809,-26.367,0.000
1728632457.783,0.000,-44.922,-40.039,-30.273,0.000
1728632457.787,0.000,-38.574,-33.691,-33.203,0.000
1728632457.791,0.000,-13.672,-19.531,-34.668,0.000
1728632457.795,0.000,-13.184,-25.879,-34.180,0.000
1728632457.799,0.000,-23.438,-34.180,-43.457,0.000
1728632457.803,0.000,-25.879,-43.457,-46.875,0.000
1728632457.807,-49.316,-27.832,-42.480,-38.086,0.000
1728632457.811,-21.484,-26.367,-34.668,-33.691,0.000
1728632457.815,-20.020,-34.668,-34.180,-32.715,0.000
1728632457.818,-45.898,-36.621,-41.504,-38.574,0.000
1728632457.822,-56.152,-31.738,-48.340,-42.480,0.000
1728632457.826,-34.180,-25.391,-44.922,-42.480,0.000
1728632457.830,-14.648,-21.973,-45.410,-29.297,0.000
1728632457.834,-12.695,-20.020,-44.922,-13.184,0.000
1728632457.838,-24.902,-23.438,-41.992,-18.555,0.000
1728632457.842,-54.688,-39.062,-45.410,-25.879,0.000
1728632457.846,-38.086,-44.434,-36.621,-23.926,0.000
1728632457.850,-11.230,-32.715,-26.855,-18.555,0.000
1728632457.854,0.000,-28.809,-32.227,-20.508,0.000
1728632457.858,0.000,-32.227,-25.879,-23.438,0.000
1728632457.861,0.000,-34.668,-20.508,-15.137,0.000
1728632457.865,0.000,-34.180,-26.367,-28.320,0.000
1728632457.869,0.000,-39.551,-22.949,-29.297,0.000
1728632457.873,0.000,-38.574,-19.531,-11.230,0.000
1728632457.877,0.000,-31.738,-22.949,-8.301,0.000
1728632457.881,0.000,-42.969,-25.391,-30.273,0.000
1728632457.885,0.000,-41.016,-27.344,-58.105,0.000
1728632457.889,0.000,-36.133,-26.367,-57.129,0.000
1728632457.893,0.000,-34.180,-29.297,-41.992,0.000
1728632457.897,0.000,-37.598,-35.156,-50.781,0.000
1728632457.901,-54.199,-47.852,-38.086,-59.082,0.000
1728632457.904,-51.270,-47.852,-34.180,-50.781,0.000
1728632457.908,-22.461,-37.598,-31.738,-42.480,0.000
1728632457.912,-19.043,-27.344,-42.480,-30.273,0.000
1728632457.916,-35.156,-37.109,-51.270,-25.391,0.000
1728632457.920,-48.340,-48.828,-51.270,-21.484,0.000
1728632457.924,-51.758,-36.133,-44.922,-24.414,0.000
1728632457.928,-34.180,-27.832,-38.574,-28.809,0.000
1728632457.932,-12.695,-39.551,-47.363,-20.996,0.000
1728632457.936,-23.438,-41.992,-54.688,-20.508,0.000
1728632457.940,-54.688,-26.367,-54.688,-34.668,0.000
1728632457.943,-59.570,-20.508,-54.199,-46.875,0.000
1728632457.947,-32.715,-26.855,-50.781,-33.691,0.000
1728632457.951,-8.789,-35.645,-42.969,-22.949,0.000
1728632457.955,-26.367,-30.762,-44.434,-21.484,0.000
1728632457.959,-55.664,-31.250,-52.246,-37.109,0.000
1728632457.963,-48.340,-42.969,-57.617,-53.711,0.000
1728632457.967,-33.203,-39.062,-54.199,-32.227,0.000
1728632457.971,-20.996,-36.133,-37.109,-20.996,0.000
1728632457.975,-19.043,-33.203,-31.738,-13.184,0.000
1728632457.979,-41.992,-41.504,-45.410,-10.742,0.000
1728632457.983,-64.453,-48.828,-50.293,-29.785,0.000
1728632457.986,-44.922,-33.203,-41.504,-33.691,0.000
1728632457.990,-2.930,-24.902,-36.621,-20.508,0.000
1728632457.994,-14.160,-22.949,-37.598,-20.508,0.000
1728632457.998,-52.246,-23.438,-34.668,-31.738,0.000
1728632458.002,-51.758,-26.855,-26.367,-44.434,0.000
1728632458.006,-27.832,-20.508,-24.414,-35.156,0.000
1728632458.010,-7.812,-18.066,-21.973,-18.066,0.000
1728632458.014,-7.324,-18.066,-23.438,-17.578,0.000
1728632458.018,-48.340,-10.742,-28.320,-22.949,0.000
1728632458.022,-71.289,-14.648,-28.320,-34.668,0.000
1728632458.026,-33.203,-26.367,-28.320,-40.527,0.000
1728632458.029,-6.348,-13.672,-29.297,-24.414,0.000
1728632458.033,-6.348,-8.789,-23.438,-20.508,0.000
1728632458.037,-18.066,-14.160,-19.531,-24.902,0.000
1728632458.041,-33.203,-17.090,-31.738,-25.391,0.000
1728632458.045,-39.062,-22.949,-36.133,-44.434,0.000
1728632458.049,-22.461,-21.973,-34.180,-41.992,0.000
1728632458.053,-1.465,-21.973,-32.715,-20.996,0.000
1728632458.057,-21.973,-28.320,-27.344,-23.438,0.000
1728632458.061,-61.523,-33.203,-22.949,-41.016,0.000
1728632458.065,-63.477,-29.297,-23.438,-50.781,0.000
1728632458.068,-23.926,-30.273,-21.973,-48.340,0.000
1728632458.072,-2.441,-23.926,-17.578,-26.367,0.000
1728632458.076,-32.715,-17.578,-16.113,-15.137,0.000
1728632458.080,-43.945,-35.645,-23.926,-29.785,0.000
1728632458.084,-36.133,-37.598,-23.438,-37.598,0.000
1728632458.088,-20.020,-22.949,-15.625,-24.414,0.000
1728632458.092,-10.254,-26.855,-23.438,-16.602,0.000
1728632458.096,-20.020,-34.668,-26.855,-15.137,0.000
1728632458.100,-37.109,-32.715,-26.367,-24.902,0.000
1728632458.104,-41.504,-28.320,-28.809,-32.227,0.000
1728632458.108,-15.137,-37.109,-29.297,-20.508,0.000
1728632458.111,-23.438,-34.668,-32.227,-21.484,0.000
1728632458.115,-26.367,-32.227,-37.598,-16.113,0.000
1728632458.119,-36.133,-33.203,-35.645,-11.719,0.000
1728632458.123,-46.387,-30.762,-33.203,-35.156,0.000
1728632458.127,-24.414,-36.133,-28.320,-28.809,0.000
1728632458.131,-21.484,-34.668,-28.809,-10.254,0.000
1728632458.135,0.000,-29.785,-34.668,-12.695,0.000
1728632458.139,0.000,-32.227,-41.504,-25.391,0.000
1728632458.143,0.000,-41.016,-42.480,-32.715,0.000
1728632458.147,0.000,-31.738,-32.227,-25.391,0.000
1728632458.151,0.000,-20.996,-21.973,-4.395,0.000
1728632458.154,0.000,-35.156,-24.902,-2.930,0.000
1728632458.158,0.000,-52.246,-31.738,-20.996,0.000
1728632458.162,0.000,-41.992,-30.273,-23.926,0.000
1728632458.166,0.000,-29.297,-28.320,-28.320,0.000
1728632458.170,0.000,-35.156,-34.668,-21.484,0.000
1728632458.174,0.000,-37.598,-33.203,-18.066,0.000
1728632458.178,0.000,-32.227,-32.227,-39.551,0.000
1728632458.182,-61.523,-43.945,-38.086,-44.922,0.000
1728632458.186,-48.340,-51.758,-32.227,-41.504,0.000
1728632458.190,-8.301,-27.344,-26.855,-24.902,0.000
1728632458.193,-14.160,-10.254,-30.762,-16.602,0.000
1728632458.197,-56.641,-28.320,-38.086,-41.504,0.000
1728632458.201,-40.527,-39.062,-39.062,-56.641,0.000
1728632458.205,-20.020,-34.668,-38.574,-32.715,0.000
1728632458.209,-12.207,-33.691,-30.762,-30.273,0.000
1728632458.213,7.324,-34.180,-34.180,-34.668,0.000
1728632458.217,-13.184,-44.922,-44.922,-14.160,0.000
1728632458.221,-42.969,-51.270,-47.852,-35.156,0.000
1728632458.225,-38.086,-45.410,-48.340,-39.551,0.000
1728632458.229,-15.625,-36.133,-45.410,-20.508,0.000
1728632458.233,-28.809,-35.645,-41.016,-12.695,0.000
1728632458.236,-31.738,-35.156,-37.598,-7.812,0.000
1728632458.240,-34.668,-32.227,-45.410,-35.156,0.000
1728632458.244,-64.453,-31.738,-43.945,-38.574,0.000
1728632458.248,-37.598,-44.922,-43.945,-30.762,0.000
1728632458.252,-18.066,-47.852,-48.340,-28.809,0.000
1728632458.256,-19.043,-39.062,-32.227,-6.348,0.000
1728632458.260,-33.203,-39.062,-32.227,-8.789,0.000
1728632458.264,-51.758,-41.504,-39.551,-26.855,0.000
1728632458.268,-24.902,-35.156,-33.203,-29.297,0.000
1728632458.272,0.488,-30.273,-34.180,-25.879,0.000
1728632458.276,-3.418,-31.250,-39.062,-14.648,0.000
1728632458.279,-41.504,-34.668,-31.738,0.000,0.000
1728632458.283,-55.664,-36.621,-29.785,-29.785,0.000
1728632458.287,-6.348,-41.504,-31.250,-37.598,0.000
1728632458.291,10.254,-43.945,-28.809,-0.977,0.000
1728632458.295,-14.648,-36.621,-33.691,5.859,0.000
1728632458.299,-30.762,-29.297,-37.109,-12.695,0.000
1728632458.303,-41.504,-26.367,-33.691,-30.762,0.000
1728632458.307,-36.133,-26.367,-42.969,-35.645,0.000
1728632458.311,-23.926,-26.367,-44.922,-26.855,0.000
1728632458.315,-23.438,-27.832,-43.457,-31.250,0.000
1728632458.318,-34.668,-32.227,-47.852,-36.621,0.000
1728632458.322,0.000,-39.062,-37.109,-43.457,0.000
1728632458.326,0.000,-34.668,-32.715,-42.969,0.000
1728632458.330,0.000,-25.391,-38.086,-23.438,0.000
1728632458.334,0.000,-26.367,-39.062,-14.648,0.000
1728632458.338,0.000,-44.922,-39.551,-7.324,0.000
1728632458.342,0.000,-54.688,-41.992,-11.719,0.000
1728632458.346,0.000,-36.133,-41.016,-23.438,0.000
1728632458.350,0.000,-26.855,-34.668,-0.488,0.000
1728632458.354,0.000,-32.715,-42.480,-14.648,0.000
1728632458.358,0.000,-34.668,-49.805,-31.738,0.000
1728632458.361,0.000,-40.039,-37.598,-11.230,0.000
1728632458.365,0.000,-44.434,-30.762,-21.484,0.000
1728632458.369,-22.461,-42.480,-27.832,-19.043,0.000
1728632458.373,-32.715,-39.062,-26.855,-33.203,0.000
1728632458.377,-41.504,-35.645,-27.344,-36.621,0.000
1728632458.381,-52.734,-47.852,-26.855,-27.344,0.000
1728632458.385,-66.895,-52.734,-29.297,-38.574,0.000
1728632458.389,-37.598,-48.340,-34.668,-28.320,0.000
1728632458.393,-14.648,-47.363,-31.738,-14.160,0.000
1728632458.397,-21.484,-35.645,-36.133,-28.809,0.000
1728632458.401,-33.691,-40.527,-47.852,-29.297,0.000
1728632458.404,-40.527,-43.457,-43.457,-31.738,0.000
1728632458.408,-5.859,-31.250,-34.180,-22.949,0.000
1728632458.412,-4.395,-30.762,-33.203,-20.996,0.000
1728632458.416,-29.297,-36.133,-39.062,-40.039,0.000
1728632458.420,-36.621,-39.551,-48.828,-47.363,0.000
1728632458.424,-46.387,-41.992,-55.176,-54.199,0.000
1728632458.428,-25.879,-41.016,-57.617,-48.340,0.000
1728632458.432,-2.930,-38.574,-51.758,-44.434,0.000
1728632458.436,-20.020,-42.480,-40.527,-50.781,0.000
1728632458.440,-32.227,-39.551,-35.645,-39.062,0.000
1728632458.444,-36.621,-41.504,-53.711,-25.391,0.000
1728632458.447,-28.809,-47.852,-54.199,-39.062,0.000
1728632458.451,-23.438,-35.156,-32.715,-28.809,0.000
1728632458.455,-29.785,-36.621,-31.250,-14.648,0.000
1728632458.459,-31.738,-48.828,-33.203,-24.902,0.000
1728632458.463,-48.340,-47.852,-35.156,-31.738,0.000
1728632458.467,-34.180,-38.574,-30.273,-13.184,0.000
1728632458.471,4.883,-31.738,-30.762,-0.488,0.000
1728632458.475,-10.254,-36.133,-36.133,-2.441,0.000
1728632458.479,-42.969,-39.062,-45.898,-27.832,0.000
1728632458.483,-27.832,-38.574,-47.363,-48.340,0.000
1728632458.486,-4.883,-37.598,-39.062,-35.156,0.000
1728632458.490,3.906,-32.227,-41.504,-23.926,0.000
1728632458.494,-10.254,-31.250,-29.785,-19.043,0.000
1728632458.498,-38.574,-42.969,-28.809,-33.203,0.000
1728632458.502,-53.711,-53.223,-39.551,-51.270,0.000
1728632458.506,-35.156,-53.223,-29.297,-44.922,0.000
1728632458.510,0.000,-37.598,-23.926,-27.832,0.000
1728632458.514,0.000,-33.691,-30.273,-27.832,0.000
1728632458.518,0.000,-42.480,-34.180,-32.715,0.000
1728632458.522,0.000,-41.992,-41.016,-37.109,0.000
1728632458.526,0.000,-38.086,-38.574,-25.879,0.000
1728632458.529,0.000,-36.621,-29.785,-22.949,0.000
1728632458.533,0.000,-45.898,-32.715,-20.508,0.000
1728632458.537,0.000,-51.270,-38.086,-13.184,0.000
1728632458.541,0.000,-40.039,-39.062,-23.926,0.000
1728632458.545,0.000,-37.109,-43.945,-25.391,0.000
1728632458.549,0.000,-33.691,-41.016,-18.555,0.000
1728632458.553,0.000,-33.691,-31.738,-3.906,0.000
1728632458.557,4.883,-29.785,-43.945,-25.391,0.000
1728632458.561,-53.223,-29.297,-50.293,-46.387,0.000
1728632458.565,-47.852,-40.039,-39.551,-36.133,0.000
1728632458.568,-2.930,-29.785,-40.039,-30.762,0.000
1728632458.572,6.836,-29.297,-39.062,-20.020,0.000
1728632458.576,-9.277,-39.551,-44.434,-20.996,0.000
1728632458.580,-40.527,-46.387,-52.246,-33.203,0.000
1728632458.584,-44.922,-45.898,-45.410,-43.457,0.000
1728632458.588,-4.883,-35.156,-37.598,-32.715,0.000
1728632458.592,0.977,-32.715,-36.621,-6.348,0.000
1728632458.596,-25.391,-40.527,-35.645,-14.160,0.000
1728632458.600,-48.828,-44.434,-42.969,-33.203,0.000
1728632458.604,-42.480,-38.574,-45.410,-37.598,0.000
1728632458.608,-3.418,-32.715,-32.227,-15.137,0.000
1728632458.611,-4.883,-33.203,-24.902,-9.766,0.000
1728632458.615,-26.855,-43.945,-32.227,-18.555,0.000
1728632458.619,-44.922,-46.387,-34.668,-14.160,0.000
1728632458.623,-50.293,-42.480,-30.273,-10.742,0.000
1728632458.627,-24.414,-34.180,-30.762,-6.348,0.000
1728632458.631,1.953,-31.738,-36.621,-9.766,0.000
1728632458.635,-19.531,-38.086,-45.898,-23.926,0.000
1728632458.639,-52.246,-39.062,-48.340,-29.785,0.000
1728632458.643,-50.293,-44.434,-45.410,-40.039,0.000
1728632458.647,-24.414,-34.668,-39.062,-39.551,0.000
1728632458.651,-10.742,-20.020,-39.062,-20.020,0.000
1728632458.654,-21.973,-30.273,-49.316,-25.879,0.000
1728632458.658,-23.438,-43.457,-51.270,-33.203,0.000
1728632458.662,-23.926,-34.668,-38.086,-36.621,0.000
1728632458.666,-24.902,-22.461,-34.668,-44.434,0.000
1728632458.670,-4.883,-25.879,-41.504,-36.133,0.000
1728632458.674,2.441,-26.367,-36.133,-20.020,0.000
1728632458.678,-25.879,-31.250,-33.203,-12.207,0.000
1728632458.682,-41.504,-39.062,-42.480,-19.043,0.000
1728632458.686,-35.156,-34.180,-39.551,-33.691,0.000
1728632458.690,-2.930,-26.855,-36.133,-19.531,0.000
1728632458.693,-0.488,-22.949,-38.574,-18.555,0.000
1728632458.697,-20.020,-32.227,-38.086,-32.227,0.000
1728632458.701,-43.945,-43.945,-32.227,-14.160,0.000
1728632458.705,-58.594,-31.738,-32.715,-33.691,0.000
1728632458.709,-24.414,-20.020,-39.062,-52.246,0.000
1728632458.713,-11.719,-28.809,-31.250,-33.203,0.000
1728632458.717,-41.016,-37.109,-28.320,-22.461,0.000
1728632458.721,-56.152,-30.762,-35.645,-24.902,0.000
1728632458.725,-32.227,-27.344,-27.832,-30.762,0.000
1728632458.729,2.930,-31.738,-22.949,-19.043,0.000
1728632458.733,-0.977,-24.902,-24.902,-17.090,0.000
1728632458.736,-17.578,-17.090,-25.391,-29.785,0.000
1728632458.740,-32.715,-33.203,-23.926,-37.598,0.000
1728632458.744,-43.945,-40.039,-18.555,-27.832,0.000
1728632458.748,-25.879,-38.086,-20.996,-4.883,0.000
1728632458.752,-12.207,-31.738,-22.949,-12.695,0.000
1728632458.756,-23.438,-41.992,-13.184,-21.484,0.000
1728632458.760,-41.992,-47.852,-16.113,-28.809,0.000
1728632458.764,-48.340,-41.016,-22.949,-28.320,0.000
1728632458.768,-22.949,-36.133,-16.602,-18.066,0.000
1728632458.772,-4.883,-32.227,-20.020,-13.184,0.000
1728632458.776,-22.461,-42.480,-25.391,-10.742,0.000
1728632458.779,-45.898,-44.434,-27.832,-20.996,0.000
1728632458.783,-52.734,-31.738,-27.832,-31.738,0.000
1728632458.787,-30.762,-30.273,-30.762,-39.062,0.000
1728632458.791,-13.672,-37.109,-35.645,-18.066,0.000
1728632458.795,-14.160,-39.062,-33.691,-16.113,0.000
1728632458.799,-22.461,-34.668,-30.273,-25.391,0.000
1728632458.803,-37.109,-36.133,-27.832,-16.602,0.000
1728632458.807,-20.508,-29.297,-28.320,-12.695,0.000
1728632458.811,3.418,-29.297,-29.785,-5.371,0.000
1728632458.815,-22.461,-41.504,-34.180,-20.020,0.000
1728632458.819,-52.734,-48.340,-34.668,-35.645,0.000
1728632458.822,-42.480,-55.176,-30.762,-41.992,0.000
1728632458.826,-20.996,-46.875,-21.973,-26.367,0.000
1728632458.830,-9.766,-37.109,-19.043,-8.789,0.000
1728632458.834,-6.836,-30.273,-24.902,-21.484,0.000
1728632458.838,-41.016,-38.086,-33.203,-29.785,0.000
1728632458.842,-57.617,-53.223,-36.621,-25.879,0.000
1728632458.846,-20.508,-43.945,-33.691,-15.137,0.000
1728632458.850,10.742,-40.039,-29.297,-4.883,0.000
1728632458.854,12.695,-50.293,-29.785,-14.160,0.000
1728632458.858,-25.879,-57.129,-25.391,-18.066,0.000
1728632458.861,-44.922,-45.410,-30.762,-14.648,0.000
1728632458.865,-31.738,-39.551,-38.574,-19.043,0.000
1728632458.869,-20.508,-46.387,-33.691,-22.461,0.000
1728632458.873,-24.414,-44.922,-33.203,-20.996,0.000
1728632458.877,-52.246,-33.203,-39.062,-37.598,0.000
1728632458.881,-62.988,-26.367,-42.480,-45.898,0.000
1728632458.885,-38.574,-22.949,-32.227,-25.391,0.000
1728632458.889,-13.672,-18.555,-32.715,-25.391,0.000
1728632458.893,-10.254,-32.715,-42.969,-30.273,0.000
1728632458.897,-17.090,-36.133,-37.109,-32.227,0.000
1728632458.901,-41.504,-38.574,-35.156,-42.969,0.000
1728632458.904,-40.039,-47.363,-33.203,-52.246,0.000
1728632458.908,-3.418,-33.203,-30.762,-27.832,0.000
1728632458.912,-14.648,-22.949,-28.809,-17.090,0.000
1728632458.916,-45.898,-26.367,-28.809,-34.180,0.000
1728632458.920,-37.109,-33.203,-33.203,-35.645,0.000
1728632458.924,-19.043,-29.785,-29.297,-36.133,0.000
1728632458.928,0.977,-27.832,-23.438,-32.227,0.000
1728632458.932,-4.395,-30.762,-30.762,-20.996,0.000
1728632458.936,-27.832,-39.062,-34.180,-19.531,0.000
1728632458.940,-49.316,-52.246,-32.715,-20.020,0.000
1728632458.944,-51.758,-47.852,-27.344,-8.301,0.000
1728632458.947,-41.992,-20.996,-30.273,-38.086,0.000
1728632458.951,-19.043,-23.926,-35.645,-43.945,0.000
1728632458.955,-21.973,-48.828,-32.715,0.000,0.000
1728632458.959,-45.898,-44.434,-24.902,3.418,0.000
1728632458.963,-43.457,-27.832,-30.273,-26.367,0.000
1728632458.967,-17.578,-30.762,-31.738,-25.879,0.000
1728632458.971,-0.488,-32.227,-28.320,-18.555,0.000
1728632458.975,-24.414,-30.273,-38.086,-29.785,0.000
1728632458.979,-42.480,-40.039,-46.387,-41.504,0.000
1728632458.983,-41.992,-49.805,-44.922,-53.711,0.000
1728632458.986,-16.602,-38.574,-42.969,-37.109,0.000
1728632458.990,0.488,-13.672,-43.457,-30.273,0.000
1728632458.994,-13.184,-13.672,-46.875,-32.715,0.000
1728632458.998,-19.043,-33.203,-50.293,-34.668,0.000
1728632459.002,-36.133,-25.879,-51.758,-52.734,0.000
1728632459.006,-23.438,-19.531,-50.293,-48.340,0.000
1728632459.010,-9.277,-20.996,-41.016,-35.645,0.000
1728632459.014,-27.344,-25.391,-44.434,-29.785,0.000
1728632459.018,-46.387,-33.203,-43.457,-13.184,0.000
1728632459.022,-46.387,-32.227,-42.480,-20.996,0.000
1728632459.026,-29.297,-13.672,-48.828,-17.578,0.000
1728632459.029,-21.973,-13.184,-38.086,-0.488,0.000
1728632459.033,-8.301,-40.527,-39.062,3.906,0.000
1728632459.037,-43.945,-37.598,-56.641,-18.555,0.000
1728632459.041,-73.730,-28.809,-37.598,-32.227,0.000
1728632459.045,-55.664,-24.414,-25.391,-8.789,0.000
1728632459.049,-15.137,-32.227,-19.043,-11.719,0.000
1728632459.053,-27.832,-29.785,-22.461,-29.785,0.000
1728632459.057,-79.590,-33.691,-16.602,-83.008,0.000
1728632459.061,-63.477,-61.523,-33.691,-112.305,0.000
1728632459.065,-65.918,-62.500,-37.109,-64.941,0.000
1728632459.068,-64.941,-38.574,-15.137,-51.270,0.000
1728632459.072,0.000,2.441,-56.641,-83.008,0.000
1728632459.076,0.000,14.160,-49.805,-62.988,0.000
1728632459.080,0.000,-43.457,-31.250,-34.668,0.000
1728632459.084,0.000,-45.898,-83.984,-2.930,0.000
1728632459.088,0.000,-14.648,-47.852,-0.977,0.000
1728632459.092,0.000,-60.059,-56.641,-1.465,0.000
1728632459.096,0.000,-55.176,-71.777,15.625,0.000
1728632459.100,0.000,8.301,-78.125,-58.105,0.000
1728632459.104,0.000,-62.988,-78.125,-7.812,0.000
1728632459.108,0.000,-132.812,-81.543,111.816,0.000
1728632459.111,0.000,-74.219,-40.039,-10.742,0.000
1728632459.115,0.000,-52.734,-29.297,-66.895,0.000
1728632459.119,-218.750,41.504,-50.293,-157.715,0.000
1728632459.123,-301.270,-2.930,-41.992,-260.742,0.000
1728632459.127,-2.441,-79.590,-52.734,-143.066,0.000
1728632459.131,106.445,-130.859,-20.020,61.035,0.000
1728632459.135,30.762,-114.746,-48.828,90.820,0.000
1728632459.139,-8.301,-57.129,-93.262,-21.973,0.000
1728632459.143,-12.695,-41.504,-107.910,-51.270,0.000
1728632459.147,-27.344,7.812,-104.980,21.484,0.000
1728632459.151,62.012,-96.191,-69.336,10.254,0.000
1728632459.154,86.426,-158.691,-91.797,-42.480,0.000
1728632459.158,15.625,-114.258,-82.031,-20.508,0.000
1728632459.162,-85.938,-62.988,-92.285,-52.246,0.000
1728632459.166,-148.926,-15.137,-45.410,33.691,0.000
1728632459.170,-67.383,-62.500,-7.324,-9.277,0.000
1728632459.174,74.707,-121.582,-114.746,-61.035,0.000
1728632459.178,46.387,-112.793,-47.363,-12.695,0.000
1728632459.182,-21.973,-108.398,-55.176,-43.945,0.000
1728632459.186,42.969,-62.988,-133.789,-20.996,0.000
1728632459.190,43.457,46.875,-94.238,18.555,0.000
1728632459.194,8.789,6.348,-15.625,-55.176,0.000
1728632459.197,36.133,-66.406,-29.297,42.969,0.000
1728632459.201,86.426,-76.660,-133.789,223.145,0.000
1728632459.205,80.078,-105.469,-104.004,170.898,0.000
1728632459.209,28.809,-94.727,-54.199,40.039,0.000
1728632459.213,36.621,-124.512,-47.363,14.648,0.000
1728632459.217,29.297,-69.824,-82.520,25.879,0.000
1728632459.221,55.176,-66.406,-62.500,69.824,0.000
1728632459.225,63.477,-61.523,-33.691,84.961,0.000
1728632459.229,81.543,-63.965,-54.199,91.309,0.000
1728632459.233,42.480,-33.691,-9.277,22.461,0.000
1728632459.236,-95.703,0.977,-40.527,-26.855,0.000
1728632459.240,-38.086,-90.332,-78.613,0.977,0.000
1728632459.244,68.848,-82.031,-15.625,-3.418,0.000
1728632459.248,60.547,-72.266,-21.973,-3.906,0.000
1728632459.252,33.203,-54.199,-55.664,-2.930,0.000
1728632459.256,-13.672,18.555,-79.590,14.160,0.000
1728632459.260,-26.855,-1.953,-76.172,1.465,0.000
1728632459.264,16.602,-94.727,-39.551,15.137,0.000
1728632459.268,0.488,-65.430,-41.504,-21.973,0.000
1728632459.272,0.977,-50.781,-34.668,-22.461,0.000
1728632459.276,-22.949,-76.172,-37.598,-2.441,0.000
1728632459.279,-31.250,-67.383,-62.500,5.371,0.000
1728632459.283,9.766,-54.688,-54.688,15.137,0.000
1728632459.287,14.160,-38.574,-38.086,6.836,0.000
1728632459.291,5.859,-28.320,-34.180,-2.441,0.000
1728632459.295,1.953,-39.062,-42.969,4.883,0.000
1728632459.299,-27.344,-43.945,-47.852,-13.184,0.000
1728632459.303,-41.504,-42.969,-47.363,-32.227,0.000
1728632459.307,-17.090,-41.992,-38.574,-34.180,0.000
1728632459.311,-0.977,-41.992,-37.109,-29.785,0.000
1728632459.315,-14.648,-32.227,-40.039,-26.855,0.000
1728632459.319,-46.387,-32.227,-35.156,-39.062,0.000
1728632459.322,-31.738,-34.180,-31.738,-19.531,0.000
1728632459.326,-0.488,-22.461,-35.645,-6.348,0.000
1728632459.330,-3.418,-31.250,-43.457,-4.883,0.000
1728632459.334,-28.320,-37.109,-38.574,-19.043,0.000
1728632459.338,-47.852,-11.719,-40.039,-32.715,0.000
1728632459.342,-48.340,-19.043,-37.109,-31.250,0.000
1728632459.346,-17.578,-36.621,-30.762,-18.555,0.000
1728632459.350,-10.742,-27.344,-37.109,-19.531,0.000
1728632459.354,-15.137,-30.273,-30.762,-17.090,0.000
1728632459.358,-33.203,-31.738,-40.039,-33.203,0.000
1728632459.361,-57.129,-39.062,-42.969,-47.852,0.000
1728632459.365,-46.875,-33.691,-30.273,-36.133,0.000
1728632459.369,-8.789,-31.250,-33.203,-25.879,0.000
1728632459.373,-6.348,-36.133,-39.062,-27.832,0.000
1728632459.377,-52.246,-32.227,-38.086,-36.621,0.000
1728632459.381,-70.312,-36.133,-29.785,-35.645,0.000
1728632459.385,-47.363,-34.180,-21.484,-24.902,0.000
1728632459.389,-35.645,-27.832,-20.508,-13.184,0.000
1728632459.393,-29.297,-38.574,-23.438,-18.555,0.000
1728632459.397,-26.367,-42.480,-24.902,-22.949,0.000
1728632459.401,-66.895,-43.457,-27.344,-38.086,0.000
1728632459.404,-49.316,-42.969,-20.508,-38.086,0.000
1728632459.408,-24.414,-34.180,-17.578,-16.602,0.000
1728632459.412,-37.598,-36.621,-28.320,-19.043,0.000
1728632459.416,-31.738,-46.387,-33.203,-36.621,0.000
1728632459.420,-51.270,-43.945,-27.344,-41.504,0.000
1728632459.424,-51.270,-39.062,-16.113,-30.762,0.000
1728632459.428,-14.160,-36.621,-8.789,-10.254,0.000
1728632459.432,-5.371,-32.715,-18.555,-8.301,0.000
1728632459.436,-26.855,-43.457,-20.996,-14.160,0.000
1728632459.440,-46.875,-46.875,-18.066,-20.508,0.000
1728632459.444,-42.480,-42.480,-12.695,-40.039,0.000
1728632459.447,-14.160,-41.504,-13.672,-30.273,0.000
1728632459.451,-10.742,-44.434,-12.695,-9.277,0.000
1728632459.455,-31.738,-39.062,-14.160,-17.578,0.000
1728632459.459,-54.199,-42.969,-10.742,-33.691,0.000
1728632459.463,-37.598,-39.551,-6.836,-28.809,0.000
1728632459.467,-7.324,-32.715,-11.719,-32.227,0.000
1728632459.471,-22.461,-36.133,-22.461,-37.598,0.000
1728632459.475,-44.434,-30.762,-19.531,-38.574,0.000
1728632459.479,-57.129,-41.016,-17.090,-38.086,0.000
1728632459.483,-57.129,-42.480,-21.484,-36.621,0.000
1728632459.486,-35.156,-31.250,-11.230,-34.180,0.000
1728632459.490,-16.113,-35.156,-16.602,-21.484,0.000
1728632459.494,-38.086,-37.109,-22.949,-31.738,0.000
1728632459.498,-62.988,-32.715,-21.973,-55.664,0.000
1728632459.502,-46.387,-29.785,-25.391,-41.016,0.000
1728632459.506,-20.508,-26.367,-23.438,-31.250,0.000
1728632459.510,-17.578,-26.855,-27.832,-39.062,0.000
1728632459.514,-34.180,-26.855,-31.738,-27.344,0.000
1728632459.518,-53.223,-33.203,-30.762,-33.691,0.000
1728632459.522,-57.129,-43.457,-30.762,-39.551,0.000
1728632459.526,-37.109,-36.621,-28.320,-35.645,0.000
1728632459.529,-14.160,-26.855,-21.973,-40.527,0.000
1728632459.533,-22.949,-20.020,-23.438,-36.133,0.000
1728632459.537,-44.434,-18.066,-30.273,-27.344,0.000
1728632459.541,-48.340,-16.602,-29.297,-39.551,0.000
1728632459.545,-29.297,-8.301,-32.715,-48.340,0.000
1728632459.549,-20.996,-12.207,-37.109,-44.922,0.000
1728632459.553,-30.762,-25.391,-34.668,-32.715,0.000
1728632459.557,-29.297,-26.855,-32.227,-31.250,0.000
1728632459.561,-47.852,-24.902,-33.691,-35.156,0.000
1728632459.565,-57.617,-21.973,-35.156,-31.250,0.000
1728632459.569,-31.250,-21.973,-36.621,-27.832,0.000
1728632459.572,-31.738,-24.902,-33.203,-32.227,0.000
1728632459.576,-48.828,-22.949,-29.785,-41.992,0.000
1728632459.580,-55.664,-28.809,-33.691,-39.062,0.000
1728632459.584,-43.457,-37.598,-30.273,-42.480,0.000
1728632459.588,-20.996,-39.551,-30.762,-40.527,0.000
1728632459.592,-14.648,-35.645,-41.504,-44.922,0.000
1728632459.596,-41.992,-46.875,-42.480,-45.898,0.000
1728632459.600,-71.289,-54.199,-38.086,-41.016,0.000
1728632459.604,-57.129,-43.457,-35.156,-39.062,0.000
1728632459.608,-30.273,-34.180,-36.133,-30.273,0.000
1728632459.611,-25.879,-30.273,-33.691,-24.414,0.000
1728632459.615,-37.109,-37.109,-30.273,-21.973,0.000
1728632459.619,-50.781,-38.086,-32.715,-35.156,0.000
1728632459.623,-41.992,-36.133,-32.227,-38.574,0.000
1728632459.627,-12.695,-44.922,-27.344,-31.250,0.000
1728632459.631,-22.949,-38.086,-27.832,-37.109,0.000
1728632459.635,-38.574,-33.203,0.000,-41.992,0.000
1728632459.639,-51.270,-42.480,0.000,-50.293,0.000
1728632459.643,-59.570,-39.062,0.000,-52.246,0.000
1728632459.647,-29.785,-28.320,0.000,-40.527,0.000
1728632459.651,-13.672,-23.926,0.000,-37.109,0.000
1728632459.654,-28.320,-35.156,0.000,-36.133,0.000
1728632459.658,-55.176,-46.875,0.000,-30.273,0.000
1728632459.662,-54.199,-43.945,0.000,-33.203,0.000
1728632459.666,-30.762,-27.832,0.000,-32.227,0.000
1728632459.670,-34.668,-25.879,0.000,-28.809,0.000
1728632459.674,-42.480,-27.832,0.000,-30.273,0.000
1728632459.678,-32.715,-33.203,0.000,-26.367,0.000
1728632459.682,-24.414,-32.715,-25.391,-31.250,0.000
1728632459.686,-22.949,-20.020,-16.602,-27.344,0.000
1728632459.690,-15.137,-13.184,-18.066,-20.508,0.000
1728632459.694,-19.531,-14.160,-26.855,-24.414,0.000
1728632459.697,-49.805,-22.949,-30.273,-41.016,0.000
1728632459.701,-52.246,-35.156,-27.832,-48.340,0.000
1728632459.705,-20.508,-27.344,-20.996,-46.387,0.000
1728632459.709,-2.930,-11.230,-18.555,-35.156,0.000
1728632459.713,-13.184,-7.812,-25.391,-29.297,0.000
1728632459.717,-39.551,-29.785,-37.109,-45.410,0.000
1728632459.721,-53.711,-35.156,-41.016,-42.480,0.000
1728632459.725,-44.922,-16.602,-34.180,-33.691,0.000
1728632459.729,-32.227,-11.719,-32.715,-30.762,0.000
1728632459.733,-33.203,-22.949,-41.504,-20.996,0.000
1728632459.736,-55.664,-29.785,-49.316,-24.414,0.000
1728632459.740,-63.965,-30.273,-43.457,-31.738,0.000
1728632459.744,-34.180,-22.949,-34.668,-29.785,0.000
1728632459.748,-9.277,-16.602,-30.273,-23.926,0.000
1728632459.752,-18.555,-17.090,-26.855,-12.207,0.000
1728632459.756,-34.180,-23.926,-26.855,-23.438,0.000
1728632459.760,-47.852,-27.832,-30.273,-47.852,0.000
1728632459.764,-27.344,-28.320,-36.621,-56.641,0.000
1728632459.768,-17.578,-35.645,-39.551,-45.898,0.000
1728632459.772,-33.203,-36.133,-39.551,-38.574,0.000
1728632459.776,-43.457,-41.992,-37.598,-38.574,0.000
1728632459.779,-55.664,-48.340,-36.133,-47.852,0.000
1728632459.783,-44.434,-33.203,-39.551,-53.711,0.000
1728632459.787,-21.973,-24.902,-36.133,-45.898,0.000
1728632459.791,-24.414,-28.809,-40.039,-40.527,0.000
1728632459.795,-40.039,-32.715,-43.945,-28.809,0.000
1728632459.799,-41.016,-35.645,-42.480,-25.879,0.000
1728632459.803,-25.879,-29.785,-40.527,-31.250,0.000
1728632459.807,-22.949,-26.367,-39.062,-29.297,0.000
1728632459.811,-32.227,-31.250,-32.227,-24.414,0.000
1728632459.815,-37.598,-29.785,-28.809,-18.555,0.000
1728632459.819,-59.082,-29.785,-33.203,-27.344,0.000
1728632459.822,-47.363,-36.133,-32.715,-33.203,0.000
1728632459.826,-11.230,-28.320,-35.156,-18.555,0.000
1728632459.830,-4.395,-29.785,-33.203,-15.137,0.000
1728632459.834,-24.902,-39.062,-33.203,-40.527,0.000
1728632459.838,-39.551,-34.180,-36.133,-35.156,0.000
1728632459.842,-32.715,-31.250,-29.785,-27.832,0.000
1728632459.846,-12.207,-31.738,-17.578,-27.344,0.000
1728632459.850,5.371,-31.250,-20.020,-28.320,0.000
1728632459.854,-20.508,-38.574,-27.344,-32.227,0.000
1728632459.858,-59.570,-42.969,-27.832,-31.738,0.000
1728632459.861,-55.664,-28.809,-32.715,-50.293,0.000
1728632459.865,-34.668,-22.461,-35.645,-51.270,0.000
1728632459.869,-21.973,-28.320,-27.832,-33.203,0.000
1728632459.873,-29.297,-30.762,-28.320,-28.320,0.000
1728632459.877,-58.105,-31.250,-33.203,-33.203,0.000
1728632459.881,-68.359,-38.086,-34.668,-49.316,0.000
1728632459.885,-42.969,-41.992,-31.738,-47.852,0.000
1728632459.889,-4.883,-37.598,-32.715,-37.109,0.000
1728632459.893,-15.137,-30.273,-34.668,-37.109,0.000
1728632459.897,-55.664,-39.551,-34.180,-45.898,0.000
1728632459.901,-57.617,-45.410,-38.574,-47.852,0.000
1728632459.904,-19.531,-35.645,-33.691,-26.855,0.000
1728632459.908,3.906,-40.039,-27.344,-19.043,0.000
1728632459.912,-5.859,-38.086,-35.645,-20.996,0.000
1728632459.916,-39.062,-32.715,-40.039,-27.832,0.000
1728632459.920,-55.176,-36.621,-30.273,-29.297,0.000
1728632459.924,-34.668,-28.320,-21.484,-15.137,0.000
1728632459.928,-21.973,-29.785,-20.996,-15.625,0.000
1728632459.932,-18.066,-31.738,-22.461,-20.508,0.000
1728632459.936,-22.949,-37.109,-26.367,-18.555,0.000
1728632459.940,-42.480,-47.363,-30.273,-35.156,0.000
1728632459.944,-32.227,-41.504,-31.250,-33.691,0.000
1728632459.947,-5.859,-37.598,-37.598,-23.926,0.000
1728632459.951,-14.648,-38.086,-44.922,-34.180,0.000
1728632459.955,-39.551,-42.480,-51.270,-39.062,0.000
1728632459.959,-53.711,-39.551,-51.270,-42.480,0.000
1728632459.963,-30.762,-37.109,-41.992,-37.109,0.000
1728632459.967,-6.348,-40.527,-36.621,-31.250,0.000
1728632459.971,-13.672,-40.527,-36.133,-22.461,0.000
1728632459.975,-27.344,-39.062,-41.016,-26.367,0.000
1728632459.979,-46.387,-34.180,-42.480,-32.715,0.000
1728632459.983,-42.480,-32.715,-42.480,-23.926,0.000
1728632459.986,-8.301,-36.621,-40.039,-18.555,0.000
1728632459.990,0.488,-40.527,-36.621,-20.020,0.000
1728632459.994,-30.762,-40.039,-34.180,-32.715,0.000
1728632459.998,-48.340,-32.715,-33.691,-46.387,0.000
1728632460.002,-36.621,-23.926,-40.039,-42.969,0.000
1728632460.006,-10.254,-14.648,-36.133,-27.344,0.000
1728632460.010,-1.953,-14.648,-29.297,-14.648,0.000
1728632460.014,-27.832,-23.926,-27.832,-11.719,0.000
1728632460.018,-51.270,-35.156,-30.273,-14.160,0.000
1728632460.022,-48.340,-37.109,-29.785,-16.602,0.000
1728632460.026,-10.742,-28.320,-25.879,-8.301,0.000
1728632460.029,-2.441,-24.414,-31.738,-13.184,0.000
1728632460.033,-32.715,-30.273,-28.809,-13.184,0.000
1728632460.037,-61.035,-38.086,-32.227,-21.484,0.000
1728632460.041,-63.477,-41.504,-37.598,-50.293,0.000
1728632460.045,-25.879,-32.715,-33.691,-33.691,0.000
1728632460.049,-5.859,-29.297,-34.668,-15.625,0.000
1728632460.053,-30.273,-35.645,-35.645,-24.414,0.000
1728632460.057,-50.293,-36.621,-36.133,-26.367,0.000
1728632460.061,-52.246,-38.086,-36.621,-46.875,0.000
1728632460.065,-36.621,-34.668,-41.016,-46.875,0.000
1728632460.069,-22.461,-43.457,-37.109,-20.996,0.000
1728632460.072,-27.344,-50.781,-42.969,-26.367,0.000
1728632460.076,-49.805,-48.340,-52.734,-42.480,0.000
1728632460.080,-59.082,-55.664,-48.828,-40.039,0.000
1728632460.084,-40.039,-43.945,-44.434,-35.645,0.000
1728632460.088,-26.855,-30.273,-41.504,-28.809,0.000
1728632460.092,-34.668,-36.621,-43.457,-28.809,0.000
1728632460.096,-49.316,-29.297,-44.922,-36.621,0.000
1728632460.100,-54.688,-29.297,-40.527,-37.109,0.000
1728632460.104,-36.133,-32.715,-44.922,-37.598,0.000
1728632460.108,-11.230,-24.902,-50.293,-28.809,0.000
1728632460.111,-12.695,-26.855,-43.945,-25.879,0.000
1728632460.115,-35.156,-33.691,-44.434,-41.016,0.000
1728632460.119,-42.969,-30.762,-45.898,-47.363,0.000
1728632460.123,-14.648,-33.203,-39.062,-31.250,0.000
1728632460.127,-2.441,-38.574,-39.062,-20.020,0.000
1728632460.131,-16.602,-32.715,-41.504,-20.996,0.000
1728632460.135,-39.062,-31.738,-36.133,-16.602,0.000
1728632460.139,-58.594,-37.109,-41.504,-23.926,0.000
1728632460.143,-51.270,-39.062,-47.852,-36.621,0.000
1728632460.147,-20.996,-33.691,-49.316,-32.715,0.000
1728632460.151,-12.207,-27.832,-51.270,-21.484,0.000
1728632460.154,-34.668,-30.762,-45.898,-22.949,0.000
1728632460.158,-46.387,-33.691,-42.969,-37.598,0.000
1728632460.162,-32.715,-25.879,-38.574,-36.621,0.000
1728632460.166,-15.137,-24.414,-30.273,-36.133,0.000
1728632460.170,-21.973,-33.203,-28.320,-27.832,0.000
1728632460.174,-37.598,-31.250,-34.180,-20.508,0.000
1728632460.178,-45.410,-21.484,-33.203,-35.156,0.000
1728632460.182,-30.762,-27.832,-27.344,-36.621,0.000
1728632460.186,-14.648,-31.250,-31.738,-27.344,0.000
1728632460.190,-16.113,-23.926,-33.203,-32.715,0.000
1728632460.194,-29.297,-20.508,-33.203,-33.691,0.000
1728632460.197,-54.688,-32.227,-37.598,-35.156,0.000
1728632460.201,-49.805,-30.762,-36.621,-34.668,0.000
1728632460.205,-10.254,-15.137,-34.668,-25.391,0.000
1728632460.209,5.371,-14.648,-35.156,-25.879,0.000
1728632460.213,-18.555,-31.250,-35.156,-25.879,0.000
1728632460.217,-41.016,-45.898,-43.457,-36.133,0.000
1728632460.221,-48.340,-39.551,-46.387,-44.922,0.000
1728632460.225,-25.879,-32.715,-40.527,-39.551,0.000
1728632460.229,-9.766,-29.785,-41.992,-28.320,0.000
1728632460.233,-30.273,-33.203,-41.016,-20.996,0.000
1728632460.236,-40.039,-39.062,-36.133,-27.832,0.000
1728632460.240,-49.805,-39.062,-40.527,-39.551,0.000
1728632460.244,-40.527,-36.133,-37.598,-42.480,0.000
1728632460.248,-5.371,-33.203,-33.203,-27.832,0.000
1728632460.252,-19.043,-30.762,-39.551,-24.414,0.000
1728632460.256,-36.621,-39.551,-45.410,-36.621,0.000
1728632460.260,-45.898,-47.852,-46.875,-45.898,0.000
1728632460.264,-49.805,-43.945,-38.574,-27.344,0.000
1728632460.268,-31.250,-41.992,-32.227,-12.695,0.000
1728632460.272,-21.484,-36.621,-34.180,-13.672,0.000
1728632460.276,-40.039,-39.551,-44.434,-23.438,0.000
1728632460.279,-43.945,-41.992,-42.480,-36.621,0.000
1728632460.283,-22.949,-29.297,-33.691,-31.250,0.000
1728632460.287,-7.812,-12.207,-31.250,-24.902,0.000
1728632460.291,-4.883,-7.812,-40.527,-26.855,0.000
1728632460.295,-23.926,-16.602,-45.410,-26.367,0.000
1728632460.299,-33.203,-22.461,-46.387,-36.621,0.000
1728632460.303,-32.715,-30.273,-46.875,-35.156,0.000
1728632460.307,-27.344,-28.320,-42.969,-30.273,0.000
1728632460.311,-7.324,-20.508,-46.875,-27.344,0.000
1728632460.315,-24.902,-25.879,-44.922,-30.273,0.000
1728632460.319,-54.688,-43.457,-43.945,-33.691,0.000
1728632460.322,-34.180,-35.645,-42.969,-16.113,0.000
1728632460.326,-3.906,-8.789,-30.273,-1.465,0.000
1728632460.330,0.000,-12.695,-21.484,8.789,0.000
1728632460.334,-32.715,-27.344,-35.645,-15.137,0.000
1728632460.338,-57.129,-32.227,-43.945,-36.621,0.000
1728632460.342,-47.363,-27.832,-34.180,-30.762,0.000
1728632460.346,-14.648,-20.020,-33.203,-23.438,0.000
1728632460.350,-9.766,-18.555,-32.227,-19.531,0.000
1728632460.354,-27.344,-28.320,-39.062,-17.090,0.000
1728632460.358,-38.086,-36.133,-42.969,-20.508,0.000
1728632460.361,-46.875,-29.297,-36.133,-19.043,0.000
1728632460.365,-25.391,-28.320,-32.715,-11.230,0.000
1728632460.369,-15.137,-26.855,-33.691,-4.395,0.000
1728632460.373,-29.785,-22.461,-33.203,-11.719,0.000
1728632460.377,-36.621,-20.508,-40.039,-31.738,0.000
1728632460.381,-33.691,-18.066,-38.574,-36.621,0.000
1728632460.385,-16.113,-12.695,-29.297,-22.949,0.000
1728632460.389,7.812,-12.695,-32.715,-17.090,0.000
1728632460.393,-16.602,-17.578,-39.551,-21.973,0.000
1728632460.397,-53.711,-26.367,-38.086,-20.020,0.000
1728632460.401,-36.133,-31.250,-32.227,-29.297,0.000
1728632460.404,-9.277,-34.668,-30.273,-31.738,0.000
1728632460.408,-6.348,-37.598,-35.645,-24.902,0.000
1728632460.412,-27.832,-36.133,-42.480,-25.879,0.000
1728632460.416,-48.340,-30.762,-41.992,-41.504,0.000
1728632460.420,-46.387,-32.715,-36.133,-40.527,0.000
1728632460.424,-20.020,-35.156,-28.809,-21.484,0.000
1728632460.428,-2.930,-29.785,-30.762,-4.883,0.000
1728632460.432,-9.277,-30.762,-39.062,-1.953,0.000
1728632460.436,-21.484,-35.156,-40.527,-20.996,0.000
1728632460.440,-34.180,-31.738,-33.203,-36.133,0.000
1728632460.444,-25.879,-27.832,-30.273,-39.062,0.000
1728632460.447,-8.789,-26.367,-32.227,-28.320,0.000
1728632460.451,-13.184,-21.484,-30.273,-15.137,0.000
1728632460.455,-32.227,-33.691,-25.879,-11.230,0.000
1728632460.459,-35.645,-41.016,-23.438,-18.555,0.000
1728632460.463,-6.348,-25.879,-20.508,-14.648,0.000
1728632460.467,12.695,-23.926,-20.508,-13.184,0.000
1728632460.471,-6.836,-32.227,-20.020,-11.719,0.000
1728632460.475,-38.574,-28.809,-21.484,-11.719,0.000
1728632460.479,-52.246,-27.832,-27.832,-15.625,0.000
1728632460.483,-31.738,-31.250,-23.926,-3.418,0.000
1728632460.486,-4.395,-21.973,-17.578,7.812,0.000
1728632460.490,-12.207,-16.602,-17.090,-5.371,0.000
1728632460.494,-40.527,-23.438,-21.973,-25.879,0.000
1728632460.498,-49.316,-32.715,-27.344,-12.207,0.000
1728632460.502,-32.715,-35.156,-25.391,-2.930,0.000
1728632460.506,-6.836,-33.203,-20.508,-26.367,0.000
1728632460.510,1.465,-31.250,-28.809,-25.391,0.000
1728632460.514,-29.297,-38.574,-38.086,-16.602,0.000
1728632460.518,-46.875,-44.434,-36.133,-23.438,0.000
1728632460.522,-44.922,-39.062,-44.434,-27.344,0.000
1728632460.526,-26.855,-37.109,-54.199,-27.832,0.000
1728632460.529,-11.230,-39.551,-49.316,-34.180,0.000
1728632460.533,-41.016,-37.598,-46.387,-33.203,0.000
1728632460.537,-66.895,-35.156,-48.828,-40.527,0.000
1728632460.541,-55.176,-34.668,-42.480,-42.480,0.000
1728632460.545,-16.602,-27.832,-37.598,-22.949,0.000
1728632460.549,5.371,-20.996,-35.645,-13.672,0.000
1728632460.553,-20.020,-19.531,-35.156,-21.973,0.000
1728632460.557,-46.875,-24.902,-39.062,-34.668,0.000
1728632460.561,-34.668,-29.785,-35.156,-40.527,0.000
1728632460.565,-13.672,-31.250,-30.762,-41.016,0.000
1728632460.569,-5.859,-29.785,-37.598,-27.344,0.000
1728632460.572,-7.812,-34.668,-44.922,-20.996,0.000
1728632460.576,-27.832,-50.293,-46.875,-29.785,0.000
1728632460.580,-36.133,-42.480,-43.945,-37.598,0.000
1728632460.584,-22.949,-28.809,-37.109,-32.715,0.000
1728632460.588,-3.418,-26.367,-34.180,-23.438,0.000
1728632460.592,-10.742,-27.832,-31.250,-19.043,0.000
1728632460.596,-40.527,-32.715,-33.203,-25.391,0.000
1728632460.600,-44.922,-30.273,-36.133,-38.574,0.000
1728632460.604,-17.090,-27.344,-28.809,-25.391,0.000
1728632460.608,5.859,-29.297,-23.926,-17.090,0.000
1728632460.611,-24.414,-24.414,-34.180,-30.273,0.000
1728632460.615,-48.828,-29.785,-41.016,-33.203,0.000
1728632460.619,-45.410,-44.922,-40.039,-34.668,0.000
1728632460.623,-34.180,-39.062,-32.227,-37.598,0.000
1728632460.627,-9.766,-26.855,-29.297,-37.598,0.000
1728632460.631,-10.742,-28.320,-40.039,-37.109,0.000
1728632460.635,-42.480,-33.203,-42.480,-30.762,0.000
1728632460.639,-46.387,-28.809,-41.504,-40.039,0.000
1728632460.643,-17.090,-28.320,-36.133,-41.992,0.000
1728632460.647,6.348,-25.391,-36.133,-28.320,0.000
1728632460.651,-15.137,-28.320,-44.434,-29.785,0.000
1728632460.654,-58.105,-33.691,-43.945,-30.762,0.000
1728632460.658,-56.152,-33.203,-41.504,-39.062,0.000
1728632460.662,-28.809,-37.598,-38.086,-41.016,0.000
1728632460.666,-9.766,-33.203,-37.598,-30.273,0.000
1728632460.670,-2.930,-29.297,-32.715,-24.902,0.000
1728632460.674,-11.719,-41.504,-29.297,-22.461,0.000
1728632460.678,-42.969,-58.105,-34.668,-29.785,0.000
1728632460.682,-41.016,-54.199,-36.621,-34.668,0.000
1728632460.686,-12.695,-33.691,-36.621,-22.949,0.000
1728632460.690,-20.020,-31.738,-35.645,-20.996,0.000
1728632460.694,-37.109,-45.898,-38.086,-26.855,0.000
1728632460.697,-38.574,-41.992,-37.109,-39.062,0.000
1728632460.701,-27.832,-31.250,-28.320,-44.434,0.000
1728632460.705,-4.883,-35.156,-24.902,-30.273,0.000
1728632460.709,-9.277,-41.992,-26.367,-13.672,0.000
1728632460.713,-41.016,-36.621,-30.762,-18.555,0.000
1728632460.717,-71.777,-26.367,-34.180,-41.016,0.000
1728632460.721,-47.363,-28.320,-33.203,-43.457,0.000
1728632460.725,-11.230,-37.598,-29.297,-29.297,0.000
1728632460.729,-7.812,-39.551,-34.668,-27.344,0.000
1728632460.733,-39.551,-42.969,-41.016,-31.250,0.000
1728632460.736,-57.129,-55.664,-45.898,-30.762,0.000
1728632460.740,-43.945,-56.152,-47.363,-33.691,0.000
1728632460.744,-32.227,-38.086,-36.133,-30.273,0.000
1728632460.748,-6.836,-13.672,-30.273,-13.184,0.000
1728632460.752,-2.441,-22.949,-28.320,0.488,0.000
1728632460.756,-41.992,-40.527,-28.320,-17.090,0.000
1728632460.760,-53.223,-39.062,-32.715,-37.109,0.000
1728632460.764,-37.598,-32.227,-32.227,-32.227,0.000
1728632460.768,-23.438,-30.273,-32.227,-24.902,0.000
1728632460.772,-11.719,-33.691,-41.992,-30.273,0.000
1728632460.776,-36.133,-38.574,-49.805,-23.438,0.000
1728632460.779,-53.223,-43.457,-46.875,-27.344,0.000
1728632460.783,-31.250,-30.273,-49.316,-29.785,0.000
1728632460.787,-9.766,-26.855,-49.805,-16.113,0.000
1728632460.791,-12.695,-28.320,-30.273,-8.301,0.000
1728632460.795,-28.320,-22.461,-17.578,-6.836,0.000
1728632460.799,-40.527,-32.227,-28.320,-25.879,0.000
1728632460.803,-33.203,-37.598,-41.016,-25.879,0.000
1728632460.807,-19.531,-36.133,-36.133,-17.090,0.000
1728632460.811,-18.555,-30.273,-25.879,-20.508,0.000
1728632460.815,-36.621,-32.227,-27.344,-17.090,0.000
1728632460.819,-45.898,-33.203,-30.762,-25.391,0.000
1728632460.822,-27.344,-35.645,-31.250,-37.598,0.000
1728632460.826,0.488,-35.156,-30.762,-22.949,0.000
1728632460.830,7.812,-30.273,-35.645,-3.906,0.000
1728632460.834,-17.090,-34.180,-40.527,-3.418,0.000
1728632460.838,-37.109,-34.180,-48.340,-22.949,0.000
1728632460.842,-14.648,-31.250,-45.898,-28.320,0.000
1728632460.846,-2.441,-28.809,-33.691,-16.602,0.000
1728632460.850,-20.996,-29.785,-41.992,-21.973,0.000
1728632460.854,-39.551,-40.039,-45.898,-24.414,0.000
1728632460.858,-43.945,-44.434,-45.410,-20.508,0.000
1728632460.862,-34.180,-42.480,-41.016,-34.180,0.000
1728632460.865,-13.184,-36.621,-31.250,-23.926,0.000
1728632460.869,-14.160,-31.250,-34.668,-1.953,0.000
1728632460.873,-40.039,-30.762,-40.527,-20.996,0.000
1728632460.877,-46.875,-33.203,-41.992,-33.203,0.000
1728632460.881,-39.551,-34.180,-35.645,-22.461,0.000
1728632460.885,-20.508,-44.922,-31.250,-22.461,0.000
1728632460.889,-6.836,-47.363,-32.227,-28.809,0.000
1728632460.893,-25.879,-41.016,-35.156,-28.320,0.000
1728632460.897,-45.410,-45.410,-40.039,-31.250,0.000
1728632460.901,-51.270,-45.410,-41.992,-39.551,0.000
1728632460.904,-24.902,-39.551,-42.480,-42.969,0.000
1728632460.908,3.418,-43.945,-41.992,-33.203,0.000
1728632460.912,-16.602,-44.922,-35.156,-3.418,0.000
1728632460.916,-38.086,-39.062,-35.156,-3.906,0.000
1728632460.920,-31.738,-41.016,-39.551,-21.484,0.000
1728632460.924,-16.602,-39.062,-39.551,-19.531,0.000
1728632460.928,-17.090,-35.156,-42.969,-18.066,0.000
1728632460.932,-30.762,-40.527,-47.852,-29.785,0.000
1728632460.936,-42.969,-43.457,-49.316,-39.062,0.000
1728632460.940,-46.387,-30.273,-40.527,-49.805,0.000
1728632460.944,-23.438,-30.273,-36.133,-35.645,0.000
1728632460.947,-1.465,-39.062,-37.109,-21.973,0.000
1728632460.951,-11.230,-39.551,-37.109,-25.391,0.000
1728632460.955,-55.664,-37.598,-34.668,-24.414,0.000
1728632460.959,-52.246,-35.645,-31.250,-26.855,0.000
1728632460.963,-9.766,-43.945,-34.180,-24.902,0.000
1728632460.967,4.395,-46.875,-35.645,-17.578,0.000
1728632460.971,-6.348,-36.133,-36.621,-24.414,0.000
1728632460.975,-46.387,-29.297,-36.621,-31.250,0.000
1728632460.979,-53.711,-30.762,-37.598,-26.367,0.000
1728632460.983,-32.715,-32.715,-31.738,-25.879,0.000
1728632460.987,-18.555,-32.227,-21.484,-29.785,0.000
1728632460.990,-17.578,-28.320,-23.438,-28.320,0.000
1728632460.994,-36.133,-31.250,-34.180,-27.832,0.000
1728632460.998,-45.410,-50.293,-36.133,-36.621,0.000
1728632461.002,-42.969,-54.199,-38.574,-49.316,0.000
1728632461.006,-19.531,-46.387,-37.598,-42.480,0.000
1728632461.010,-21.484,-43.457,-37.598,-38.086,0.000
1728632461.014,-50.293,-42.480,-48.340,-46.875,0.000
1728632461.018,-59.082,-45.898,-47.363,-49.316,0.000
1728632461.022,-49.316,-45.410,-41.992,-42.969,0.000
1728632461.026,-30.273,-41.504,-37.598,-27.832,0.000
1728632461.029,-14.160,-37.598,-26.367,-20.020,0.000
1728632461.033,-29.297,-38.086,-27.344,-23.926,0.000
1728632461.037,-58.105,-45.898,-35.156,-40.527,0.000
1728632461.041,-50.781,-35.156,-32.715,-39.062,0.000
1728632461.045,-11.230,-25.391,-28.809,-30.762,0.000
1728632461.049,-4.395,-29.785,-30.273,-29.297,0.000
1728632461.053,-36.133,-24.902,-39.551,-18.066,0.000
1728632461.057,-52.246,-35.156,-41.504,-24.414,0.000
1728632461.061,-38.086,-35.156,-36.133,-38.086,0.000
1728632461.065,-15.625,-15.137,-35.156,-35.156,0.000
1728632461.069,1.953,-24.414,-28.809,-4.883,0.000
1728632461.072,-19.531,-31.738,-27.832,-3.906,0.000
1728632461.076,-42.969,-29.785,-33.691,-22.949,0.000
1728632461.080,-34.180,-31.738,-34.180,-25.879,0.000
1728632461.084,-3.906,-26.855,-38.086,-20.508,0.000
1728632461.088,-15.625,-25.391,-41.992,-7.324,0.000
1728632461.092,-53.711,-38.086,-39.551,-19.531,0.000
1728632461.096,-58.594,-45.898,-47.363,-38.086,0.000
1728632461.100,-45.410,-39.062,-50.781,-34.668,0.000
1728632461.104,-17.578,-42.480,-43.945,-28.320,0.000
1728632461.108,-8.301,-34.668,-46.387,-28.809,0.000
1728632461.112,-25.879,-25.879,-49.805,-31.738,0.000
1728632461.115,-42.480,-32.715,-48.340,-20.996,0.000
1728632461.119,-55.664,-27.344,-49.805,-23.926,0.000
1728632461.123,-42.480,-21.484,-42.480,-30.762,0.000
1728632461.127,-17.578,-27.832,-33.203,-32.227,0.000
1728632461.131,-25.879,-31.738,-36.133,-25.879,0.000
1728632461.135,-58.594,-33.203,-41.992,-42.969,0.000
1728632461.139,-60.547,-33.203,-43.457,-52.246,0.000
1728632461.143,-24.902,-28.809,-35.156,-33.203,0.000
1728632461.147,-0.977,-30.273,-20.996,-22.949,0.000
1728632461.151,-24.902,-33.691,-24.414,-29.785,0.000
1728632461.154,-58.105,-31.738,-40.527,-41.992,0.000
1728632461.158,-71.289,-42.969,-43.945,-43.945,0.000
1728632461.162,-39.062,-40.039,-32.715,-29.297,0.000
1728632461.166,-24.902,-17.578,-19.531,-18.555,0.000
1728632461.170,-29.297,-22.949,-24.414,-22.949,0.000
1728632461.174,-30.762,-39.062,-37.109,-34.180,0.000
1728632461.178,-48.828,-47.363,-34.668,-32.227,0.000
1728632461.182,-27.832,-39.551,-25.879,-33.691,0.000
1728632461.186,-8.301,-27.344,-20.996,-27.832,0.000
1728632461.190,-10.742,-29.297,-25.879,-11.230,0.000
1728632461.194,-30.273,-30.762,-22.949,-19.531,0.000
1728632461.197,-51.270,-30.762,-22.461,-34.668,0.000
1728632461.201,-50.293,-33.691,-33.691,-39.551,0.000
1728632461.205,-15.137,-32.227,-28.320,-18.066,0.000
1728632461.209,-3.906,-27.832,-20.020,-4.883,0.000
1728632461.213,-26.855,-34.180,-28.320,-25.879,0.000
1728632461.217,-41.016,-35.156,-42.969,-45.410,0.000
1728632461.221,-28.320,-25.391,-43.945,-37.598,0.000
1728632461.225,-5.371,-19.531,-38.086,-21.973,0.000
1728632461.229,0.977,-27.344,-32.715,-16.602,0.000
1728632461.233,6.348,-28.320,-26.855,-1.465,0.000
1728632461.237,-31.738,-32.227,-35.156,-15.137,0.000
1728632461.240,-63.965,-34.668,-36.133,-27.832,0.000
1728632461.244,-40.527,-37.598,-28.809,-10.254,0.000
1728632461.248,-21.484,-37.109,-34.668,-2.930,0.000
1728632461.252,-30.762,-44.434,-33.691,-20.020,0.000
1728632461.256,-46.387,-42.969,-30.273,-33.691,0.000
1728632461.260,-35.156,-38.574,-23.926,-15.137,0.000
1728632461.264,-15.625,-34.180,-25.879,0.977,0.000
1728632461.268,-13.184,-26.855,-37.109,-4.883,0.000
1728632461.272,-21.973,-35.645,-33.203,-18.066,0.000
1728632461.276,-68.359,-23.926,-31.738,-38.086,0.000
1728632461.279,-64.453,-29.297,-36.133,-33.691,0.000
1728632461.283,-19.043,-44.922,-13.184,-20.996,0.000
1728632461.287,-13.184,-32.715,-7.324,-30.273,0.000
1728632461.291,-12.695,-49.805,-25.391,-7.324,0.000
1728632461.295,-39.551,-59.570,-38.574,-27.344,0.000
1728632461.299,-45.898,-47.363,-71.777,-50.293,0.000
1728632461.303,-33.203,-52.734,-18.555,-33.691,0.000
1728632461.307,-6.836,-60.547,-2.441,-19.043,0.000
1728632461.311,-39.551,-36.133,-16.602,-32.715,0.000
1728632461.315,-74.707,-31.250,-28.809,-45.410,0.000
1728632461.319,-109.375,2.930,-54.199,-74.707,0.000
1728632461.322,-152.832,4.395,-25.879,-112.793,0.000
1728632461.326,-56.152,-77.148,-6.836,-91.309,0.000
1728632461.330,26.367,-25.391,-42.969,-38.086,0.000
1728632461.334,-46.875,-36.621,-20.996,-12.695,0.000
1728632461.338,-49.805,-100.586,-28.320,-7.812,0.000
1728632461.342,-55.664,-24.902,-60.547,-60.059,0.000
1728632461.346,-59.082,-45.898,-28.809,-62.500,0.000
1728632461.350,107.422,-119.629,-69.824,128.906,0.000
1728632461.354,105.957,-80.566,-71.777,102.051,0.000
1728632461.358,-45.898,18.066,-42.969,-48.828,0.000
1728632461.362,-194.824,-41.504,17.090,-167.480,0.000
1728632461.365,-248.047,-3.906,20.508,-333.984,0.000
1728632461.369,21.484,10.742,-169.922,-85.938,0.000
1728632461.373,11.230,-81.543,-171.387,135.742,0.000
1728632461.377,-54.688,-55.176,-74.707,42.969,0.000
1728632461.381,109.863,-125.488,-41.992,36.621,0.000
1728632461.385,172.363,-150.879,-69.824,155.273,0.000
1728632461.389,127.930,-114.258,-3.906,132.324,0.000
1728632461.393,-21.973,-103.516,40.039,-20.996,0.000
1728632461.397,-134.766,-7.812,-114.746,-73.730,0.000
1728632461.401,-64.453,-4.395,-104.492,-105.469,0.000
1728632461.404,35.156,-35.645,-98.145,-10.254,0.000
1728632461.408,44.922,-41.992,-103.516,141.113,0.000
1728632461.412,143.066,-113.281,-39.062,178.711,0.000
1728632461.416,4.395,-106.934,-10.254,75.684,0.000
1728632461.420,-7.324,-81.543,-14.648,-24.902,0.000
1728632461.424,106.934,-86.426,-78.613,62.988,0.000
1728632461.428,35.156,-67.871,-98.145,70.312,0.000
1728632461.432,39.062,-38.574,-108.398,6.836,0.000
1728632461.436,66.406,-58.594,-73.242,39.062,0.000
1728632461.440,-26.367,14.160,-23.926,-7.812,0.000
1728632461.444,20.020,-24.414,-58.105,33.691,0.000
1728632461.447,71.289,-88.867,-113.281,111.328,0.000
1728632461.451,5.859,-66.895,-62.012,63.477,0.000
1728632461.455,12.695,-53.223,-60.547,63.477,0.000
1728632461.459,37.598,-56.641,-49.316,34.180,0.000
1728632461.463,60.059,-91.797,-2.930,9.277,0.000
1728632461.467,36.133,-64.453,-31.738,16.602,0.000
1728632461.471,34.668,-53.223,-83.496,20.020,0.000
1728632461.475,19.043,-90.820,-65.918,13.672,0.000
1728632461.479,0.000,-36.133,-43.945,-14.160,0.000
1728632461.483,-0.488,-2.441,-37.598,-22.461,0.000
1728632461.487,4.395,-60.547,-51.758,-1.465,0.000
1728632461.490,5.371,-52.246,-36.621,7.324,0.000
1728632461.494,3.418,-56.152,-24.902,33.203,0.000
1728632461.498,-26.367,-37.109,-55.664,7.812,0.000
1728632461.502,-22.461,-33.203,-56.641,-20.996,0.000
1728632461.506,38.086,-51.270,-49.316,-6.348,0.000
1728632461.510,0.000,-48.340,-42.480,-17.578,0.000
1728632461.514,0.000,-42.480,-35.645,-52.246,0.000
1728632461.518,0.000,-46.875,-22.949,-23.438,0.000
1728632461.522,0.000,-33.691,-27.344,24.414,0.000
1728632461.526,0.000,-12.695,-43.457,21.973,0.000
1728632461.529,0.000,-13.672,-40.039,0.488,0.000
1728632461.533,0.000,-29.785,-40.039,-3.418,0.000
1728632461.537,0.000,-55.664,-41.504,-2.441,0.000
1728632461.541,0.000,-46.875,-35.645,-7.324,0.000
1728632461.545,0.000,-33.203,-25.391,7.324,0.000
1728632461.549,0.000,-31.738,-33.203,-6.348,0.000
1728632461.553,0.000,-38.086,-33.203,-34.668,0.000
1728632461.557,-52.246,-35.156,-30.273,-33.691,0.000
1728632461.561,-34.668,-27.344,-36.621,-26.367,0.000
1728632461.565,-10.254,-20.996,-32.715,-31.250,0.000
1728632461.569,-18.555,-27.344,-26.367,-29.785,0.000
1728632461.572,-26.367,-28.809,-26.855,-21.484,0.000
1728632461.576,-39.062,-30.762,-31.250,-24.902,0.000
1728632461.580,-40.527,-39.551,-28.320,-34.180,0.000
1728632461.584,-19.531,-28.809,-29.297,-33.203,0.000
1728632461.588,-10.742,-30.273,-33.203,-32.227,0.000
1728632461.592,-32.715,-39.551,-31.250,-19.531,0.000
1728632461.596,-53.711,-30.273,-29.785,-21.973,0.000
1728632461.600,-32.715,-23.926,-24.902,-29.785,0.000
1728632461.604,-11.230,-20.508,-20.020,-16.113,0.000
1728632461.608,-16.113,-20.508,-31.738,-10.254,0.000
1728632461.612,-30.762,-28.320,-34.668,-16.602,0.000
1728632461.615,-49.316,-37.109,-29.297,-16.602,0.000
1728632461.619,-53.223,-32.227,-35.156,-26.855,0.000
1728632461.623,-28.320,-26.855,-32.715,-20.020,0.000
1728632461.627,-17.578,-27.344,-28.320,-27.832,0.000
1728632461.631,-39.551,-24.902,-31.250,-51.758,0.000
1728632461.635,-58.594,-32.227,-40.039,-51.270,0.000
1728632461.639,-38.574,-34.668,-45.898,-46.875,0.000
1728632461.643,-20.020,-28.809,-41.992,-40.039,0.000
1728632461.647,-15.137,-35.156,-32.227,-41.992,0.000
1728632461.651,-24.902,-31.250,-38.574,-51.758,0.000
1728632461.654,-53.223,-19.043,-49.316,-60.547,0.000
1728632461.658,-58.105,-23.926,-41.504,-56.152,0.000
1728632461.662,-43.945,-24.902,-34.180,-50.293,0.000
1728632461.666,-21.973,-25.391,-29.297,-41.992,0.000
1728632461.670,-7.812,-25.391,-25.879,-31.738,0.000
1728632461.674,-36.621,-28.809,-27.344,-44.922,0.000
1728632461.678,-50.293,-40.039,-27.832,-34.180,0.000
1728632461.682,-26.367,-36.133,-25.879,-23.926,0.000
1728632461.686,-0.488,-25.879,-25.391,-16.113,0.000
1728632461.690,-15.137,-17.578,-17.578,-14.160,0.000
1728632461.694,-48.340,-30.273,-22.949,-29.785,0.000
1728632461.697,-56.152,-39.551,-40.039,-40.527,0.000
1728632461.701,-31.738,-30.273,-38.086,-38.086,0.000
