timestamps,TP9,AF7,AF8,TP10,Right AUX
1728632485.885,-16.113,-22.949,-35.645,-14.648,0.000
1728632485.889,-10.254,-22.949,-38.086,-21.484,0.000
1728632485.893,-31.738,-17.090,-45.898,-33.203,0.000
1728632485.897,-56.152,-24.902,-42.969,-40.039,0.000
1728632485.901,-40.039,-16.602,-39.062,-39.062,0.000
1728632485.905,-15.137,-14.160,-33.691,-20.020,0.000
1728632485.909,-20.996,-23.438,-36.621,-19.043,0.000
1728632485.913,-26.367,-32.227,-45.898,-21.973,0.000
1728632485.917,-45.410,-35.156,-45.898,-41.016,0.000
1728632485.921,-48.828,-27.832,-40.039,-42.480,0.000
1728632485.925,-14.648,-24.902,-41.504,-32.715,0.000
1728632485.928,-13.672,-27.832,-45.410,-32.227,0.000
1728632485.932,-46.875,-30.762,0.000,-32.715,0.000
1728632485.936,-60.547,-32.227,0.000,-38.574,0.000
1728632485.940,-34.668,-31.250,0.000,-17.090,0.000
1728632485.944,-6.836,-14.160,0.000,1.953,0.000
1728632485.948,-1.465,-1.465,0.000,-4.883,0.000
1728632485.952,-20.020,-4.395,0.000,-13.672,0.000
1728632485.956,-47.363,-10.742,0.000,-16.113,0.000
1728632485.960,-36.133,-12.695,0.000,-8.301,0.000
1728632485.964,-4.395,-13.184,0.000,-7.812,0.000
1728632485.968,-5.859,-5.859,0.000,-20.996,0.000
1728632485.971,-20.020,2.930,0.000,-22.949,0.000
1728632485.975,-35.156,0.977,0.000,-27.832,0.000
1728632485.979,-51.270,4.395,-45.898,-37.598,0.000
1728632485.983,-28.809,15.625,-38.574,-30.273,0.000
1728632485.987,0.488,9.766,-36.133,-18.555,0.000
1728632485.991,-7.324,-0.488,-40.527,-12.207,0.000
1728632485.995,-30.273,-8.789,-48.828,-25.391,0.000
1728632485.999,-43.945,-17.090,-54.688,-39.551,0.000
1728632486.003,-25.391,-18.555,-46.875,-31.738,0.000
1728632486.007,-9.277,-16.113,-38.086,-23.438,0.000
1728632486.010,-22.949,-8.789,-39.062,-27.344,0.000
1728632486.014,-41.016,-12.695,-39.062,-40.039,0.000
1728632486.018,-49.316,-14.648,-37.109,-52.246,0.000
1728632486.022,-39.062,-9.277,-36.133,-41.504,0.000
1728632486.026,-23.438,-4.395,-32.715,-25.391,0.000
1728632486.030,-18.555,-8.789,-35.156,-26.367,0.000
1728632486.034,-35.156,-20.508,-42.480,-39.551,0.000
1728632486.038,-58.594,-25.391,-44.922,-46.875,0.000
1728632486.042,-41.016,-19.531,-40.039,-40.527,0.000
1728632486.046,-8.301,-7.324,-41.016,-29.297,0.000
1728632486.050,0.488,-7.812,-41.992,-29.297,0.000
1728632486.053,-13.672,-3.418,-36.133,-29.785,0.000
1728632486.057,-35.645,-4.395,-38.574,-34.180,0.000
1728632486.061,-27.344,-20.996,-39.062,-30.273,0.000
1728632486.065,-0.977,-26.855,-35.156,-12.207,0.000
1728632486.069,-0.977,-22.461,-37.109,-19.531,0.000
1728632486.073,-20.996,-33.691,-40.039,-21.973,0.000
1728632486.077,-28.320,-38.574,-43.945,-24.414,0.000
1728632486.081,-20.508,-19.531,-41.992,-30.762,0.000
1728632486.085,-11.230,-10.254,-35.645,-33.691,0.000
1728632486.089,-16.113,-20.508,-35.156,-25.879,0.000
1728632486.093,-35.645,-41.992,-32.715,-23.438,0.000
1728632486.096,-58.594,-51.270,-35.645,-43.457,0.000
1728632486.100,-52.246,-42.480,-42.480,-43.945,0.000
1728632486.104,-21.484,-35.645,-37.109,-24.902,0.000
1728632486.108,-15.625,-39.551,-38.574,-20.996,0.000
1728632486.112,-32.227,-35.156,-47.852,-19.043,0.000
1728632486.116,-54.199,-29.785,-49.316,-37.109,0.000
1728632486.120,-44.434,-32.715,-45.410,-50.293,0.000
1728632486.124,-21.973,-20.508,-38.574,-25.391,0.000
1728632486.128,-10.742,-10.254,-27.344,-7.324,0.000
1728632486.132,-17.578,-18.066,-30.762,-9.766,0.000
1728632486.135,-50.293,-36.621,-52.734,-34.668,0.000
1728632486.139,-53.223,-52.734,-60.059,-55.176,0.000
1728632486.143,-20.020,-52.734,-46.387,-37.109,0.000
1728632486.147,-7.812,-38.574,-36.621,-23.438,0.000
1728632486.151,-9.277,-40.039,-38.574,-16.113,0.000
1728632486.155,-32.715,-44.434,-39.062,-18.555,0.000
1728632486.159,-55.664,-35.156,-33.691,-28.320,0.000
1728632486.163,-41.016,-28.320,-33.691,-17.578,0.000
1728632486.167,-20.020,-31.250,-33.203,-13.184,0.000
1728632486.171,-25.391,-35.645,-27.344,-24.414,0.000
1728632486.175,-45.898,-40.039,-34.668,-24.414,0.000
1728632486.178,-58.105,-38.086,-44.922,-34.668,0.000
1728632486.182,-34.180,-40.039,-36.133,-38.574,0.000
1728632486.186,-10.254,-31.250,-39.062,-24.414,0.000
1728632486.190,-21.484,-26.855,-41.504,-23.926,0.000
1728632486.194,-29.785,-36.621,-37.598,-26.855,0.000
1728632486.198,-44.922,-41.504,-43.945,-30.762,0.000
1728632486.202,-47.363,-44.922,-37.109,-20.508,0.000
1728632486.206,-18.066,-41.016,-34.180,-13.184,0.000
1728632486.210,-8.301,-37.109,-48.828,-5.859,0.000
1728632486.214,-30.273,-39.062,-51.270,-0.977,0.000
1728632486.218,-53.711,-47.363,-44.434,-24.902,0.000
1728632486.221,-41.504,-46.387,-34.668,-27.344,0.000
1728632486.225,-2.930,-40.039,-34.180,-15.625,0.000
1728632486.229,-6.348,-54.688,-37.598,-15.137,0.000
1728632486.233,-36.621,-71.289,-39.551,-24.414,0.000
1728632486.237,-51.758,-68.359,-45.410,-46.387,0.000
1728632486.241,-41.504,-61.035,-40.039,-40.527,0.000
1728632486.245,-11.719,-59.082,-34.180,-28.320,0.000
1728632486.249,-14.648,-57.617,-43.945,-45.410,0.000
1728632486.253,-42.480,-64.941,-45.410,-34.668,0.000
1728632486.257,-62.988,-74.219,-45.410,-41.992,0.000
1728632486.261,-67.871,-83.984,-44.922,-53.711,0.000
1728632486.264,-32.715,-86.914,-32.715,-27.344,0.000
1728632486.268,-23.438,-91.309,-35.156,-18.066,0.000
1728632486.272,-41.992,-98.633,-43.945,-23.438,0.000
1728632486.276,-51.758,-96.191,-46.875,-46.387,0.000
1728632486.280,-60.547,-86.914,-45.898,-54.199,0.000
1728632486.284,-26.367,-78.125,-45.898,-41.504,0.000
1728632486.288,-1.465,-71.777,-49.805,-27.344,0.000
1728632486.292,-16.113,-71.777,-41.504,-18.066,0.000
1728632486.296,-38.086,-72.754,-35.645,-31.250,0.000
1728632486.300,-38.086,-78.613,-41.992,-35.645,0.000
1728632486.303,-12.695,-75.195,-41.504,-20.996,0.000
1728632486.307,5.859,-51.758,-35.156,-26.855,0.000
1728632486.311,-7.324,-41.016,-36.133,-35.645,0.000
1728632486.315,-43.457,-42.969,-49.805,-42.480,0.000
1728632486.319,-50.293,-42.480,-50.781,-44.434,0.000
1728632486.323,-24.414,-34.180,-42.969,-31.250,0.000
1728632486.327,-6.348,-14.160,-42.969,-19.043,0.000
1728632486.331,-5.371,-16.113,-46.387,-3.418,0.000
1728632486.335,-35.156,-25.391,-54.199,-8.301,0.000
1728632486.339,-50.293,-22.461,-50.293,-31.250,0.000
1728632486.343,-15.625,-9.766,-36.133,-23.926,0.000
1728632486.346,0.000,-5.859,-36.133,-3.906,0.000
1728632486.350,-18.555,-12.207,-46.387,-11.230,0.000
1728632486.354,-39.551,-6.348,-44.434,-24.902,0.000
1728632486.358,-39.062,-9.766,-39.062,-31.738,0.000
1728632486.362,-26.367,-7.324,-36.133,-26.367,0.000
1728632486.366,-6.836,0.000,-31.250,-19.531,0.000
1728632486.370,-28.809,4.883,-26.855,-11.719,0.000
1728632486.374,-46.875,-7.812,-23.438,-12.207,0.000
1728632486.378,-25.879,-18.066,-32.227,-24.902,0.000
1728632486.382,-26.367,-12.207,-38.086,-24.902,0.000
1728632486.386,-20.508,-1.953,-33.203,-27.832,0.000
1728632486.389,-19.531,-8.789,-40.527,-25.879,0.000
1728632486.393,-40.039,-22.949,-43.457,-21.484,0.000
1728632486.397,-51.758,-29.785,-42.969,-33.691,0.000
1728632486.401,-40.039,-20.020,-38.086,-33.203,0.000
1728632486.405,-21.484,-6.836,-31.738,-11.230,0.000
1728632486.409,-12.695,-5.371,-32.227,-1.953,0.000
1728632486.413,-26.367,-17.578,-44.434,-20.996,0.000
1728632486.417,-51.270,-31.250,-58.105,-42.480,0.000
1728632486.421,-48.828,-29.297,-48.340,-29.785,0.000
1728632486.425,-19.531,-28.320,-35.156,-11.719,0.000
1728632486.428,-5.859,-24.902,-33.203,-15.625,0.000
1728632486.432,-20.020,-23.438,-36.621,-27.344,0.000
1728632486.436,-42.480,-27.832,-40.527,-41.992,0.000
1728632486.440,-45.898,-33.691,-31.250,-46.387,0.000
1728632486.444,-20.996,-30.762,-30.762,-27.832,0.000
1728632486.448,9.766,-26.367,-27.832,-15.137,0.000
1728632486.452,-1.465,-26.855,-29.297,-13.184,0.000
1728632486.456,-37.598,-32.227,-39.551,-19.531,0.000
1728632486.460,-52.246,-28.320,-38.086,-39.062,0.000
1728632486.464,-36.133,-21.484,-36.621,-31.738,0.000
1728632486.468,-9.277,-24.902,-35.645,-16.602,0.000
1728632486.471,-23.926,-29.785,-29.297,-14.648,0.000
1728632486.475,-49.316,-25.879,-34.180,-29.297,0.000
1728632486.479,-58.594,-18.555,-36.133,-40.039,0.000
1728632486.483,-29.785,-17.090,-19.043,-20.996,0.000
1728632486.487,5.371,-18.066,-16.113,-16.113,0.000
1728632486.491,-5.371,-21.484,-27.344,-21.973,0.000
1728632486.495,-38.574,-27.832,-36.621,-32.227,0.000
1728632486.499,-51.270,-26.367,-42.969,-39.551,0.000
1728632486.503,-28.320,-15.625,-32.715,-34.180,0.000
1728632486.507,-14.648,-5.371,-36.621,-30.762,0.000
1728632486.511,-19.043,-16.602,-40.527,-26.367,0.000
1728632486.514,-28.809,-25.391,-33.691,-28.320,0.000
1728632486.518,-41.016,-19.531,-32.227,-32.715,0.000
1728632486.522,-24.414,-9.277,-29.785,-19.531,0.000
1728632486.526,2.930,-2.930,-31.738,-14.648,0.000
1728632486.530,-12.695,-7.812,-35.645,-12.695,0.000
1728632486.534,-43.945,-10.254,-44.922,-20.996,0.000
1728632486.538,-38.574,-4.395,-47.363,-35.645,0.000
1728632486.542,-25.879,-9.277,-39.062,-26.367,0.000
1728632486.546,-13.672,-12.695,-33.691,-12.207,0.000
1728632486.550,-6.348,-16.113,-30.273,-17.090,0.000
1728632486.554,-28.809,-20.020,-33.691,-21.484,0.000
1728632486.557,-47.852,-25.879,-39.551,-29.297,0.000
1728632486.561,-46.387,-31.738,-42.480,-28.320,0.000
1728632486.565,-28.320,-23.926,-41.992,-20.996,0.000
1728632486.569,-12.207,-27.344,-39.062,-28.809,0.000
1728632486.573,-28.809,-34.180,-40.039,-27.344,0.000
1728632486.577,-53.711,-43.457,-35.156,-30.762,0.000
1728632486.581,-49.805,-37.109,-28.809,-35.156,0.000
1728632486.585,-29.297,-26.855,-32.715,-28.320,0.000
1728632486.589,-25.879,-28.320,-39.062,-32.227,0.000
1728632486.593,-39.062,-27.832,-38.086,-27.344,0.000
1728632486.596,-54.199,-24.902,-36.621,-35.156,0.000
1728632486.600,-48.340,-23.926,-49.316,-52.734,0.000
1728632486.604,-26.855,-26.855,-49.805,-38.574,0.000
1728632486.608,-14.160,-31.738,-41.016,-29.297,0.000
1728632486.612,-19.531,-23.926,-43.457,-33.203,0.000
1728632486.616,-40.039,-28.320,-41.504,-39.551,0.000
1728632486.620,-47.852,-43.945,-44.922,-32.715,0.000
1728632486.624,-23.926,-37.598,-42.969,-23.926,0.000
1728632486.628,-5.371,-29.785,-33.691,-17.090,0.000
1728632486.632,-13.672,-26.855,-32.715,-20.508,0.000
1728632486.636,-38.086,-22.949,-39.551,-37.598,0.000
1728632486.639,-43.457,-24.414,-33.691,-31.738,0.000
1728632486.643,-20.020,-28.320,-30.273,-23.438,0.000
1728632486.647,0.488,-36.621,-34.668,-26.367,0.000
1728632486.651,-18.555,-46.387,-38.086,-29.297,0.000
1728632486.655,-47.363,-52.734,-41.504,-41.504,0.000
1728632486.659,-51.270,-47.363,-44.922,-48.828,0.000
1728632486.663,-22.461,-46.875,-44.922,-36.621,0.000
1728632486.667,-4.883,-44.922,-43.945,-35.645,0.000
1728632486.671,-25.879,-53.711,-38.086,-38.574,0.000
1728632486.675,-41.504,-82.520,-41.016,-44.434,0.000
1728632486.679,-46.387,-94.238,-54.688,-48.340,0.000
1728632486.682,-28.809,-91.309,-48.340,-34.668,0.000
1728632486.686,-20.996,-95.703,-39.062,-33.691,0.000
1728632486.690,-19.043,-96.680,-44.434,-24.414,0.000
1728632486.694,-29.785,-88.867,-46.387,-24.414,0.000
1728632486.698,-35.645,-80.566,-42.480,-34.668,0.000
1728632486.702,-21.973,-83.496,-29.785,-23.926,0.000
1728632486.706,1.953,-82.031,-27.344,-7.812,0.000
1728632486.710,16.113,-74.707,-32.227,2.930,0.000
1728632486.714,-21.973,-77.637,-37.109,-17.578,0.000
1728632486.718,-52.246,-86.426,-45.410,-36.621,0.000
1728632486.721,-33.203,-84.961,-41.992,-31.738,0.000
1728632486.725,-1.953,-69.336,-33.691,-25.391,0.000
1728632486.729,2.441,-66.895,-31.738,-23.926,0.000
1728632486.733,-10.254,-67.383,-25.391,-21.484,0.000
1728632486.737,-26.367,-62.988,-22.461,-23.926,0.000
1728632486.741,-36.133,-54.199,-31.250,-34.180,0.000
1728632486.745,-21.484,-52.246,-29.785,-25.879,0.000
1728632486.749,-12.695,-63.965,-24.902,-6.836,0.000
1728632486.753,-35.645,-64.453,-38.574,-9.277,0.000
1728632486.757,-43.457,-60.547,-44.922,-27.832,0.000
1728632486.761,-34.180,-50.293,-33.203,-39.551,0.000
1728632486.764,-15.625,-53.223,-23.926,-18.066,0.000
1728632486.768,-21.973,-63.477,-24.902,-9.277,0.000
1728632486.772,-34.668,-57.617,-33.691,-15.625,0.000
1728632486.776,-44.922,-52.734,-35.156,-33.691,0.000
1728632486.780,-49.805,-55.664,-36.621,-47.363,0.000
1728632486.784,-30.762,-47.852,-38.574,-39.062,0.000
1728632486.788,-25.879,-47.363,-33.691,-31.250,0.000
1728632486.792,-34.180,-53.711,-38.574,-33.691,0.000
1728632486.796,-43.945,-61.523,-39.551,-42.480,0.000
1728632486.800,-43.945,-68.359,-30.762,-33.203,0.000
1728632486.804,-37.598,-58.105,-31.738,-16.113,0.000
1728632486.807,-23.926,-45.410,-30.273,-19.531,0.000
1728632486.811,-20.996,-50.293,-30.762,-20.508,0.000
1728632486.815,-43.457,-41.504,-35.156,-34.668,0.000
1728632486.819,-44.434,-27.832,-40.527,-52.734,0.000
1728632486.823,0.000,-27.344,-42.480,-43.945,0.000
1728632486.827,0.000,-24.902,-44.922,-38.086,0.000
1728632486.831,0.000,-23.438,-40.527,-34.180,0.000
1728632486.835,0.000,-38.086,-34.668,-43.945,0.000
1728632486.839,0.000,-46.387,-40.527,-48.340,0.000
1728632486.843,0.000,-30.762,-43.945,-30.762,0.000
1728632486.847,0.000,-26.855,-34.180,-13.184,0.000
1728632486.850,0.000,-16.602,-32.715,-23.438,0.000
1728632486.854,0.000,-26.855,-40.039,-42.969,0.000
1728632486.858,0.000,-26.367,-35.645,-34.180,0.000
1728632486.862,0.000,-7.324,-27.344,-22.461,0.000
1728632486.866,0.000,-17.578,-25.391,-16.602,0.000
1728632486.870,-19.531,-31.738,-37.109,-24.414,0.000
1728632486.874,-41.016,-32.715,-43.945,-41.992,0.000
1728632486.878,-60.059,-28.320,-40.527,-39.062,0.000
1728632486.882,-36.621,-22.949,-43.457,-33.691,0.000
1728632486.886,-18.066,-19.531,-44.922,-24.902,0.000
1728632486.889,-22.949,-21.973,-43.945,-18.555,0.000
1728632486.893,-33.691,-32.715,-43.945,-30.273,0.000
1728632486.897,-53.711,-25.879,-44.434,-43.457,0.000
1728632486.901,-47.363,-22.949,-41.992,-38.574,0.000
1728632486.905,-4.395,-30.762,-41.016,-20.996,0.000
1728632486.909,5.371,-23.438,-40.039,-14.648,0.000
1728632486.913,-28.809,-20.020,-43.945,-23.438,0.000
1728632486.917,-53.711,-35.645,-44.922,-27.832,0.000
1728632486.921,-46.875,-49.316,-39.551,-31.738,0.000
1728632486.925,-41.016,-37.598,-43.457,-24.414,0.000
1728632486.929,-31.250,-27.344,-40.527,-15.625,0.000
1728632486.932,-33.691,-31.738,-30.762,-31.250,0.000
1728632486.936,-56.152,-39.551,-35.645,-50.293,0.000
1728632486.940,-53.223,-34.180,-36.133,-46.875,0.000
1728632486.944,-24.414,-24.902,-35.156,-31.738,0.000
1728632486.948,-2.930,-38.086,-41.016,-17.090,0.000
1728632486.952,-30.273,-32.715,-42.969,-20.508,0.000
1728632486.956,-62.012,-37.598,-47.363,-32.227,0.000
1728632486.960,-52.246,-59.082,-43.945,-31.250,0.000
1728632486.964,-26.367,-44.434,-37.109,-23.438,0.000
1728632486.968,-11.719,-38.574,-32.227,-15.137,0.000
1728632486.972,-29.297,-47.363,-42.969,-23.926,0.000
1728632486.975,-53.223,-47.363,-55.664,-38.574,0.000
1728632486.979,-46.875,-47.363,-48.340,-40.527,0.000
1728632486.983,-25.391,-44.922,-44.434,-38.086,0.000
1728632486.987,-4.883,-37.109,-39.062,-26.367,0.000
1728632486.991,-1.465,-41.016,-37.598,-16.602,0.000
1728632486.995,-24.414,-45.410,-38.574,-20.508,0.000
1728632486.999,-52.246,-42.480,-25.879,-37.598,0.000
1728632487.003,-34.180,-39.062,-28.320,-32.715,0.000
1728632487.007,-4.883,-35.645,-30.762,-17.090,0.000
1728632487.011,-16.602,-31.738,-38.086,-23.926,0.000
1728632487.015,-46.387,-33.691,-36.621,-23.438,0.000
1728632487.018,-47.363,-42.969,-30.273,-20.996,0.000
1728632487.022,-16.113,-38.574,-31.738,-16.113,0.000
1728632487.026,-4.395,-40.039,-34.668,-10.742,0.000
1728632487.030,-2.441,-50.781,-35.645,-20.508,0.000
1728632487.034,-18.555,-55.176,-33.691,-26.367,0.000
1728632487.038,-43.457,-58.105,-39.062,-26.367,0.000
1728632487.042,-30.273,-53.223,-36.133,-23.926,0.000
1728632487.046,-4.883,-41.504,-27.832,-12.207,0.000
1728632487.050,-13.184,-40.527,-32.715,-6.836,0.000
1728632487.054,-29.785,-45.410,-38.086,-24.414,0.000
1728632487.057,-36.621,-51.270,-34.180,-39.062,0.000
1728632487.061,-24.902,-56.152,-35.156,-22.949,0.000
1728632487.065,-7.812,-56.641,-42.480,-3.418,0.000
1728632487.069,-19.531,-54.688,-48.340,-18.555,0.000
1728632487.073,-38.086,-56.152,-48.340,-35.156,0.000
1728632487.077,-47.852,-64.453,-46.387,-44.922,0.000
1728632487.081,-33.203,-52.734,-46.387,-34.180,0.000
1728632487.085,-1.465,-47.363,-37.598,-9.277,0.000
1728632487.089,-0.488,-44.922,-30.273,-2.930,0.000
1728632487.093,-22.461,-44.434,-34.668,-8.789,0.000
1728632487.097,-47.852,-57.129,-44.434,-29.785,0.000
1728632487.100,-47.852,-53.223,-51.758,-41.504,0.000
1728632487.104,-32.715,-41.016,-52.734,-34.180,0.000
1728632487.108,-24.902,-45.898,-49.316,-34.668,0.000
1728632487.112,-25.879,-55.664,-51.270,-37.598,0.000
1728632487.116,-40.527,-50.293,-56.641,-40.527,0.000
1728632487.120,-45.898,-51.270,-49.316,-39.062,0.000
1728632487.124,-27.832,-52.246,-43.945,-27.832,0.000
1728632487.128,-9.766,-49.805,-41.504,-14.648,0.000
1728632487.132,-28.809,-44.922,-43.457,-21.484,0.000
1728632487.136,-54.688,-31.738,-42.480,-46.875,0.000
1728632487.140,-44.922,-34.180,-40.039,-41.992,0.000
1728632487.143,-26.367,-31.738,-41.504,-26.855,0.000
1728632487.147,-10.254,-33.691,-32.715,-30.273,0.000
1728632487.151,-12.695,-35.645,-34.668,-25.391,0.000
1728632487.155,-37.598,-35.645,-39.062,-15.625,0.000
1728632487.159,-42.969,-40.527,-36.133,-22.949,0.000
1728632487.163,-21.484,-40.527,-33.203,-32.715,0.000
1728632487.167,-11.719,-39.551,-30.762,-24.902,0.000
1728632487.171,-23.926,-42.480,-39.551,-20.508,0.000
1728632487.175,-47.363,-49.316,-54.688,-37.109,0.000
1728632487.179,-62.988,-52.734,-53.711,-47.363,0.000
1728632487.182,-36.133,-42.480,-51.270,-45.898,0.000
1728632487.186,-10.254,-36.133,-35.156,-27.832,0.000
1728632487.190,-20.996,-39.551,-36.621,-21.973,0.000
1728632487.194,-44.434,-46.387,-54.688,-41.016,0.000
1728632487.198,-53.711,-44.434,-50.293,-50.781,0.000
1728632487.202,-27.344,-35.645,-43.945,-34.668,0.000
1728632487.206,-8.301,-36.133,-37.109,-20.020,0.000
1728632487.210,-9.766,-38.574,-39.551,-23.438,0.000
1728632487.214,-27.344,-41.504,-42.969,-29.785,0.000
1728632487.218,-49.805,-52.246,-41.504,-42.480,0.000
1728632487.222,-43.457,-42.480,-46.875,-50.781,0.000
1728632487.225,-20.996,-22.461,-49.805,-30.273,0.000
1728632487.229,-7.812,-27.832,-48.340,-27.344,0.000
1728632487.233,-28.809,-39.551,-43.457,-32.715,0.000
1728632487.237,-46.387,-42.480,-44.922,-25.391,0.000
1728632487.241,-42.969,-25.391,-57.617,-26.855,0.000
1728632487.245,-19.043,-29.297,-57.617,-25.391,0.000
1728632487.249,-20.020,-48.340,-45.410,-39.551,0.000
1728632487.253,-68.359,-56.152,-30.273,-67.871,0.000
1728632487.257,-77.637,-46.387,-24.414,-61.035,0.000
1728632487.261,-72.754,-35.156,-27.832,-54.688,0.000
1728632487.265,-37.598,-34.668,-59.082,-26.855,0.000
1728632487.268,8.301,-42.969,-48.340,4.883,0.000
1728632487.272,-16.113,-64.941,-21.973,-0.488,0.000
1728632487.276,-40.039,-54.688,-51.758,2.930,0.000
1728632487.280,-58.105,-45.410,-14.160,-37.109,0.000
1728632487.284,-32.227,-12.695,-26.855,-32.227,0.000
1728632487.288,-77.148,-20.508,-15.137,-91.309,0.000
1728632487.292,-150.391,-26.855,38.086,-159.668,0.000
1728632487.296,-73.242,-39.062,-18.066,-55.664,0.000
1728632487.300,-28.809,-66.895,-33.203,-19.043,0.000
1728632487.304,27.344,-73.730,-77.637,35.156,0.000
1728632487.308,51.270,-62.500,-105.469,73.242,0.000
1728632487.311,-130.371,0.977,-14.648,-96.191,0.000
1728632487.315,-218.750,56.152,-28.809,-166.016,0.000
1728632487.319,-96.191,-31.250,-14.160,-33.691,0.000
1728632487.323,-147.949,-62.012,34.668,-136.230,0.000
1728632487.327,-136.719,-25.391,-34.180,-195.312,0.000
1728632487.331,-41.016,10.254,-80.566,-21.973,0.000
1728632487.335,-43.457,-54.688,-77.637,10.254,0.000
1728632487.339,13.184,-94.727,-41.504,44.922,0.000
1728632487.343,41.016,-110.352,-54.688,27.832,0.000
1728632487.347,42.969,-67.871,-114.258,-29.785,0.000
1728632487.350,9.277,4.883,-93.750,-2.930,0.000
1728632487.354,-30.762,-74.707,-37.598,-6.836,0.000
1728632487.358,-98.145,-84.961,-14.648,-101.074,0.000
1728632487.362,-66.406,-54.199,-91.309,-63.477,0.000
1728632487.366,-59.082,-69.824,-118.652,62.988,0.000
1728632487.370,41.016,-66.406,-68.359,118.652,0.000
1728632487.374,133.789,-106.934,-69.824,119.141,0.000
1728632487.378,58.105,-64.453,-80.566,61.523,0.000
1728632487.382,71.777,-48.340,-56.641,53.711,0.000
1728632487.386,28.320,1.465,-62.500,53.223,0.000
1728632487.390,-11.230,11.230,-169.922,57.129,0.000
1728632487.393,66.895,-71.289,-113.281,103.516,0.000
1728632487.397,88.379,-101.562,-47.852,108.398,0.000
1728632487.401,46.875,-91.797,-57.129,65.918,0.000
1728632487.405,17.578,-51.758,24.414,-7.324,0.000
1728632487.409,45.410,-45.898,0.488,-29.785,0.000
1728632487.413,84.473,-54.199,-144.531,75.684,0.000
1728632487.417,7.324,-60.547,-108.887,66.895,0.000
1728632487.421,4.883,-58.105,-55.176,14.648,0.000
1728632487.425,108.887,-64.941,-81.543,33.203,0.000
1728632487.429,23.438,-78.613,-63.965,26.855,0.000
1728632487.433,-33.691,-40.039,-64.453,5.859,0.000
1728632487.436,-5.859,-42.480,-69.336,-15.137,0.000
1728632487.440,-64.941,-53.223,-37.109,-31.738,0.000
1728632487.444,21.973,-37.598,-64.941,19.531,0.000
1728632487.448,85.449,-36.133,-68.359,19.531,0.000
1728632487.452,11.719,-32.715,-34.668,-1.465,0.000
1728632487.456,-32.227,-26.855,-49.805,22.949,0.000
1728632487.460,-59.570,-30.273,-49.316,-30.762,0.000
1728632487.464,-46.387,-47.363,-46.875,-60.547,0.000
1728632487.468,25.879,-40.527,-53.711,9.277,0.000
1728632487.472,10.254,-67.383,-28.320,-0.977,0.000
1728632487.475,-85.449,-35.156,-51.758,-66.406,0.000
1728632487.479,-44.434,-40.527,-36.621,-64.941,0.000
1728632487.483,48.340,-48.340,-52.734,19.043,0.000
1728632487.487,54.688,-19.531,-80.566,29.297,0.000
1728632487.491,14.648,-29.785,-69.336,9.766,0.000
1728632487.495,-12.207,-43.457,-44.922,15.137,0.000
1728632487.499,0.488,-44.922,-35.645,1.465,0.000
1728632487.503,-11.230,-31.250,-49.316,-20.996,0.000
1728632487.507,-15.625,-33.691,-48.340,-34.180,0.000
1728632487.511,-0.977,-14.160,-58.105,-15.625,0.000
1728632487.515,-8.301,-28.320,-32.715,-26.855,0.000
1728632487.518,-38.086,-28.809,-26.855,-58.105,0.000
1728632487.522,-7.812,-17.578,-53.711,-17.090,0.000
1728632487.526,11.719,-23.926,-38.086,-5.371,0.000
1728632487.530,-21.973,-28.320,-37.598,-13.672,0.000
1728632487.534,-48.340,-31.738,-34.668,-20.508,0.000
1728632487.538,-47.363,-40.039,-31.250,-20.020,0.000
1728632487.542,-41.504,-30.273,-30.762,-17.090,0.000
1728632487.546,-23.438,-11.719,-34.668,-33.691,0.000
1728632487.550,-16.113,-17.578,-36.133,-32.227,0.000
1728632487.554,-41.016,-35.156,-39.062,-34.668,0.000
1728632487.558,-58.594,-34.668,-42.480,-56.641,0.000
1728632487.561,-41.504,-33.691,-30.762,-42.969,0.000
1728632487.565,-22.461,-27.344,-24.902,-21.484,0.000
1728632487.569,-12.695,-23.926,-22.949,-24.902,0.000
1728632487.573,-25.391,-22.949,-27.832,-32.715,0.000
1728632487.577,-50.781,-26.855,-28.320,-32.715,0.000
1728632487.581,-49.316,-24.414,-27.832,-22.949,0.000
1728632487.585,-24.414,-18.066,-21.484,-17.578,0.000
1728632487.589,-7.324,-24.414,-18.066,-14.160,0.000
1728632487.593,-28.320,-36.621,-25.879,-13.672,0.000
1728632487.597,-49.316,-25.391,-34.180,-19.531,0.000
1728632487.600,-41.992,-11.230,-28.809,-33.203,0.000
1728632487.604,-37.109,-10.254,-28.320,-36.133,0.000
1728632487.608,-32.227,-25.391,-41.016,-28.809,0.000
1728632487.612,-44.922,-36.133,-42.969,-37.109,0.000
1728632487.616,-63.477,-36.621,-49.316,-50.781,0.000
1728632487.620,-53.711,-39.551,-45.898,-47.363,0.000
1728632487.624,-38.086,-32.227,-32.715,-37.109,0.000
1728632487.628,-27.832,-20.996,-33.691,-34.668,0.000
1728632487.632,-24.414,-18.066,-38.086,-36.621,0.000
1728632487.636,-54.199,-33.203,-37.109,-35.156,0.000
1728632487.640,-70.801,-46.875,-33.203,-35.156,0.000
1728632487.643,-27.832,-41.992,-30.762,-26.367,0.000
1728632487.647,-3.906,-25.879,-38.086,-20.508,0.000
1728632487.651,-7.324,-30.762,-34.180,-37.598,0.000
1728632487.655,-28.320,-37.598,-32.227,-30.762,0.000
1728632487.659,-59.082,-19.043,-39.551,-32.715,0.000
1728632487.663,-60.059,-5.859,-36.133,-45.410,0.000
1728632487.667,-29.297,-26.855,-36.133,-36.621,0.000
1728632487.671,-20.996,-35.156,-37.598,-25.879,0.000
1728632487.675,-40.527,-25.879,-35.645,-34.668,0.000
1728632487.679,-44.434,-31.250,-35.645,-41.992,0.000
1728632487.683,-35.645,-30.762,-18.066,-39.551,0.000
1728632487.686,-17.090,-26.855,-23.926,-32.715,0.000
1728632487.690,-28.809,-22.461,-38.574,-33.203,0.000
1728632487.694,-49.316,-26.855,-36.133,-49.316,0.000
1728632487.698,-31.738,-37.598,-32.715,-40.527,0.000
1728632487.702,-37.109,-27.344,-34.180,-26.367,0.000
1728632487.706,-14.648,-22.461,-32.227,-14.160,0.000
1728632487.710,-9.766,-29.297,-23.438,-15.625,0.000
1728632487.714,-41.992,-27.832,-24.414,-27.344,0.000
1728632487.718,-60.059,-35.156,-22.949,-36.133,0.000
1728632487.722,-60.059,-34.668,-24.414,-30.273,0.000
1728632487.726,-41.016,-26.855,-37.109,-29.785,0.000
1728632487.729,-22.949,-34.180,-41.504,-39.062,0.000
1728632487.733,-37.109,-34.668,-34.668,-33.691,0.000
1728632487.737,-58.594,-37.598,-25.391,-34.668,0.000
1728632487.741,-43.457,-35.156,-20.508,-40.527,0.000
1728632487.745,-6.836,-30.273,-22.461,-32.715,0.000
1728632487.749,-6.836,-24.902,-28.320,-29.297,0.000
1728632487.753,-36.133,-27.832,-28.809,-41.504,0.000
1728632487.757,-57.129,-29.785,-36.133,-41.992,0.000
1728632487.761,-55.176,-20.020,-40.039,-29.785,0.000
1728632487.765,-32.227,-13.184,-37.109,-30.762,0.000
1728632487.768,-20.508,-15.625,-31.738,-30.762,0.000
1728632487.772,-29.297,-18.066,-26.855,-29.297,0.000
1728632487.776,-50.293,-20.996,-32.715,-32.715,0.000
1728632487.780,-37.109,-22.461,-33.691,-36.621,0.000
1728632487.784,0.488,-17.090,-28.320,-35.156,0.000
1728632487.788,-6.348,-18.555,-27.832,-22.461,0.000
1728632487.792,-27.832,-27.832,-25.879,-13.672,0.000
1728632487.796,-40.527,-26.855,-28.809,-32.227,0.000
1728632487.800,-55.664,-28.320,-34.668,-42.480,0.000
1728632487.804,-39.551,-24.902,-33.691,-29.785,0.000
1728632487.808,-26.855,-20.020,-27.832,-42.969,0.000
1728632487.811,-44.434,-18.555,-23.926,-57.617,0.000
1728632487.815,-57.617,-14.648,-37.598,-57.129,0.000
1728632487.819,-59.082,-15.137,-38.086,-58.594,0.000
1728632487.823,-52.246,-21.484,-32.715,-59.570,0.000
1728632487.827,-28.809,-20.020,-30.273,-37.598,0.000
1728632487.831,-29.297,-31.250,-27.344,-45.410,0.000
1728632487.835,-69.824,-46.875,-35.156,-64.941,0.000
1728632487.839,-77.637,-38.574,-38.086,-58.105,0.000
1728632487.843,-48.340,-28.320,-34.668,-63.477,0.000
1728632487.847,-34.668,-28.320,-33.203,-46.387,0.000
1728632487.851,-37.109,-38.574,-32.227,-35.156,0.000
1728632487.854,-68.359,-33.691,-39.551,-51.758,0.000
1728632487.858,-76.660,-25.879,-38.086,-57.617,0.000
1728632487.862,-36.621,-31.738,-25.879,-33.691,0.000
1728632487.866,-13.184,-24.902,-26.855,-28.809,0.000
1728632487.870,-19.043,-22.461,-22.949,-37.109,0.000
1728632487.874,-42.969,-37.598,-26.855,-43.945,0.000
1728632487.878,-52.734,-37.598,-41.016,-54.688,0.000
1728632487.882,-41.504,-19.043,-43.457,-47.852,0.000
1728632487.886,-19.531,-18.066,-33.203,-34.180,0.000
1728632487.890,-16.113,-22.949,-34.668,-38.574,0.000
1728632487.893,-30.762,-20.508,-42.480,-50.781,0.000
1728632487.897,-41.504,-26.367,-45.898,-51.270,0.000
1728632487.901,-38.574,-20.996,-43.457,-49.316,0.000
1728632487.905,-28.320,-12.695,-36.133,-39.062,0.000
1728632487.909,-18.555,-15.625,-36.133,-36.133,0.000
1728632487.913,-40.527,-23.926,-37.598,-49.805,0.000
1728632487.917,-75.684,-29.785,-41.992,-66.406,0.000
1728632487.921,-67.383,-30.762,-41.016,-54.199,0.000
1728632487.925,-26.855,-27.832,-36.621,-27.344,0.000
1728632487.929,-33.691,-19.531,-33.203,-28.809,0.000
1728632487.933,-46.387,-9.766,-30.762,-31.738,0.000
1728632487.936,-57.617,-14.648,-39.551,-40.039,0.000
1728632487.940,-60.059,-26.367,-35.645,-39.551,0.000
1728632487.944,-24.902,-23.438,-20.508,-35.156,0.000
1728632487.948,-7.812,-24.902,-28.320,-20.508,0.000
1728632487.952,-14.160,-31.250,-37.109,-5.859,0.000
1728632487.956,-35.645,-32.715,-30.273,-14.648,0.000
1728632487.960,-47.363,-28.809,-29.297,-30.273,0.000
1728632487.964,-30.762,-25.391,-26.855,-30.273,0.000
1728632487.968,-16.602,-28.320,-28.320,-31.738,0.000
1728632487.972,-38.574,-28.320,-37.598,-45.410,0.000
1728632487.976,-52.734,-21.484,-33.203,-44.434,0.000
1728632487.979,-42.480,-21.973,-25.879,-38.574,0.000
1728632487.983,-30.762,-27.344,-30.273,-31.250,0.000
1728632487.987,-26.855,-28.320,-34.668,-29.297,0.000
1728632487.991,-29.785,-31.738,-39.062,-26.367,0.000
1728632487.995,-35.645,-42.480,-43.945,-44.922,0.000
1728632487.999,-48.828,-39.062,-42.480,-66.406,0.000
1728632488.003,-27.832,-34.668,-39.551,-36.133,0.000
1728632488.007,-16.602,-29.297,-28.320,-14.160,0.000
1728632488.011,-24.902,-26.855,-27.344,-20.508,0.000
1728632488.015,-44.434,-41.992,-36.621,-32.715,0.000
1728632488.019,-61.523,-44.434,-33.691,-42.480,0.000
1728632488.022,-38.574,-34.668,-28.809,-42.969,0.000
1728632488.026,-13.672,-35.156,-27.344,-20.508,0.000
1728632488.030,-17.578,-46.875,-29.297,-17.578,0.000
1728632488.034,-40.527,-44.922,-34.180,-43.457,0.000
1728632488.038,-51.758,-41.992,-41.016,-38.574,0.000
1728632488.042,-20.508,-49.805,-31.250,-29.297,0.000
1728632488.046,-1.465,-36.133,-27.832,-25.879,0.000
1728632488.050,-28.320,-28.320,-37.109,-33.691,0.000
1728632488.054,-53.223,-41.016,-40.039,-39.551,0.000
1728632488.058,-69.824,-53.223,-36.621,-45.410,0.000
1728632488.061,-62.500,-49.805,-34.180,-55.664,0.000
1728632488.065,-40.039,-40.039,-35.645,-46.875,0.000
1728632488.069,-26.367,-40.039,-33.691,-30.762,0.000
1728632488.073,-23.926,-35.156,-41.504,-25.879,0.000
1728632488.077,-53.711,-37.109,-38.574,-39.551,0.000
1728632488.081,-54.688,-32.227,-33.691,-54.688,0.000
1728632488.085,-19.043,-35.156,-42.480,-37.598,0.000
1728632488.089,-9.766,-38.574,-32.715,-18.555,0.000
1728632488.093,-29.785,-40.527,-30.273,-21.484,0.000
1728632488.097,-49.805,-52.734,-34.668,-27.832,0.000
1728632488.101,-43.457,-42.969,-27.344,-29.297,0.000
1728632488.104,-11.230,-45.410,-18.555,-11.719,0.000
1728632488.108,-10.254,-59.570,-25.391,-20.020,0.000
1728632488.112,-37.109,-58.105,-37.109,-36.621,0.000
1728632488.116,-52.246,-55.664,-37.109,-38.574,0.000
1728632488.120,-52.246,-51.270,-32.715,-41.504,0.000
1728632488.124,-41.504,-44.434,-34.668,-35.156,0.000
1728632488.128,-20.020,-46.387,-28.809,-20.996,0.000
1728632488.132,-13.184,-41.992,-23.926,-23.438,0.000
1728632488.136,-34.180,-40.039,0.000,-36.133,0.000
1728632488.140,-44.434,-41.992,0.000,-43.457,0.000
1728632488.144,-28.320,-41.992,0.000,-35.156,0.000
1728632488.147,-11.719,-51.758,0.000,-25.391,0.000
1728632488.151,-33.203,-52.734,0.000,-31.738,0.000
1728632488.155,-45.410,-39.062,0.000,-41.504,0.000
1728632488.159,-55.664,-31.250,0.000,-41.992,0.000
1728632488.163,-39.062,-24.414,0.000,-27.344,0.000
1728632488.167,-24.414,-22.461,0.000,-28.809,0.000
1728632488.171,-33.203,-34.180,0.000,-38.086,0.000
1728632488.175,-47.852,-34.668,0.000,-36.621,0.000
1728632488.179,-60.059,-30.273,0.000,-41.992,0.000
1728632488.183,-36.621,-26.367,-37.109,-39.551,0.000
1728632488.187,-17.090,-20.020,-34.668,-25.391,0.000
1728632488.190,-31.250,-24.902,-40.039,-24.902,0.000
1728632488.194,-50.781,-27.832,-40.039,-31.250,0.000
1728632488.198,-59.082,-25.391,-35.645,-40.039,0.000
1728632488.202,-38.574,-23.926,-38.086,-37.109,0.000
1728632488.206,-10.742,-32.227,-33.691,-20.996,0.000
1728632488.210,-4.883,-40.039,-33.203,-29.297,0.000
1728632488.214,-37.598,-39.062,-39.551,-41.504,0.000
1728632488.218,-62.500,-37.109,-45.410,-37.598,0.000
1728632488.222,-38.574,-38.086,-45.410,-33.691,0.000
1728632488.226,-22.461,-29.785,-43.945,-31.738,0.000
1728632488.229,-26.855,-30.273,-34.668,-25.391,0.000
1728632488.233,-32.715,-43.457,-38.086,-33.691,0.000
1728632488.237,-52.734,-58.594,-48.340,-49.805,0.000
1728632488.241,-52.734,-50.293,-34.668,-54.199,0.000
1728632488.245,-31.250,-33.203,-23.926,-37.109,0.000
1728632488.249,-21.973,-26.855,-26.367,-31.738,0.000
1728632488.253,-26.367,-18.555,-39.062,-32.227,0.000
1728632488.257,-55.176,-22.461,-40.527,-32.227,0.000
1728632488.261,-53.223,-26.855,-35.156,-40.527,0.000
1728632488.265,-29.785,-36.133,-36.621,-39.551,0.000
1728632488.269,-30.762,-41.504,-44.922,-41.992,0.000
1728632488.272,-27.344,-45.410,-40.527,-36.133,0.000
1728632488.276,-43.457,-52.734,-40.039,-29.785,0.000
1728632488.280,-41.504,-41.992,-39.551,-26.367,0.000
1728632488.284,-19.531,-22.949,-31.738,-23.438,0.000
1728632488.288,0.977,-25.391,-30.273,-19.531,0.000
1728632488.292,-17.090,-32.715,-35.156,-22.949,0.000
1728632488.296,-46.875,-36.621,-47.852,-36.621,0.000
1728632488.300,-33.691,-43.945,-46.387,-39.062,0.000
1728632488.304,-22.949,-35.156,-34.668,-33.691,0.000
1728632488.308,-3.418,-23.926,-32.715,-18.555,0.000
1728632488.312,3.418,-17.578,-31.738,-11.719,0.000
1728632488.315,-32.227,-24.414,-37.109,-30.762,0.000
1728632488.319,-44.922,-27.832,-38.574,-44.434,0.000
1728632488.323,-11.230,-25.391,-25.391,-25.879,0.000
1728632488.327,-2.441,-22.461,-23.438,-6.836,0.000
1728632488.331,-8.789,-19.531,-27.832,-10.742,0.000
1728632488.335,-20.996,-31.250,-35.645,-20.508,0.000
1728632488.339,-31.738,-32.227,-35.156,-19.043,0.000
1728632488.343,-13.184,-26.855,-25.391,-10.254,0.000
1728632488.347,-12.207,-19.531,-26.855,-12.207,0.000
1728632488.351,-18.066,-15.625,-20.020,-8.301,0.000
1728632488.354,-28.320,-12.207,-14.160,-13.672,0.000
1728632488.358,-41.992,-22.949,-18.555,-27.832,0.000
1728632488.362,-28.809,-29.785,-20.996,-32.715,0.000
1728632488.366,-13.672,-25.391,-21.484,-39.551,0.000
1728632488.370,-27.832,-36.621,-25.391,-39.551,0.000
1728632488.374,-44.434,-42.969,-29.297,-27.344,0.000
1728632488.378,-41.016,-35.645,-34.180,-35.645,0.000
1728632488.382,-32.715,-23.438,-31.250,-31.250,0.000
1728632488.386,-23.438,-19.531,-28.809,-29.785,0.000
1728632488.390,-20.996,-21.484,-38.086,-39.551,0.000
1728632488.394,-41.504,-23.438,-37.598,-37.109,0.000
1728632488.397,-57.617,-30.762,-33.691,-46.387,0.000
1728632488.401,-47.852,-33.203,-31.738,-42.480,0.000
1728632488.405,-21.484,-33.203,-25.879,-14.160,0.000
1728632488.409,-12.695,-21.973,-20.508,-17.090,0.000
1728632488.413,-28.809,-22.461,-28.320,-27.344,0.000
1728632488.417,0.000,-44.434,-30.762,-35.645,0.000
1728632488.421,0.000,-39.551,-19.043,-45.898,0.000
1728632488.425,0.000,-17.090,-17.090,-42.969,0.000
1728632488.429,0.000,-19.043,-25.391,-47.852,0.000
1728632488.433,0.000,-30.273,-39.062,-48.340,0.000
1728632488.437,0.000,-39.062,-45.410,-52.246,0.000
1728632488.440,0.000,-37.109,-41.504,-42.969,0.000
1728632488.444,0.000,-28.809,-33.691,-19.531,0.000
1728632488.448,0.000,-36.133,-34.668,-7.812,0.000
1728632488.452,0.000,-41.016,-40.527,-14.648,0.000
1728632488.456,0.000,-29.297,-39.551,-35.156,0.000
1728632488.460,0.000,-34.180,-33.691,-34.668,0.000
1728632488.464,-48.340,-34.668,-31.250,-13.672,0.000
1728632488.468,-11.719,-29.785,-35.156,-15.625,0.000
1728632488.472,-31.250,-35.645,-42.480,-20.996,0.000
1728632488.476,-58.594,-43.945,-45.410,-45.410,0.000
1728632488.480,-56.152,-47.363,-39.062,-54.199,0.000
1728632488.483,-34.180,-47.852,-29.785,-20.996,0.000
1728632488.487,-16.113,-37.109,-31.250,-13.672,0.000
1728632488.491,-33.691,-22.949,-36.133,-21.484,0.000
1728632488.495,-52.246,-25.391,-50.781,-41.016,0.000
1728632488.499,-58.594,-34.180,-50.781,-50.781,0.000
1728632488.503,-37.109,-34.668,-37.598,-29.297,0.000
1728632488.507,-8.789,-26.367,-36.133,-14.160,0.000
1728632488.511,0.000,-31.738,-39.062,-24.902,0.000
1728632488.515,0.000,-36.621,-45.410,-36.133,0.000
1728632488.519,0.000,-38.086,-43.457,-39.062,0.000
1728632488.522,0.000,-42.480,-38.086,-32.227,0.000
1728632488.526,0.000,-33.203,-41.504,-19.043,0.000
1728632488.530,0.000,-24.902,-41.992,-6.836,0.000
1728632488.534,0.000,-29.297,-39.062,-7.812,0.000
1728632488.538,0.000,-40.527,-51.758,-33.203,0.000
1728632488.542,0.000,-41.992,-53.711,-38.086,0.000
1728632488.546,0.000,-33.691,-44.922,-28.809,0.000
1728632488.550,0.000,-41.504,-42.480,-30.762,0.000
1728632488.554,0.000,-54.199,-43.945,-30.273,0.000
1728632488.558,-41.016,-41.504,-50.781,-34.180,0.000
1728632488.562,-70.801,-23.438,-45.410,-33.691,0.000
1728632488.565,-42.480,-20.996,-37.109,-19.531,0.000
1728632488.569,-9.277,-23.438,-47.363,-32.227,0.000
1728632488.573,2.441,-39.062,-51.758,-40.039,0.000
1728632488.577,1.465,-48.340,-57.129,-39.062,0.000
1728632488.581,-6.836,-39.551,-57.129,-28.320,0.000
1728632488.585,-41.992,-31.738,-50.781,-17.090,0.000
1728632488.589,-50.293,-19.531,-54.199,-16.113,0.000
1728632488.593,-17.578,-20.996,-49.316,-14.648,0.000
1728632488.597,-22.461,-28.809,-53.223,-28.809,0.000
1728632488.601,-46.875,-31.250,-53.223,-38.574,0.000
1728632488.604,-18.066,-26.855,-55.176,-25.391,0.000
1728632488.608,-18.555,-23.438,-54.199,-26.855,0.000
1728632488.612,-44.434,-24.902,-51.270,-42.480,0.000
1728632488.616,-52.734,-33.691,-58.105,-39.551,0.000
1728632488.620,-41.016,-34.668,-57.617,-37.598,0.000
1728632488.624,-20.996,-34.180,-48.340,-32.715,0.000
1728632488.628,-4.395,-44.922,-46.875,-20.508,0.000
1728632488.632,-28.320,-45.410,-49.316,-25.879,0.000
1728632488.636,-66.895,-39.551,-54.199,-52.246,0.000
1728632488.640,-57.617,-47.363,-60.547,-55.664,0.000
1728632488.644,-19.531,-39.062,-47.852,-31.738,0.000
1728632488.647,2.441,-25.391,-38.086,-21.484,0.000
1728632488.651,-15.625,-29.785,-44.434,-31.250,0.000
1728632488.655,-52.734,-38.574,-56.641,-53.223,0.000
1728632488.659,-56.152,-50.781,-53.223,-51.758,0.000
1728632488.663,-22.949,-45.898,-41.504,-42.969,0.000
1728632488.667,-9.766,-21.973,-42.969,-38.574,0.000
1728632488.671,-22.461,-23.926,-42.480,-31.250,0.000
1728632488.675,-51.758,-41.016,-43.457,-42.969,0.000
1728632488.679,-59.570,-41.016,-45.898,-41.504,0.000
1728632488.683,-46.875,-28.320,-37.598,-28.320,0.000
1728632488.687,-19.043,-25.879,-31.250,-22.461,0.000
1728632488.690,-15.137,-34.668,-34.668,-20.508,0.000
1728632488.694,-39.062,-31.250,-34.180,-25.879,0.000
1728632488.698,-55.176,-32.715,-34.668,-31.250,0.000
1728632488.702,-42.480,-39.551,-34.668,-29.785,0.000
1728632488.706,-20.508,-37.598,-26.855,-17.090,0.000
1728632488.710,-24.902,-27.344,-22.461,-15.137,0.000
1728632488.714,-42.969,-30.762,-36.621,-30.762,0.000
1728632488.718,-57.617,-49.316,-49.805,-36.621,0.000
1728632488.722,-47.363,-42.969,-42.969,-33.691,0.000
1728632488.726,-33.691,-28.809,-33.691,-35.156,0.000
1728632488.729,-30.762,-32.227,-37.109,-35.156,0.000
1728632488.733,-44.434,-43.945,-40.039,-41.504,0.000
1728632488.737,-59.570,-46.387,-38.086,-49.805,0.000
1728632488.741,-41.992,-37.109,-31.738,-43.457,0.000
1728632488.745,-10.742,-33.203,-32.715,-29.785,0.000
1728632488.749,-21.973,-35.156,-36.133,-24.414,0.000
1728632488.753,-31.250,-27.344,-41.504,-28.320,0.000
1728632488.757,-46.875,-28.320,-45.898,-33.203,0.000
1728632488.761,-56.641,-43.457,-42.480,-29.785,0.000
1728632488.765,-23.926,-26.367,-41.016,-13.184,0.000
1728632488.769,-10.254,-22.949,-44.434,-16.602,0.000
1728632488.772,-37.109,-40.527,-54.688,-43.945,0.000
1728632488.776,-47.363,-59.570,-61.523,-42.480,0.000
1728632488.780,-28.320,-67.871,-58.594,-31.250,0.000
1728632488.784,-18.555,-41.504,-43.945,-29.297,0.000
1728632488.788,-9.766,-32.227,-39.062,-20.996,0.000
1728632488.792,-38.086,-46.387,-34.668,-15.137,0.000
1728632488.796,-66.406,-50.293,-36.133,-26.367,0.000
1728632488.800,-40.039,-48.828,-43.457,-41.504,0.000
1728632488.804,-28.320,-52.246,-32.227,-38.574,0.000
1728632488.808,-25.391,-49.805,-32.715,-31.250,0.000
1728632488.812,-18.555,-44.434,-31.738,-26.855,0.000
1728632488.815,-57.129,-51.758,-28.809,-34.180,0.000
1728632488.819,-74.219,-62.500,-35.156,-38.574,0.000
1728632488.823,-27.832,-59.082,-34.668,-32.227,0.000
1728632488.827,-15.137,-54.199,-38.574,-21.973,0.000
1728632488.831,-41.504,-47.363,-44.922,-27.832,0.000
1728632488.835,-55.176,-53.711,-41.504,-34.668,0.000
1728632488.839,-57.129,-58.105,-33.691,-35.156,0.000
1728632488.843,-44.434,-44.922,-30.273,-35.645,0.000
1728632488.847,-22.949,-43.945,-34.668,-32.715,0.000
1728632488.851,-11.719,-34.668,-47.363,-23.438,0.000
1728632488.855,-32.227,-24.902,-56.152,-16.113,0.000
1728632488.858,-46.387,-24.414,-57.129,-32.715,0.000
1728632488.862,-13.184,-25.391,-48.340,-40.039,0.000
1728632488.866,14.160,-26.855,-36.133,-17.090,0.000
1728632488.870,-6.348,-29.785,-33.203,-9.766,0.000
1728632488.874,-41.504,-24.414,-45.898,-41.992,0.000
1728632488.878,-46.387,-23.438,-59.082,-47.852,0.000
1728632488.882,-36.621,-29.785,-56.641,-39.062,0.000
1728632488.886,-20.020,-32.227,-47.852,-34.668,0.000
1728632488.890,-0.977,-28.809,-44.434,-28.320,0.000
1728632488.894,-20.020,-38.574,-46.875,-19.043,0.000
1728632488.897,-30.273,-49.805,-48.340,-20.996,0.000
1728632488.901,-21.484,-44.434,-41.016,-30.273,0.000
1728632488.905,-12.695,-43.457,-37.109,-23.926,0.000
1728632488.909,-14.160,-49.316,-38.574,-24.902,0.000
1728632488.913,-36.621,-60.547,-37.109,-27.832,0.000
1728632488.917,-57.617,-65.430,-30.762,-30.273,0.000
1728632488.921,-49.316,-55.176,-27.832,-42.480,0.000
1728632488.925,-33.203,-48.828,-34.180,-40.527,0.000
1728632488.929,-27.344,-52.734,-31.738,-13.184,0.000
1728632488.933,0.000,-48.340,-34.668,-24.414,0.000
1728632488.937,0.000,-48.828,-41.016,-48.828,0.000
1728632488.940,0.000,-51.758,-41.992,-40.527,0.000
1728632488.944,0.000,-37.109,-36.133,-30.762,0.000
1728632488.948,0.000,-30.762,-38.086,-31.738,0.000
1728632488.952,0.000,-41.504,-45.898,-44.922,0.000
1728632488.956,0.000,-46.875,-50.781,-52.246,0.000
1728632488.960,0.000,-47.852,-50.781,-43.457,0.000
1728632488.964,0.000,-43.457,-37.598,-26.855,0.000
1728632488.968,0.000,-24.902,-26.855,-13.184,0.000
1728632488.972,0.000,-33.691,-38.086,-19.531,0.000
1728632488.976,0.000,-38.574,-54.688,-38.086,0.000
1728632488.980,-57.617,-29.297,-47.363,-39.551,0.000
1728632488.983,-36.621,-30.762,-33.691,-28.320,0.000
1728632488.987,3.418,-25.391,-42.480,-24.902,0.000
1728632488.991,-16.602,-28.809,-53.223,-15.137,0.000
1728632488.995,-48.828,-39.062,-49.805,-24.902,0.000
1728632488.999,-38.574,-42.969,-42.480,-32.715,0.000
1728632489.003,-14.160,-38.574,-31.250,-6.348,0.000
1728632489.007,0.977,-29.785,-31.250,-6.836,0.000
1728632489.011,-0.488,-28.320,-31.738,-12.695,0.000
1728632489.015,-18.066,-38.086,-27.344,-14.648,0.000
1728632489.019,-42.969,-41.992,-34.180,-30.273,0.000
1728632489.022,-25.391,-25.391,-43.945,-20.020,0.000
1728632489.026,-9.766,-15.137,-44.922,0.488,0.000
1728632489.030,-24.414,-20.508,-44.922,-6.348,0.000
1728632489.034,-47.363,-30.762,-48.828,-38.086,0.000
1728632489.038,-66.406,-35.645,-50.781,-52.734,0.000
1728632489.042,-59.082,-38.086,-48.828,-42.969,0.000
1728632489.046,-34.668,-44.434,-46.875,-34.180,0.000
1728632489.050,-44.434,-53.223,-45.410,-38.574,0.000
1728632489.054,-65.918,-46.875,-49.316,-49.316,0.000
1728632489.058,-77.148,-38.574,-46.387,-53.223,0.000
1728632489.062,-62.500,-41.504,-41.016,-41.016,0.000
1728632489.065,-28.809,-26.855,-42.480,-26.367,0.000
1728632489.069,-25.391,-25.391,-42.969,-15.625,0.000
1728632489.073,-46.875,-32.715,-49.805,-18.066,0.000
1728632489.077,-62.012,-38.086,-52.734,-37.598,0.000
1728632489.081,-43.457,-43.945,-46.875,-39.551,0.000
1728632489.085,-18.066,-35.645,-35.156,-21.484,0.000
1728632489.089,-8.789,-23.926,-40.039,-11.719,0.000
1728632489.093,-25.879,-30.762,-47.852,-18.066,0.000
1728632489.097,-56.152,-37.109,-48.340,-32.715,0.000
1728632489.101,-47.363,-33.691,-47.852,-26.855,0.000
1728632489.105,-23.926,-38.574,-40.039,-4.395,0.000
1728632489.108,-22.949,-42.480,-39.062,-9.277,0.000
1728632489.112,-23.926,-31.250,-44.922,-23.926,0.000
1728632489.116,-40.039,-36.133,-46.875,-23.438,0.000
1728632489.120,0.000,-37.109,-44.922,-24.414,0.000
1728632489.124,0.000,-19.043,-44.922,-19.531,0.000
1728632489.128,0.000,-19.043,-49.316,-14.160,0.000
1728632489.132,0.000,-29.297,-42.969,-20.508,0.000
1728632489.136,0.000,-39.551,-40.527,-25.879,0.000
1728632489.140,0.000,-41.992,-52.734,-32.227,0.000
1728632489.144,0.000,-31.738,-44.922,-20.020,0.000
1728632489.148,0.000,-22.949,-36.133,-19.043,0.000
1728632489.151,0.000,-43.457,-37.109,-17.090,0.000
1728632489.155,0.000,-56.641,-34.180,-15.625,0.000
1728632489.159,0.000,-40.039,-34.180,-35.645,0.000
1728632489.163,0.000,-24.902,-35.156,-33.203,0.000
1728632489.167,0.977,-27.344,-30.762,-23.926,0.000
1728632489.171,-20.020,-34.180,-28.320,-25.391,0.000
1728632489.175,-43.945,-36.621,-29.297,-43.945,0.000
1728632489.179,-43.457,-35.156,-25.391,-50.781,0.000
1728632489.183,-22.461,-30.273,-25.879,-41.016,0.000
1728632489.187,0.488,-27.832,-22.461,-31.738,0.000
1728632489.190,-19.531,-34.668,-22.949,-29.785,0.000
1728632489.194,-46.875,-39.551,-31.250,-40.039,0.000
1728632489.198,-47.363,-43.457,-36.133,-39.062,0.000
1728632489.202,-40.039,-38.574,-38.086,-24.902,0.000
1728632489.206,-31.738,-30.762,-33.203,-18.555,0.000
1728632489.210,-28.809,-34.668,-32.715,-21.484,0.000
1728632489.214,-44.434,-31.250,-42.480,-37.109,0.000
1728632489.218,-49.805,-32.715,-44.922,-48.828,0.000
1728632489.222,-30.762,-33.691,-37.109,-46.387,0.000
1728632489.226,-26.855,-35.645,-39.062,-30.273,0.000
1728632489.230,-29.297,-45.410,-48.340,-20.020,0.000
1728632489.233,-43.457,-35.645,-57.129,-27.832,0.000
1728632489.237,-68.848,-30.273,-52.246,-46.875,0.000
1728632489.241,-46.875,-40.039,-37.109,-42.969,0.000
1728632489.245,-15.625,-27.344,-33.691,-25.879,0.000
1728632489.249,-9.277,-15.137,-38.086,-20.508,0.000
1728632489.253,-19.043,-15.137,-40.039,-25.879,0.000
1728632489.257,-42.969,-27.344,-41.992,-33.203,0.000
1728632489.261,-34.668,-36.621,-44.922,-32.715,0.000
1728632489.265,-8.789,-22.949,-43.457,-27.344,0.000
1728632489.269,-5.371,-23.438,-42.969,-21.484,0.000
1728632489.273,-32.227,-37.598,-45.410,-29.785,0.000
1728632489.276,-56.641,-45.410,-41.992,-39.062,0.000
1728632489.280,-54.199,-39.062,-44.922,-52.734,0.000
1728632489.284,-38.086,-31.738,-41.504,-42.480,0.000
1728632489.288,-28.320,-44.922,-31.738,-29.297,0.000
1728632489.292,-42.480,-49.316,-42.969,-22.949,0.000
1728632489.296,-58.594,-43.945,-53.223,-30.762,0.000
1728632489.300,-48.340,-41.504,-41.992,-44.922,0.000
1728632489.304,-13.184,-29.785,-34.180,-35.645,0.000
1728632489.308,-4.395,-29.297,-39.551,-32.715,0.000
1728632489.312,-36.621,-40.039,-45.898,-28.809,0.000
1728632489.316,-63.477,-38.574,-48.828,-34.180,0.000
1728632489.319,-67.383,-32.227,-52.246,-59.570,0.000
1728632489.323,-40.039,-30.273,-46.387,-50.781,0.000
1728632489.327,-17.090,-25.879,-36.133,-27.832,0.000
1728632489.331,-19.043,-30.273,-36.133,-27.344,0.000
1728632489.335,-37.598,-36.133,-42.480,-28.809,0.000
1728632489.339,-42.480,-27.832,-40.039,-33.203,0.000
1728632489.343,-33.691,-27.344,-41.504,-44.434,0.000
1728632489.347,-18.066,-35.645,-43.945,-31.250,0.000
1728632489.351,-13.184,-33.691,-45.410,-22.949,0.000
1728632489.355,-35.645,-13.672,-51.270,-49.805,0.000
1728632489.358,-36.621,-9.277,-49.316,-50.293,0.000
1728632489.362,-13.184,-11.719,-43.945,-21.973,0.000
1728632489.366,-0.488,-13.184,-41.016,-7.324,0.000
1728632489.370,-4.883,-27.344,-47.363,-13.184,0.000
1728632489.374,-34.180,-34.668,-50.293,-37.109,0.000
1728632489.378,-51.758,-41.992,-53.223,-42.969,0.000
1728632489.382,-33.691,-34.668,-48.828,-28.320,0.000
1728632489.386,-20.508,-25.391,-43.457,-23.438,0.000
1728632489.390,-27.832,-35.156,-47.852,-25.391,0.000
1728632489.394,-40.039,-44.922,-45.898,-30.273,0.000
1728632489.398,-44.434,-42.969,-51.270,-37.598,0.000
1728632489.401,-33.691,-34.180,-52.246,-37.598,0.000
1728632489.405,-17.578,-38.574,-35.645,-32.715,0.000
1728632489.409,-16.602,-38.086,-31.738,-29.297,0.000
1728632489.413,-47.852,-44.434,-38.086,-41.992,0.000
1728632489.417,-76.660,-59.082,-35.645,-63.477,0.000
1728632489.421,-53.711,-56.152,-20.996,-45.898,0.000
1728632489.425,-18.066,-45.410,-20.996,-32.715,0.000
1728632489.429,-12.695,-42.969,-20.508,-31.250,0.000
1728632489.433,-31.738,-49.316,-16.113,-25.879,0.000
1728632489.437,-63.965,-57.129,-27.344,-37.598,0.000
1728632489.441,-70.801,-63.477,-30.762,-40.527,0.000
1728632489.444,-41.504,-54.199,-39.551,-37.109,0.000
1728632489.448,0.000,-48.340,-42.480,-32.715,0.000
1728632489.452,0.000,-54.688,-39.551,-42.480,0.000
1728632489.456,0.000,-54.688,-45.410,-62.988,0.000
1728632489.460,0.000,-50.293,-46.387,-56.152,0.000
1728632489.464,0.000,-33.203,-45.410,-34.668,0.000
1728632489.468,0.000,-29.297,-42.969,-28.809,0.000
1728632489.472,0.000,-43.457,-37.598,-33.203,0.000
1728632489.476,0.000,-41.504,-45.898,-45.898,0.000
1728632489.480,0.000,-47.363,-52.734,-43.945,0.000
1728632489.483,0.000,-44.434,-41.992,-23.438,0.000
1728632489.487,0.000,-32.227,-38.574,-15.137,0.000
1728632489.491,0.000,-35.645,-46.387,-28.809,0.000
1728632489.495,-30.762,-44.434,-55.664,-38.086,0.000
1728632489.499,-43.457,-49.316,-46.387,-38.086,0.000
1728632489.503,-57.617,-46.387,-38.574,-35.156,0.000
1728632489.507,-55.664,-45.410,-43.457,-27.832,0.000
1728632489.511,-33.203,-40.527,-41.504,-26.367,0.000
1728632489.515,-15.625,-36.133,-43.945,-33.691,0.000
1728632489.519,-30.273,-37.598,-45.898,-46.875,0.000
1728632489.522,-49.316,-29.297,-38.574,-35.645,0.000
1728632489.526,-46.387,-31.250,-26.855,-21.484,0.000
1728632489.530,-28.809,-27.832,-29.297,-14.160,0.000
1728632489.534,-19.531,-27.832,-24.414,-17.090,0.000
1728632489.538,-30.762,-31.250,-28.809,-41.992,0.000
1728632489.542,-53.711,-34.668,-34.668,-41.504,0.000
1728632489.546,-23.438,-46.875,-29.297,-24.902,0.000
1728632489.550,-15.137,-37.109,-32.227,-29.785,0.000
1728632489.554,-46.875,-38.086,-31.738,-41.016,0.000
1728632489.558,-67.383,-39.062,-32.227,-53.223,0.000
1728632489.562,-47.852,-34.668,-35.645,-43.457,0.000
1728632489.565,-31.250,-41.504,-30.273,-26.855,0.000
1728632489.569,-17.578,-38.086,-20.996,-32.715,0.000
1728632489.573,-22.461,-37.598,-30.273,-33.691,0.000
1728632489.577,-40.039,-43.945,-43.457,-33.203,0.000
1728632489.581,-34.180,-42.480,-41.992,-31.738,0.000
1728632489.585,-19.043,-42.969,-38.086,-27.344,0.000
1728632489.589,-8.789,-43.945,-41.504,-31.738,0.000
1728632489.593,-25.879,-38.574,-50.293,-36.133,0.000
1728632489.597,-52.734,-44.434,-53.223,-45.898,0.000
1728632489.601,-48.828,-27.832,-51.758,-42.969,0.000
1728632489.605,-31.250,-15.137,-40.527,-22.949,0.000
1728632489.608,-16.602,-37.109,-36.133,-17.578,0.000
1728632489.612,-5.859,-42.480,-43.945,-23.926,0.000
1728632489.616,-26.367,-51.270,-44.434,-31.738,0.000
1728632489.620,-27.344,-52.246,-51.758,-24.902,0.000
1728632489.624,-3.906,-35.645,-54.688,-15.137,0.000
1728632489.628,14.160,-35.645,-38.086,-8.301,0.000
1728632489.632,-4.395,-40.527,-36.621,-10.742,0.000
1728632489.636,-59.082,-38.086,-35.156,-26.855,0.000
1728632489.640,-89.355,-42.480,-18.066,-59.082,0.000
1728632489.644,-76.660,-5.859,-24.414,-73.730,0.000
1728632489.648,-88.379,-23.438,20.508,-67.383,0.000
1728632489.651,-52.246,-83.984,35.645,-40.527,0.000
1728632489.655,-23.926,-60.059,-13.672,-24.414,0.000
1728632489.659,-35.156,-56.641,-31.738,-34.180,0.000
1728632489.663,8.789,-43.457,-74.707,37.109,0.000
1728632489.667,45.410,-53.711,-64.941,47.852,0.000
1728632489.671,-83.008,21.973,20.508,-101.074,0.000
1728632489.675,-252.441,117.676,2.441,-225.098,0.000
1728632489.679,-169.922,-41.504,-49.805,-160.645,0.000
1728632489.683,-133.301,-62.988,-0.977,-94.238,0.000
1728632489.687,46.387,-68.359,-51.270,37.109,0.000
1728632489.691,240.723,-120.117,-153.320,198.242,0.000
1728632489.694,18.066,-56.152,-130.859,79.590,0.000
1728632489.698,-82.031,-50.293,-42.480,-60.547,0.000
1728632489.702,-136.230,4.883,-8.789,-194.336,0.000
1728632489.706,-334.961,57.617,-49.805,-344.238,0.000
1728632489.710,-244.141,-72.754,-18.066,-207.520,0.000
1728632489.714,37.598,-150.879,-76.660,24.902,0.000
1728632489.718,237.305,-131.836,-107.422,153.809,0.000
1728632489.722,148.438,-100.586,-76.172,114.258,0.000
1728632489.726,-92.773,-35.645,-67.383,-23.926,0.000
1728632489.730,-123.535,-83.496,-50.781,-53.223,0.000
1728632489.734,108.887,-104.980,-55.176,19.043,0.000
1728632489.737,-2.441,37.109,-70.312,-3.418,0.000
1728632489.741,-47.363,-42.480,-30.273,16.602,0.000
1728632489.745,61.523,-187.988,-69.824,108.887,0.000
1728632489.749,48.828,-115.723,-129.883,50.293,0.000
1728632489.753,48.340,-70.801,-100.098,5.371,0.000
1728632489.757,118.164,-38.086,-108.398,157.227,0.000
1728632489.761,182.617,-53.711,-58.594,202.637,0.000
1728632489.765,97.656,-83.496,-47.363,136.719,0.000
1728632489.769,-0.488,-27.832,-59.570,32.715,0.000
1728632489.773,-52.246,-5.859,-60.059,-7.324,0.000
1728632489.777,36.621,-25.879,-54.199,41.504,0.000
1728632489.780,-48.828,-16.113,-5.859,-39.062,0.000
1728632489.784,-45.898,-55.176,-22.461,-14.160,0.000
1728632489.788,86.914,-101.562,-64.453,105.957,0.000
1728632489.792,52.246,-78.125,-63.477,43.945,0.000
1728632489.796,33.203,-58.594,-56.152,6.348,0.000
1728632489.800,33.691,-45.898,-59.082,2.441,0.000
1728632489.804,-31.250,-52.246,-58.105,-1.953,0.000
1728632489.808,-60.547,-63.477,-51.270,9.277,0.000
1728632489.812,11.230,-18.066,-55.176,-4.883,0.000
1728632489.816,17.090,11.230,-72.754,-19.531,0.000
1728632489.819,45.898,-44.922,-67.871,0.000,0.000
1728632489.823,4.883,-70.801,-42.969,-15.137,0.000
1728632489.827,-74.219,-41.016,-26.367,-60.059,0.000
1728632489.831,-38.574,-23.926,-45.898,-29.785,0.000
1728632489.835,3.906,-66.406,-63.477,14.648,0.000
1728632489.839,12.695,-57.617,-51.270,-2.441,0.000
1728632489.843,21.484,-35.645,-55.664,-18.555,0.000
1728632489.847,-0.488,-33.203,-56.641,-16.602,0.000
1728632489.851,-21.484,-32.715,-50.781,-15.137,0.000
1728632489.855,-13.184,-31.250,-48.828,-22.461,0.000
1728632489.859,-0.488,-21.484,-44.922,-22.461,0.000
1728632489.862,-16.113,-19.043,-40.039,-25.391,0.000
1728632489.866,-36.621,-32.715,-34.180,-18.555,0.000
1728632489.870,0.000,-39.551,-29.785,-16.113,0.000
1728632489.874,0.000,-27.344,-18.066,-15.625,0.000
1728632489.878,0.000,-27.344,-21.484,-5.859,0.000
1728632489.882,0.000,-38.086,-25.879,-11.719,0.000
1728632489.886,0.000,-32.715,-8.301,-14.160,0.000
1728632489.890,0.000,-28.809,-11.230,-21.484,0.000
1728632489.894,0.000,-34.180,-18.555,-21.484,0.000
1728632489.898,0.000,-34.668,-11.230,-13.184,0.000
1728632489.902,0.000,-35.645,-7.812,-20.020,0.000
1728632489.905,0.000,-32.715,-7.812,-17.090,0.000
1728632489.909,0.000,-33.203,-5.371,-14.160,0.000
1728632489.913,0.000,-28.320,-10.742,-31.738,0.000
1728632489.917,-23.926,-25.879,-18.066,-37.109,0.000
1728632489.921,-16.602,-25.391,-23.926,-24.902,0.000
1728632489.925,-30.762,-28.320,-27.832,-21.484,0.000
1728632489.929,-46.387,-43.457,-27.832,-31.738,0.000
1728632489.933,-48.340,-41.016,-30.273,-48.340,0.000
1728632489.937,-21.484,-29.297,-31.738,-44.434,0.000
1728632489.941,-5.859,-28.809,-26.855,-20.996,0.000
1728632489.945,-24.902,-32.227,-25.391,-21.484,0.000
1728632489.948,-41.504,-28.320,-36.621,-37.598,0.000
1728632489.952,-35.645,-36.133,-42.969,-35.645,0.000
1728632489.956,-27.344,-30.762,-35.645,-39.551,0.000
1728632489.960,-19.531,-36.133,-28.320,-37.109,0.000
1728632489.964,-20.020,-41.016,-36.621,-29.785,0.000
1728632489.968,-40.527,-39.062,-46.387,-41.992,0.000
1728632489.972,-50.293,-42.969,-44.922,-38.574,0.000
1728632489.976,-28.809,-40.039,-43.457,-24.902,0.000
1728632489.980,-11.230,-42.480,-40.527,-32.227,0.000
1728632489.984,-15.625,-43.945,-31.250,-41.016,0.000
1728632489.988,-41.992,-49.805,-25.391,-34.180,0.000
1728632489.991,-59.570,-61.035,-21.484,-35.645,0.000
1728632489.995,-44.922,-43.457,-25.391,-47.852,0.000
1728632489.999,-27.832,-30.273,-35.645,-51.758,0.000
1728632490.003,-34.668,-30.762,-38.574,-53.223,0.000
1728632490.007,-47.363,-34.180,-33.691,-55.176,0.000
1728632490.011,0.000,-33.691,-33.691,-72.754,0.000
1728632490.015,0.000,-41.992,-26.367,-54.688,0.000
1728632490.019,0.000,-40.527,-25.879,-38.574,0.000
1728632490.023,0.000,-40.039,-37.598,-40.527,0.000
1728632490.027,0.000,-51.270,-39.551,-41.504,0.000
1728632490.031,0.000,-56.152,-35.156,-54.688,0.000
1728632490.034,0.000,-51.758,-24.902,-51.758,0.000
1728632490.038,0.000,-36.133,-25.879,-48.340,0.000
1728632490.042,0.000,-37.598,-37.109,-39.062,0.000
1728632490.046,0.000,-47.363,-38.086,-24.414,0.000
1728632490.050,0.000,-37.598,-41.016,-41.016,0.000
1728632490.054,0.000,-27.832,-33.691,-44.922,0.000
1728632490.058,-31.250,-32.227,-27.832,-33.691,0.000
1728632490.062,-15.625,-32.227,-32.715,-35.645,0.000
1728632490.066,-31.738,-34.668,-35.645,-34.668,0.000
1728632490.070,-55.664,-43.945,-38.086,-41.992,0.000
1728632490.073,-42.969,-39.551,-34.180,-38.086,0.000
1728632490.077,-34.180,-37.109,-27.832,-37.109,0.000
1728632490.081,-26.855,-38.086,-22.949,-37.109,0.000
1728632490.085,-29.785,-34.668,-25.879,-32.227,0.000
1728632490.089,-47.363,-31.738,-35.645,-44.922,0.000
1728632490.093,-37.109,-31.738,-28.809,-36.621,0.000
1728632490.097,-15.137,-26.367,-14.648,-22.461,0.000
1728632490.101,-15.137,-28.320,-14.160,-31.738,0.000
1728632490.105,0.000,-36.621,-24.414,-35.156,0.000
1728632490.109,0.000,-32.715,-34.180,-41.016,0.000
1728632490.113,0.000,-32.227,-24.414,-51.270,0.000
1728632490.116,0.000,-24.902,-16.113,-35.645,0.000
1728632490.120,0.000,-15.137,-21.484,-20.996,0.000
1728632490.124,0.000,-20.996,-21.973,-31.250,0.000
1728632490.128,0.000,-27.344,-22.949,-47.852,0.000
1728632490.132,0.000,-30.273,-23.926,-54.688,0.000
1728632490.136,0.000,-30.762,-26.855,-38.086,0.000
1728632490.140,0.000,-22.461,-29.785,-34.180,0.000
1728632490.144,0.000,-9.766,-26.367,-38.086,0.000
1728632490.148,0.000,-17.090,-30.762,-35.645,0.000
1728632490.152,-64.941,-34.180,-35.156,-49.805,0.000
1728632490.156,-51.270,-37.598,-32.227,-56.641,0.000
1728632490.159,-40.039,-29.297,-27.832,-52.246,0.000
1728632490.163,-48.828,-29.297,-23.926,-40.039,0.000
1728632490.167,-52.246,-44.434,-22.461,-40.039,0.000
1728632490.171,-49.316,-42.969,-23.438,-58.105,0.000
1728632490.175,-36.133,-31.250,-20.020,-51.758,0.000
1728632490.179,-19.043,-29.297,-22.949,-36.133,0.000
1728632490.183,-31.250,-41.504,-29.297,-26.367,0.000
1728632490.187,-58.594,-54.199,-34.180,-48.828,0.000
1728632490.191,-63.965,-45.898,-30.762,-60.547,0.000
1728632490.195,-38.086,-33.691,-29.297,-35.156,0.000
1728632490.199,-19.043,-31.738,-22.949,-29.785,0.000
1728632490.202,-22.949,-30.273,-24.902,-37.598,0.000
1728632490.206,-42.969,-39.062,-35.645,-38.574,0.000
1728632490.210,-62.012,-41.504,-32.227,-48.828,0.000
1728632490.214,-25.879,-29.297,-29.785,-39.551,0.000
1728632490.218,-4.883,-33.691,-34.180,-18.555,0.000
1728632490.222,-34.180,-34.668,-39.551,-29.297,0.000
1728632490.226,-49.316,-35.645,-44.922,-41.504,0.000
1728632490.230,-62.988,-44.922,-38.086,-41.016,0.000
1728632490.234,-48.828,-32.227,-32.715,-35.156,0.000
1728632490.238,-35.645,-25.391,-29.785,-31.738,0.000
1728632490.242,-22.949,-29.785,-25.879,-35.645,0.000
1728632490.245,-38.086,-33.203,-24.414,-33.691,0.000
1728632490.249,-67.383,-39.062,-27.832,-41.016,0.000
1728632490.253,-61.035,-43.457,-33.691,-49.316,0.000
1728632490.257,-35.156,-42.969,-30.762,-36.621,0.000
1728632490.261,-9.766,-39.062,-30.273,-39.062,0.000
1728632490.265,-29.297,-39.551,-33.203,-53.223,0.000
1728632490.269,-62.500,-59.082,-38.086,-55.176,0.000
1728632490.273,-68.848,-71.289,-38.086,-49.316,0.000
1728632490.277,-36.133,-40.527,-25.879,-37.598,0.000
1728632490.281,-19.043,-21.484,-20.508,-23.926,0.000
1728632490.285,-34.668,-22.949,-30.762,-26.855,0.000
1728632490.288,-46.387,-31.250,-34.180,-30.273,0.000
1728632490.292,0.000,-33.203,-25.391,-31.250,0.000
1728632490.296,0.000,-29.297,-27.832,-19.043,0.000
1728632490.300,0.000,-32.227,-36.133,-11.230,0.000
1728632490.304,0.000,-33.691,-41.016,-28.320,0.000
1728632490.308,0.000,-39.062,-41.504,-36.133,0.000
1728632490.312,0.000,-40.039,-35.645,-35.156,0.000
1728632490.316,0.000,-28.320,-35.156,-28.320,0.000
1728632490.320,0.000,-26.855,-30.762,-18.555,0.000
1728632490.324,0.000,-27.832,-31.738,-21.973,0.000
1728632490.327,0.000,-26.855,-37.109,-27.344,0.000
1728632490.331,0.000,-32.227,-33.691,-43.945,0.000
1728632490.335,0.000,-34.180,-29.785,-39.551,0.000
1728632490.339,-17.578,-36.133,-32.227,-23.438,0.000
1728632490.343,-20.508,-42.969,-39.062,-28.809,0.000
1728632490.347,-49.316,-39.551,-39.551,-32.715,0.000
1728632490.351,-62.988,-35.645,-37.598,-35.645,0.000
1728632490.355,-36.621,-32.715,-29.785,-34.180,0.000
1728632490.359,-22.949,-30.762,-35.156,-34.180,0.000
1728632490.363,-31.738,-29.297,-39.551,-37.598,0.000
1728632490.367,-48.340,-26.367,-35.156,-41.992,0.000
1728632490.370,-60.547,-32.227,-36.133,-47.363,0.000
1728632490.374,-46.387,-36.133,-40.039,-47.363,0.000
1728632490.378,-27.832,-43.945,-47.852,-44.922,0.000
1728632490.382,-31.250,-45.898,-47.363,-41.504,0.000
1728632490.386,-45.898,-38.574,-41.992,-31.250,0.000
1728632490.390,-57.129,-34.668,-40.527,-32.715,0.000
1728632490.394,-42.969,-28.809,-34.180,-28.320,0.000
1728632490.398,-27.344,-22.949,-26.855,-30.273,0.000
1728632490.402,-33.203,-23.926,-34.180,-38.574,0.000
1728632490.406,-41.992,-27.344,-49.805,-32.715,0.000
1728632490.410,-65.918,-36.621,-46.387,-48.828,0.000
1728632490.413,-53.223,-32.227,-37.598,-43.457,0.000
1728632490.417,-25.391,-25.879,-35.645,-28.809,0.000
1728632490.421,-13.184,-32.715,-42.969,-31.738,0.000
1728632490.425,-7.812,-32.227,-43.457,-27.832,0.000
1728632490.429,-41.016,-23.926,-43.457,-42.480,0.000
1728632490.433,-50.293,-28.320,-45.410,-44.922,0.000
1728632490.437,-25.879,-30.762,-36.621,-29.297,0.000
1728632490.441,-18.555,-30.762,-37.109,-34.180,0.000
1728632490.445,-41.016,-37.109,-35.156,-31.250,0.000
1728632490.449,-45.898,-38.574,-36.621,-40.527,0.000
1728632490.453,-38.574,-44.434,-36.621,-49.316,0.000
1728632490.456,-30.273,-40.039,-28.809,-28.320,0.000
1728632490.460,-24.902,-28.320,-30.762,-15.625,0.000
1728632490.464,-39.551,-37.598,-28.809,-13.672,0.000
1728632490.468,-60.547,-48.340,-29.297,-26.367,0.000
1728632490.472,-62.500,-42.969,-36.621,-34.180,0.000
1728632490.476,-34.180,-42.969,-37.598,-31.250,0.000
1728632490.480,-20.020,-45.898,-31.738,-20.508,0.000
1728632490.484,-18.555,-37.598,-27.832,-17.578,0.000
1728632490.488,-31.738,-35.645,-31.738,-33.691,0.000
1728632490.492,-63.477,-37.109,-34.668,-44.922,0.000
1728632490.496,-46.387,-29.297,-33.691,-36.621,0.000
1728632490.499,-23.926,-34.668,-30.762,-38.086,0.000
1728632490.503,-27.832,-42.480,-27.344,-38.574,0.000
1728632490.507,-62.012,-50.781,-35.156,-43.457,0.000
1728632490.511,-82.031,-62.012,-34.180,-51.758,0.000
1728632490.515,-35.156,-54.688,-21.973,-35.156,0.000
1728632490.519,-14.160,-36.133,-27.344,-35.156,0.000
1728632490.523,-20.996,-30.762,-38.574,-43.457,0.000
1728632490.527,-38.574,-33.691,-45.410,-40.527,0.000
1728632490.531,-44.434,-35.645,-40.039,-35.156,0.000
1728632490.535,-25.391,-36.133,-31.738,-32.227,0.000
1728632490.539,-7.324,-32.227,-30.273,-31.250,0.000
1728632490.542,-10.254,-24.414,-27.832,-22.461,0.000
1728632490.546,-27.832,-38.574,-24.414,-15.137,0.000
1728632490.550,-44.434,-46.387,-32.227,-32.227,0.000
1728632490.554,-34.668,-37.598,-38.086,-36.621,0.000
1728632490.558,-5.859,-31.738,-27.344,-15.625,0.000
1728632490.562,-7.324,-21.973,-27.344,-23.438,0.000
1728632490.566,-43.457,-34.668,-34.668,-67.383,0.000
1728632490.570,-66.406,-49.805,-43.945,-71.777,0.000
1728632490.574,-43.945,-42.480,-40.039,-40.039,0.000
1728632490.578,-16.113,-28.809,-29.785,-36.133,0.000
1728632490.581,-18.555,-38.086,-29.297,-33.203,0.000
1728632490.585,-37.598,-63.965,-32.227,-31.250,0.000
1728632490.589,-54.688,-64.453,-38.086,-43.945,0.000
1728632490.593,-37.109,-48.340,-35.156,-40.527,0.000
1728632490.597,0.488,-32.715,-25.391,-21.973,0.000
1728632490.601,3.906,-36.133,-34.180,-22.949,0.000
1728632490.605,-24.902,-40.039,-41.504,-32.227,0.000
1728632490.609,-46.875,-46.875,-41.016,-38.574,0.000
1728632490.613,-42.480,-55.664,-35.156,-29.297,0.000
1728632490.617,-28.320,-43.457,-29.297,-29.785,0.000
1728632490.621,-17.090,-35.645,-24.902,-31.738,0.000
1728632490.624,-28.320,-33.691,-29.785,-25.391,0.000
1728632490.628,-45.898,-37.598,-39.551,-37.109,0.000
1728632490.632,-46.387,-43.945,-39.551,-53.711,0.000
1728632490.636,-33.691,-39.062,-36.133,-45.410,0.000
1728632490.640,-17.090,-36.133,-43.945,-44.434,0.000
1728632490.644,-21.484,-34.180,-40.039,-26.367,0.000
1728632490.648,-42.480,-39.062,-36.621,-4.883,0.000
1728632490.652,-58.594,-48.340,-46.387,-22.949,0.000
1728632490.656,-34.180,-31.738,-43.457,-30.762,0.000
1728632490.660,0.977,-30.273,-36.133,-14.160,0.000
1728632490.664,4.395,-39.062,-31.250,-6.836,0.000
1728632490.667,-29.785,-37.598,-37.598,-14.160,0.000
1728632490.671,-44.434,-31.738,-37.598,-24.902,0.000
1728632490.675,-18.555,-25.391,-28.809,-19.531,0.000
1728632490.679,0.977,-32.715,-24.414,-2.930,0.000
1728632490.683,-1.953,-27.832,-22.949,-13.184,0.000
1728632490.687,-22.461,-29.785,-29.785,-26.367,0.000
1728632490.691,-37.598,-38.086,-33.691,-31.738,0.000
1728632490.695,-31.738,-36.621,-31.738,-29.785,0.000
1728632490.699,-6.836,-36.621,-31.738,-40.527,0.000
1728632490.703,-14.160,-28.809,-35.645,-47.852,0.000
1728632490.707,-40.527,-36.133,-41.504,-33.691,0.000
1728632490.710,-46.875,-37.598,-45.898,-43.457,0.000
1728632490.714,-33.203,-25.391,-36.621,-31.738,0.000
1728632490.718,-9.277,-29.785,-32.227,-14.160,0.000
1728632490.722,-9.277,-28.320,-37.598,-17.578,0.000
1728632490.726,-24.902,-24.414,-38.574,-21.973,0.000
1728632490.730,-46.875,-32.227,-36.621,-29.297,0.000
1728632490.734,-40.039,-37.598,-44.434,-29.297,0.000
1728632490.738,-17.578,-38.086,-49.316,-22.949,0.000
1728632490.742,-20.996,-36.133,-46.875,-17.578,0.000
1728632490.746,-40.527,-40.527,-44.434,-6.836,0.000
1728632490.749,-51.758,-36.133,-44.434,-24.902,0.000
1728632490.753,-44.922,-29.785,-34.180,-31.738,0.000
1728632490.757,-30.273,-24.414,-21.973,-8.789,0.000
1728632490.761,-23.926,-18.066,-33.203,-4.883,0.000
1728632490.765,-20.508,-28.320,-47.852,-15.137,0.000
1728632490.769,-49.805,-41.504,-54.199,-38.574,0.000
1728632490.773,-67.383,-38.086,-50.781,-38.086,0.000
1728632490.777,-33.691,-29.785,-45.410,-21.484,0.000
1728632490.781,-20.020,-27.832,-44.434,-11.230,0.000
1728632490.785,-28.809,-26.367,-51.758,-17.578,0.000
1728632490.789,-41.504,-20.020,-62.012,-34.668,0.000
1728632490.792,-55.176,-20.996,-60.059,-41.016,0.000
1728632490.796,-38.574,-26.367,-52.246,-22.949,0.000
1728632490.800,-19.531,-21.484,-47.852,-18.555,0.000
1728632490.804,-28.809,-23.926,-41.504,-29.297,0.000
1728632490.808,-47.852,-33.203,-45.410,-31.738,0.000
1728632490.812,-48.340,-30.762,-45.898,-39.062,0.000
1728632490.816,-32.715,-31.250,-41.504,-35.645,0.000
1728632490.820,-11.230,-27.344,-38.086,-24.902,0.000
1728632490.824,-12.695,-21.973,-33.203,-35.645,0.000
1728632490.828,-46.875,-25.391,-42.969,-41.504,0.000
1728632490.832,-49.316,-31.250,-36.621,-37.109,0.000
1728632490.835,-7.812,-20.020,-18.555,-23.926,0.000
1728632490.839,6.348,-13.184,-20.996,-11.719,0.000
1728632490.843,-9.766,-28.320,-23.438,-16.602,0.000
1728632490.847,-29.785,-33.203,-25.879,-30.273,0.000
1728632490.851,-51.270,-39.062,-31.738,-42.480,0.000
1728632490.855,-38.086,-40.039,-31.738,-34.180,0.000
1728632490.859,-11.230,-35.156,-25.391,-19.043,0.000
1728632490.863,-19.531,-27.344,-28.320,-19.531,0.000
1728632490.867,-36.133,-29.785,-35.156,-40.527,0.000
1728632490.871,-42.969,-35.156,-28.320,-54.199,0.000
1728632490.875,-25.879,-21.973,-15.137,-40.039,0.000
1728632490.878,-21.973,-11.719,-20.996,-35.156,0.000
1728632490.882,-16.113,-16.602,-31.250,-36.621,0.000
1728632490.886,-8.301,-20.996,-34.668,-25.879,0.000
1728632490.890,-32.715,-32.227,-44.434,-31.250,0.000
1728632490.894,-38.574,-31.738,-40.039,-34.180,0.000
1728632490.898,-8.301,-22.461,-38.574,-23.438,0.000
1728632490.902,1.953,-22.949,-39.551,-22.949,0.000
1728632490.906,-23.438,-27.832,-39.551,-35.645,0.000
1728632490.910,-53.711,-35.645,-47.363,-44.922,0.000
1728632490.914,-39.551,-43.457,-47.852,-41.504,0.000
1728632490.918,-10.742,-46.387,-37.598,-22.949,0.000
1728632490.921,-20.020,-40.527,-39.062,-19.531,0.000
1728632490.925,-35.156,-41.992,-36.133,-30.762,0.000
1728632490.929,-48.340,-55.176,-29.297,-31.738,0.000
1728632490.933,-40.039,-49.805,-27.344,-29.297,0.000
1728632490.937,-18.066,-26.367,-19.043,-17.578,0.000
1728632490.941,-7.812,-33.203,-20.996,-6.348,0.000
1728632490.945,-18.066,-46.387,-33.203,-20.020,0.000
1728632490.949,0.000,-34.668,-46.387,-42.480,0.000
1728632490.953,0.000,-43.945,-44.922,-48.828,0.000
1728632490.957,0.000,-48.340,-40.527,-37.598,0.000
1728632490.961,0.000,-41.504,-46.387,-30.273,0.000
1728632490.964,0.000,-42.480,-46.387,-45.410,0.000
1728632490.968,0.000,-50.293,-35.156,-51.758,0.000
1728632490.972,0.000,-55.176,-31.250,-40.527,0.000
1728632490.976,0.000,-52.246,-31.738,-21.484,0.000
1728632490.980,0.000,-45.410,-29.785,-19.043,0.000
1728632490.984,0.000,-36.133,-31.738,-25.391,0.000
1728632490.988,0.000,-36.621,-33.691,-25.391,0.000
1728632490.992,0.000,-34.180,-34.180,-33.203,0.000
1728632490.996,-39.551,-27.344,-35.156,-29.297,0.000
1728632491.000,-45.898,-26.367,-33.203,-25.391,0.000
1728632491.003,-27.344,-26.855,-33.203,-33.691,0.000
1728632491.007,-13.672,-35.645,-34.668,-38.574,0.000
1728632491.011,-44.434,-45.410,-42.969,-38.574,0.000
1728632491.015,-54.688,-40.039,-48.828,-36.133,0.000
1728632491.019,-43.457,-32.227,-31.250,-35.156,0.000
1728632491.023,-35.156,-38.086,-24.414,-25.391,0.000
1728632491.027,-15.625,-40.527,-34.180,-37.109,0.000
1728632491.031,-22.461,-38.574,-36.133,-41.504,0.000
1728632491.035,-37.598,-47.363,-35.156,-24.414,0.000
1728632491.039,-43.945,-50.781,-38.086,-20.996,0.000
1728632491.042,-28.809,-40.039,-34.180,-31.250,0.000
1728632491.046,-6.836,-41.016,-33.203,-48.340,0.000
1728632491.050,-12.695,-49.316,-41.992,-32.227,0.000
1728632491.054,-45.410,-49.316,-40.527,-16.602,0.000
1728632491.058,-47.852,-41.016,-38.574,-16.602,0.000
1728632491.062,-35.645,-33.203,-40.039,-25.391,0.000
1728632491.066,-27.344,-39.551,-43.457,-33.691,0.000
1728632491.070,-27.832,-50.293,-48.340,-44.434,0.000
1728632491.074,-52.246,-42.969,-40.527,-47.363,0.000
1728632491.078,-58.105,-39.062,-36.133,-28.809,0.000
1728632491.082,-55.664,-37.109,-38.086,-19.043,0.000
1728632491.085,-34.668,-35.156,-38.086,-26.855,0.000
1728632491.089,-60.547,-34.668,-39.551,-40.039,0.000
1728632491.093,-41.016,-36.621,-37.598,-36.621,0.000
1728632491.097,-13.184,-41.992,-26.367,-18.555,0.000
1728632491.101,-24.902,-43.457,-31.250,-17.578,0.000
1728632491.105,-34.668,-47.363,-42.480,-27.344,0.000
1728632491.109,-41.504,-47.363,-41.016,-40.039,0.000
1728632491.113,-44.434,-38.574,-41.016,-37.109,0.000
1728632491.117,-29.297,-35.156,-37.109,-33.691,0.000
1728632491.121,-24.414,-37.598,-38.086,-28.809,0.000
1728632491.125,-27.832,-39.062,-45.898,-22.949,0.000
1728632491.128,-47.363,-43.945,-49.316,-31.250,0.000
1728632491.132,-45.410,-40.527,-44.922,-27.832,0.000
1728632491.136,0.000,-30.762,-40.527,-21.973,0.000
1728632491.140,0.000,-26.367,-39.062,-22.949,0.000
1728632491.144,0.000,-24.902,-40.039,-20.508,0.000
1728632491.148,0.000,-31.250,-36.621,-22.949,0.000
1728632491.152,0.000,-28.320,-41.992,-35.156,0.000
1728632491.156,0.000,-28.320,-38.574,-19.043,0.000
1728632491.160,0.000,-28.320,-28.809,-2.930,0.000
1728632491.164,0.000,-18.555,-30.762,-5.859,0.000
1728632491.168,0.000,-14.648,-32.227,-12.695,0.000
1728632491.171,0.000,-25.879,-36.133,-30.762,0.000
1728632491.175,0.000,-24.414,-39.062,-33.203,0.000
1728632491.179,0.000,-20.020,-41.504,-27.832,0.000
1728632491.183,-20.508,-27.832,-44.434,-35.156,0.000
1728632491.187,-7.812,-30.273,-47.363,-33.203,0.000
1728632491.191,-10.254,-41.016,-45.898,-42.480,0.000
1728632491.195,-22.461,-42.480,-35.645,-40.039,0.000
1728632491.199,-31.738,-41.992,-36.621,-38.086,0.000
1728632491.203,-15.137,-43.457,-41.504,-40.527,0.000
1728632491.207,7.324,-41.016,-36.621,-44.434,0.000
1728632491.210,-1.465,-40.039,-40.527,-44.922,0.000
1728632491.214,-35.156,-38.574,-39.551,-20.996,0.000
1728632491.218,-38.574,-37.598,-39.551,-22.461,0.000
1728632491.222,-21.973,-26.855,-42.480,-34.668,0.000
1728632491.226,-12.695,-34.180,-39.062,-26.855,0.000
1728632491.230,-55.664,-41.504,-38.086,-32.715,0.000
1728632491.234,-49.805,-25.879,-36.621,-39.062,0.000
1728632491.238,-19.043,-22.949,-33.203,-41.016,0.000
1728632491.242,-17.578,-30.273,-30.762,-24.902,0.000
1728632491.246,-31.738,-40.039,-31.250,-16.602,0.000
1728632491.250,-46.387,-51.270,-34.180,-41.992,0.000
1728632491.253,-47.363,-46.875,-37.598,-45.898,0.000
1728632491.257,-34.668,-36.621,-39.062,-35.156,0.000
1728632491.261,-13.184,-41.504,-38.574,-23.438,0.000
1728632491.265,-25.391,-35.645,-37.598,-20.020,0.000
1728632491.269,-51.758,-32.227,-38.574,-36.133,0.000
1728632491.273,-37.598,-30.273,-31.738,-34.180,0.000
1728632491.277,-25.391,-22.949,-17.578,-30.762,0.000
1728632491.281,-20.020,-23.438,-24.902,-22.461,0.000
1728632491.285,-20.020,-23.438,-33.691,-7.812,0.000
1728632491.289,-54.688,-25.391,-36.133,-30.273,0.000
1728632491.293,-55.664,-36.133,-43.457,-44.434,0.000
1728632491.296,-21.973,-34.180,-41.504,-33.203,0.000
1728632491.300,-17.578,-33.203,-40.527,-31.250,0.000
1728632491.304,-17.578,-44.922,-40.039,-34.180,0.000
1728632491.308,-38.574,-47.852,-37.109,-37.598,0.000
1728632491.312,-48.340,-42.480,-35.156,-23.926,0.000
1728632491.316,-20.508,-29.297,-27.832,-17.090,0.000
1728632491.320,-4.395,-34.668,-30.762,-15.137,0.000
1728632491.324,-22.461,-39.062,-38.086,-15.137,0.000
1728632491.328,-38.574,-34.180,-32.715,-31.250,0.000
1728632491.332,-46.387,-32.227,-34.180,-39.551,0.000
1728632491.336,-33.203,-33.203,-38.574,-32.227,0.000
1728632491.339,-15.137,-30.273,-39.062,-25.391,0.000
1728632491.343,-20.508,-28.320,-34.668,-20.996,0.000
1728632491.347,-38.086,-37.598,-34.180,-17.578,0.000
1728632491.351,-44.922,-42.969,-38.086,-11.719,0.000
1728632491.355,-20.508,-40.527,-35.156,-17.090,0.000
1728632491.359,-11.230,-42.969,-32.715,-24.902,0.000
1728632491.363,-17.578,-35.645,-27.344,-18.555,0.000
1728632491.367,-38.574,-25.391,-40.527,-24.902,0.000
1728632491.371,-59.082,-33.691,-46.387,-35.156,0.000
1728632491.375,-39.062,-35.645,-40.527,-33.691,0.000
1728632491.378,-14.160,-30.273,-33.691,-28.809,0.000
1728632491.382,-11.230,-33.691,-30.762,-22.461,0.000
1728632491.386,-39.062,-37.598,-36.133,-33.691,0.000
1728632491.390,-59.570,-46.875,-36.133,-50.781,0.000
1728632491.394,-36.621,-45.898,-37.109,-39.062,0.000
1728632491.398,-11.719,-40.039,-39.062,-9.766,0.000
1728632491.402,-16.602,-32.227,-38.086,-11.230,0.000
1728632491.406,-42.969,-25.879,-42.480,-28.320,0.000
1728632491.410,-64.453,-36.621,-42.480,-39.062,0.000
1728632491.414,-57.129,-42.969,-32.227,-30.273,0.000
1728632491.418,-26.367,-18.555,-27.832,-20.020,0.000
1728632491.421,-9.766,-14.160,-31.250,-31.250,0.000
1728632491.425,-22.461,-38.574,-42.969,-32.715,0.000
1728632491.429,-54.199,-38.086,-53.223,-44.922,0.000
1728632491.433,-59.082,-31.250,-41.992,-52.734,0.000
1728632491.437,-35.156,-30.273,-33.203,-38.574,0.000
1728632491.441,-23.438,-31.250,-39.551,-29.297,0.000
1728632491.445,-27.832,-38.574,-43.457,-35.645,0.000
1728632491.449,-57.617,-37.109,-40.527,-59.082,0.000
1728632491.453,-58.105,-40.039,-35.645,-52.246,0.000
1728632491.457,-20.996,-16.113,-26.855,-26.855,0.000
1728632491.461,-2.441,-5.859,-31.250,-20.508,0.000
1728632491.464,-23.438,-33.691,-37.598,-26.367,0.000
1728632491.468,-53.711,-37.598,-41.504,-37.109,0.000
1728632491.472,-43.945,-34.180,-40.039,-45.898,0.000
1728632491.476,-24.414,-32.715,-34.180,-30.273,0.000
1728632491.480,-25.879,-29.297,-42.480,-28.320,0.000
1728632491.484,-28.320,-34.180,-49.805,-36.133,0.000
1728632491.488,-32.715,-46.875,-48.340,-31.250,0.000
1728632491.492,-41.992,-37.109,-43.457,-32.715,0.000
1728632491.496,-29.785,-34.668,-30.273,-21.484,0.000
1728632491.500,-15.137,-36.133,-32.715,-17.090,0.000
1728632491.504,-26.855,-24.902,-37.109,-19.043,0.000
1728632491.507,-34.180,-25.391,-35.156,-27.344,0.000
1728632491.511,-36.133,-25.879,-35.645,-36.133,0.000
1728632491.515,-27.832,-16.113,-33.691,-20.996,0.000
1728632491.519,-14.160,-25.879,-37.598,-14.160,0.000
1728632491.523,-14.648,-40.039,-37.109,-26.855,0.000
1728632491.527,-35.645,-36.621,-33.203,-46.387,0.000
1728632491.531,-55.664,-36.133,-40.527,-44.922,0.000
1728632491.535,-36.133,-29.297,-36.133,-22.461,0.000
1728632491.539,-13.672,-24.414,-23.926,-14.160,0.000
1728632491.543,-10.742,-33.691,-26.855,-12.695,0.000
1728632491.546,-32.227,-28.809,-33.691,-20.508,0.000
1728632491.550,-58.105,-32.715,-34.668,-37.109,0.000
1728632491.554,-34.668,-43.457,-25.391,-31.250,0.000
1728632491.558,-5.859,-25.391,-23.926,-20.996,0.000
1728632491.562,-8.301,-27.832,-20.020,-24.902,0.000
1728632491.566,-31.738,-40.527,-29.785,-33.691,0.000
1728632491.570,-41.016,-37.109,-37.598,-30.762,0.000
1728632491.574,-29.297,-26.855,-24.414,-19.043,0.000
1728632491.578,-19.043,-29.785,-28.320,-19.531,0.000
1728632491.582,-9.277,-32.227,-38.086,-24.414,0.000
1728632491.586,-23.926,-33.691,-44.922,-29.785,0.000
1728632491.589,-49.805,-41.016,-43.945,-43.457,0.000
1728632491.593,-44.434,-40.527,-33.691,-27.832,0.000
1728632491.597,-22.461,-38.086,-26.367,-10.254,0.000
1728632491.601,-11.230,-44.922,-30.273,-20.020,0.000
1728632491.605,-23.438,-59.082,-38.086,-24.902,0.000
1728632491.609,-43.945,-62.500,-33.203,-33.691,0.000
1728632491.613,-30.762,-42.480,-34.180,-21.484,0.000
1728632491.617,-9.277,-32.227,-39.062,-2.930,0.000
1728632491.621,-6.348,-44.434,-39.062,-23.926,0.000
1728632491.625,-13.184,-46.875,-42.480,-37.598,0.000
1728632491.629,-55.176,-35.645,-45.410,-37.598,0.000
1728632491.632,-62.012,-42.969,-33.691,-41.992,0.000
1728632491.636,-17.578,-34.668,-26.855,-30.273,0.000
1728632491.640,-6.348,-26.855,-26.367,-10.742,0.000
1728632491.644,-20.508,-30.762,-23.926,-6.836,0.000
1728632491.648,-31.738,-24.414,-27.344,-23.926,0.000
1728632491.652,-38.086,-31.250,-24.414,-30.273,0.000
1728632491.656,-14.160,-30.273,-20.020,-17.090,0.000
1728632491.660,-13.184,-25.391,-23.438,-14.648,0.000
1728632491.664,-29.785,-30.273,-31.250,-11.719,0.000
1728632491.668,-37.598,-31.250,-36.133,-22.461,0.000
1728632491.672,-37.109,-29.785,-35.645,-29.297,0.000
1728632491.675,-35.645,-23.926,-30.273,-31.738,0.000
1728632491.679,-26.855,-21.973,-31.738,-32.227,0.000
1728632491.683,-19.531,-41.016,-37.109,-23.438,0.000
1728632491.687,-38.086,-44.922,-34.180,-27.344,0.000
1728632491.691,-41.016,-28.320,-31.250,-31.738,0.000
1728632491.695,-19.531,-20.996,-20.996,-20.996,0.000
1728632491.699,-0.977,-24.414,-19.043,-7.324,0.000
1728632491.703,-1.465,-32.227,-25.879,-12.207,0.000
1728632491.707,-29.297,-41.504,-29.297,-32.715,0.000
1728632491.711,-54.199,-43.457,-29.785,-38.086,0.000
1728632491.715,-42.480,-35.645,-27.344,-25.879,0.000
1728632491.718,-15.137,-39.551,-21.973,-13.184,0.000
1728632491.722,-7.324,-47.363,-25.391,-23.438,0.000
1728632491.726,-21.973,-48.828,-28.809,-30.273,0.000
1728632491.730,-55.176,-48.340,-28.320,-41.504,0.000
1728632491.734,-59.082,-45.410,-38.574,-44.922,0.000
1728632491.738,-26.855,-37.109,-38.574,-27.344,0.000
1728632491.742,-14.648,-28.320,-29.785,-23.438,0.000
1728632491.746,-31.738,-30.273,-36.133,-25.879,0.000
1728632491.750,-48.828,-41.016,-36.133,-35.156,0.000
1728632491.754,-37.598,-51.270,-36.133,-30.762,0.000
1728632491.758,-9.277,-41.992,-32.715,-20.508,0.000
1728632491.761,-18.066,-32.227,-36.621,-25.391,0.000
1728632491.765,-35.645,-40.527,-45.410,-27.344,0.000
1728632491.769,-20.508,-35.645,-40.527,-24.902,0.000
1728632491.773,-23.438,-32.227,-38.086,-29.785,0.000
1728632491.777,-27.832,-26.367,-39.551,-36.621,0.000
1728632491.781,6.836,-16.602,-40.039,-22.461,0.000
1728632491.785,-8.789,-32.715,-38.574,-17.578,0.000
1728632491.789,-62.500,-32.715,-46.875,-47.852,0.000
1728632491.793,0.000,-32.227,-41.016,-38.086,0.000
1728632491.797,0.000,-44.434,-30.273,-24.414,0.000
1728632491.801,0.000,-23.438,-43.457,-32.715,0.000
1728632491.804,0.000,-13.184,-34.180,-18.555,0.000
1728632491.808,0.000,-29.297,-20.996,-32.715,0.000
1728632491.812,0.000,-29.297,-24.902,-62.988,0.000
1728632491.816,0.000,-46.387,-13.184,-30.273,0.000
1728632491.820,0.000,-54.688,-16.602,-20.020,0.000
1728632491.824,0.000,-27.832,-22.461,-63.965,0.000
1728632491.828,0.000,-45.898,40.527,-61.035,0.000
1728632491.832,0.000,-34.668,-13.672,-84.473,0.000
1728632491.836,0.000,-17.090,-56.641,-73.730,0.000
1728632491.840,-28.809,6.348,36.133,-55.176,0.000
1728632491.843,-45.410,-24.414,-30.273,-49.805,0.000
1728632491.847,-39.551,-76.172,-71.777,8.301,0.000
1728632491.851,-14.160,-59.570,-52.734,11.719,0.000
1728632491.855,-40.527,-24.414,-30.273,-56.641,0.000
1728632491.859,-204.102,8.301,11.719,-165.039,0.000
1728632491.863,-216.797,-67.871,0.977,-160.645,0.000
1728632491.867,36.621,-121.094,-82.520,33.203,0.000
1728632491.871,56.152,-25.879,-104.980,64.941,0.000
1728632491.875,-55.664,48.340,-75.195,-55.664,0.000
1728632491.879,-84.961,15.137,-81.543,-138.184,0.000
1728632491.883,-59.082,-36.133,-60.059,-112.793,0.000
1728632491.886,-24.902,-84.473,-151.367,18.555,0.000
1728632491.890,-61.035,-62.988,-99.121,23.926,0.000
1728632491.894,-14.648,-4.883,-5.371,-14.160,0.000
1728632491.898,69.824,-3.906,-30.762,11.230,0.000
1728632491.902,157.227,-88.867,-62.012,107.910,0.000
1728632491.906,102.051,-42.969,-103.027,29.785,0.000
1728632491.910,-74.707,-11.719,-78.125,-108.398,0.000
1728632491.914,-110.840,-46.387,-91.797,-96.680,0.000
1728632491.918,25.879,-62.012,-120.605,33.691,0.000
1728632491.922,31.738,-44.434,-91.309,148.438,0.000
1728632491.926,46.387,-44.434,-38.574,149.414,0.000
1728632491.929,-65.430,-98.145,-1.465,0.000,0.000
1728632491.933,-11.719,-151.855,-37.598,-19.531,0.000
1728632491.937,130.371,-67.383,-54.688,21.973,0.000
1728632491.941,107.910,-17.090,-86.914,107.910,0.000
1728632491.945,85.449,6.836,-92.285,74.707,0.000
1728632491.949,-41.992,11.230,-49.805,-12.695,0.000
1728632491.953,-61.523,-3.906,-70.312,16.113,0.000
1728632491.957,52.734,-56.152,-64.453,14.648,0.000
1728632491.961,53.711,-68.359,-66.895,31.250,0.000
1728632491.965,-5.859,-8.301,-78.125,9.277,0.000
1728632491.969,-39.062,-56.641,-41.016,-29.785,0.000
1728632491.972,-41.504,-89.355,-17.578,-39.062,0.000
1728632491.976,1.465,-22.949,-58.105,-0.977,0.000
1728632491.980,3.418,-39.062,-73.730,43.945,0.000
1728632491.984,0.488,-69.824,-45.898,31.738,0.000
1728632491.988,-15.625,-65.430,-22.949,-7.324,0.000
1728632491.992,-49.316,-85.449,-21.973,-22.949,0.000
1728632491.996,-2.930,-11.230,-78.613,-0.977,0.000
1728632492.000,6.836,-11.719,-78.613,-24.902,0.000
1728632492.004,12.207,-37.598,-65.918,2.930,0.000
1728632492.008,17.578,-12.207,-52.734,3.418,0.000
1728632492.012,-5.371,-72.754,-43.457,1.465,0.000
1728632492.015,-12.207,-20.020,-51.758,10.254,0.000
1728632492.019,1.465,5.371,-30.762,-3.418,0.000
1728632492.023,18.066,-62.988,-35.645,18.066,0.000
1728632492.027,-13.672,-47.852,-62.988,4.883,0.000
1728632492.031,-21.484,-33.203,-61.035,-25.391,0.000
1728632492.035,-15.625,-39.062,-60.547,-29.785,0.000
1728632492.039,-6.836,-49.805,-51.270,-48.828,0.000
1728632492.043,0.000,-32.227,-49.316,-40.039,0.000
1728632492.047,-17.578,-26.855,-43.945,-8.789,0.000
1728632492.051,-49.316,-49.316,-41.016,-26.855,0.000
1728632492.055,-32.227,-40.527,-38.086,-29.297,0.000
1728632492.058,-5.371,-29.297,-32.715,-0.488,0.000
1728632492.062,-3.418,-29.297,-33.691,-5.859,0.000
1728632492.066,-32.715,-35.156,-41.016,-28.320,0.000
1728632492.070,-62.988,-33.691,-41.992,-39.551,0.000
1728632492.074,-42.969,-38.574,-37.109,-31.738,0.000
1728632492.078,-13.672,-47.363,-36.621,-22.461,0.000
1728632492.082,1.465,-35.156,-38.086,-3.906,0.000
1728632492.086,-1.953,-30.273,-38.574,-5.371,0.000
1728632492.090,-37.598,-23.438,-44.922,-27.832,0.000
1728632492.094,-39.551,-19.043,-46.875,-26.855,0.000
1728632492.097,-1.953,-32.715,-35.156,-14.648,0.000
1728632492.101,8.301,-30.762,-33.203,-12.695,0.000
1728632492.105,-11.719,-27.832,-33.691,-22.461,0.000
1728632492.109,-43.457,-32.715,-36.621,-28.809,0.000
1728632492.113,-41.504,-40.039,-39.551,-32.227,0.000
1728632492.117,-14.648,-32.227,-33.203,-24.414,0.000
1728632492.121,-10.254,-16.602,-32.715,-20.996,0.000
1728632492.125,-19.043,-21.973,-43.457,-28.809,0.000
1728632492.129,-37.598,-27.344,-45.898,-28.320,0.000
1728632492.133,-41.504,-25.879,-29.297,-32.227,0.000
1728632492.137,-20.020,-22.949,-25.391,-24.902,0.000
1728632492.140,-2.930,-18.066,-36.133,-10.742,0.000
1728632492.144,-17.090,-24.902,-28.809,-11.230,0.000
1728632492.148,-40.527,-28.320,-30.273,-16.602,0.000
1728632492.152,-46.387,-18.066,-20.996,-28.320,0.000
1728632492.156,-31.250,-10.742,-10.254,-27.344,0.000
1728632492.160,-12.695,-12.695,-22.461,-1.953,0.000
1728632492.164,-25.879,-15.137,-27.344,0.488,0.000
1728632492.168,-48.340,-20.508,-31.738,-24.902,0.000
1728632492.172,-43.945,-29.297,-32.715,-31.738,0.000
1728632492.176,-24.902,-30.273,-29.297,-27.344,0.000
1728632492.180,-6.348,-32.715,-23.926,-22.461,0.000
1728632492.183,-7.812,-31.250,-23.926,-17.578,0.000
1728632492.187,-27.344,-31.250,-23.438,-31.250,0.000
1728632492.191,-40.527,-31.250,-25.391,-40.527,0.000
1728632492.195,-22.949,-27.344,-23.438,-34.180,0.000
1728632492.199,-7.812,-27.344,-18.066,-27.344,0.000
1728632492.203,-19.043,-26.367,-24.902,-24.902,0.000
1728632492.207,-48.340,-29.297,-26.367,-23.926,0.000
1728632492.211,-61.523,-29.297,-25.879,-34.668,0.000
1728632492.215,-33.203,-26.367,-28.809,-47.852,0.000
1728632492.219,-10.742,-38.086,-24.902,-47.363,0.000
1728632492.223,-15.625,-28.320,-22.949,-36.621,0.000
1728632492.226,-40.527,-20.508,-29.297,-39.062,0.000
1728632492.230,-50.293,-31.250,-31.250,-48.340,0.000
1728632492.234,-27.344,-34.180,-30.273,-38.574,0.000
1728632492.238,-12.207,-26.855,-32.715,-38.574,0.000
1728632492.242,-16.113,-17.090,-24.414,-33.203,0.000
1728632492.246,-41.016,-27.832,-20.020,-20.020,0.000
1728632492.250,-61.523,-28.809,-35.156,-40.039,0.000
1728632492.254,-56.152,-23.926,-41.504,-58.594,0.000
1728632492.258,-41.504,-18.555,-33.691,-50.293,0.000
1728632492.262,-27.344,-22.461,-32.227,-50.781,0.000
1728632492.266,-29.297,-36.621,-34.668,-40.039,0.000
1728632492.269,-48.828,-35.645,-31.738,-34.180,0.000
1728632492.273,-54.199,-38.086,-27.344,-28.320,0.000
1728632492.277,-39.062,-37.109,-26.367,-20.020,0.000
1728632492.281,-16.113,-30.762,-26.855,-23.438,0.000
1728632492.285,-24.902,-29.297,-22.949,-19.531,0.000
1728632492.289,-49.805,-24.902,-17.578,-41.504,0.000
1728632492.293,-63.965,-25.391,-22.949,-56.641,0.000
1728632492.297,-59.082,-23.926,-33.203,-45.898,0.000
1728632492.301,-34.180,-28.320,-32.715,-41.992,0.000
1728632492.305,-36.133,-44.922,-30.273,-44.434,0.000
1728632492.309,-67.871,-43.457,-35.156,-55.664,0.000
1728632492.312,-64.941,-43.457,-34.180,-49.316,0.000
1728632492.316,-41.504,-44.434,-26.367,-37.109,0.000
1728632492.320,-26.855,-38.086,-34.180,-32.715,0.000
1728632492.324,-30.273,-37.598,-35.156,-30.762,0.000
1728632492.328,-52.734,-34.180,-32.715,-48.828,0.000
1728632492.332,-60.547,-35.645,-34.668,-64.941,0.000
1728632492.336,-41.504,-36.621,-34.180,-59.082,0.000
1728632492.340,-18.555,-42.480,-37.598,-42.969,0.000
1728632492.344,-19.531,-51.758,-38.574,-34.180,0.000
1728632492.348,-45.410,-46.875,-35.645,-48.340,0.000
1728632492.351,-47.852,-41.504,-33.203,-55.664,0.000
1728632492.355,-27.832,-38.086,-28.320,-36.133,0.000
1728632492.359,-27.344,-38.574,-25.391,-24.902,0.000
1728632492.363,-40.039,-41.016,-26.855,-28.809,0.000
1728632492.367,-51.758,-36.621,-36.621,-37.598,0.000
1728632492.371,-62.988,-38.086,-36.621,-49.316,0.000
1728632492.375,-52.246,-34.668,-33.203,-51.270,0.000
1728632492.379,-22.461,-24.902,-34.180,-35.645,0.000
1728632492.383,-17.578,-35.156,-25.879,-24.414,0.000
1728632492.387,-35.645,-52.734,-26.855,-28.809,0.000
1728632492.391,-51.270,-48.828,-27.344,-46.875,0.000
1728632492.394,-63.965,-35.645,-23.438,-52.246,0.000
1728632492.398,-33.203,-35.645,-23.438,-29.297,0.000
1728632492.402,-16.113,-30.273,-27.344,-33.203,0.000
1728632492.406,-48.828,-32.227,-32.715,-41.504,0.000
1728632492.410,-60.059,-42.969,-30.762,-41.016,0.000
1728632492.414,-60.059,-37.598,-29.297,-47.852,0.000
1728632492.418,-38.086,-34.668,-23.438,-44.434,0.000
1728632492.422,-23.438,-41.016,-18.066,-40.527,0.000
1728632492.426,-38.574,-42.480,-14.160,-35.645,0.000
1728632492.430,-61.035,-41.504,-21.484,-40.039,0.000
1728632492.434,-56.152,-40.527,-30.273,-33.691,0.000
1728632492.437,-31.738,-31.738,-21.484,-36.621,0.000
1728632492.441,-22.461,-41.016,-17.090,-38.574,0.000
1728632492.445,-29.785,-48.340,-29.785,-38.574,0.000
1728632492.449,-43.945,-40.039,-36.621,-54.199,0.000
1728632492.453,-48.340,-41.992,-30.762,-61.035,0.000
1728632492.457,-37.598,-44.922,-25.879,-49.316,0.000
1728632492.461,-28.809,-50.293,-23.438,-36.133,0.000
1728632492.465,-43.945,-55.176,-26.367,-35.156,0.000
1728632492.469,-56.152,-45.898,-26.367,-44.922,0.000
1728632492.473,-59.082,-44.434,-22.949,-45.410,0.000
1728632492.477,-28.809,-41.504,-22.461,-28.809,0.000
1728632492.480,-5.371,-36.621,-21.973,-25.391,0.000
1728632492.484,-26.855,-46.387,-33.203,-34.180,0.000
1728632492.488,-48.828,-49.316,-40.039,-43.457,0.000
1728632492.492,-52.734,-46.387,-37.109,-45.898,0.000
1728632492.496,-45.898,-41.016,-40.527,-44.434,0.000
1728632492.500,-36.133,-40.527,-32.715,-43.945,0.000
1728632492.504,-26.855,-56.152,-27.832,-32.227,0.000
1728632492.508,-50.293,-45.898,-39.062,-37.598,0.000
1728632492.512,-64.941,-38.086,-34.180,-63.477,0.000
1728632492.516,-48.828,-47.852,-30.273,-57.129,0.000
1728632492.520,-27.344,-46.387,-40.039,-40.527,0.000
1728632492.523,-23.926,-45.410,-39.551,-34.180,0.000
1728632492.527,-54.688,-47.363,-40.527,-46.387,0.000
1728632492.531,-72.754,-42.969,-42.969,-67.383,0.000
1728632492.535,-60.059,-39.062,-39.062,-54.688,0.000
1728632492.539,-14.160,-30.762,-36.133,-47.852,0.000
1728632492.543,0.000,-17.090,-27.344,-37.598,0.000
1728632492.547,-30.273,-28.809,-25.391,-22.461,0.000
1728632492.551,-44.922,-45.898,-32.715,-29.297,0.000
1728632492.555,-26.855,-48.340,-25.391,-25.391,0.000
1728632492.559,-10.254,-41.992,-23.438,-20.508,0.000
1728632492.562,-10.254,-34.668,-27.344,-28.809,0.000
1728632492.566,-22.461,-34.668,-33.203,-30.273,0.000
1728632492.570,-46.875,-48.340,-34.180,-38.086,0.000
1728632492.574,-45.410,-38.086,-30.762,-52.734,0.000
1728632492.578,-19.531,-25.879,-23.438,-33.691,0.000
1728632492.582,-10.742,-34.180,-26.367,-12.695,0.000
1728632492.586,-21.484,-38.574,-39.062,-30.762,0.000
1728632492.590,-38.574,-41.016,-34.180,-50.781,0.000
1728632492.594,-50.293,-44.434,-28.809,-41.992,0.000
1728632492.598,-23.438,-35.156,-32.715,-36.133,0.000
1728632492.602,-18.555,-27.344,-32.227,-41.504,0.000
1728632492.605,-36.621,-34.668,-33.691,-32.715,0.000
1728632492.609,-48.828,-35.156,-34.180,-37.598,0.000
1728632492.613,-41.504,-38.574,-28.320,-40.527,0.000
1728632492.617,-18.066,-38.086,-22.461,-35.645,0.000
1728632492.621,-20.996,-36.133,-20.996,-29.785,0.000
1728632492.625,-29.297,-42.969,-28.320,-20.508,0.000
1728632492.629,-49.316,-47.363,-31.738,-24.414,0.000
1728632492.633,-54.199,-41.504,-33.691,-29.297,0.000
1728632492.637,-29.297,-43.945,-28.809,-26.367,0.000
1728632492.641,-19.043,-55.176,-24.414,-22.461,0.000
1728632492.645,-16.113,-44.922,-34.180,-20.508,0.000
1728632492.648,-40.039,-41.992,-30.762,-23.438,0.000
1728632492.652,-56.641,-49.316,-22.461,-27.344,0.000
1728632492.656,-22.949,-54.688,-27.832,-13.672,0.000
1728632492.660,0.488,-47.852,-26.855,-11.719,0.000
1728632492.664,-6.348,-33.691,-26.855,-17.090,0.000
1728632492.668,-26.367,-32.715,-36.621,-23.438,0.000
1728632492.672,-42.969,-44.922,-37.598,-33.691,0.000
1728632492.676,-33.203,-55.664,-31.250,-30.762,0.000
1728632492.680,-11.719,-42.969,-25.879,-22.949,0.000
1728632492.684,-9.766,-41.016,-32.715,-26.367,0.000
1728632492.688,-41.016,-42.969,-47.363,-46.875,0.000
1728632492.691,-60.547,-45.898,-48.828,-56.152,0.000
1728632492.695,-41.504,-54.688,-45.410,-50.293,0.000
1728632492.699,-18.066,-48.340,-42.969,-41.992,0.000
1728632492.703,-10.742,-48.828,-36.621,-26.855,0.000
1728632492.707,-25.879,-46.387,-37.598,-30.762,0.000
1728632492.711,-53.223,-40.527,-36.621,-51.270,0.000
1728632492.715,-46.387,-36.621,-38.086,-47.852,0.000
1728632492.719,-29.785,-33.691,-36.621,-32.715,0.000
1728632492.723,-26.855,-34.180,-36.621,-41.016,0.000
1728632492.727,-31.250,-37.598,-47.363,-41.992,0.000
1728632492.731,0.000,-43.945,-50.781,-39.551,0.000
1728632492.734,0.000,-41.992,-42.969,-47.363,0.000
1728632492.738,0.000,-31.738,-34.180,-31.250,0.000
1728632492.742,0.000,-28.809,-32.227,-14.648,0.000
1728632492.746,0.000,-35.156,-34.668,-22.461,0.000
1728632492.750,0.000,-40.527,-34.668,-34.668,0.000
1728632492.754,0.000,-34.668,-29.297,-33.691,0.000
1728632492.758,0.000,-27.344,-31.738,-30.273,0.000
1728632492.762,0.000,-30.762,-35.156,-34.668,0.000
1728632492.766,0.000,-34.180,-36.133,-42.969,0.000
1728632492.770,0.000,-35.156,-37.109,-45.898,0.000
1728632492.774,0.000,-32.715,-24.902,-47.852,0.000
1728632492.777,-15.137,-40.039,-25.391,-37.109,0.000
1728632492.781,-19.043,-43.945,-40.527,-33.203,0.000
1728632492.785,-29.785,-50.781,-34.668,-33.691,0.000
1728632492.789,-46.875,-51.270,-35.156,-29.297,0.000
1728632492.793,-61.523,-39.062,-44.922,-37.109,0.000
1728632492.797,-41.992,-28.809,-41.016,-27.344,0.000
1728632492.801,-9.766,-28.809,-29.297,-11.719,0.000
1728632492.805,-12.207,-37.109,-28.809,-18.066,0.000
1728632492.809,-46.875,-40.527,-36.621,-34.668,0.000
1728632492.813,-60.547,-44.434,-41.016,-39.062,0.000
1728632492.817,-31.250,-38.086,-37.598,-28.320,0.000
1728632492.820,-15.625,-46.387,-30.273,-20.508,0.000
1728632492.824,-34.668,-57.129,-30.273,-20.020,0.000
1728632492.828,-57.617,-56.641,-34.668,-30.762,0.000
1728632492.832,-64.453,-50.781,-35.156,-30.762,0.000
1728632492.836,-49.805,-42.480,-36.133,-28.320,0.000
1728632492.840,-21.484,-40.527,-41.016,-27.832,0.000
1728632492.844,-17.090,-43.945,-44.434,-33.203,0.000
1728632492.848,-61.035,-53.223,-50.293,-41.992,0.000
1728632492.852,-70.801,-58.105,-48.828,-41.016,0.000
1728632492.856,-46.875,-49.805,-37.109,-41.992,0.000
1728632492.859,-31.738,-41.504,-29.297,-38.086,0.000
1728632492.863,-23.926,-41.504,-31.738,-28.809,0.000
1728632492.867,-49.316,-49.805,-35.156,-25.879,0.000
1728632492.871,-74.219,-64.941,-36.133,-40.039,0.000
1728632492.875,-48.828,-53.711,-32.715,-35.645,0.000
1728632492.879,-20.020,-42.480,-30.762,-22.461,0.000
1728632492.883,-18.066,-53.223,-23.438,-21.484,0.000
1728632492.887,-46.875,-43.457,-22.461,-27.832,0.000
1728632492.891,-52.734,-47.363,-34.180,-27.832,0.000
1728632492.895,-46.875,-60.547,-35.645,-25.879,0.000
1728632492.899,-47.363,-43.457,-34.668,-16.602,0.000
1728632492.902,-39.062,-30.273,-32.227,-9.766,0.000
1728632492.906,-44.922,-36.133,-40.039,-22.949,0.000
1728632492.910,-58.594,-46.875,-46.387,-41.016,0.000
1728632492.914,-52.734,-39.551,-39.551,-37.598,0.000
1728632492.918,-34.180,-27.832,-36.621,-24.414,0.000
1728632492.922,-29.785,-35.645,-34.668,-23.438,0.000
1728632492.926,-28.809,-45.898,-36.133,-26.367,0.000
1728632492.930,-52.734,-42.480,-36.133,-36.133,0.000
1728632492.934,-63.965,-30.273,-33.691,-45.898,0.000
1728632492.938,-27.344,-20.996,-31.738,-38.574,0.000
1728632492.942,-13.184,-31.738,-32.715,-31.738,0.000
1728632492.945,-15.625,-34.668,-37.109,-29.785,0.000
1728632492.949,-34.180,-23.926,-40.039,-45.410,0.000
1728632492.953,-53.711,-39.062,-39.551,-55.664,0.000
1728632492.957,-38.574,-31.250,-24.902,-49.316,0.000
1728632492.961,-18.066,-19.043,-23.926,-46.875,0.000
1728632492.965,-21.484,-36.621,-37.598,-37.109,0.000
1728632492.969,-49.316,-49.316,-40.527,-35.156,0.000
1728632492.973,-62.500,-51.758,-49.805,-39.062,0.000
1728632492.977,-47.852,-44.922,-47.363,-35.645,0.000
1728632492.981,-21.484,-41.016,-35.645,-24.902,0.000
1728632492.985,-24.902,-43.945,-37.109,-19.043,0.000
1728632492.988,-43.457,-45.898,-43.945,-20.996,0.000
1728632492.992,-30.762,-35.156,-33.691,-28.320,0.000
1728632492.996,-23.926,-23.438,-18.555,-34.180,0.000
1728632493.000,-17.578,-31.250,-21.973,-27.344,0.000
1728632493.004,-16.602,-34.180,-25.391,-24.902,0.000
1728632493.008,-39.062,-34.668,-30.762,-30.762,0.000
1728632493.012,-47.363,-44.922,-36.133,-37.109,0.000
1728632493.016,-25.879,-45.410,-32.715,-29.297,0.000
1728632493.020,-11.230,-31.738,-27.832,-15.137,0.000
1728632493.024,-20.020,-32.227,-25.879,-18.555,0.000
1728632493.028,-34.668,-39.551,-29.785,-28.809,0.000
1728632493.031,-54.688,-42.969,-35.156,-22.949,0.000
1728632493.035,-47.363,-44.922,-35.645,-15.625,0.000
1728632493.039,-16.602,-38.574,-34.180,-26.855,0.000
1728632493.043,-16.113,-28.809,-39.551,-28.809,0.000
1728632493.047,-34.668,-41.992,-43.457,-35.645,0.000
1728632493.051,-45.898,-52.734,-44.922,-56.152,0.000
1728632493.055,-35.156,-43.457,-40.039,-46.875,0.000
1728632493.059,-6.348,-42.969,-37.598,-24.414,0.000
1728632493.063,-11.230,-48.828,-35.645,-20.508,0.000
1728632493.067,-41.016,-41.992,-36.133,-35.156,0.000
1728632493.071,-62.012,-47.852,-42.969,-52.246,0.000
1728632493.074,-53.711,-52.734,-40.039,-47.363,0.000
1728632493.078,-25.879,-40.527,-34.668,-30.762,0.000
1728632493.082,-9.277,-40.527,-35.645,-21.973,0.000
1728632493.086,-22.461,-44.434,-42.480,-26.367,0.000
1728632493.090,-35.156,-40.527,-42.480,-35.645,0.000
1728632493.094,-30.762,-41.016,-34.180,-30.273,0.000
1728632493.098,-16.113,-43.457,-28.809,-29.297,0.000
1728632493.102,-2.930,-36.133,-31.738,-30.273,0.000
1728632493.106,-18.555,-42.480,-35.156,-31.738,0.000
1728632493.110,-47.852,-56.641,-44.922,-39.062,0.000
1728632493.114,-41.504,-46.875,-47.363,-35.156,0.000
1728632493.117,-6.348,-36.621,-39.062,-21.484,0.000
1728632493.121,-7.812,-41.504,-42.969,-13.184,0.000
1728632493.125,-30.762,-53.223,-46.875,-21.973,0.000
1728632493.129,-38.086,-49.316,-46.387,-27.832,0.000
1728632493.133,-35.156,-43.457,-46.387,-29.785,0.000
1728632493.137,-26.367,-44.434,-43.945,-20.508,0.000
1728632493.141,-4.883,-44.922,-41.016,-20.996,0.000
1728632493.145,-2.930,-44.922,-41.992,-30.762,0.000
1728632493.149,-40.039,-42.480,-44.922,-41.504,0.000
1728632493.153,-58.105,-42.969,-45.410,-56.152,0.000
1728632493.156,-45.410,-43.945,-43.945,-55.664,0.000
1728632493.160,-20.020,-46.875,-47.852,-45.898,0.000
1728632493.164,-15.137,-41.016,-46.875,-35.156,0.000
1728632493.168,-34.668,-37.598,-45.898,-37.109,0.000
1728632493.172,-49.805,-43.945,-48.828,-47.363,0.000
1728632493.176,-32.227,-41.016,-46.875,-45.410,0.000
1728632493.180,-0.488,-30.762,-41.016,-30.762,0.000
1728632493.184,-0.488,-42.480,-36.621,-16.113,0.000
1728632493.188,-22.949,-46.387,-44.434,-21.973,0.000
1728632493.192,-43.457,-51.270,-51.270,-34.668,0.000
1728632493.196,-33.203,-49.316,-46.387,-31.738,0.000
1728632493.199,0.000,-36.133,-38.574,-24.414,0.000
1728632493.203,0.000,-30.273,-39.551,-22.461,0.000
1728632493.207,0.000,-36.621,-47.363,-23.926,0.000
1728632493.211,0.000,-44.434,-49.316,-47.852,0.000
1728632493.215,0.000,-36.133,-50.293,-46.875,0.000
1728632493.219,0.000,-33.691,-44.922,-26.855,0.000
1728632493.223,0.000,-42.480,-39.062,-31.250,0.000
1728632493.227,0.000,-56.641,-39.062,-23.438,0.000
1728632493.231,0.000,-52.734,-40.527,-32.227,0.000
1728632493.235,0.000,-34.668,-37.598,-40.527,0.000
1728632493.239,0.000,-29.297,-32.715,-20.996,0.000
1728632493.242,0.000,-33.203,-34.180,-20.996,0.000
1728632493.246,-17.090,-34.180,-42.969,-29.297,0.000
1728632493.250,-21.973,-35.156,-41.504,-38.574,0.000
1728632493.254,-40.527,-39.062,-25.391,-38.086,0.000
1728632493.258,-15.625,-37.109,-24.414,-21.484,0.000
1728632493.262,-7.324,-30.762,-32.715,-23.926,0.000
1728632493.266,-33.691,-34.668,-35.645,-26.855,0.000
1728632493.270,-50.293,-45.410,-42.480,-32.715,0.000
1728632493.274,-47.363,-46.875,-46.875,-36.133,0.000
1728632493.278,-27.344,-42.480,-39.551,-26.855,0.000
1728632493.282,-8.789,-32.715,-39.551,-25.391,0.000
1728632493.285,-26.855,-31.250,-49.316,-28.320,0.000
1728632493.289,-49.805,-41.992,-48.828,-30.762,0.000
1728632493.293,-56.641,-44.922,-49.316,-34.668,0.000
1728632493.297,-29.785,-38.086,-50.781,-30.762,0.000
1728632493.301,-2.930,-39.551,-45.898,-27.344,0.000
1728632493.305,-28.320,-44.434,-43.945,-20.508,0.000
1728632493.309,-47.363,-41.016,-40.527,-23.926,0.000
1728632493.313,-49.316,-39.551,-43.457,-45.410,0.000
1728632493.317,-28.809,-34.668,-39.062,-23.438,0.000
1728632493.321,-7.324,-29.785,-29.785,-15.625,0.000
1728632493.325,-15.625,-30.762,-34.668,-42.480,0.000
1728632493.328,-48.340,-39.551,-37.598,-44.922,0.000
1728632493.332,-59.570,-48.340,-36.133,-41.992,0.000
1728632493.336,-36.133,-52.246,-40.527,-37.598,0.000
1728632493.340,-17.090,-43.945,-40.527,-24.414,0.000
1728632493.344,-26.855,-40.039,-44.922,-24.414,0.000
1728632493.348,-52.246,-50.781,-46.387,-36.621,0.000
1728632493.352,-42.480,-48.340,-52.246,-43.945,0.000
1728632493.356,-29.297,-32.715,-49.805,-37.109,0.000
1728632493.360,-13.672,-35.156,-40.039,-24.414,0.000
1728632493.364,0.000,-45.898,-40.039,-16.113,0.000
1728632493.367,-40.039,-42.480,-34.180,-29.785,0.000
1728632493.371,-61.523,-50.293,-34.180,-37.109,0.000
1728632493.375,-29.785,-53.223,-27.344,-24.902,0.000
1728632493.379,-9.277,-44.434,-22.949,-26.367,0.000
1728632493.383,-9.766,-41.504,-31.738,-30.762,0.000
1728632493.387,0.000,-47.852,-24.414,-24.414,0.000
1728632493.391,0.000,-51.270,-24.414,-40.039,0.000
1728632493.395,0.000,-41.504,-35.156,-42.480,0.000
1728632493.399,0.000,-28.809,-38.086,-29.785,0.000
1728632493.403,0.000,-30.273,-36.621,-31.738,0.000
1728632493.407,0.000,-43.945,-39.062,-35.156,0.000
1728632493.410,0.000,-49.316,-39.062,-39.062,0.000
1728632493.414,0.000,-39.551,-32.227,-38.086,0.000
1728632493.418,0.000,-37.109,-30.762,-36.133,0.000
1728632493.422,0.000,-42.480,-40.039,-18.555,0.000
1728632493.426,0.000,-33.203,-39.062,-13.184,0.000
1728632493.430,0.000,-32.715,-36.621,-23.926,0.000
1728632493.434,-28.320,-44.434,-41.504,-29.297,0.000
1728632493.438,-50.293,-48.828,-37.598,-28.809,0.000
1728632493.442,-46.387,-29.785,-37.109,-25.391,0.000
1728632493.446,-14.160,-24.414,-40.039,-27.344,0.000
1728632493.449,3.906,-42.969,-44.922,-27.344,0.000
1728632493.453,-17.578,-45.898,-41.992,-24.902,0.000
1728632493.457,-40.039,-37.598,-41.016,-19.531,0.000
1728632493.461,-38.086,-36.621,-48.340,-15.137,0.000
1728632493.465,-14.648,-45.410,-40.527,-8.301,0.000
1728632493.469,-3.418,-46.387,-39.062,-11.719,0.000
1728632493.473,-28.809,-46.875,-44.434,-32.715,0.000
1728632493.477,-46.387,-48.828,-37.598,-28.320,0.000
1728632493.481,-3.418,-46.387,-41.992,-22.461,0.000
1728632493.485,-16.602,-42.969,-47.363,-35.645,0.000
1728632493.489,-49.316,-44.434,-48.340,-32.715,0.000
1728632493.492,-45.410,-43.945,-47.363,-30.273,0.000
1728632493.496,-29.785,-41.504,-42.480,-33.203,0.000
1728632493.500,-14.160,-38.574,-36.621,-38.574,0.000
1728632493.504,-18.066,-35.156,-33.203,-35.645,0.000
1728632493.508,-33.203,-47.363,-26.855,-28.320,0.000
1728632493.512,-41.992,-56.641,-30.762,-35.156,0.000
1728632493.516,-41.504,-58.105,-48.340,-36.621,0.000
1728632493.520,-18.066,-47.363,-50.293,-24.414,0.000
1728632493.524,1.465,-41.992,-42.480,-15.137,0.000
1728632493.528,-36.133,-39.551,-43.457,-19.531,0.000
1728632493.532,-72.754,-44.922,-45.898,-30.273,0.000
1728632493.535,-37.109,-53.711,-33.203,-29.297,0.000
1728632493.539,5.859,-42.969,-25.391,-16.602,0.000
1728632493.543,0.000,-41.992,-26.855,-10.254,0.000
1728632493.547,-28.320,-54.688,-33.691,-20.508,0.000
1728632493.551,-46.387,-49.805,-39.062,-44.434,0.000
1728632493.555,-39.551,-41.016,-41.016,-49.316,0.000
1728632493.559,-18.555,-41.992,-46.387,-29.297,0.000
1728632493.563,-0.977,-30.762,-46.387,-26.367,0.000
1728632493.567,-17.090,-33.203,-44.434,-32.715,0.000
1728632493.571,-48.340,-50.781,-39.062,-44.922,0.000
1728632493.575,-43.945,-55.176,0.000,-46.387,0.000
1728632493.578,-21.973,-42.969,0.000,-30.762,0.000
1728632493.582,-13.184,-37.598,0.000,-18.066,0.000
1728632493.586,-31.738,-37.598,0.000,-20.020,0.000
1728632493.590,-48.340,-35.645,0.000,-33.691,0.000
1728632493.594,-28.320,-28.809,0.000,-33.203,0.000
1728632493.598,-10.742,-26.855,0.000,-20.996,0.000
1728632493.602,-6.348,-33.691,0.000,-11.719,0.000
1728632493.606,-15.625,-36.133,0.000,-11.719,0.000
1728632493.610,-46.387,-44.434,0.000,-34.668,0.000
1728632493.614,-30.273,-48.340,0.000,-40.039,0.000
1728632493.618,-5.859,-35.156,0.000,-18.555,0.000
1728632493.621,-15.137,-32.227,-22.461,-12.695,0.000
1728632493.625,-37.598,-34.180,-31.250,-27.344,0.000
1728632493.629,-57.129,-53.223,-39.551,-40.039,0.000
1728632493.633,-39.551,-63.477,-39.062,-38.574,0.000
1728632493.637,-20.020,-45.410,-36.133,-24.414,0.000
1728632493.641,-8.301,-38.574,-34.180,-18.066,0.000
1728632493.645,-10.254,-37.598,-31.250,-19.531,0.000
1728632493.649,-33.691,-39.062,-38.086,-26.855,0.000
1728632493.653,-58.594,-33.203,-42.969,-38.574,0.000
1728632493.657,-33.203,-24.902,-36.621,-32.715,0.000
1728632493.661,-4.395,-24.902,-27.832,-19.531,0.000
1728632493.664,-16.602,-37.598,-22.949,-6.836,0.000
1728632493.668,-34.668,-36.621,-33.203,-6.836,0.000
1728632493.672,-47.852,-46.875,-40.039,-23.438,0.000
1728632493.676,-35.156,-50.293,-36.621,-22.949,0.000
1728632493.680,-3.906,-29.785,-32.715,-21.484,0.000
1728632493.684,-5.859,-31.250,-35.645,-25.391,0.000
1728632493.688,-41.016,-46.387,-43.945,-18.555,0.000
1728632493.692,-53.223,-55.664,-49.316,-37.598,0.000
1728632493.696,-31.250,-37.109,-31.738,-33.203,0.000
1728632493.700,-11.719,-20.996,-15.625,-9.766,0.000
1728632493.703,-8.301,-24.414,-30.762,-9.766,0.000
1728632493.707,-20.020,-25.879,-35.156,-20.508,0.000
1728632493.711,-38.086,-26.367,-36.621,-33.203,0.000
1728632493.715,-29.785,-32.227,-27.344,-23.438,0.000
1728632493.719,-4.395,-26.855,-21.484,-9.277,0.000
1728632493.723,-0.977,-22.461,-32.715,-15.137,0.000
1728632493.727,-23.438,-25.879,-27.344,-21.973,0.000
1728632493.731,-41.504,-22.949,-23.926,-33.691,0.000
1728632493.735,-33.691,-19.043,-29.297,-47.363,0.000
1728632493.739,1.465,-20.996,-28.320,-25.391,0.000
1728632493.743,8.789,-14.648,-30.273,-23.926,0.000
1728632493.746,-35.156,-22.949,-44.922,-55.176,0.000
1728632493.750,-66.895,-43.457,-42.969,-64.941,0.000
1728632493.754,-40.039,-41.016,-35.156,-55.664,0.000
1728632493.758,-22.949,-33.691,-33.203,-26.855,0.000
1728632493.762,-33.691,-29.297,-32.227,-25.391,0.000
1728632493.766,-21.973,-34.180,-37.598,-39.551,0.000
1728632493.770,-34.668,-40.527,-46.875,-32.715,0.000
1728632493.774,-68.359,-32.715,-52.246,-40.527,0.000
1728632493.778,-37.598,-32.715,-52.246,-35.645,0.000
1728632493.782,-7.812,-37.109,-52.734,-22.949,0.000
1728632493.786,-18.066,-33.203,-54.688,-20.020,0.000
1728632493.789,-26.855,-28.809,-53.711,-17.090,0.000
1728632493.793,-35.645,-35.645,-48.340,-33.203,0.000
1728632493.797,-25.391,-32.227,-42.480,-37.109,0.000
1728632493.801,6.348,-29.785,-36.133,-9.766,0.000
1728632493.805,-0.488,-36.621,-37.598,-10.742,0.000
1728632493.809,-34.668,-36.621,-45.410,-23.438,0.000
1728632493.813,-40.039,-37.598,-46.875,-36.621,0.000
1728632493.817,-13.184,-25.879,-41.016,-26.367,0.000
1728632493.821,-11.719,-13.672,-36.133,-17.090,0.000
1728632493.825,-29.785,-21.973,-40.039,-28.809,0.000
1728632493.829,-55.176,-33.203,-47.852,-41.016,0.000
1728632493.832,-61.523,-31.738,-46.875,-35.645,0.000
1728632493.836,-20.020,-19.531,-39.551,-34.668,0.000
1728632493.840,-16.602,-16.602,-41.992,-31.738,0.000
1728632493.844,-30.273,-29.297,-47.852,-22.461,0.000
1728632493.848,-27.832,-32.227,-51.270,-24.902,0.000
1728632493.852,-42.969,-37.109,-51.758,-24.902,0.000
1728632493.856,-29.785,-39.551,-44.434,-40.039,0.000
1728632493.860,-11.230,-26.367,-44.434,-40.039,0.000
1728632493.864,-17.578,-22.949,-48.828,-31.250,0.000
1728632493.868,-32.715,-28.809,-48.828,-39.551,0.000
1728632493.872,-49.805,-44.434,-48.828,-44.434,0.000
1728632493.875,-42.480,-47.852,-43.457,-41.016,0.000
1728632493.879,-27.832,-31.738,-40.527,-28.320,0.000
1728632493.883,-7.812,-20.996,-39.062,-36.621,0.000
1728632493.887,-20.996,-30.762,-43.457,-34.668,0.000
1728632493.891,-63.477,-47.852,-44.922,-25.391,0.000
1728632493.895,-54.688,-34.180,-43.945,-54.199,0.000
1728632493.899,-36.133,-27.832,-39.551,-45.410,0.000
1728632493.903,-31.250,-35.156,-39.062,-23.926,0.000
1728632493.907,-34.668,-32.715,-45.410,-25.391,0.000
1728632493.911,-48.828,-30.273,-48.828,-25.391,0.000
1728632493.915,-41.016,-26.367,-46.875,-21.973,0.000
1728632493.918,-25.391,-18.066,-48.828,-21.484,0.000
1728632493.922,-23.926,-23.438,-43.945,-24.902,0.000
1728632493.926,-17.578,-34.668,-41.016,-20.996,0.000
1728632493.930,-27.344,-39.551,-43.457,-22.949,0.000
1728632493.934,-36.621,-34.180,-37.109,-32.715,0.000
1728632493.938,-11.719,-7.324,-33.691,-23.438,0.000
1728632493.942,6.348,0.488,-30.762,-12.695,0.000
1728632493.946,-23.926,-24.902,-32.715,-10.742,0.000
1728632493.950,-50.781,-26.855,-38.086,-12.695,0.000
1728632493.954,-39.551,-18.555,-31.250,-20.508,0.000
1728632493.958,-17.578,-20.508,-25.391,-19.531,0.000
1728632493.961,-5.371,-16.602,-32.227,-0.977,0.000
1728632493.965,-17.578,-23.438,-35.645,-12.207,0.000
1728632493.969,-38.086,-34.668,-43.457,-27.344,0.000
1728632493.973,-44.434,-25.391,-43.457,-28.809,0.000
1728632493.977,-44.434,-32.227,-31.738,-23.438,0.000
1728632493.981,-33.203,-41.992,-37.109,-21.973,0.000
1728632493.985,-17.578,-35.645,-48.340,-28.809,0.000
1728632493.989,-54.688,-40.527,-46.387,-44.922,0.000
1728632493.993,-60.059,-42.969,-38.574,-43.457,0.000
1728632493.997,-37.109,-33.691,-35.156,-37.109,0.000
1728632494.001,-25.391,-29.297,-33.203,-30.762,0.000
1728632494.004,-11.230,-27.344,-30.762,-16.602,0.000
1728632494.008,-32.715,-32.227,-36.133,-39.062,0.000
1728632494.012,-59.570,-36.621,-42.969,-53.711,0.000
1728632494.016,-41.504,-38.086,-40.527,-38.086,0.000
1728632494.020,-4.395,-43.945,-37.598,-17.578,0.000
1728632494.024,-17.578,-51.270,-34.180,-11.719,0.000
1728632494.028,-47.852,-50.293,-31.738,-21.973,0.000
1728632494.032,-57.129,-46.387,-46.875,-43.457,0.000
1728632494.036,-31.250,-52.246,-45.898,-32.227,0.000
1728632494.040,8.301,-45.410,-40.039,-15.625,0.000
1728632494.043,6.836,-35.156,-30.273,-16.113,0.000
1728632494.047,-21.484,-32.227,-30.273,-12.207,0.000
1728632494.051,-42.969,-33.203,-42.969,-26.855,0.000
1728632494.055,-45.898,-46.387,-39.551,-38.086,0.000
1728632494.059,3.906,-48.828,-34.180,-32.227,0.000
1728632494.063,19.531,-44.922,-32.715,-25.879,0.000
1728632494.067,-20.020,-45.898,-32.227,-19.043,0.000
1728632494.071,-47.363,-45.410,-36.133,-36.133,0.000
1728632494.075,-54.688,-42.480,-47.852,-45.410,0.000
1728632494.079,-36.621,-46.387,-46.875,-35.156,0.000
1728632494.083,-15.137,-37.598,-45.898,-38.574,0.000
1728632494.086,-25.391,-34.668,-39.062,-31.738,0.000
1728632494.090,-50.781,-49.805,-36.621,-16.602,0.000
1728632494.094,-62.500,-49.805,-1.465,-45.898,0.000
1728632494.098,-32.227,-31.250,-20.020,-86.914,0.000
1728632494.102,-34.180,-26.367,-51.270,-60.059,0.000
1728632494.106,-64.941,-64.453,-3.418,-73.242,0.000
1728632494.110,-34.668,-68.359,-52.734,-50.781,0.000
1728632494.114,-64.941,-46.875,4.395,-46.387,0.000
1728632494.118,-105.469,31.738,9.277,-93.262,0.000
1728632494.122,-5.859,19.043,-86.426,-3.418,0.000
1728632494.126,69.336,-82.520,-75.195,83.496,0.000
1728632494.129,-52.246,-69.824,-9.766,-43.945,0.000
1728632494.133,-126.465,9.277,-42.969,-117.676,0.000
1728632494.137,0.000,38.574,8.301,-178.223,0.000
1728632494.141,0.000,-117.676,34.180,-53.223,0.000
1728632494.145,0.000,-113.281,-85.938,7.812,0.000
1728632494.149,0.000,57.617,-135.254,-133.301,0.000
1728632494.153,0.000,59.570,-132.812,-102.051,0.000
1728632494.157,0.000,-117.676,-34.180,-121.582,0.000
1728632494.161,0.000,-146.484,9.766,-77.637,0.000
1728632494.165,0.000,-34.180,-65.430,-69.336,0.000
1728632494.169,0.000,-58.594,-157.715,85.938,0.000
1728632494.172,0.000,-70.801,-153.320,153.320,0.000
1728632494.176,0.000,-23.926,-57.129,95.703,0.000
1728632494.180,0.000,-32.715,-73.730,95.215,0.000
1728632494.184,56.641,-107.910,-80.566,-26.855,0.000
1728632494.188,4.395,-130.371,-41.504,-103.516,0.000
1728632494.192,-1.953,13.184,-125.000,0.977,0.000
1728632494.196,-49.316,8.789,-57.617,9.766,0.000
1728632494.200,36.133,-92.285,-18.555,72.754,0.000
1728632494.204,59.570,-88.867,-61.523,115.234,0.000
1728632494.208,43.945,-21.484,-95.215,79.590,0.000
1728632494.212,56.152,-30.273,-115.723,101.562,0.000
1728632494.215,-14.648,-61.523,-35.645,68.359,0.000
1728632494.219,-8.789,-83.496,-10.742,23.926,0.000
1728632494.223,102.539,-97.656,-80.078,91.797,0.000
1728632494.227,14.160,-42.480,-62.500,24.414,0.000
1728632494.231,-75.684,-40.039,-65.430,-47.363,0.000
1728632494.235,32.715,-54.688,-115.723,18.066,0.000
1728632494.239,102.051,-91.797,-25.879,65.430,0.000
1728632494.243,13.672,-58.105,-32.715,13.184,0.000
1728632494.247,-12.207,-9.277,-112.305,-21.484,0.000
1728632494.251,-2.930,-43.945,-88.379,27.344,0.000
1728632494.255,6.836,-82.031,-53.223,25.879,0.000
1728632494.258,12.207,-51.758,-55.176,-6.348,0.000
1728632494.262,-1.953,-7.812,-59.082,-17.090,0.000
1728632494.266,-16.113,-35.645,-54.199,-2.441,0.000
1728632494.270,-46.387,-84.961,-33.203,-32.227,0.000
1728632494.274,-26.855,-46.875,-57.129,-44.434,0.000
1728632494.278,40.527,-43.945,-67.871,23.926,0.000
1728632494.282,43.457,-48.828,-54.688,41.016,0.000
1728632494.286,-0.488,-58.594,-47.363,-5.859,0.000
1728632494.290,-11.230,-59.570,-39.062,-18.555,0.000
1728632494.294,-20.996,-54.199,-38.574,-7.324,0.000
1728632494.298,4.883,-55.176,-35.645,-6.348,0.000
1728632494.301,11.719,-41.504,-35.156,-17.578,0.000
1728632494.305,-17.578,-46.387,-38.086,-20.508,0.000
1728632494.309,-19.043,-56.641,-33.203,-25.879,0.000
1728632494.313,-24.414,-47.363,-29.297,-33.203,0.000
1728632494.317,-16.113,-40.527,-23.926,-25.391,0.000
1728632494.321,-7.812,-38.086,-23.926,-10.742,0.000
1728632494.325,-11.719,-39.062,-30.273,-8.789,0.000
1728632494.329,-32.715,-33.203,-33.203,-24.414,0.000
1728632494.333,-49.805,-36.133,-38.086,-30.273,0.000
1728632494.337,-22.949,-32.715,-32.715,-15.137,0.000
1728632494.340,-5.371,-23.926,-25.879,-20.996,0.000
1728632494.344,-10.254,-30.273,-31.250,-24.414,0.000
1728632494.348,-31.250,-33.691,-38.086,-25.391,0.000
1728632494.352,-51.270,-38.086,-45.410,-36.621,0.000
1728632494.356,-41.992,-29.297,-44.922,-23.438,0.000
1728632494.360,-10.742,-14.648,-29.297,-8.301,0.000
1728632494.364,-6.836,-25.391,-19.531,-18.555,0.000
1728632494.368,-42.969,-28.809,-23.438,-43.457,0.000
1728632494.372,-59.082,-29.297,0.000,-46.875,0.000
1728632494.376,-48.828,-35.645,0.000,-26.855,0.000
1728632494.380,-31.250,-31.250,0.000,-27.832,0.000
1728632494.383,-20.996,-28.809,0.000,-37.598,0.000
1728632494.387,-38.574,-30.273,0.000,-37.598,0.000
1728632494.391,-68.359,-34.668,0.000,-38.086,0.000
1728632494.395,-55.176,-33.203,0.000,-38.574,0.000
1728632494.399,-8.789,-14.160,0.000,-30.762,0.000
1728632494.403,7.812,-23.926,0.000,-16.113,0.000
1728632494.407,-38.086,-36.621,0.000,-33.691,0.000
1728632494.411,-54.688,-38.574,0.000,-42.969,0.000
1728632494.415,-26.367,-38.574,0.000,-27.832,0.000
1728632494.419,-29.785,-29.297,-17.578,-29.785,0.000
1728632494.423,-10.254,-32.715,-7.812,-21.973,0.000
1728632494.426,-24.414,-43.457,-17.578,-26.855,0.000
1728632494.430,-54.199,-52.734,-29.297,-41.016,0.000
1728632494.434,-61.035,-48.340,-22.949,-41.016,0.000
1728632494.438,-37.598,-55.664,-18.555,-29.297,0.000
1728632494.442,-13.184,-65.918,-26.367,-24.414,0.000
1728632494.446,-1.465,-59.082,-28.809,-27.832,0.000
1728632494.450,-28.320,-44.922,-29.297,-37.109,0.000
1728632494.454,-62.500,-44.434,-32.715,-41.504,0.000
1728632494.458,-35.645,-47.852,-20.996,-37.109,0.000
1728632494.462,-17.578,-44.922,-14.160,-31.738,0.000
1728632494.466,-28.809,-50.293,-15.625,-22.949,0.000
1728632494.469,-58.105,-57.617,-20.508,-38.086,0.000
1728632494.473,-59.570,-51.270,-22.461,-47.363,0.000
1728632494.477,-29.785,-43.457,-13.672,-30.762,0.000
1728632494.481,-7.324,-40.039,-13.672,-19.531,0.000
1728632494.485,2.441,-45.410,-16.602,-15.625,0.000
1728632494.489,-25.879,-53.223,-21.973,-27.344,0.000
1728632494.493,-51.758,-52.734,-29.297,-35.645,0.000
1728632494.497,-38.086,-51.270,-21.484,-12.695,0.000
1728632494.501,0.000,-44.922,-15.625,-3.418,0.000
1728632494.505,-2.441,-48.828,-11.719,-31.250,0.000
1728632494.508,-38.086,-54.688,-8.789,-36.133,0.000
1728632494.512,-47.852,-46.875,-27.344,-40.527,0.000
1728632494.516,-31.738,-46.875,-30.762,-40.527,0.000
1728632494.520,-6.836,-48.340,-24.902,-25.879,0.000
1728632494.524,-7.812,-45.898,-25.391,-32.227,0.000
1728632494.528,-32.715,-49.805,-30.762,-36.133,0.000
1728632494.532,-52.246,-55.176,-37.109,-38.574,0.000
1728632494.536,-55.176,-42.969,-27.344,-39.062,0.000
1728632494.540,-41.992,-25.391,-20.508,-35.645,0.000
1728632494.544,-25.879,-37.598,-24.414,-35.645,0.000
1728632494.548,-46.875,-54.688,-28.320,-47.363,0.000
1728632494.551,-63.477,-52.246,-29.785,-60.547,0.000
1728632494.555,-55.176,-41.992,-28.320,-52.246,0.000
1728632494.559,-40.039,-42.480,-23.926,-39.551,0.000
1728632494.563,-32.227,-45.410,-27.832,-41.016,0.000
1728632494.567,-60.059,-48.340,-33.203,-43.945,0.000
1728632494.571,-71.777,-46.875,-25.391,-52.246,0.000
1728632494.575,-37.109,-34.180,-25.391,-48.828,0.000
1728632494.579,-22.461,-29.785,-23.926,-21.484,0.000
1728632494.583,-16.602,-33.203,-22.949,-17.578,0.000
1728632494.587,-19.043,-20.996,-35.645,-37.598,0.000
1728632494.591,-49.316,-11.230,-29.297,-42.480,0.000
1728632494.594,-50.781,-17.090,-20.996,-40.039,0.000
1728632494.598,-39.551,-0.488,-23.926,-30.273,0.000
1728632494.602,-35.156,4.883,-27.832,-32.715,0.000
1728632494.606,-31.738,-7.324,-28.320,-36.133,0.000
1728632494.610,-43.457,-14.160,-30.762,-42.969,0.000
1728632494.614,-53.223,-11.719,-24.902,-51.270,0.000
1728632494.618,-42.969,-10.254,-22.949,-45.898,0.000
1728632494.622,-25.391,-3.906,-26.855,-41.016,0.000
1728632494.626,-35.645,-7.324,-18.555,-34.668,0.000
1728632494.630,-54.199,-17.090,-16.113,-53.223,0.000
1728632494.634,-62.988,-14.160,-23.438,-66.406,0.000
1728632494.637,-40.527,0.977,-28.320,-50.293,0.000
1728632494.641,-13.184,0.488,-23.438,-33.691,0.000
1728632494.645,-33.691,-3.418,-27.832,-34.668,0.000
1728632494.649,-53.711,-6.836,-37.598,-43.457,0.000
1728632494.653,-62.012,-8.789,-34.180,-53.223,0.000
1728632494.657,-38.574,4.395,-31.250,-41.016,0.000
1728632494.661,-14.648,5.859,-29.297,-29.785,0.000
1728632494.665,-26.367,-6.348,-27.344,-32.715,0.000
1728632494.669,-40.527,-20.508,-32.715,-36.133,0.000
1728632494.673,-37.598,-19.531,-39.062,-43.945,0.000
1728632494.677,-30.762,1.465,-27.832,-34.668,0.000
1728632494.680,-15.137,2.930,-15.625,-20.996,0.000
1728632494.684,-16.113,-13.184,-22.461,-19.043,0.000
1728632494.688,-36.133,-10.254,-29.297,-34.668,0.000
1728632494.692,-54.688,-9.766,-26.855,-46.387,0.000
1728632494.696,-50.293,-15.137,-26.367,-37.598,0.000
1728632494.700,-6.348,-8.301,-28.320,-27.832,0.000
1728632494.704,-10.254,-0.488,-28.809,-28.809,0.000
1728632494.708,-44.434,-17.578,-28.809,-38.086,0.000
1728632494.712,-45.898,-28.809,-28.320,-46.875,0.000
1728632494.716,-50.781,-25.879,-34.668,-42.969,0.000
1728632494.720,-38.086,-22.949,-35.156,-45.898,0.000
1728632494.723,-24.902,-5.371,-34.668,-46.875,0.000
1728632494.727,-36.133,0.000,-37.109,-37.598,0.000
1728632494.731,-49.316,-11.719,-37.109,-37.598,0.000
1728632494.735,-43.945,-11.230,-31.738,-46.387,0.000
1728632494.739,-20.996,-9.277,-26.855,-29.297,0.000
1728632494.743,-3.906,-11.719,-25.879,-9.766,0.000
1728632494.747,-23.438,-18.555,-26.855,-13.672,0.000
1728632494.751,-63.477,-29.785,-34.668,-41.016,0.000
1728632494.755,-60.547,-32.715,-35.645,-39.062,0.000
1728632494.759,-22.461,-24.414,-30.273,-20.020,0.000
1728632494.763,-4.883,-21.973,-28.320,-25.391,0.000
1728632494.766,-26.855,-27.832,-32.227,-25.391,0.000
1728632494.770,-46.875,-25.879,-44.434,-33.691,0.000
1728632494.774,-51.270,-22.461,-41.992,-34.180,0.000
1728632494.778,-40.039,-18.555,-38.086,-21.973,0.000
1728632494.782,-3.906,-16.602,-33.203,-25.391,0.000
1728632494.786,-7.812,-20.996,-37.109,-30.273,0.000
1728632494.790,-42.969,-29.785,-44.434,-33.203,0.000
1728632494.794,-56.152,-20.996,-41.504,-40.039,0.000
1728632494.798,-41.992,-22.461,-41.016,-39.062,0.000
1728632494.802,-34.180,-39.062,-43.945,-30.762,0.000
1728632494.806,-40.039,-33.691,-41.992,-27.832,0.000
1728632494.809,-44.434,-31.250,-41.016,-34.668,0.000
