,TP9,AF7,AF8,TP10
0,-12.60305315612486,-13.552420920614999,-9.301762519855751,-13.7416234952004
1,-12.668679621166621,-13.904431937329267,-9.502670458151588,-13.892279414798676
2,-12.956596070735708,-14.251338512305825,-9.80979961143147,-13.998401546378835
3,-13.21602760030059,-14.590938662169625,-10.16667006670947,-14.089432668505808
4,-13.183474558315329,-14.920570884743002,-10.500226518875245,-14.198060798654828
5,-13.071099179078388,-15.240081879371658,-10.747059201464067,-14.326510128796407
6,-13.130144250648778,-15.549573540523403,-10.882499096391394,-14.455559396103668
7,-13.303984037861767,-15.842300110865999,-10.959985184431872,-14.56562274466167
8,-13.469199121022166,-16.11485083965627,-11.052135868568213,-14.63526126228306
9,-13.446697241673812,-16.371581358582397,-11.186631238631831,-14.632409018703939
10,-13.125224232714032,-16.621935894842657,-11.360810930582412,-14.542220586346993
11,-12.854792938800985,-16.894249597949255,-11.540329712438078,-14.4049151146606
12,-12.98069018405578,-17.197901095093727,-11.682337117003657,-14.251991544793539
13,-13.202643525028403,-17.512380089870124,-11.777591469192878,-14.103807272542797
14,-13.13834967273037,-17.790605127318305,-11.838849538467533,-13.92729257187634
15,-12.880832833226934,-18.016489755062878,-11.886339988284343,-13.656106452252027
16,-12.590235012702664,-18.220243952325234,-11.94919698606113,-13.263097682300804
17,-12.26130534326986,-18.428457026387644,-12.05575959411132,-12.747144730198967
18,-11.851595142428057,-18.66584074944707,-12.220247578620612,-12.064290468231246
19,-11.165365733125828,-18.92260988779079,-12.448738180147997,-11.163306162353194
20,-10.033544381347316,-19.170264102332116,-12.72434667217295,-10.048470172816842
21,-8.701778009098646,-19.384551843732762,-12.96902204963078,-8.753223307413574
22,-7.447250616641112,-19.546052680408128,-13.118244014020519,-7.291933809010199
23,-6.094861255643593,-19.643650461766885,-13.213191252884718,-5.673649587578046
24,-4.4523954239882855,-19.67895218273728,-13.322993336652708,-3.929197814830934
25,-2.693473588158122,-19.670049600449985,-13.468048615163058,-2.1723962874733695
26,-1.0621709622875781,-19.63317713710596,-13.652488700688714,-0.5411887728153304
27,0.24636209960788769,-19.563057891396664,-13.87679726634877,0.8586937788721287
28,1.1070547129314146,-19.44531924731257,-14.12181687540461,1.949352964301573
29,1.700046416115697,-19.262987453228103,-14.355882274975942,2.693650751069626
30,2.234107058216763,-19.00503743599622,-14.544329833591034,3.0908688645988436
31,2.5201972335863165,-18.686519656792736,-14.646570220983723,3.1500898988262023
32,2.3371644230012993,-18.32861400477458,-14.639678297476442,2.8971572486062964
33,1.8062958129442175,-17.93307912330006,-14.540822458186643,2.387075473187866
34,1.0929020899824136,-17.49963782678959,-14.380937838736804,1.6687587434051592
35,0.23140652711181464,-17.037529708048172,-14.193398400591114,0.7561967023991438
36,-0.786717430340365,-16.560331193953925,-13.987666553356862,-0.36082688082379377
37,-2.1151912874490995,-16.08915470533977,-13.709240159974561,-1.6764452615984313
38,-3.8809046973846817,-15.643550385590782,-13.298527504053096,-3.1943347233751096
39,-5.839526343955616,-15.229093433314933,-12.729963821424574,-4.91713637202997
40,-7.732291435824397,-14.840804899373714,-12.018714240810802,-6.800302588518489
41,-9.709667035099699,-14.465815962357619,-11.301031745526656,-8.787637603950946
42,-11.970520680563475,-14.087304077664319,-10.702404634665184,-10.872341069581784
43,-14.485924419658883,-13.692235724531825,-10.106130723061572,-13.08995412476936
44,-17.161996015294925,-13.273358366256556,-9.434405888134913,-15.466312404410022
45,-19.800632956109556,-12.826895839892817,-8.699874385768432,-17.96712349132327
46,-22.243875885324837,-12.356847084617469,-8.074707980081708,-20.520165031915734
47,-24.742122621911395,-11.882935765775551,-7.619945233379192,-23.081748534350655
48,-27.563955851449858,-11.42358232995082,-7.154704886412406,-25.67207964200134
49,-30.461365099331903,-10.973897692244815,-6.599846504449794,-28.312089692674462
50,-33.147167174379874,-10.52171828753045,-5.875791008893233,-30.970635338287124
51,-35.77357845644648,-10.069044189431901,-5.000684772378392,-33.621610351216226
52,-38.53351525277681,-9.615482839238146,-4.051039877082285,-36.28217957019103
53,-41.407137971726044,-9.142067910765393,-3.053757460352072,-38.95180580943892
54,-44.31362639417006,-8.640846916361056,-2.028954885628298,-41.572775451535286
55,-47.02753482029811,-8.106490712644597,-1.0629286056443052,-44.083130904020926
56,-49.36480744186646,-7.564779409464086,-0.20688669152155847,-46.46660064032706
57,-51.598972420320344,-7.060734506560072,0.6468530574815007,-48.724474446941514
58,-54.01908642882992,-6.619776702363451,1.6044417557403192,-50.82616765761468
59,-56.368841401619214,-6.216161346850648,2.6082555507329075,-52.72206902584822
60,-58.308339645183004,-5.821042674796511,3.5218356461916116,-54.40711962148532
61,-60.101166062115865,-5.438175250506325,4.261059782133595,-55.95295170150074
62,-61.997710112240945,-5.073146477150782,4.763401385513607,-57.407366905585334
63,-63.97591649510846,-4.719628637581003,5.08706461309767,-58.800581555247845
64,-65.90251399982517,-4.36643931636014,5.354728195479904,-60.130598044739365
65,-67.53386891063316,-4.036838489119229,5.681841966742387,-61.39746738545841
66,-68.67137520550452,-3.7503466304918582,6.138237275481106,-62.564783859918926
67,-69.53190347637586,-3.5120247361861807,6.7061095584284205,-63.60352908550431
68,-68.92574571687831,-3.130522172874366,6.758307776911845,-62.886774738727375
69,-68.27698009657729,-2.737768333150052,6.842459262414137,-62.174672390362886
70,-67.33669930759935,-2.327999883459772,6.901510051907808,-61.402663292209844
71,-66.26317220709456,-1.9378285041612402,6.947305387840484,-60.57133774744351
72,-65.29545171523407,-1.6041610428578819,7.012311166398846,-59.768704450387574
73,-64.48569249896937,-1.3351362106777434,7.13124485806737,-59.04864982380886
74,-63.81102148748939,-1.106387280539726,7.316730571193736,-58.39047132358876
75,-63.089568013945154,-0.9017358937647799,7.467068396214475,-57.7421448358949
76,-62.134160788737944,-0.7078283107491335,7.4782987576854945,-57.0543292938104
77,-61.13512824810947,-0.5324993957234959,7.3943570408634285,-56.30211733877204
78,-60.35527773764113,-0.39428453054320983,7.321963056083552,-55.4949055213799
79,-59.68637420528931,-0.303663229836369,7.371202616911416,-54.67387070324395
80,-58.94078281267005,-0.2634417145809233,7.615473964959427,-53.88351216943933
81,-58.1297856267272,-0.26194928553953645,7.998705695488713,-53.12804947955923
82,-57.29849003366312,-0.2808527786724603,8.398460800532488,-52.38379837892332
83,-56.50977125778472,-0.3139787408343003,8.696886057507115,-51.614501648453555
84,-55.81192790883652,-0.3561216651492093,8.82003822013411,-50.78208224592429
85,-54.98074555205658,-0.39135562454578404,8.832067165173381,-49.86400667835956
86,-53.79158419405409,-0.4024140219133573,8.851199026969727,-48.86197020609596
87,-52.51291909823691,-0.3714578097994304,8.916897220763845,-47.81244113267229
88,-51.485690079941776,-0.2907786667056815,9.031354422129429,-46.760025852928244
89,-50.58321255150061,-0.18068445051672388,9.188106409552852,-45.72618248253201
90,-49.572918458678906,-0.07251149382328355,9.359548990964816,-44.70950291833972
91,-48.41586157225134,0.007357958049101845,9.527167015351399,-43.67437527457995
92,-47.133149554741706,0.045331316985195304,9.67579557230811,-42.577252124746266
93,-45.90031523757694,0.05702332453634707,9.762190246212581,-41.41284144718178
94,-44.89085375965456,0.06972068295345304,9.751620156155585,-40.19198176650016
95,-43.84400272003679,0.10146111525133933,9.665920773318627,-38.91776213222356
96,-42.438782806661216,0.1567682000102839,9.546458398046491,-37.59348667744769
97,-40.859206352383936,0.21296264367086826,9.409850637555966,-36.212213043646756
98,-39.39126371181233,0.240248660173726,9.267683752808717,-34.768055545886725
99,-37.989727784570796,0.22939194967181883,9.144145669806063,-33.28623552127765
100,-36.53678656231474,0.18739550760701978,9.057257436518077,-31.795360581102095
101,-34.97370956138104,0.14042463724937232,9.001230105178374,-30.292954381458138
102,-33.25977569905747,0.11754304589439638,8.962118088157478,-28.765405615797214
103,-31.541055768373113,0.12329034768591465,8.943070511911563,-27.198173359207978
104,-29.97973259885493,0.14796362091091025,8.941496876154616,-25.579798742076456
105,-28.386350887085204,0.17361905736533953,8.914160753365897,-23.927495879353977
106,-26.52277471007562,0.18314696317869628,8.812994946270376,-22.25373701657018
107,-24.51500741257523,0.18743497660242597,8.635657115825342,-20.562790084100545
108,-22.561810231657038,0.197541820010578,8.397576395295506,-18.82990488329956
109,-20.66217764380173,0.21780215833121658,8.086454518415007,-17.025248597948977
110,-18.763557145303853,0.2328693754443435,7.707206505201976,-15.159165848934801
111,-16.77008379213946,0.21714243567679337,7.330882361049525,-13.262707412427254
112,-14.596948996573293,0.17230264679657836,7.0340594531003555,-11.375514023436736
113,-12.417834622722642,0.13127802535686545,6.858675753055063,-9.497702387386274
114,-10.434886830458215,0.11217687303968947,6.796998126455737,-7.608255560683708
115,-8.498906028606823,0.10690577238891716,6.7384897067158676,-5.696398592216225
116,-6.3957262014985234,0.0932403652759486,6.553839495619451,-3.7414628249707254
117,-4.162990312101877,0.058974801615850336,6.207562449520927,-1.730728152856471
118,-1.902453995318873,-0.0003470693802720415,5.7299482144194664,0.35359138355392794
119,0.29475494530566193,-0.07325539021756444,5.1993106532858135,2.4945542939023198
120,2.3619130832228823,-0.1424861016246911,4.712654024808986,4.635482072803044
121,4.485286745078913,-0.20593074771617892,4.325467883243202,6.7452894790557
122,6.872037798411238,-0.2678066232668994,4.04441351651697,8.848304762605776
123,9.290067599484587,-0.32914820149130847,3.8284705430697548,10.970707221360062
124,11.45145934220995,-0.3917541084722018,3.6101143201888437,13.14705066332328
125,13.537392346463385,-0.4550690623403193,3.320063524043704,15.384631664050433
126,15.8057756813808,-0.518211126232329,2.919598473418948,17.668267413497297
127,18.224199142380794,-0.5876424819850944,2.4493941619572794,19.979385157804927
128,27.500853457691758,-9.78120808037488,-17.82835467555995,23.938353544590132
129,28.039622263778497,-10.12565096030483,-18.21914347843759,24.247251535531532
130,28.21667126769999,-10.470338636248828,-18.643901550691975,24.517197561776417
131,28.312897115042055,-10.807951945807444,-19.090549419408585,24.741322294584368
132,28.65106562220388,-11.132340726961317,-19.52897303572167,24.915612642276642
133,29.05489966533882,-11.442164839111259,-19.918800657937524,25.03010231522106
134,29.280548711908416,-11.744928703830867,-20.224412943289142,25.070085497599358
135,29.29072157725288,-12.053300714549929,-20.412726008296175,25.031917810166
136,29.118222561862172,-12.36837439489948,-20.48395743561778,24.926805992081057
137,28.96542584764239,-12.683633125186299,-20.52519653286589,24.76970290477589
138,29.02272963661125,-12.988238804361949,-20.623347316047855,24.572740148783282
139,29.08427594651079,-13.27881954417279,-20.766795504683955,24.348121030843124
140,28.905641851276116,-13.554762308402621,-20.907565412113392,24.105734750881922
141,28.648599415415205,-13.812630965435899,-21.00849207536581,23.841209798435038
142,28.508370732691805,-14.051579623209415,-21.03618695067981,23.544658097161125
143,28.39125458867242,-14.277577106125705,-20.995998010301506,23.207066359808056
144,28.166731918073413,-14.496836380512274,-20.913875033171045,22.82291035766344
145,27.76956655297422,-14.710484618095212,-20.766456336565444,22.389003644915235
146,27.179151025428677,-14.916691431663711,-20.574138937106436,21.912709800967868
147,26.58139816580975,-15.111773069661153,-20.399020729493863,21.41768529746909
148,26.15081148381506,-15.29100777118365,-20.35312248049423,20.92506369523714
149,25.693641801857485,-15.450278342629549,-20.445159990580496,20.432232762764997
150,24.985703967565108,-15.587686363884691,-20.555524157759184,19.91163324198627
151,24.140804128854615,-15.705366484148549,-20.57837725719645,19.32321795706246
152,23.318935560808338,-15.807108238271127,-20.50919861753185,18.635623674702643
153,22.529294206685055,-15.895411058668678,-20.36716097925787,17.843425950784862
154,21.74220992962194,-15.972019064884716,-20.204697892510012,16.957231625125644
155,20.823272103308103,-16.038856606853987,-20.0202825811581,15.993397029645278
156,19.664528064663962,-16.097382969604606,-19.8002644952474,14.970568918526942
157,18.495581222197046,-16.145576449719435,-19.565525433805963,13.915847938473432
158,17.545261690831918,-16.18434909298633,-19.337578352931015,12.85850693347916
159,16.606542783911515,-16.21683340334109,-19.132662604572378,11.799496383105902
160,15.430413375949792,-16.24721666936936,-18.94940913116565,10.709723110653284
161,14.07971306818797,-16.275507843045116,-18.7313677031698,9.567310938619618
162,12.678492319354895,-16.286928429863405,-18.415622334454408,8.372208687343782
163,11.336967729215397,-16.256272821384204,-17.994302229177197,7.131957224004953
164,10.125202071754114,-16.179182071075385,-17.48427798674787,5.841893652191206
165,8.803837067899675,-16.069824681489198,-16.89505221425336,4.489457875516002
166,7.158102588275131,-15.947526923843183,-16.25610862695481,3.0865611814091416
167,5.524019711787201,-15.812994390420611,-15.631067474543455,1.6749586482758383
168,4.2601776788562935,-15.65752673395501,-15.081678583368369,0.3003359712719695
169,3.176572969560249,-15.46645972039616,-14.64443957472522,-1.0015002089728333
170,1.9938855187861453,-15.227592654106896,-14.317596923483942,-2.2297992004223812
171,0.6709766166008158,-14.946086214638868,-14.051638113986533,-3.4225985932533516
172,-0.7714068525190079,-14.635837988245596,-13.76440699788156,-4.629048396281764
173,-2.1767178488162786,-14.311217185980755,-13.353346671417134,-5.885332876670099
174,-3.407953721425048,-13.984045831293765,-12.751618474971405,-7.217724719811951
175,-4.748537145763843,-13.655008488379977,-11.966008848358724,-8.641793395844905
176,-6.482518814962834,-13.31984123371451,-11.068821526551552,-10.143012118052974
177,-8.34680306780723,-12.978444504805662,-10.227098888745635,-11.685457333490707
178,-10.01968156374422,-12.630608714228927,-9.575891120363547,-13.231632124308646
179,-11.58082067370037,-12.27476663528279,-9.059629519540684,-14.764155313625496
180,-13.175017072121753,-11.90864509238893,-8.54971132909256,-16.28135538551956
181,-14.837631773525525,-11.525278246673807,-7.956830138028053,-17.78631273364256
182,-16.57480796304092,-11.11892113019912,-7.2210162552501425,-19.27879153860804
183,-18.22615356320536,-10.69323445960669,-6.336881428876883,-20.751203936860783
184,-19.652195230347406,-10.253179241783286,-5.350628593080019,-22.201947497031668
185,-21.094520011477584,-9.798102443615752,-4.335670710965769,-23.641269307764606
186,-22.81378858515982,-9.324542733591892,-3.354415493502087,-25.088120957815065
187,-24.664772711487878,-8.825297241911128,-2.419597952804087,-26.566212894464396
188,-26.346578529650166,-8.307850761253404,-1.5513712818472496,-28.01670040028214
189,-27.83758386440737,-7.810840259618841,-0.7889374514520845,-29.28260710854427
190,-29.090360467311328,-7.3677151080955054,-0.1167257433208865,-30.298410173107833
191,-30.165465953044194,-6.977359016725175,0.4453978292677175,-31.140155270079614
192,-31.14966115207786,-6.616983827314618,0.8996265531103257,-31.87120215506539
193,-31.825342648700573,-6.2624420966685435,1.224627773292639,-32.490275780899445
194,-31.998137938939394,-5.897749034153724,1.418218108680903,-32.99443029052364
195,-31.984129694850246,-5.537258381116351,1.5926576529896475,-33.40987766968955
196,-32.58401421421316,-5.169341991959732,1.9878588393999643,-33.951289393980275
197,-33.17546781572217,-4.825621535050509,2.4273589505446287,-34.40491286657868
198,-33.52797600461885,-4.485382743716297,2.8316632525597067,-34.768146889739064
199,-33.70599383031551,-4.110848116275892,3.1727320114603073,-35.05176834446061
200,-33.84762395196952,-3.686563745176278,3.4409893812285843,-35.268971008908025
201,-34.06589549241021,-3.227640350386052,3.630962589446508,-35.421158009411705
202,-34.43079787322929,-2.7510097161324296,3.7529760939164127,-35.506573564403716
203,-34.69471843043728,-2.272651265836921,3.812722904826809,-35.52049311752857
204,-34.589563433981624,-1.807469527265854,3.8240978691071117,-35.46912037372449
205,-34.39034969428642,-1.3852409841193136,3.8353817434765762,-35.3929640636112
206,-34.45697828901306,-1.0278946013642394,3.893735792758392,-35.345702149542035
207,-34.63392443019907,-0.7205071642058356,4.019632873699087,-35.32721076403367
208,-34.65804018856879,-0.43679308304904707,4.197231205379176,-35.28462776007412
209,-34.5120108962484,-0.1555984932580358,4.35321532377857,-35.17327678969229
210,-34.247603785993675,0.13070529722525961,4.408313452515766,-34.97316836817249
211,-34.03116432531377,0.4228550717064132,4.309928880473607,-34.677240837823
212,-34.0289635922764,0.7158755254647459,4.06700183781262,-34.312287353892266
213,-34.00788368889328,0.9903975632984185,3.846755757041883,-33.94052954194435
214,-33.683383940116386,1.2186477487827265,3.8268249546003594,-33.609202952435744
215,-33.289441389827125,1.3909050906843337,3.987555042560612,-33.32675170113538
216,-33.13924617631639,1.5188627124397005,4.220580802859687,-33.07325562784259
217,-33.11561415159848,1.6236822066276266,4.427529496097538,-32.804567570132036
218,-33.00486677082941,1.7280994765418054,4.524462175766217,-32.46844949218869
219,-32.729963265882574,1.8505448330163643,4.515631010332478,-32.04228488716683
220,-32.26644561473554,1.9912449590455987,4.4528861868044505,-31.543301663289277
221,-31.776612101702856,2.1356060696782775,4.351398531425308,-31.000952112367134
222,-31.450913378202817,2.2734742334810245,4.211952165389018,-30.42743847817144
223,-31.1192936463908,2.404381877259764,4.035187583110588,-29.814844143792403
224,-30.555938233346982,2.5326973808314297,3.819749608871708,-29.168641360115515
225,-29.921128319920555,2.6591742715342077,3.5641986683495555,-28.526343047675894
226,-29.43502873222977,2.7805076812190155,3.2866748119182128,-27.924726421700576
227,-29.05684469822915,2.878330770354141,3.07203491580868,-27.382317743192715
228,-28.67717134668602,2.9394361757937664,2.9973665643134595,-26.880729561046564
229,-28.172614612563766,2.9674221007832418,3.0272987500546327,-26.374208777931887
230,-27.447460466286717,2.9858138141231017,3.0840487279895306,-25.8285126062007
231,-26.684229265029078,3.011288061905967,3.116914355765711,-25.236207613614678
232,-26.104359866220303,3.04760985271514,3.096614046187512,-24.608098970327447
233,-25.55540531870247,3.1001048498592803,3.037943604018668,-23.963715749564557
234,-24.81634779461813,3.1758463498340603,2.9787184726004527,-23.315297659032545
235,-23.94684528765697,3.2722660559255057,2.9483825676495132,-22.665331081795784
236,-23.075752637318967,3.370237510269572,2.955098354520765,-22.011655134411697
237,-22.29496271379682,3.4434295302359446,2.942903965037836,-21.34709516859276
238,-21.669163685510668,3.4812007125251645,2.8517806253862688,-20.656914493156176
239,-21.038901655242533,3.4911217971807726,2.7093031930019884,-19.925421782620397
240,-20.219892839089315,3.482895217872521,2.5739634400386047,-19.159757692768107
241,-19.424521777985035,3.4593630362702656,2.485792601493057,-18.39576245233012
242,-18.907370822319184,3.4234104627649047,2.4646054773706143,-17.664489647396454
243,-18.469894892386368,3.3814435096998405,2.469864104807541,-16.9692529098143
244,-17.8406390785081,3.343919768250443,2.4417317018436866,-16.295991086262415
245,-17.042376611430743,3.315569221956831,2.373767625945087,-15.631898788218338
246,-16.18688636426293,3.290017660823633,2.284938774240666,-14.978004856447031
247,-15.455480238010788,3.25533323919273,2.1878537292071325,-14.347423378448077
248,-15.001659131690563,3.2094930052686683,2.1030184589225107,-13.750020959617407
249,-14.560794276057136,3.156841363631471,2.0607521342065724,-13.182402062441088
250,-13.81438607515207,3.104712180406672,2.080935853728185,-12.635391531651246
251,-13.014279385433543,3.0468036168315518,2.1608979475018093,-12.103909620541513
252,-12.504073498197457,2.976920302707611,2.277052701603417,-11.58482745385909
253,-12.142778848162532,2.893041758001572,2.389958376248146,-11.067808434733205
254,-11.688242182465194,2.8024895534441128,2.4583608371395536,-10.535484013268295
255,-11.080437715517805,2.7195078301770557,2.437047626517564,-9.979608744257362
256,-6.307022346805098,-11.053827065008619,-11.632342509691895,-6.61979774669154
257,-6.18303559003043,-11.316594388877066,-11.804037094878154,-6.76828871638208
258,-6.344127343278154,-11.55247485910916,-11.942792477405888,-6.944100810877137
259,-6.597895284655048,-11.77555851725113,-12.081965771495016,-7.161855765607954
260,-6.690542912910481,-11.996198943964604,-12.25820307077053,-7.4218057440073935
261,-6.688665193052214,-12.214491286964396,-12.499874988455225,-7.699506558719079
262,-6.712788664495039,-12.423093517737389,-12.8171289830838,-7.960589722184304
263,-6.848444039796643,-12.614410249766019,-13.155045113350322,-8.179891086049508
264,-7.143032799941199,-12.78674339549728,-13.457928855094636,-8.345610451123136
265,-7.400868355751375,-12.931943720102288,-13.764300750148116,-8.462351109393643
266,-7.423679784128796,-13.057250832277386,-14.118246685753325,-8.550030272035407
267,-7.3889340784766775,-13.185650505465295,-14.478765514329641,-8.643676805890042
268,-7.5118404822914755,-13.327820570095168,-14.788845384923345,-8.771623178144944
269,-7.679697239596838,-13.470875033418961,-15.024178914974604,-8.93358675005898
270,-7.749885798831432,-13.600283137722995,-15.179318511989408,-9.114070587650751
271,-7.762702427342347,-13.71013655760389,-15.267466020135057,-9.28657967079704
272,-7.791370396022377,-13.811922930238875,-15.32710536680558,-9.43115704568201
273,-7.948871952143427,-13.924677720257252,-15.430114058355064,-9.568777421126951
274,-8.310653143007475,-14.056864561684895,-15.629409284189418,-9.725816908539374
275,-8.673548372907282,-14.204148086724858,-15.903508576239531,-9.889419216022878
276,-8.829739193258979,-14.35469252551151,-16.197713891519772,-10.037620996896168
277,-8.94379901515662,-14.492569422733931,-16.453919961887046,-10.166073547403707
278,-9.214824934365952,-14.605126573696634,-16.6287847069322,-10.271293745125966
279,-9.548687468931172,-14.675662999755744,-16.7350483283177,-10.344590803939674
280,-9.80969824564513,-14.682668538546526,-16.805811294697055,-10.384735332681073
281,-9.944038172137624,-14.624586130504756,-16.85077980183315,-10.394393973902165
282,-9.937464864100711,-14.529735743064863,-16.869599248556423,-10.386362902136222
283,-9.970212338875502,-14.432973320287815,-16.850804181230554,-10.406818852400457
284,-10.197556625329083,-14.357860325191233,-16.783941170738434,-10.49080041695533
285,-10.3508840331856,-14.292557596690736,-16.682462625869054,-10.609709509185501
286,-10.157401953295352,-14.207330861686941,-16.57024389412876,-10.717003175781688
287,-9.826280898157712,-14.093187340046148,-16.47621484112529,-10.784162876975607
288,-9.627724085553693,-13.973102114802499,-16.420705833405496,-10.795959945442112
289,-9.5700171356906,-13.871074457133279,-16.37885419923639,-10.772725481425221
290,-9.583371729697234,-13.782757694377633,-16.317363154317963,-10.74144809069869
291,-9.477552990763778,-13.683048960442783,-16.259952824776978,-10.681686603215152
292,-9.101659852852615,-13.558892312937894,-16.223659084351322,-10.573089250500406
293,-8.740859464824316,-13.408840016144026,-16.13855382043656,-10.445738400011852
294,-8.700835623891427,-13.238588620658458,-15.94144696394875,-10.336570350213362
295,-8.767005354758384,-13.03894684266173,-15.658904859322542,-10.262359789151981
296,-8.661048237536178,-12.804700063560015,-15.346861580420288,-10.224862365323403
297,-8.462461147008264,-12.54062752154291,-15.06328162129515,-10.195872983254068
298,-8.300479151929178,-12.25971341491395,-14.845287739791225,-10.14111810057966
299,-8.209554323144605,-11.96920103623702,-14.654005010731325,-10.054284708270735
300,-8.19642780214583,-11.663953014098125,-14.424114386368206,-9.940688142823687
301,-8.093576699589484,-11.333244046361514,-14.1233235228657,-9.807276587805758
302,-7.757584109956971,-10.971166821941486,-13.742505386560905,-9.660121343539814
303,-7.439387463195042,-10.572264555025543,-13.294903309264088,-9.489287954806395
304,-7.3989215734035225,-10.13473608689212,-12.814065939532506,-9.283385197787874
305,-7.461720770040453,-9.658007493043444,-12.345634800643174,-9.04672026242899
306,-7.38810754747631,-9.14313986301538,-11.920473599498623,-8.789605049412316
307,-7.16523907635411,-8.601271709531591,-11.522326990654971,-8.527040164174416
308,-6.840585890182882,-8.042490489590769,-11.116609827620785,-8.268782083736657
309,-6.525900699754255,-7.48093846699126,-10.68134473100678,-8.000524995631462
310,-6.327956683506401,-6.9347678299092745,-10.200482271380324,-7.702702322510363
311,-6.1009432786375974,-6.40130833050872,-9.670560185160552,-7.371020791393082
312,-5.691809315318476,-5.856306149950189,-9.095750000009032,-7.008431742205206
313,-5.289296123177829,-5.285557413034187,-8.465506999286342,-6.622177039356022
314,-5.095249617802403,-4.694211915984053,-7.7764485424194625,-6.222209492187636
315,-5.0040152712949535,-4.0851386326120105,-7.058073436484506,-5.814769029423669
316,-4.827388178488041,-3.4974508344093964,-6.39265268502447,-5.428721146884004
317,-4.618569975215164,-2.9954555957846045,-5.840799675033019,-5.120168119546784
318,-4.413479604861234,-2.6097589104263066,-5.457721190419723,-4.942363010008262
319,-4.384885582760216,-2.311405651841996,-5.160621688816009,-4.874845450123728
320,-4.642024543174871,-2.061993704917449,-4.817513690217351,-4.859068821856283
321,-4.778406084716493,-1.841807859465954,-4.3805023725375,-4.846521516324963
322,-4.397986065107372,-1.6362092797472807,-3.8503853559902264,-4.808613859812644
323,-3.8454442990065916,-1.4246001593049096,-3.2488671092044754,-4.771170055476377
324,-3.7262565795590676,-1.2033525560386031,-2.9300415530638215,-4.8410830646277185
325,-3.7297183616783927,-1.0129700512675883,-2.596366540322892,-4.938454150773591
326,-3.60387473589807,-0.8322020516053089,-2.287003835870274,-5.034844355050047
327,-3.3708145188511742,-0.6439560523170113,-2.059060547523319,-5.1068511513302965
328,-3.1267144112363745,-0.43706510821042543,-1.9564279056900782,-5.135988105085208
329,-3.040651813184052,-0.21249794181044543,-1.9925417271311274,-5.12344610860906
330,-3.2560202877535778,0.019371034657464828,-2.132975319172245,-5.086827187514902
331,-3.5044118836603184,0.2475548219933426,-2.2546561113843198,-5.052980522541587
332,-3.4646066576357537,0.4606170265302653,-2.2277508278235807,-5.047948608000605
333,-3.357006306358977,0.6460471825754267,-2.013962308535092,-5.0715542149571595
334,-3.4965487836386786,0.7973039766604992,-1.6460694229681379,-5.112582532264032
335,-3.7776171164770633,0.918893879016312,-1.2217632385412407,-5.185703237199356
336,-3.9958117845484127,1.022610382404855,-0.859821061347069,-5.296383133751792
337,-4.049213521553221,1.1252687061860809,-0.6203792375546314,-5.394296455232918
338,-3.8841731257749146,1.2406789166053604,-0.5093874677697463,-5.420420385101247
339,-3.672919301333633,1.3699246050145797,-0.49798910350968917,-5.352068113170199
340,-3.6282188583034163,1.503834233238899,-0.5259203274272995,-5.193937356867921
341,-3.595183969518267,1.6255728065179156,-0.5068572642954188,-4.982490185111105
342,-3.3572099925567302,1.7190207237977626,-0.3786401570262038,-4.768705230311097
343,-3.058248562165223,1.7781389957513054,-0.16878397608499227,-4.586238004140654
344,-2.90070547125733,1.8087837110257559,0.055768821989530565,-4.448547186863009
345,-2.8617301057184497,1.8331284901092901,0.25204536463290655,-4.347207950758581
346,-2.863392350012624,1.875557592597414,0.3907225438753759,-4.25829646628261
347,-2.812082287918746,1.9449320675027548,0.46812852576039843,-4.153573868726643
348,-2.6290237254285382,2.0370377800580526,0.5007601028096074,-4.01463094791275
349,-2.4728087172900306,2.134031973285435,0.48253143175901925,-3.8480567013973705
350,-2.5248628758758214,2.2166771926988416,0.4166557222379227,-3.673877963139355
351,-2.6043617037627507,2.272553172648508,0.36863988959845717,-3.5219816999493965
352,-2.473678690583416,2.306432372817568,0.4095886941964457,-3.412985970843729
353,-2.213815806018136,2.3278958355044095,0.5503132105710968,-3.3098496282018055
354,-1.9781990073353228,2.3504403519213932,0.7684708414558048,-3.1668071880849102
355,-1.8122302778949144,2.3789222622474804,1.045000012585872,-3.0115866574671823
356,-1.7248507654763343,2.414066285264186,1.3471718128934542,-2.8853587574721367
357,-1.5818246309679265,2.462398433832673,1.59161063147257,-2.7691131541413117
358,-1.2422605694701614,2.5276577767788675,1.7154525957064783,-2.6332516070090795
359,-0.9103977921947427,2.6034020198843284,1.7859299879362487,-2.4786850252937933
360,-0.8286609864618866,2.6787156536901136,1.8959306178914233,-2.3174591318435747
361,-0.8146762873260394,2.739655105363798,2.03089041394469,-2.168668557408817
362,-0.6203615820998272,2.774671779559378,2.141333412385628,-2.057430416145513
363,-0.3050680370752723,2.786142691042627,2.2027347753600726,-2.002649239714939
364,-0.009392577251358808,2.782199022461946,2.2002278127726975,-2.0094694736673704
365,0.11235280343631973,2.762967817898313,2.1487455758446696,-2.0688920449148025
366,-0.04786726347403339,2.728967850250302,2.084366280877853,-2.1571878175321606
367,-0.21551588516723102,2.6821626148538478,2.0344611752697075,-2.2262965935683976
368,-0.06954983169913365,2.6274613321664337,2.0180334633347083,-2.2349536590362646
369,0.15555980836358688,2.5657450886005755,2.0426716157105216,-2.1931456300639582
370,0.1294801951027912,2.4921622738634874,2.101200130148494,-2.1324115362677616
371,0.007847204830661897,2.4140566336896443,2.1814134100188807,-2.0725138316416856
372,0.03244828077748976,2.360325347891249,2.2642016717486957,-2.027861337897738
373,0.20891549674461543,2.3552816211503957,2.3094063696254152,-1.9971258733074144
374,0.4711973301447919,2.3884867940171537,2.282153012238858,-1.9716037743477475
375,0.6137843414401819,2.420991163326051,2.1973695507505937,-1.9644874826546794
376,0.44402848259164834,2.4220159939720776,2.0835541599084313,-1.9871006816098538
377,0.21179117716001258,2.387236882897439,1.9277796608420426,-2.0184628496331842
378,0.24094122399493115,2.3305928499861355,1.7173704439222686,-2.0288485583050733
379,0.3705403984572029,2.2645852083002276,1.4824809717213059,-1.9974962761662913
380,0.3422146168019401,2.1999795239765825,1.2624227879859224,-1.9161638285883973
381,0.20132523152879891,2.138240528450074,1.094172824158175,-1.8027014933375738
382,0.061627862189750804,2.07289654446186,1.0006264025662726,-1.6894200326552509
383,0.019257752826336627,1.9960101993239703,0.9368549927191667,-1.6044218922419848
384,-8.691887625413012,-11.056173516777985,-12.509679630476006,-11.57457754478867
385,-8.794411131918354,-11.283421043363957,-12.937948742510216,-11.863436862305502
386,-9.142386633492062,-11.503857904631769,-13.391882398696476,-12.132453405003233
387,-9.555323363587144,-11.721087003436,-13.838364513112248,-12.382468982356091
388,-9.806167382401146,-11.939359651685832,-14.244558838642563,-12.609894397036335
389,-9.948630958066714,-12.16576189916776,-14.59346566989041,-12.811100162724236
390,-10.08694191704398,-12.404858436749254,-14.883042378018661,-12.987671957688745
391,-10.310252077726982,-12.65950079719514,-15.107451132400547,-13.171521336401865
392,-10.672495095713515,-12.924882811857858,-15.277699052883031,-13.389284597943963
393,-10.977216943958654,-13.172264979033162,-15.440768734796233,-13.61193794872233
394,-11.032779466713205,-13.377089167592105,-15.64483670692025,-13.802121812888464
395,-11.040744073854247,-13.55215438269253,-15.923337479548326,-13.960966106588454
396,-11.22996487582105,-13.712998341299324,-16.275947010128437,-14.096808059663992
397,-11.48789885998308,-13.889424187912667,-16.62900057240961,-14.212139496933062
398,-11.646414546346447,-14.075518687848637,-16.902140915585235,-14.305223306788873
399,-11.634600716328976,-14.251395825435225,-17.08006207359,-14.350354621512665
400,-11.440167768387148,-14.394495328186503,-17.185275983901246,-14.328155941415309
401,-11.275289784812083,-14.516736856024439,-17.26813715946565,-14.26012121891972
402,-11.34393187453868,-14.63966729959651,-17.38150456653096,-14.18481040104252
403,-11.429956240609004,-14.76926042859223,-17.533023525869297,-14.147630263787699
404,-11.288372449624845,-14.905606687292487,-17.704312451935525,-14.180167514671519
405,-11.105880383938437,-15.045095314402012,-17.873927956978587,-14.26166469794523
406,-11.102512504529004,-15.178991370518032,-18.016327129027324,-14.354001321473172
407,-11.209525909374005,-15.297438764331348,-18.112704284066897,-14.442858636777387
408,-11.305977339695357,-15.392705248127845,-18.153697398379943,-14.520824751275592
409,-11.259858316677196,-15.463199432538882,-18.135860948768716,-14.58314502311939
410,-10.993069529011082,-15.50868655489115,-18.06333271033369,-14.62901421314211
411,-10.784142484060256,-15.525075913328244,-17.947285208180563,-14.64462688574489
412,-10.899533831664344,-15.508735993735066,-17.803523113371238,-14.620426952586065
413,-11.054644533903616,-15.455115803208404,-17.649963806811066,-14.576961740542407
414,-10.921059016706788,-15.364382768932153,-17.504961160246474,-14.536980966408418
415,-10.645031391998664,-15.256221353193167,-17.384711787230263,-14.49959761568765
416,-10.449538779266534,-15.148528209941043,-17.29907008933675,-14.454400663140015
417,-10.391866570338706,-15.030447015281984,-17.250588927745415,-14.389743739559915
418,-10.470054263259087,-14.887108757621885,-17.22794673619519,-14.295786589640574
419,-10.49117226652504,-14.720622404969843,-17.202408109658762,-14.168400394178974
420,-10.273344450908194,-14.539984569082277,-17.137037415461258,-14.01591473037512
421,-10.0477342738883,-14.360724796140257,-16.993731566123472,-13.870846960151468
422,-10.073791181758379,-14.195529025513368,-16.753436499424556,-13.762036180976578
423,-10.178515552705385,-14.039282473193774,-16.42321549500442,-13.68398665342666
424,-10.139353609714835,-13.876789421967146,-16.038479099209482,-13.614407783597585
425,-10.005239840077266,-13.688703329710219,-15.691805499522484,-13.527443597393088
426,-9.86849001067196,-13.459320353069096,-15.445003630992126,-13.399771394252612
427,-9.794124129740677,-13.188964782301808,-15.27999801437599,-13.224637546273843
428,-9.82312509082595,-12.887473456587507,-15.113590239408857,-13.009064225772013
429,-9.792666547633562,-12.566963046268711,-14.891988905684313,-12.76783347200132
430,-9.551790297562713,-12.239836418855768,-14.613743803695966,-12.519036996960683
431,-9.310258038453137,-11.911471241581205,-14.290244430170311,-12.276463032389374
432,-9.29641344069304,-11.583538833439022,-13.900879759686495,-12.047652865439753
433,-9.384742902776674,-11.261832904596723,-13.436044838821694,-11.833875256945776
434,-9.398237627744694,-10.947843314648004,-12.893794120394325,-11.63085090806436
435,-9.325414066415838,-10.630837000771228,-12.324367489742507,-11.42822919494249
436,-9.194513152147548,-10.296048328461817,-11.786453912056032,-11.214300631916004
437,-9.112771305530467,-9.931316414665687,-11.298816991379205,-10.988190659919404
438,-9.165831641337698,-9.527449152175063,-10.858487692832757,-10.74662312911194
439,-9.151100540299693,-9.080348570047201,-10.449563182910598,-10.462560543414595
440,-8.864670628179642,-8.592334205716325,-10.043261265889367,-10.113927959542846
441,-8.477962708887008,-8.07067246424949,-9.615264027346045,-9.712117672745414
442,-8.202496350735425,-7.525792370546601,-9.144879626949436,-9.280387555365378
443,-7.981229929398564,-6.971156579017927,-8.601968572065594,-8.839450169010918
444,-7.679250709887769,-6.43623175779022,-7.976350157227216,-8.449820505921503
445,-7.350264121106633,-5.964740064348387,-7.313231664879053,-8.14492670060321
446,-7.024197025142155,-5.573244261711891,-6.6708046672270775,-7.964385458544965
447,-6.981527300963939,-5.242436338902114,-6.072316039911944,-7.880710951960603
448,-7.4105975911492905,-4.929566690918341,-5.530280224402458,-7.828934051312269
449,-7.746405633361909,-4.6175386891622665,-5.06626302582114,-7.754013434501832
450,-7.417166759379241,-4.302325806119465,-4.686577857483978,-7.615968757465767
451,-6.802117974315623,-3.980525158208912,-4.451486821106321,-7.4051320644951915
452,-6.671108671252766,-3.601039347032776,-4.3710392550017385,-7.047455756383482
453,-6.642893696466129,-3.2257999929476657,-4.373316868739618,-6.631776919907632
454,-6.474976968774815,-2.858081411071246,-4.374285720019325,-6.161428332828183
455,-6.163332833323269,-2.5145503937774087,-4.294752151445305,-5.648588856909476
456,-5.774269511429549,-2.2110274421005687,-4.084435657556157,-5.113206400281576
457,-5.497611610638979,-1.9475672253134941,-3.739993606610014,-4.593148306429456
458,-5.510073023935229,-1.7166867055500323,-3.3205038447727016,-4.125288929196949
459,-5.5544131732576965,-1.5070000966709856,-2.8943302118050735,-3.715338814319621
460,-5.311628240228232,-1.30901646591142,-2.5574051618373073,-3.3553234924230213
461,-4.985880458549958,-1.129150416527303,-2.3240251720586156,-3.0492478148599913
462,-4.878551245221416,-0.9792989767326684,-2.1047710015411507,-2.795096783084603
463,-4.917158419136169,-0.8624005893203954,-1.8420777004938855,-2.571139167236352
464,-4.943923164265026,-0.7770685247012267,-1.5713851076825254,-2.3527792933708698
465,-4.87611572011349,-0.717607332818038,-1.3161527497926626,-2.1142860733249615
466,-4.662017281901881,-0.6762105664225871,-1.1111234960393406,-1.8450935736090457
467,-4.4625558595559625,-0.6529345425753866,-0.9430051117681019,-1.5839799184916268
468,-4.464065106620318,-0.6475795960502102,-0.7715702254437194,-1.378874802438169
469,-4.4771941568148845,-0.6481556124974344,-0.55517969524725,-1.2397223727132123
470,-4.256384249954946,-0.639180290950256,-0.2737459076361099,-1.1525154335779728
471,-3.928939916262065,-0.6090531400595303,0.027554847520458725,-1.0767423290371372
472,-3.6945858412834074,-0.5506885812572272,0.2818905590692382,-0.9702271355583679
473,-3.5624824602376743,-0.46398135818657327,0.44044246772670675,-0.8411535174850002
474,-3.4852874918545043,-0.3558619141353449,0.49167547659286376,-0.716988944165375
475,-3.3271227917043453,-0.23980637966787105,0.5238091758249067,-0.6041734249513441
476,-2.961681432372594,-0.1290085418068574,0.641487413137575,-0.5032592254965799
477,-2.5861068444288673,-0.028439582160700375,0.8386808633767823,-0.40850158024954164
478,-2.441664571718049,0.06346819570629848,1.0603227482494486,-0.3112387942700696
479,-2.3777685800422566,0.1539464537289747,1.2694060388228168,-0.22734703650910462
480,-2.1690965256208745,0.2505801480612155,1.4308703652657853,-0.17464394074674644
481,-1.8494116313950404,0.3537730270527147,1.5149073399685637,-0.12987930957559563
482,-1.5187502464663707,0.45862328425609183,1.518667221504738,-0.06611024585614617
483,-1.2847691312702392,0.5548325986440701,1.4836923625600507,-0.0015407787345513985
484,-1.233497959501116,0.6331597566289305,1.4597795217966658,0.03890511516485387
485,-1.1724377350313075,0.6978178389609047,1.4556811261013778,0.05843169138791618
486,-0.8791479340182993,0.7586759680070227,1.46190866612464,0.07250575382788202
487,-0.5757524926009949,0.8187774542705006,1.4746346727972968,0.10914574235185566
488,-0.5418340118059906,0.8800667999437151,1.4871569207714794,0.19382926689882024
489,-0.6016746868959384,0.9504960724703342,1.4989171150288347,0.3192634420615518
490,-0.5026815129896757,1.0353053555246472,1.5113141692973262,0.4606060144012967
491,-0.2520827022704823,1.1279777785083498,1.5054213339252813,0.5931039413226765
492,0.06160436638333444,1.2187157798992343,1.4667254748135898,0.6970938405446834
493,0.23726548798547642,1.3029615029959898,1.417682595361091,0.771068197342591
494,0.09888635424899828,1.3794376124710133,1.392655241341998,0.8278291048883601
495,-0.07332833898411403,1.4493166848269279,1.4133405455829446,0.887436093696757
496,0.06898121007132113,1.5160808824817693,1.48801400183535,0.9704122137516671
497,0.31698796827926234,1.5851002544833996,1.6072729130926184,1.081739355812215
498,0.3577854885867555,1.6588953887373568,1.7428362239582453,1.2190222239809043
499,0.2973171927371287,1.7301910452941733,1.8486855450213027,1.3906779739224078
500,0.32177286552942247,1.7883701933610077,1.8857796191013276,1.6003412996122455
501,0.47110155657406877,1.827949808135842,1.8441720819418799,1.830009602043707
502,0.7407712820194432,1.846451055153432,1.7432735287470245,2.055599870395763
503,0.9585805623435801,1.84340699352619,1.6442216636138547,2.2566871091786984
504,0.9450761161169312,1.8209666961687054,1.6101289132224017,2.42063079221793
505,0.9110438254914508,1.7827376197455522,1.6468302060963924,2.5579099832556587
506,1.1266033468805792,1.7332366632678786,1.7283979157003324,2.685668556738892
507,1.4395891431464913,1.676148406524934,1.8266230569811124,2.803493411898211
508,1.618285511548013,1.6165250566443499,1.9082625108885904,2.9062029680681136
509,1.6962521612266892,1.5633368809532482,1.9515352482697446,2.9878222172066438
510,1.7695509079011047,1.5242347801214986,1.947546111576028,3.0472259070928147
511,1.9352881534264217,1.5060904349502877,1.8823336128830168,3.1163106014154485
512,-8.409572116426961,-8.367441607048987,-12.590854189252115,-8.61238201030614
513,-8.65292886860054,-8.7385173790602,-12.809306724685234,-8.973083898355041
514,-9.111043947124099,-9.110212927407215,-13.018072272095939,-9.350729254708273
515,-9.658681206959884,-9.476481842226178,-13.272330627162013,-9.74532269353839
516,-10.115984232253425,-9.827608830611974,-13.604328131529016,-10.14641247218981
517,-10.426722551808407,-10.13951205297328,-13.960199320211972,-10.509542709986412
518,-10.586579469204663,-10.39485837474169,-14.271202746385892,-10.800277127294029
519,-10.75728067015813,-10.605564428327613,-14.523233516351462,-11.04814425336431
520,-11.096001172105243,-10.795434025641468,-14.727553983509756,-11.298748857186311
521,-11.415650160529944,-10.989384223662277,-14.918728290668655,-11.571897724092455
522,-11.510427745538566,-11.203905443054383,-15.133041886916159,-11.871029921216763
523,-11.560758108380435,-11.429342012954526,-15.351201663639856,-12.17712258992392
524,-11.767585003143939,-11.645102760224116,-15.540665454930352,-12.460112779143044
525,-12.035013089722256,-11.835435670314801,-15.723209177838333,-12.700997143031795
526,-12.219592182442092,-11.991728659455642,-15.916279450779896,-12.893802151305174
527,-12.212908201519038,-12.12222044353945,-16.064604361642164,-13.045107954840752
528,-11.966179248750802,-12.236220954946164,-16.120257726811808,-13.171516866918422
529,-11.745749922073731,-12.34982286800505,-16.117118178320254,-13.302414733282962
530,-11.803577095028347,-12.461600207305883,-16.108984592116585,-13.45736821369059
531,-11.848547522662264,-12.551468506626827,-16.129057412271422,-13.612354224008607
532,-11.563830037841614,-12.617627279099546,-16.197686562018752,-13.739642058538367
533,-11.186220197637153,-12.680689144255993,-16.297837076990266,-13.849739333101422
534,-11.010784482866669,-12.764430687770062,-16.40305046073678,-13.964965114382114
535,-11.015991279653065,-12.863922998315177,-16.528921778827318,-14.107016479248399
536,-11.100396373510476,-12.965627435922672,-16.691850746885947,-14.288685888048349
537,-11.066693883011467,-13.062340389337516,-16.86692854472812,-14.488850542611885
538,-10.765819454244918,-13.150482703791612,-17.018745632387752,-14.67627375689682
539,-10.50238999025921,-13.235626476860046,-17.125488824691374,-14.837890974944903
540,-10.59677964482626,-13.32757792758479,-17.17097690786805,-14.96845980496533
541,-10.806015706864285,-13.432456302469516,-17.135625288212655,-15.072260742398862
542,-10.813558923646303,-13.55156562109268,-17.020928788482205,-15.156552055865415
543,-10.687888665659568,-13.677089515978535,-16.878829590417094,-15.205686745850693
544,-10.559585385817055,-13.798153779610708,-16.763827605830596,-15.208386672143376
545,-10.461584245881843,-13.910861354784455,-16.68284684040375,-15.197285985974382
546,-10.410626507062744,-14.012465053109821,-16.618651568302262,-15.205424150466424
547,-10.28410694232761,-14.095842345086368,-16.548855417265795,-15.22425739614499
548,-9.974517133954734,-14.155215890941395,-16.44260411292301,-15.23399310070779
549,-9.698889143592663,-14.188141156067605,-16.269196000441337,-15.219768516218043
550,-9.679822381855873,-14.195968754776358,-16.012880283777278,-15.173485043053606
551,-9.771980560849785,-14.187173687853338,-15.678047375660793,-15.113446919327414
552,-9.774574532226737,-14.17059849668914,-15.292873843993439,-15.063054137322192
553,-9.69086160578362,-14.14847807630241,-14.908237685740895,-15.020251485930217
554,-9.56488928378886,-14.118396028443751,-14.575800335685619,-14.975314216681266
555,-9.453053395246561,-14.072629350954324,-14.341778919936488,-14.92669894959134
556,-9.406468740101747,-14.002979368446281,-14.213293095685387,-14.872299605530662
557,-9.295372208524197,-13.909021435396102,-14.10917777243495,-14.80678650565872
558,-9.003467451724932,-13.792356683093368,-13.930538578324992,-14.72842426899015
559,-8.733409143493972,-13.650700599055913,-13.64129019514111,-14.639777266164348
560,-8.691664395345601,-13.481287919998717,-13.24321644155508,-14.544460611232237
561,-8.759875121119956,-13.282255274818791,-12.746013261121048,-14.45281609771699
562,-8.766289033530088,-13.053969602585013,-12.185586493082107,-14.368791862710127
563,-8.652379981231272,-12.798772533436885,-11.654874581913463,-14.263324686138333
564,-8.41473078728449,-12.522527057548984,-11.219320956357123,-14.107899071953494
565,-8.237015160534234,-12.241863270631407,-10.810150922293245,-13.919480100689935
566,-8.280480281917656,-11.965207410127745,-10.338136098342142,-13.717247540522841
567,-8.293532699299625,-11.68862376179098,-9.807844796199694,-13.483016362279548
568,-8.004291087992959,-11.391686162991311,-9.253022346123723,-13.192273671896269
569,-7.586453740819205,-11.061180271610748,-8.71078043890376,-12.824210516397333
570,-7.2648413752978085,-10.698056347098278,-8.210775460073561,-12.372471395458703
571,-6.999277558289057,-10.29941196142694,-7.71625022495817,-11.87955061213943
572,-6.6686907694301825,-9.87351298087828,-7.199888041682196,-11.412319761422596
573,-6.233302423560829,-9.469558330120226,-6.7184800180069635,-10.990768486521493
574,-5.654949443293715,-9.114094278683432,-6.338810081197795,-10.625595455448117
575,-5.334793232111728,-8.802635673601252,-6.059527936788148,-10.310855436478633
576,-5.608655458302983,-8.526660115395565,-5.8353766103623474,-10.02167479359945
577,-5.915450849453001,-8.276694567769281,-5.562798911441225,-9.731337012801394
578,-5.6266474645465205,-8.037063475828335,-5.161011866263397,-9.416106898563717
579,-5.0296189487394,-7.8081573620516584,-4.6953995220545695,-9.057278550948586
580,-4.75464033980221,-7.497943349386367,-4.393515239857193,-8.513980948078373
581,-4.583682117097826,-7.186123457137669,-4.09840095109455,-7.951041024052928
582,-4.400118966419577,-6.867267826104964,-3.7782439562223105,-7.39298115739873
583,-4.1649256829634025,-6.542986675905447,-3.444712294290766,-6.852332160035975
584,-3.857338846982114,-6.230295120373753,-3.122156953178763,-6.336252304833159
585,-3.627781569526232,-5.9343377398892,-2.839411305683431,-5.864264468509025
586,-3.6345433675338277,-5.6574041737361425,-2.6151287764863898,-5.448077736845134
587,-3.672494190313897,-5.394888001326367,-2.4129963192403103,-5.0668284761375215
588,-3.4854867713324365,-5.137292567231367,-2.1841449129891752,-4.690143763740912
589,-3.2053416840934967,-4.8781831011874015,-1.9258727451677868,-4.302539889929372
590,-3.0381743273569177,-4.612595333112279,-1.6562906800723127,-3.8975644246814576
591,-2.9569699426734464,-4.334121702457188,-1.3982615384207335,-3.4758549133556396
592,-2.8794359262133717,-4.039196737748211,-1.1757673050871473,-3.046164057880493
593,-2.7044436914505483,-3.7294799826129355,-0.9862030476268218,-2.6233810206628054
594,-2.352682869046341,-3.4102753829588597,-0.8140441972126895,-2.2221887860845344
595,-2.019499697889989,-3.0907697220378245,-0.6664001492297553,-1.8421591559696093
596,-1.9279140305252487,-2.779063288570749,-0.55030428568924,-1.4809374714264885
597,-1.8990111450141334,-2.478081782269065,-0.43166762001180703,-1.160752158889599
598,-1.6841164399448856,-2.186873520469125,-0.28090472200718813,-0.9000562663117058
599,-1.3576457691962733,-1.8948338634926112,-0.13404989006479104,-0.6804882107439689
600,-1.0680922096761785,-1.5998187745917556,-0.03549788747438107,-0.4693985232596704
601,-0.8892417752069233,-1.3093295780454117,0.017535567811568578,-0.2364982895047375
602,-0.8534651836239885,-1.049466200341782,0.05196962029180312,0.03844126689948932
603,-0.7661743238079544,-0.8330819011127444,0.12346870233201793,0.3475150810897941
604,-0.4192909332037764,-0.6504012456322529,0.2831385584152637,0.6645903227569937
605,-0.03989367346792971,-0.49224341217962336,0.5041806352807767,0.9587854097118869
606,0.0773801828889353,-0.3592379985517719,0.7296412570123251,1.2046668514913592
607,0.07838684513577418,-0.24654464188526037,0.9450783832528445,1.401217823375823
608,0.19049211013665568,-0.13325317169597997,1.137290791093915,1.5628644832266732
609,0.3892796428990368,-0.007576348336853153,1.2674448315230435,1.7015365342207105
610,0.5878018649130038,0.13553624405509798,1.302658403191555,1.8303692170791783
611,0.6363849568494584,0.27989873703494106,1.1993002333120248,1.9672323465841905
612,0.4127051620160017,0.40069150948547994,0.9531384899138664,2.1230341761308034
613,0.189524031246387,0.48100278211002767,0.7020637023697448,2.2940614853578816
614,0.28225611892969316,0.514574766120547,0.6046448852035117,2.4693863597301413
615,0.4494732782672816,0.5131900433985006,0.6918636996528816,2.6310085286078273
616,0.35700012616128896,0.49962920636411495,0.9203244783946929,2.7677530158292565
617,0.1424628045750082,0.49293792776306944,1.2042735171512922,2.899023987356834
618,0.03981627197883239,0.5083966913273943,1.4412039049029362,3.0501922601251668
619,0.09611016708943193,0.5596870804857765,1.5836146154573623,3.229348514129569
620,0.29435669833703015,0.6512535328342184,1.6314022137508715,3.42810703258489
621,0.44401705940590563,0.7701591108152486,1.610598076072286,3.6035243599776217
622,0.3418846913352145,0.9002627020648463,1.5660323004236325,3.712620710826771
623,0.19187763996354473,1.0208491548147376,1.535526641154418,3.766609251668227
624,0.2654619190997668,1.124211557229995,1.5434777273575544,3.799228045797604
625,0.3956027444438551,1.2098013453422223,1.5995031325021585,3.836445162576948
626,0.34166624908733934,1.272014319239172,1.698709341389101,3.8959095923130604
627,0.1617292333521066,1.3180216901593693,1.8312315111408903,3.9646733291304646
628,-0.014578312006138627,1.3581084174666496,1.9801489152316867,4.018331660938311
629,-0.07174425825939892,1.4057737984701142,2.119011669423982,4.059616862361928
630,0.07616014090338144,1.4731523304216227,2.221384843298216,4.100567594435762
631,0.2475864987808163,1.560941042908135,2.267243154407683,4.140318048342321
632,0.22705315578337393,1.6649173854460697,2.2519289451920557,4.179954151482837
633,0.19579977721786207,1.785219626350725,2.1889076058616466,4.231409402739171
634,0.39937952426985024,1.9200493001946541,2.106555102484296,4.303379365541325
635,0.7418828792638879,2.06528073526281,2.063835621689257,4.400579455943485
636,1.048758265659436,2.2119167288959187,2.104741885892125,4.516779748711308
637,1.24896052096201,2.333717694293163,2.1863137547288676,4.607344128512594
638,1.3167691136594224,2.4074079407596383,2.2410074179446386,4.630786963778062
639,1.4043195097041352,2.43798531503544,2.2488183538818483,4.6085621026242185
640,-7.683828188160359,-10.236435384330136,-10.34876049140393,-10.024309589549597
641,-7.814594681914933,-10.56176295404064,-10.614362418905335,-10.270127317346189
642,-8.121142525121432,-10.874270605049992,-10.973679369748943,-10.492706679352567
643,-8.500552703326493,-11.16627012995891,-11.424953690628529,-10.695005588886382
644,-8.795802379401632,-11.42265964610912,-11.960940170494979,-10.885115674558085
645,-8.919070334348083,-11.632312532074367,-12.529326766203395,-11.071952181233623
646,-8.845305132419188,-11.796139468068654,-13.029158962465178,-11.261594862804658
647,-8.829838202348903,-11.933993940172908,-13.392928855044262,-11.44931636573876
648,-9.113458865262103,-12.07475554464528,-13.612878232919718,-11.6260683526619
649,-9.43299950787298,-12.236499295353871,-13.710560163894622,-11.78683649643785
650,-9.4892337769385,-12.41851235206477,-13.747844573019268,-11.931828459180602
651,-9.483525098804305,-12.611075521036035,-13.81737472618096,-12.064006541778532
652,-9.662210439131707,-12.806472162975416,-13.98860323397375,-12.193489943103632
653,-9.958599817462908,-13.001913746652242,-14.263508432732179,-12.349657570674717
654,-10.247735263314361,-13.197912280951304,-14.593997326309198,-12.553874810579975
655,-10.374792134390333,-13.390894701851437,-14.88760320562435,-12.785076006694094
656,-10.242904408927588,-13.575944719099237,-15.071616285221062,-13.01151537438057
657,-10.158894196047193,-13.747381067190746,-15.114863742024243,-13.222145470532125
658,-10.425353560103463,-13.899417075334371,-15.068235535933816,-13.412473005444804
659,-10.759761776545783,-14.028853117684601,-15.028270743277876,-13.581049156915425
660,-10.822038556411627,-14.1340104255995,-15.070515202650995,-13.730740503772502
661,-10.748842582841728,-14.213299308636891,-15.176098857325686,-13.856232345060643
662,-10.747196188655497,-14.26621509873798,-15.27166108125423,-13.953934006175393
663,-10.844611403272799,-14.293710690805783,-15.324353451351564,-14.041514905048746
664,-11.022281382647689,-14.298098277666279,-15.3646552249551,-14.135870860828483
665,-11.11299593353731,-14.282889417768903,-15.427969930049693,-14.224217255338756
666,-10.969832306947199,-14.252540864320915,-15.514452150606756,-14.291281191841222
667,-10.836663390105159,-14.213551550398506,-15.599036890538779,-14.35062511691638
668,-10.9736227648776,-14.171727130314828,-15.671278712635015,-14.415344234459837
669,-11.19801274140858,-14.126662150972834,-15.733651444090833,-14.471695057924308
670,-11.275372747688618,-14.079712023390435,-15.793301369390036,-14.503236178371372
671,-11.249439933448128,-14.032268018776875,-15.829014857822207,-14.505010301503662
672,-11.218121221674613,-13.989567986148916,-15.818654793432552,-14.479585950318379
673,-11.280654461366204,-13.955947490945551,-15.770730110316533,-14.444421507075036
674,-11.502043239914359,-13.921445120904623,-15.694102747336695,-14.418066101374293
675,-11.682836258905626,-13.869257998953973,-15.60083578770068,-14.399644604167058
676,-11.62218094481514,-13.786048750586,-15.489857971618386,-14.380238319099709
677,-11.507656845402428,-13.676368148454863,-15.371364299699923,-14.353102180905056
678,-11.562698076855382,-13.552000985207833,-15.278637490303524,-14.310277049365963
679,-11.687311275921893,-13.415281896327462,-15.20527759133383,-14.24558738345737
680,-11.737609432726678,-13.25501552715063,-15.129982806997429,-14.15392789952244
681,-11.69384799118809,-13.061610673755292,-15.019368977008385,-14.026181855639875
682,-11.572449705149609,-12.842046016130944,-14.836885037638732,-13.854845125759482
683,-11.51877452166815,-12.614556699548432,-14.555263096509565,-13.64158715937028
684,-11.65572572749612,-12.38856934571333,-14.17252090459809,-13.392174248724881
685,-11.757736247777423,-12.160684627770788,-13.72620893168623,-13.10784249251777
686,-11.596639698901019,-11.932199918209337,-13.272000375166126,-12.794030621994938
687,-11.375996477685565,-11.706596936966072,-12.860582877320834,-12.472221120439732
688,-11.335192985791652,-11.482895219629382,-12.521640427265586,-12.161460855580462
689,-11.406184520223393,-11.241068433234362,-12.25507538189536,-11.859536894542298
690,-11.454978319190436,-10.959403678141275,-12.02771031531253,-11.555676287939486
691,-11.336460724593396,-10.629544835221491,-11.758843176924106,-11.241155105008334
692,-10.9584533113261,-10.252912639951717,-11.38102981113107,-10.907294397882035
693,-10.587677853016002,-9.842572205875038,-10.91074161462646,-10.547431879940142
694,-10.486430169982942,-9.414907871070426,-10.404275437848177,-10.16043267293272
695,-10.370687557332786,-8.977039422001004,-9.913768659958322,-9.750474322964793
696,-9.919203452883604,-8.53057479899179,-9.486466282554577,-9.32417400272323
697,-9.304903057123855,-8.073690048560715,-9.15469050014789,-8.889417251786417
698,-8.769611635855183,-7.60418339356854,-8.917287177762978,-8.448113644030188
699,-8.344836966199136,-7.125593951017493,-8.723998725811306,-7.991153944332948
700,-7.968208352754833,-6.659963626349924,-8.514699194332305,-7.530765540350449
701,-7.518286510497327,-6.2632055729261005,-8.281494456735285,-7.090359537931694
702,-6.869825913047206,-5.970797528016614,-8.03838800920978,-6.708264401916052
703,-6.418661517653563,-5.768834033305172,-7.82525772161065,-6.390484516501514
704,-6.537083567977708,-5.612876881142409,-7.683525575500034,-6.121025255324689
705,-6.754623965336379,-5.446018979428084,-7.6112920758011455,-5.8936209814895
706,-6.522409111990533,-5.219265675773984,-7.585812441569703,-5.698022083548468
707,-6.072808715235951,-4.925551091034026,-7.576328710519076,-5.508255888214461
708,-5.860079481064199,-4.676258991271346,-7.2131502550253135,-5.1248718339559325
709,-5.743454256305361,-4.453362553626325,-6.873241132255563,-4.750248731709041
710,-5.613004674778272,-4.249685840373106,-6.571330634961614,-4.396054508598926
711,-5.385769332334221,-4.033844662881739,-6.280454512314532,-4.061391597592903
712,-5.000891261922078,-3.7920850257409797,-5.921321977799774,-3.7425232568620928
713,-4.628914326719227,-3.5387690852446183,-5.462605595932408,-3.4560192304633297
714,-4.457900182111289,-3.2879274806035967,-4.957351936047674,-3.2153127741969776
715,-4.278594430286001,-3.0392648235683173,-4.477774231983316,-3.000500022388062
716,-3.8259634345043088,-2.785855155059578,-4.0431393397125674,-2.781367623415224
717,-3.2126806840621405,-2.52562218232807,-3.608061277500979,-2.540005146567149
718,-2.6430702524327714,-2.259328590443209,-3.114704786053698,-2.2661011888487756
719,-2.1894758832675008,-1.9932858203281252,-2.5676309577348126,-1.9593637847635046
720,-1.8747429413490153,-1.7380261330672782,-2.025197516621527,-1.629792296556623
721,-1.5641324446678238,-1.5052394452485602,-1.524048641449964,-1.2886281682375174
722,-1.1024801503580288,-1.302477421249918,-1.0545811895763433,-0.9484417673296481
723,-0.6758085950079146,-1.1269069748375244,-0.6081638233343815,-0.6281345091138408
724,-0.509563736531447,-0.9684077640035709,-0.18609183713900762,-0.3398565670200811
725,-0.41706121760940745,-0.8126143298941787,0.16810444439559227,-0.07382518057733639
726,-0.1458633464971599,-0.6462878902723338,0.39662923986323395,0.18967698771753683
727,0.26691592509289364,-0.46684983059736,0.5256528300753711,0.46652207201480794
728,0.7047900237966922,-0.27932250628295857,0.6813935384814281,0.76653857497864
729,1.0338788956027336,-0.08826395575225114,0.9678288067967409,1.0921679834701892
730,1.1475962971808022,0.09574547770476874,1.3989217793382618,1.4334026445727608
731,1.2697061079602685,0.2615321278262457,1.9289500033543279,1.759675613835359
732,1.657283341631289,0.3932092978393739,2.4835170090825804,2.0407856544345337
733,2.048643356315722,0.48581628857825765,2.9808294944647327,2.2729181002625833
734,2.1100634905262137,0.5485835238210339,3.3595692389413268,2.468600169222835
735,2.0144124204894185,0.5924499868258698,3.57704664830918,2.64667506425457
736,2.033414479446157,0.624634355818019,3.6427169882556787,2.8264645321097057
737,2.18383448750981,0.6521081865215181,3.6126230752602955,3.0176197128612094
738,2.4055660077165832,0.6869232843466525,3.586356413007322,3.215488661033537
739,2.521886908729857,0.7323918144604132,3.6624849147815315,3.3975522669479443
740,2.364551945668747,0.7866183980558418,3.872370690601664,3.537962981564179
741,2.175118120420651,0.8361704920481402,4.200337598766925,3.6208280920767004
742,2.258359836232142,0.8661116127817079,4.583877525440664,3.647508873653333
743,2.435762590016372,0.8759639620297484,4.934406583928727,3.6535614486982255
744,2.435851683289607,0.8726364158035965,5.181576681814616,3.682582669352384
745,2.3231310273521664,0.8603067547680965,5.300415030102888,3.7475864025659695
746,2.232904464174422,0.8443005234869994,5.316749124042331,3.843405330105835
747,2.2283337267237067,0.8360588005007457,5.260251487562549,3.963096277791778
748,2.344673083226206,0.8414806186241628,5.14100760577754,4.093121580718197
749,2.420101305493793,0.8607969341129553,5.011236660376457,4.207574760907125
750,2.2804341878454957,0.8853701137153935,4.982032835394853,4.2900584104198565
751,2.1285670638152054,0.9124989759243423,5.113432428491009,4.3633719964349975
752,2.225310212751595,0.9519449097513065,5.358266969227431,4.458779912805772
753,2.4629400625553064,1.0120766635010408,5.6100656038905745,4.580579035254935
754,2.6511914977462645,1.0883800945469113,5.764028294722013,4.718359586963229
755,2.767557251084491,1.173139824006863,5.795432429705535,4.84889892995472
756,2.8340997114966235,1.2552731576952647,5.759973160307783,4.947752873059345
757,2.9540406374071257,1.3302757669984269,5.746604574207798,5.016417060749967
758,3.231428250219976,1.3991985328266505,5.763142409733849,5.067900658756339
759,3.4829499714716214,1.4665800561820914,5.719947730166864,5.109099873498616
760,3.4955170066046857,1.5376707148805038,5.59862024250777,5.1429245122098735
761,3.447342169527068,1.6148751021752799,5.494972160791789,5.161230199814364
762,3.574630087899035,1.6924356072569609,5.477876365941076,5.152645014064172
763,3.7971057791324014,1.7621406103582473,5.56295978587182,5.117477526373544
764,3.9597493671914847,1.806342377842848,5.761094646440559,5.061928313063791
765,3.9556168073612654,1.8088750363507773,6.034462526822938,4.994366309059679
766,3.7290703137195256,1.7642989816940267,6.284497652173626,4.921612505770003
767,3.522265746821416,1.6873943807463039,6.431599570450585,4.839893375498384
768,-35.7807959384856,-10.050404378093733,-7.896012620942311,-35.34539948629099
769,-39.41662222986478,-10.11729595109882,-8.072193215687419,-39.175808041947306
770,-43.17385678245127,-10.084311893642585,-8.230655678330718,-42.90841855259347
771,-46.97752927915303,-10.000180072043,-8.318444847202775,-46.53401638509023
772,-50.69920146906814,-9.981817061438036,-8.296529833170315,-50.05666982724252
773,-54.23047250435566,-10.114102048935534,-8.145434953743507,-53.493740587025506
774,-57.495463531922276,-10.382807762145296,-7.886604260900904,-56.8501660526669
775,-60.67986459815859,-10.717445235986409,-7.60497880497853,-60.08960273470375
776,-63.961519776912816,-11.019362121364816,-7.3868771189825795,-63.16662389675087
777,-67.0735176147787,-11.247015896208053,-7.275689652217339,-66.05801539185649
778,-69.7370081182559,-11.395965609373196,-7.256965554635387,-68.75557092335212
779,-72.13633730317329,-11.485415705824328,-7.212543210142635,-71.2685469566002
780,-74.51311631655385,-11.547218076605295,-7.019416804187746,-73.61307332516937
781,-76.86918739414335,-11.585904700329321,-6.669432780822068,-75.79538717687305
782,-79.13520102168994,-11.599855316890652,-6.216568775391575,-77.81347045023213
783,-81.1245830812221,-11.616887904310667,-5.7278638693108475,-79.65299548152011
784,-82.68194505223755,-11.651452480190704,-5.281144639167664,-81.3013243907511
785,-84.04663144645251,-11.714918650082753,-4.94844524843057,-82.76795241394649
786,-85.48086824340221,-11.787942187761367,-4.752018279901672,-84.06753438980482
787,-86.7880748231053,-11.828291154276947,-4.633362337649836,-85.20725255589126
788,-87.72091296936601,-11.838898737498479,-4.509370365487757,-86.1849047919323
789,-88.35435391987644,-11.854546825742563,-4.300814079578266,-86.9780955141876
790,-88.81200058161738,-11.915060492619643,-3.983941022709736,-87.56226333878577
791,-89.13952460027107,-12.00539980485432,-3.6781272728759005,-87.92962884988677
792,-89.35755932453816,-12.096417919512106,-3.5154091029593015,-88.08439561669432
793,-89.32499382115131,-12.178356606430045,-3.5168399549733174,-88.04818424546744
794,-88.9176543089176,-12.249785072065064,-3.627986445705955,-87.8404287150717
795,-88.35975435126916,-12.329040667828432,-3.692248380369208,-87.4493050809446
796,-87.88374804667782,-12.431122395424248,-3.5699252480484955,-86.85680944021955
797,-87.33747985846644,-12.534194876703735,-3.309808833635347,-86.05857724127293
798,-86.51774659321728,-12.612815582524204,-3.029153004918931,-85.06144598082099
799,-85.42935504121289,-12.612032891096408,-2.810038587050738,-83.89456673998563
800,-84.12772453668788,-12.52847398459431,-2.6980952745753584,-82.58465791703455
801,-82.73443686245311,-12.397350283886057,-2.6479814976895213,-81.12694555941758
802,-81.33872437381869,-12.272512955579764,-2.5865204356552565,-79.4983629502891
803,-79.71844082696923,-12.17376829591123,-2.482704400852262,-77.66613945120608
804,-77.64677565235215,-12.108946591726465,-2.3518707693057213,-75.60515499063466
805,-75.29499677843556,-12.103373760160254,-2.309687977530295,-73.31792870232951
806,-72.89315194399097,-12.164501809251133,-2.4587047938578594,-70.83604624531228
807,-70.41500756617846,-12.247993572121258,-2.738881316726566,-68.22113506756672
808,-67.79822901344203,-12.303234800524564,-3.0377721864074156,-65.53776628917014
809,-65.03082912945679,-12.312983343447804,-3.2763007422091985,-62.82869775570016
810,-62.1100412121681,-12.275729768986105,-3.408059528202174,-60.10353228564544
811,-59.19459718275372,-12.200717466117503,-3.4803080920795235,-57.321360335702096
812,-56.39917522510802,-12.10072091615348,-3.564733657199835,-54.42567793900063
813,-53.41863482972297,-11.971893900000564,-3.648295005893016,-51.38457477120376
814,-49.956047490717914,-11.805483612431335,-3.699893247574789,-48.19066229168669
815,-46.21459703758899,-11.600670455889912,-3.726885875736148,-44.863638135908424
816,-42.48016715742286,-11.362289769619471,-3.742267576406923,-41.44065514802117
817,-38.79745280924242,-11.103728861308001,-3.7688826713810792,-37.96398535096618
818,-35.13735033093401,-10.841301728811567,-3.8304604930151998,-34.46070763573649
819,-31.33585117836052,-10.585724721531957,-3.9078906921770433,-30.9169362962929
820,-27.246578122839136,-10.34018175849693,-3.986710350032399,-27.303692284612893
821,-23.147726132441047,-10.098141138577944,-4.116158922118453,-23.60374364162231
822,-19.317430045386022,-9.845291581687999,-4.3449309221256,-19.808911915218275
823,-15.45384247728837,-9.565090531534612,-4.679366526457383,-15.929230924702225
824,-11.2210214626369,-9.242893866384351,-5.0903150781761415,-11.978777265480007
825,-6.786191183939671,-8.86330013213877,-5.4835717427561805,-7.950955532670239
826,-2.3953480652941153,-8.422446668788135,-5.77458180652278,-3.8340823330365112
827,1.899501202441825,-7.947407032932934,-5.977953814135152,0.3722272986152734
828,6.16354291273332,-7.496393978243623,-6.199595761945905,4.6520975164025575
829,10.517860885806613,-7.167282959835253,-6.550308314859922,8.97723467271541
830,15.123329844396926,-6.971108569712363,-7.140187756336339,13.30691192642549
831,19.763845503046298,-6.8932051595386925,-7.92446363631581,17.596081375933142
832,24.166278041945127,-6.876387244755771,-8.788046487341497,21.81696226348034
833,28.4819496365945,-6.89996818867814,-9.662800996138532,25.980792205307505
834,32.93453834965521,-6.956134057436427,-10.500290597931654,30.115495420741276
835,37.41962068669879,-7.011241983500583,-11.267264380111962,34.24425732411868
836,41.811182730237206,-7.012860245768771,-11.56894227009295,38.49952628868978
837,46.094914952213784,-6.991553022402471,-11.81989085691656,42.74091292642739
838,50.32688606218935,-6.9581846934307725,-12.026066691632128,46.94560828994797
839,54.60558122209579,-6.92773457171694,-12.216720098495655,51.097076334474785
840,59.015182967278086,-6.90959438358107,-12.423545334029722,55.18644665065076
841,63.38108855063705,-6.88619136838555,-12.668419804665902,59.21814339256
842,67.50099101622979,-6.8339100391977,-12.956137266948678,63.20318725727173
843,71.5282672688591,-6.7519841192429375,-13.238224166716108,67.14740871318531
844,75.67935727762405,-6.648344998968307,-13.465045149235884,71.05172812325412
845,79.89859845327187,-6.532716796545722,-13.676456723218273,74.90927657529178
846,84.06887460247664,-6.41200029636583,-13.926409642416354,78.71247952388833
847,88.11224215061016,-6.2730769821263905,-14.195958294658455,82.45903845613536
848,91.97519362826351,-6.10794390529988,-14.44109193996651,86.14855772758328
849,95.85409938485341,-5.895360544782091,-14.610776381031513,89.7961200986589
850,99.93129192597223,-5.656783388236027,-14.66854781883753,93.40036645959307
851,103.83743008464475,-5.429972908637196,-14.661162434832606,96.8882943040458
852,107.13472673890975,-5.255070508649958,-14.661654954550052,100.16999516035384
853,109.97405593774789,-5.130601149446394,-14.684769758202703,103.19724341582348
854,112.63887634309741,-5.033295862807937,-14.723048409345976,105.9411700092145
855,115.12368236693652,-4.944162933099437,-14.77345162294453,108.40515426967346
856,117.33402140111723,-4.8448957874780145,-14.827868248236445,110.58230346680227
857,119.04842274697194,-4.720202682903157,-14.889446562487299,112.36370353170634
858,120.04603924553604,-4.567344656617433,-14.963724444842589,113.62291816164051
859,120.55157963613111,-4.3965898369968315,-15.035654280636694,114.3246551612402
860,120.86609271647166,-4.222977630373544,-15.083554955106703,114.48562840023004
861,120.75183355313037,-4.071047377985641,-15.093113021705298,114.14511308423874
862,119.90606450358253,-3.9436074723072694,-15.052346459367024,113.36944587588378
863,118.51114608315599,-3.8185777952140993,-14.956298622013438,112.23416578107134
864,116.85401108554109,-3.6444399181732217,-14.805636765567229,110.80070836875602
865,115.05692528491659,-3.402776427779628,-14.586370019317751,109.09759862417076
866,113.16939055513264,-3.1316583140793597,-14.291675891778937,107.1327981661396
867,111.00816725173836,-2.857128732511994,-13.969748575237215,104.90871485014142
868,108.36160214093123,-2.6094208389559674,-13.67309396254728,102.42961696267797
869,105.47299256008286,-2.4033274145982686,-13.377609670342808,99.7225537989453
870,102.6598910869846,-2.2356650353875285,-13.045307298942346,96.8238826291173
871,99.76307128792747,-2.0943076890386636,-12.708684591082442,93.74860983352654
872,96.54447837969447,-1.9625116282953559,-12.407255891909907,90.5139999601877
873,93.07895163602967,-1.823741853991417,-12.122681065159618,87.16434790270131
874,89.51679920307123,-1.6686731418114251,-11.823100615873605,83.74725608836017
875,86.0116429417421,-1.5040263069004354,-11.491839150924795,80.3055646857148
876,82.68096348588394,-1.3417528644250256,-11.11938830308774,76.84618417632923
877,79.32252259781642,-1.1840443240761318,-10.719217379259579,73.3932206059604
878,75.6886261374146,-1.0282935207282173,-10.31338983889401,69.91279191219108
879,71.9653882447347,-0.8687478092561272,-9.89862983888132,66.3709656387068
880,68.42588569279393,-0.6985339628984176,-9.4667826216519,62.822396041445614
881,65.01708617231922,-0.5200670994924174,-9.028846522338316,59.31988015847041
882,61.6205207503299,-0.3362882831191641,-8.598221596144779,55.928450751846114
883,58.21594417562627,-0.1389100351437454,-8.181581429779607,52.66572842238033
884,54.813585289681335,0.0812508918817204,-7.775639457567902,49.52789331123917
885,51.59447720688004,0.32816763024240103,-7.359654900581166,46.549808444509445
886,48.73473760022866,0.600571802426104,-6.902260007746579,43.75734566145288
887,45.99961058929367,0.8427838142770838,-6.365868559562713,41.10941481123488
888,43.09775299308208,1.0098226488529745,-5.727969994181634,38.54897814430805
889,40.192021865650226,1.0777685030298603,-5.007660080933643,36.05213281062282
890,37.5341746565259,1.023305605915144,-4.2526747057777055,33.61256152678542
891,35.091271544854905,0.8808705268603813,-3.519785758893187,31.232473353843435
892,32.76259727544468,0.7663235894000773,-2.860210955026285,28.92763547607348
893,30.448977005743536,0.7810169048097362,-2.3117827693665283,26.72970065473076
894,28.068208193540677,0.934826194119622,-1.8728371978078266,24.660769633547
895,25.808327110102443,1.1761194315415926,-1.470655776404266,22.700091386425193
896,-0.935134474725427,-12.396917699417676,-10.236212292449682,-3.266977449165019
897,-0.9450326939985466,-12.760059940030402,-10.561537276523682,-3.5627307370786094
898,-1.1362713230332686,-13.130748463905803,-10.861461404767333,-3.8733426149961865
899,-1.4861192276896174,-13.482149643337651,-11.114766963128051,-4.210482804569868
900,-1.8945530973408928,-13.7871350917025,-11.336055106077273,-4.571015323937297
901,-2.1768412038614433,-14.034293014924245,-11.566087276616136,-4.91645491736244
902,-2.1875068240469524,-14.225048619351366,-11.84229394021404,-5.206202944643775
903,-2.183560275895066,-14.373893311260863,-12.15500576501555,-5.431187450715613
904,-2.4413850551277925,-14.500347637234597,-12.46814492078384,-5.60259326040113
905,-2.7257986833485734,-14.615034158131968,-12.764418474816887,-5.747838458354411
906,-2.7637368072127946,-14.727232517988524,-13.05305084463147,-5.900448427338707
907,-2.70722948218612,-14.83566551185242,-13.332180163463432,-6.0798201928797075
908,-2.7631797693601587,-14.944147706230078,-13.58091045058186,-6.2931896858060785
909,-2.9789508941014984,-15.063936543321022,-13.804397393565665,-6.54240660434734
910,-3.34143941024575,-15.191752912157675,-14.038929580811237,-6.820561447717478
911,-3.6487817275863623,-15.306917289129292,-14.275656389411454,-7.105132328310077
912,-3.7161956289845097,-15.393942832247877,-14.452341184784922,-7.376242016848002
913,-3.7803290119285555,-15.459492542393876,-14.555404964520154,-7.6450392391007505
914,-4.1007320728335745,-15.525794294359995,-14.644320197342806,-7.922710695141669
915,-4.483196100070623,-15.605278575287752,-14.773873498089065,-8.183142769735229
916,-4.682454279026774,-15.691854477730109,-14.945683237550297,-8.39978115300838
917,-4.735172743421156,-15.761755409539717,-15.119759358441438,-8.573708174093234
918,-4.7388341035406665,-15.788991673109718,-15.24316508878429,-8.720299660362201
919,-4.800627733939702,-15.758973179516245,-15.274244654067726,-8.871518421744502
920,-5.0060709992559485,-15.678021620816546,-15.230983963702302,-9.054949133834242
921,-5.201278138749074,-15.556361979688816,-15.176991937439123,-9.264204930672024
922,-5.225627345275742,-15.407371181339728,-15.18267053673959,-9.474427685274813
923,-5.262153188224157,-15.232627530071852,-15.257028453133504,-9.655769945264025
924,-5.513062781998823,-15.032434764985243,-15.375221386866068,-9.783079226225569
925,-5.873383794654537,-14.818430341363783,-15.504463015221047,-9.853103437623176
926,-6.189695395342123,-14.604711613573487,-15.606621430883408,-9.88093445065573
927,-6.411082408950067,-14.406323603380509,-15.653052072598587,-9.8901391685969
928,-6.527302096291167,-14.232699232218717,-15.633505346731237,-9.90846758590043
929,-6.681239880998388,-14.07146153673075,-15.564080251244043,-9.967138374588142
930,-7.003516091677917,-13.90953548792526,-15.46966978537147,-10.08213450213778
931,-7.279122766723713,-13.741873358032434,-15.357297787782523,-10.230432877597595
932,-7.290784244673587,-13.57528041458051,-15.23233749119378,-10.37908856838719
933,-7.243301291392043,-13.409128600770176,-15.115270517970872,-10.517143414235381
934,-7.375387244348655,-13.231322615480396,-15.024254446534554,-10.641292527993818
935,-7.625636798537191,-13.033632324471752,-14.96636713848946,-10.7493744995108
936,-7.870061463454439,-12.815692185989395,-14.93892257710194,-10.841297051572734
937,-7.978926698011193,-12.579953806227353,-14.919262588713579,-10.908781667593772
938,-7.873617187360517,-12.327229754579298,-14.886163668059567,-10.944328448580666
939,-7.818162422233718,-12.053915345353014,-14.810469319457537,-10.954050409635387
940,-8.070394775325347,-11.753268694045367,-14.68104567344009,-10.94865679392401
941,-8.356493418990732,-11.434335922202964,-14.488948801568563,-10.937612992310779
942,-8.366226684602001,-11.1246024629616,-14.201787707550439,-10.93094869416187
943,-8.277030733226116,-10.839468537446841,-13.799486567888811,-10.931654420477699
944,-8.329604015555702,-10.568536609733655,-13.338065337943025,-10.943000138383663
945,-8.53643813037624,-10.282738525378956,-12.92326853181733,-10.987508942819142
946,-8.84812084036054,-9.952128405327567,-12.60030764759263,-11.079959496160912
947,-9.089049601088549,-9.56825614485889,-12.335386323131283,-11.19500642430348
948,-9.108008131751152,-9.146784499307161,-12.079404081235342,-11.300019468390026
949,-9.152377417767902,-8.705480543290344,-11.797293450569194,-11.383047679044443
950,-9.483676959236785,-8.262880214666877,-11.467753543637379,-11.44270912051765
951,-9.874592458928646,-7.825820910353492,-11.068558804534986,-11.491291512407702
952,-10.056217034690553,-7.389510060122305,-10.601642101497315,-11.543489385217118
953,-10.12886561729643,-6.940550907690124,-10.100033505679665,-11.591807625812839
954,-10.251736807248022,-6.461702813129291,-9.603423342925169,-11.622960276687131
955,-10.504001225268102,-5.9408538525567325,-9.117131824036164,-11.640271056456578
956,-10.912525864409133,-5.40667081850909,-8.61413403771532,-11.646115928686235
957,-11.24882872639798,-4.928946605696235,-8.086091227352558,-11.625590963059032
958,-11.289354326113259,-4.548111687901814,-7.578866139942562,-11.566727541010938
959,-11.285446262115201,-4.26639183669473,-7.114927102735875,-11.472576046377199
960,-11.518744570031346,-4.075375120887999,-6.704919901232165,-11.353322249584844
961,-11.740990313643882,-3.9451921692206455,-6.358094923432837,-11.229894346978226
962,-11.662213005022673,-3.8478998490324474,-6.0886390835285304,-11.117112703052905
963,-11.41896846660029,-3.762815523771851,-5.8989834534690795,-10.999177209008815
964,-11.175396834475801,-3.570244439308229,-5.761096898628733,-10.844162420026858
965,-11.004427675509678,-3.3883944817722367,-5.6767697940539845,-10.645953646864573
966,-10.904079367036648,-3.2183071684733577,-5.606632807202814,-10.398472337844419
967,-10.716630420112798,-3.0561915203654615,-5.519099611820042,-10.100866505693697
968,-10.293045760086533,-2.8943311735327897,-5.424701126742093,-9.764841158537877
969,-9.850593917316214,-2.737136026184929,-5.370189076590563,-9.418782278558268
970,-9.6593626182813,-2.604663577774864,-5.379324515712223,-9.097391778949692
971,-9.590657824088845,-2.5103847596962594,-5.409464913599271,-8.83837235744314
972,-9.432620336367908,-2.4395549060429107,-5.3935522839440155,-8.664358536016378
973,-9.2019606256933,-2.35711958226968,-5.294535515748552,-8.55161128601609
974,-8.964260402053881,-2.2451774082809037,-5.106641334289342,-8.457979745379792
975,-8.815948518498569,-2.1116512118730735,-4.863025630317549,-8.364067277501245
976,-8.833401262010309,-1.9709654593606416,-4.618720228122821,-8.257224184254666
977,-8.759971839479649,-1.8299959746675465,-4.399155651763059,-8.11698779266653
978,-8.329095807749521,-1.6913202301534156,-4.191244587191468,-7.930065908997795
979,-7.84631933021165,-1.56388821598217,-3.992701995479822,-7.69480477241121
980,-7.700127126495398,-1.448119511067235,-3.8486999701043065,-7.4197684952266245
981,-7.736710281684801,-1.3361258084044656,-3.8163604549530965,-7.129231633812752
982,-7.682715479529731,-1.2095076822337565,-3.8673280336073086,-6.851286719607482
983,-7.496464175441904,-1.060290104936206,-3.890919951864769,-6.602568804157715
984,-7.210843361333658,-0.897559285022863,-3.817747338981098,-6.390495048737293
985,-7.0300510283927435,-0.7334249508484229,-3.6505132014314814,-6.211758703149757
986,-7.160348737088365,-0.5820846357629235,-3.40786566644682,-6.057697048244634
987,-7.337583086802341,-0.44663530664296514,-3.1174474240762438,-5.929138388437683
988,-7.22418985889838,-0.3238293526674784,-2.8101816265970827,-5.825962168812196
989,-7.011081333328078,-0.2092055263895608,-2.5237116600308522,-5.733588080290085
990,-6.9897403567579675,-0.09932513289236812,-2.2861276141047027,-5.633709470973471
991,-7.099226633301812,-0.001915767770297408,-2.1030670135374065,-5.510856384071781
992,-7.201005642729128,0.07702276927145078,-1.9665274899977196,-5.357737851836116
993,-7.209622924300057,0.13999796199757503,-1.8671531024309098,-5.184955697470572
994,-7.066728483940737,0.2022755864025741,-1.7931404661893589,-5.013782706396941
995,-6.94706469440686,0.27020620321708894,-1.7293191019747605,-4.868586800292464
996,-7.051014073495869,0.34551374348497677,-1.6652345508485789,-4.767996614755833
997,-7.18293237867813,0.4215999978487507,-1.6026134262775569,-4.711451051154819
998,-7.084369023448176,0.4887452325738637,-1.5477033603355468,-4.686814525673093
999,-6.878567478351565,0.529078632304832,-1.5039922833203754,-4.679143157129909
1000,-6.7629608114100215,0.5368517342052764,-1.4715556930788205,-4.67551957110596
1001,-6.729611532939932,0.52240402341407,-1.4422521054017676,-4.676222312396267
1002,-6.720351322359757,0.5010171640619003,-1.4069803306216906,-4.685764877780286
1003,-6.637401029428269,0.4773884864633069,-1.3648180091801032,-4.702177400104414
1004,-6.392798948085696,0.45231943400935104,-1.3190825159599875,-4.718357390203881
1005,-6.147456587974928,0.43828809346682884,-1.283823927904506,-4.713530714864083
1006,-6.093250893043331,0.45881814244814173,-1.270990262824643,-4.668026695643259
1007,-6.089130589220417,0.520727662114361,-1.2519760999551,-4.592654052864847
1008,-5.934619576659996,0.6040590860292364,-1.205172292692216,-4.505813932297206
1009,-5.676222522762032,0.6818106933200534,-1.1376392202469578,-4.401922317756798
1010,-5.418235313695743,0.7413166826756343,-1.0838025573628465,-4.2716462634508465
1011,-5.238200071439043,0.779777092323569,-1.039658599827375,-4.1198433662964185
1012,-5.186009144605842,0.806444526950315,-0.9488673983582988,-3.9559381444879165
1013,-5.0736722312661415,0.8262716464950932,-0.8027102511000599,-3.7914288897590604
1014,-4.701550463610367,0.8464590685832558,-0.6641584537908627,-3.6370899246955735
1015,-4.313787377753033,0.8849701177061671,-0.5680750829089192,-3.495696806292643
1016,-4.208134413418549,0.9577183708456329,-0.49200268041395945,-3.3610435186231764
1017,-4.2055544107779665,1.0697610920675664,-0.4183064745368559,-3.2199340215632337
1018,-4.035990978238726,1.2144414352029416,-0.3647117256968454,-3.057902225939467
1019,-3.6940498783558473,1.367459226481461,-0.35713031537484624,-2.8588616079299483
1020,-3.259853556911397,1.4997337130455257,-0.38661080995626096,-2.620396517067273
1021,-2.9212819629625,1.5943682871133982,-0.4136847620951336,-2.3785745579348556
1022,-2.8559587159912447,1.6459536456219295,-0.3954931279161752,-2.178242811467353
1023,-2.832097370155851,1.6629410499771473,-0.33336209915923454,-2.0374044523436856
1024,-11.278417425729952,-11.847890661716631,-11.003632174911614,-11.391546406999405
1025,-11.291453864034393,-12.186466021725586,-11.389703760418016,-11.788884189200939
1026,-11.44524854358096,-12.520691476306803,-11.72421251233738,-12.171690380680394
1027,-11.764297968958422,-12.83277570893947,-11.998016362922757,-12.557672687457819
1028,-12.197490016759621,-13.111219140806867,-12.22407611593828,-12.960064304113349
1029,-12.534374587810827,-13.355299808271358,-12.424390565756141,-13.376004399670496
1030,-12.589217030935929,-13.570497271613595,-12.649773934460816,-13.790279374986067
1031,-12.61624000511975,-13.766857187914251,-12.927851032674164,-14.180008346623776
1032,-12.899624512017638,-13.95117709716488,-13.27120471532577,-14.521694092227877
1033,-13.23442383341564,-14.11604573673766,-13.67015238158275,-14.802490872693332
1034,-13.366660326530996,-14.253706710590768,-14.096164479296938,-15.019666398600316
1035,-13.385336417333523,-14.364726995962945,-14.510758121225582,-15.176151418829617
1036,-13.43238929769948,-14.46010583777573,-14.877742686405877,-15.285678362256563
1037,-13.576224474363611,-14.575225036164499,-15.178690659773295,-15.37546768173469
1038,-13.85042087467993,-14.74005934693365,-15.413381110078769,-15.474377487212621
1039,-14.092116512266113,-14.944266198169041,-15.585454017670386,-15.607440611222028
1040,-14.145533274653735,-15.162493675056439,-15.715298972846472,-15.787996518440456
1041,-14.217778796106245,-15.368554886704803,-15.866603629443109,-15.999573533567618
1042,-14.53287913119655,-15.544960085780806,-16.080004386896707,-16.220991920919847
1043,-14.943433617599819,-15.712693597670526,-16.353202922915226,-16.461135620874387
1044,-15.2518985846264,-15.890592724521255,-16.63226943371677,-16.730135372260268
1045,-15.4539758282808,-16.080919780719825,-16.839755682503945,-17.0123437865346
1046,-15.591569791654967,-16.257046407872494,-16.951016455288208,-17.285554225060434
1047,-15.763583566702517,-16.385712636260536,-17.020570760247665,-17.530968978484847
1048,-16.053086169807486,-16.462148558599978,-17.12513666351547,-17.734627782413536
1049,-16.289098539445504,-16.509440429265037,-17.281294377445874,-17.894168358811147
1050,-16.297224445486695,-16.546972713647754,-17.471888614837134,-18.016943805529504
1051,-16.248749049473982,-16.575702884456593,-17.656616735587594,-18.11861977357704
1052,-16.3359588647307,-16.58842256050094,-17.791055433930158,-18.210125604276907
1053,-16.46353599159353,-16.58720091931824,-17.857871279581524,-18.284330585961047
1054,-16.49241118422524,-16.57417430011305,-17.869707605383045,-18.32436771965453
1055,-16.34846607489443,-16.54853257952407,-17.87796618995378,-18.305097155689033
1056,-16.012060867551305,-16.50962325273804,-17.93027067004143,-18.20885068345319
1057,-15.713284005731175,-16.454186057008176,-18.02411079762586,-18.05147903782489
1058,-15.661797235469557,-16.37947212978101,-18.12117870397075,-17.850187156736606
1059,-15.592124931727678,-16.290058540293902,-18.154642851814838,-17.627794703682625
1060,-15.213993210012841,-16.190762511871455,-18.06885843127073,-17.38035404431788
1061,-14.73074621447063,-16.076804947870333,-17.824791727107804,-17.082045137326983
1062,-14.397792764926976,-15.94232355690893,-17.45378601456036,-16.733839745125945
1063,-14.173966560204752,-15.790268540632681,-17.027309475562205,-16.35040824496537
1064,-13.956010958817137,-15.622003399050817,-16.627616945117786,-15.954402147206212
1065,-13.590982407024224,-15.42881950616571,-16.287948980392823,-15.549411425787834
1066,-12.970254360547747,-15.199683703278374,-16.007640739424513,-15.133959492357132
1067,-12.382355141254852,-14.92540738402353,-15.776679180443498,-14.71559400040913
1068,-12.108007950250625,-14.601738397910433,-15.55391863276893,-14.299033646942778
1069,-11.839161233255656,-14.234249355693771,-15.300405349443674,-13.879355346006657
1070,-11.228521176153876,-13.834466242044467,-14.961463004552904,-13.448211858240521
1071,-10.444575187283458,-13.419093438193547,-14.499535901758414,-12.996888377686737
1072,-9.741573612211251,-13.002530133512892,-13.93574914804281,-12.517734633806764
1073,-9.191914108458983,-12.57949271823019,-13.327447569483958,-12.003341143850722
1074,-8.801981863179586,-12.148258744428913,-12.706968498642949,-11.451303663104959
1075,-8.386322735185225,-11.71057092748749,-12.083638720734916,-10.876038905999803
1076,-7.7563242672661765,-11.281328127901705,-11.451655966653798,-10.288453500903167
1077,-7.111380973595293,-10.854574534842811,-10.82704758446462,-9.670904980528924
1078,-6.678859493204548,-10.398548751513546,-10.221851969094638,-9.00318971114742
1079,-6.27619955424337,-9.892720869593134,-9.626398348508019,-8.282333838174633
1080,-5.6898595026034124,-9.341365310796693,-9.02213015146219,-7.518363389404088
1081,-4.989940745261823,-8.754226953374756,-8.378944175932018,-6.741142647872922
1082,-4.29749946128276,-8.147114208917584,-7.675658525688524,-5.978552395581294
1083,-3.714012716760734,-7.522835135939813,-6.930753570636152,-5.23120572318252
1084,-3.2688660678232306,-6.909801743504782,-6.211015417436835,-4.519336938751889
1085,-2.7688426014875893,-6.372522813436334,-5.632258062013067,-3.8891809660285133
1086,-2.0003661773882033,-5.940607652956303,-5.296823495995192,-3.3391282208118587
1087,-1.2695077462454372,-5.602487963206587,-5.141750040174191,-2.8185520996170044
1088,-0.9245934220123335,-5.336585301459122,-4.992291535874196,-2.302162570396223
1089,-0.7278842839596078,-5.093921551240896,-4.744266112960503,-1.8089495649389362
1090,-0.3518360017711864,-4.839341616327714,-4.400829200644158,-1.3698262833242048
1091,0.14731791831152782,-4.560501046227056,-4.0038968964320585,-0.9392548362489523
1092,0.5915612866279139,-4.220770481676105,-3.592744374048824,-0.5452869738078786
1093,0.9544611207717366,-3.872955305780418,-3.279859959346577,-0.1124520383324174
1094,1.1742048755533308,-3.519907487415907,-3.0356873070330277,0.3294489559949328
1095,1.4362849963955935,-3.1745142834002946,-2.837281491640488,0.7651154609630889
1096,1.94552253327238,-2.8617725942210326,-2.659820248670505,1.1843534414757226
1097,2.480797913521506,-2.589800749272019,-2.4693428905380554,1.585030323048024
1098,2.7642232642957167,-2.3410223937829384,-2.253309643204092,1.9730296654981878
1099,2.9568268509644713,-2.095332713920847,-2.0167889578202614,2.3500825366617724
1100,3.295454560944852,-1.8464129426312306,-1.7857556946223525,2.7179545942178023
1101,3.761895356946098,-1.5964802717774567,-1.560203020606248,3.0852958520885796
1102,4.264307838718123,-1.3572871522683985,-1.3016982194067135,3.460799753865094
1103,4.620248982656812,-1.1405102704689727,-0.9972221245663208,3.8474772105440422
1104,4.674705039025769,-0.9523713450472358,-0.6869385533369798,4.245027005916348
1105,4.705637435301372,-0.7827455351179631,-0.4196003866391451,4.651294229091578
1106,5.046015750603712,-0.6161635584589331,-0.1947970226664644,5.061586688189818
1107,5.463578331174654,-0.4480572396288036,0.05237101320936745,5.4691702132840625
1108,5.624230295614067,-0.2775108229853125,0.38569364123437316,5.866868589121951
1109,5.633614168586246,-0.10532323025027564,0.7996479810138213,6.248924147373962
1110,5.689805728436381,0.06919489512922564,1.2221806078581394,6.610774370676897
1111,5.851936103065585,0.2629856004635676,1.5868849532141946,6.947866696021679
1112,6.130216125936421,0.49194917900314133,1.884899480631923,7.2577817611714135
1113,6.334703995925217,0.7460436954941213,2.1397825181425705,7.541655075101108
1114,6.262069772875061,1.004487664044252,2.4010175872260504,7.802392874870001
1115,6.131440595892892,1.251508003693729,2.6888565191915474,8.04469039248989
1116,6.233134930410803,1.474991089516679,2.9990969295182524,8.270161481452968
1117,6.4292480249570305,1.6673198267578582,3.3088867489182117,8.472263469782648
1118,6.500833571964063,1.8293564170991377,3.584379025187225,8.640951624898166
1119,6.485815169264973,1.9777523946152622,3.797434193993937,8.76096454685125
1120,6.479426845101148,2.127777468437881,3.9365646958237446,8.822369318033537
1121,6.581527453621373,2.2690202791375915,4.0220070306598315,8.84625561908751
1122,6.867823120057321,2.384605778104613,4.088172104500527,8.85224300474261
1123,7.154506472927693,2.4683673247442983,4.15668645342793,8.847783767842646
1124,7.222318672286862,2.5254076806887276,4.2416285398014635,8.817276372918968
1125,7.213101509149473,2.584621732462422,4.351457419401693,8.758127542344289
1126,7.336357077424864,2.673784915174624,4.4883686840670745,8.692312764506383
1127,7.512493118982181,2.818358840271087,4.653129602150939,8.63646801045555
1128,7.60706063302108,3.0128700018185097,4.840190218953424,8.574523619673393
1129,7.595542206817418,3.22278846712529,5.047702581086826,8.489045974482567
1130,7.48763636174123,3.425205962043949,5.262342423057344,8.361068314548467
1131,7.422260593403263,3.6209243274397225,5.4111037119237375,8.209637655530662
1132,7.537404965201143,3.806349112334526,5.439486003751728,8.06245814779558
1133,7.6326526042976015,3.971077989316955,5.358248077198138,7.910489611985906
1134,7.471605422564737,4.102755622823786,5.239291563051988,7.742861265502841
1135,7.240223276179962,4.198537833576446,5.130132112378755,7.54291108203726
1136,7.193485840540464,4.259248596344403,5.0238395795434885,7.3242375012804795
1137,7.2829703747367835,4.288786923654398,4.902828509659989,7.108093953679563
1138,7.3793247583994805,4.292780944551504,4.748450492396933,6.919820500218394
1139,7.343346352759079,4.268094905590905,4.570569792562948,6.756879775112399
1140,7.071580087188374,4.214618706769102,4.413599484063359,6.6047692737270305
1141,6.812498472834562,4.154909216148034,4.320856808354484,6.46438632914211
1142,6.84895929177773,4.1153981894620655,4.287115523049052,6.335438568339826
1143,6.916948241384692,4.1049238781426025,4.286082341373576,6.197381044763278
1144,6.670053603350584,4.121615464628224,4.2715138812095885,6.031542474008258
1145,6.266756856353323,4.157532533762041,4.21829348189533,5.840560413445912
1146,5.970960370796041,4.19815075836335,4.114663731049259,5.638086525481697
1147,5.832825364698751,4.225791841707174,3.943654956715553,5.443303708470342
1148,5.8268460042244845,4.226542896418606,3.710084362747451,5.273747489113333
1149,5.747656622695579,4.196009879213198,3.430182203365526,5.132138216056668
1150,5.380592825767282,4.136113213615846,3.1548741850960176,5.007752828720747
1151,4.954407560012619,4.05440324355134,2.9187765565631865,4.87926892128459
1152,-5.396989856178545,-11.17351565180363,-11.211286661923932,-8.441515579990845
1153,-5.446850492868198,-11.539728547119042,-11.436829748953132,-8.685788533300173
1154,-5.603819610217655,-11.933242045469155,-11.668346162448413,-8.886314877816693
1155,-5.960885674148707,-12.342535518232891,-11.915023386418628,-9.083785637728559
1156,-6.544127551309092,-12.75087569612915,-12.179962739410861,-9.314285248891933
1157,-7.132638251541532,-13.145956217566427,-12.46231543394606,-9.5809683186453
1158,-7.498396989802081,-13.522419574918334,-12.75582117471544,-9.860315827784287
1159,-7.826530972628942,-13.88812414608184,-13.05242970460783,-10.144817931790108
1160,-8.344262306826856,-14.254051882305514,-13.346276208253531,-10.457425285856155
1161,-8.897086704784675,-14.623039308251782,-13.632392548726413,-10.81344443187019
1162,-9.29954032491468,-14.990034586066576,-13.912585565423704,-11.223326763348418
1163,-9.6070817363525,-15.341042587739548,-14.204824776344447,-11.66119194639285
1164,-9.915136854569331,-15.66088926009198,-14.523167941539448,-12.093833636940989
1165,-10.319648493490671,-15.93868547056534,-14.859193985756347,-12.515318938782078
1166,-10.880948526959276,-16.175594889653826,-15.188879303573732,-12.932336836551567
1167,-11.40685103604793,-16.397631001286914,-15.476176977487105,-13.355422917689497
1168,-11.708009143798945,-16.632880456652835,-15.68629579158921,-13.794155223171309
1169,-11.98281649756871,-16.88845688500378,-15.804066095246043,-14.249579909673207
1170,-12.454670056906915,-17.15750962316627,-15.83821394650431,-14.701350402587627
1171,-12.99310624248987,-17.417249120603113,-15.814426199899906,-15.127839123285463
1172,-13.421895500929585,-17.643355487257125,-15.777448602764245,-15.491821991797615
1173,-13.71679905818658,-17.8367535039586,-15.806245136957019,-15.763226651190084
1174,-13.906254037876648,-18.004428726009543,-15.959437563192626,-15.962671759977157
1175,-14.160200102398324,-18.13713891073064,-16.209627423972403,-16.12724835280426
1176,-14.626563903928524,-18.22651449475294,-16.497897637281916,-16.301604678924488
1177,-15.08704461395147,-18.27418200292627,-16.788955208669147,-16.507506217901728
1178,-15.306394433404417,-18.287576878141625,-17.0527969967715,-16.746031050093922
1179,-15.467543041020875,-18.284448335047767,-17.265540302131765,-16.995347233932904
1180,-15.789409499613637,-18.281526330630175,-17.41611245438442,-17.228966595511924
1181,-16.202730890535374,-18.2789980231551,-17.491029502834508,-17.44370629621472
1182,-16.582155976037953,-18.267550988936307,-17.489002755614063,-17.643446306946863
1183,-16.79332889567604,-18.236270592299796,-17.443514253199854,-17.825581461213986
1184,-16.752486707478397,-18.17157137001163,-17.392245375881977,-17.98370223127132
1185,-16.724116620956554,-18.05836392512684,-17.34743627420864,-18.09888965837356
1186,-16.963813853869603,-17.888493148887445,-17.310241386767707,-18.153962972161544
1187,-17.177802855046103,-17.66532407531105,-17.2755984278799,-18.15367149402646
1188,-17.042983652613515,-17.400700346119706,-17.23456981235649,-18.11224599680697
1189,-16.75988775379744,-17.116478105141766,-17.19297073026133,-18.04059351220664
1190,-16.59916835384795,-16.831000740820627,-17.153737054365187,-17.94758802609026
1191,-16.584606506591506,-16.54064792632079,-17.089389929018175,-17.843194511057717
1192,-16.665423873675742,-16.23492777768901,-16.97319069254745,-17.727396880218947
1193,-16.65208268190335,-15.911523857351744,-16.81017324425347,-17.573517135096218
1194,-16.371860140229657,-15.570757983741457,-16.61776753325376,-17.35783088669457
1195,-16.05095939050524,-15.216445756145678,-16.408064335773833,-17.092656702729506
1196,-15.943314098067928,-14.85239849190651,-16.193368069963576,-16.801724875813154
1197,-15.839476325152754,-14.474751731573484,-15.995477602905144,-16.504093331254985
1198,-15.501898470431327,-14.077947566197752,-15.821242343997577,-16.214877334946333
1199,-15.069981151151245,-13.657501467028158,-15.629140548729975,-15.923325720177559
1200,-14.732127185875754,-13.213932954970403,-15.375681543481083,-15.623528026497747
1201,-14.55415539516214,-12.762630318397235,-15.067098910943601,-15.332520922565545
1202,-14.537491831233332,-12.31928106506961,-14.723399240890485,-15.077255185459098
1203,-14.465811651028268,-11.88092317853429,-14.35260350168091,-14.842173131929586
1204,-14.130986332747716,-11.436414277591412,-13.960577848569224,-14.573141200011962
1205,-13.735631894589043,-10.980247903556872,-13.536407908622149,-14.2421958967483
1206,-13.5181379492212,-10.502444608787798,-13.070420931647119,-13.860083042825675
1207,-13.319073656357617,-9.977382452815274,-12.591548090677334,-13.43790333899531
1208,-12.94445317518951,-9.386654720343024,-12.122656228900643,-12.967819073007606
1209,-12.440815481326712,-8.737863715042115,-11.644095180130158,-12.467021985953917
1210,-11.907874729398257,-8.050789529167847,-11.121623440899311,-11.950187374636704
1211,-11.49728345473647,-7.353942940492119,-10.495670168836535,-11.431606078073974
1212,-11.246961264201515,-6.697810788441445,-9.791666646392239,-10.936991760220447
1213,-10.87460990285387,-6.132998897607556,-9.22351375847129,-10.497042919860704
1214,-10.072794117152439,-5.669271479749658,-8.924650184308785,-10.10771305824788
1215,-9.252993559751411,-5.285640324213829,-8.78763012886643,-9.73574838905028
1216,-8.910626148767872,-4.933923913807725,-8.600117900752092,-9.342555450181829
1217,-8.785195198296343,-4.60255819989761,-8.278028652636022,-8.964709270692987
1218,-8.483577279866953,-4.297650331501295,-7.818253441593323,-8.652971226604555
1219,-8.0584871211954,-4.0177935392277595,-7.284653786271763,-8.400578584996673
1220,-7.577223061087885,-3.6645324471181797,-6.750842499333248,-8.103479789812615
1221,-7.227110710672724,-3.3310631179097823,-6.289414972270756,-7.807331303088206
1222,-7.103560232149158,-3.000928610041638,-5.9070913068828,-7.474042410111917
1223,-6.9384728988024165,-2.6684082277701204,-5.628715294455076,-7.08275716497639
1224,-6.428184526988259,-2.3325832062149456,-5.451799929261807,-6.634230222288302
1225,-5.8107104316985545,-1.995104104903213,-5.272714348280682,-6.156610657488736
1226,-5.417896120517149,-1.6576196524500846,-4.9845313916668035,-5.685606204987501
1227,-5.122259023531259,-1.3148801698861603,-4.586239213549583,-5.241774947271881
1228,-4.705087133097539,-0.9592312428542862,-4.133565203435283,-4.828844428393263
1229,-4.136880882975463,-0.5826376420328115,-3.7074024099633536,-4.419871414815878
1230,-3.450603436481358,-0.18412389749127694,-3.3826156168804276,-3.9838432819728347
1231,-2.8479502041545808,0.21669783992018352,-3.169081123286712,-3.532371543198367
1232,-2.532949661605368,0.5935861980731149,-3.0246287969461583,-3.0915649674184107
1233,-2.278849329043999,0.9309225990412694,-2.8597908049722176,-2.6672943013695685
1234,-1.7865341291124346,1.2225033369470462,-2.593028172364303,-2.259887639796809
1235,-1.2255693702918675,1.4733879186632157,-2.244480296839707,-1.8703224383681691
1236,-0.8484732257551849,1.6971801536058466,-1.878541837770579,-1.4958581317903499
1237,-0.5793239212274933,1.9081728487515124,-1.5376276896871333,-1.1345879716205325
1238,-0.2775064641574991,2.118661821040145,-1.2509394024602747,-0.7855517158635085
1239,0.1246238246098566,2.3355838458353815,-0.9914453997509771,-0.4469988576872574
1240,0.6565095661689703,2.5594652236240614,-0.717609264224014,-0.11579653819299925
1241,1.1332491262381288,2.7878762110961897,-0.48451439701448057,0.2142518831393487
1242,1.3508730723699316,3.0141492042938354,-0.3186620315732768,0.5508302573368128
1243,1.4850194487822728,3.2230337087328564,-0.2104748855679985,0.9000442131387005
1244,1.78051154690967,3.402036795397755,-0.021544701692485818,1.2651134251322427
1245,2.133923565690369,3.5541151879042916,0.2711269160363605,1.6484666743738445
1246,2.378116497906869,3.6906551034860455,0.6583152615185098,2.0470095697940485
1247,2.5324362600870742,3.8270881011818214,1.0974229598422955,2.44123392758294
1248,2.6623747915831517,3.9764241367986584,1.5204722004614015,2.8108843090233795
1249,2.890051942635051,4.13499251491527,1.8880165252575645,3.1570613494167175
1250,3.31972893757918,4.291430531078502,2.1870778825757244,3.487250914271343
1251,3.767992187189329,4.441406049618859,2.404381928632723,3.801124893872508
1252,4.010370499617976,4.58096205284934,2.5515363005052256,4.0947402870889364
1253,4.179164102884371,4.701553860979687,2.699089876072495,4.356364366537756
1254,4.473221355905122,4.7950661509159085,2.916358233927156,4.5757210899360325
1255,4.83754934316397,4.85509904147478,3.204304427503988,4.759510557838107
1256,5.162903589392594,4.8790486895129845,3.525860308689143,4.92418847963713
1257,5.36921665658558,4.870596187328954,3.8293617350476823,5.087839065371711
1258,5.405816561163386,4.838508051792115,4.067380055056261,5.264213765432581
1259,5.476960028806665,4.798103737872641,4.228315305556897,5.459495454579088
1260,5.794684459599112,4.762493942151581,4.33283346859322,5.665292474767496
1261,6.085382125745129,4.729772019581289,4.44413949368021,5.842592988805648
1262,6.018037330886493,4.691694702655817,4.617896024497265,5.9611858010767875
1263,5.78116423333276,4.6422282601518114,4.816932211932279,6.001182641225814
1264,5.67020951633071,4.57757201881677,4.9750253722004265,5.985575774924362
1265,5.715481617729388,4.5031741888814665,5.073398970515623,5.970010751263256
1266,5.8576712337546715,4.425379608085056,5.116906881987859,5.9794047365830725
1267,5.894822991644882,4.336947486184754,5.134533021613056,6.007415272383466
1268,5.627049590804236,4.226942938058065,5.162768026521213,6.0270202821478644
1269,5.309464176097367,4.090198097891596,5.200478257236533,6.032789336859507
1270,5.264454243522305,3.9274495203152417,5.227659578732847,6.0230285130626795
1271,5.260633554685236,3.7487324090728875,5.227609029692364,5.987018859825258
1272,4.978864738114309,3.5693414272469397,5.188251105268707,5.914138512316201
1273,4.530744834265035,3.4052498174773276,5.117648150058662,5.782008492281936
1274,4.127649623825368,3.266346466384582,5.034778613748215,5.575276226988169
1275,3.885555567379409,3.1466523277889165,4.950778304183091,5.32957837135524
1276,3.865952873107097,3.033019067181485,4.871983159707535,5.082253853633161
1277,3.8695143676118233,2.914525052529284,4.801300086013494,4.841304558432368
1278,3.6526480584840653,2.7857928222903587,4.735971705108955,4.586776130338112
1279,3.3798443351719256,2.65488674614018,4.670544913301749,4.312397187446355
1280,-12.070145236874293,-11.068920144937652,-11.9624057825432,-13.295168330217942
1281,-12.112655752579743,-11.323250127873795,-12.26298545674807,-13.553779887493821
1282,-12.153197967779654,-11.543967851598586,-12.686768890868377,-13.761969153152995
1283,-12.26209942715142,-11.750114131970934,-13.155722438554156,-13.944615052690814
1284,-12.473079444240815,-11.961401083207527,-13.567098551949787,-14.122244028046946
1285,-12.616970939142755,-12.178545842582265,-13.848501740786388,-14.286272080265823
1286,-12.534025878909931,-12.394210615020006,-13.977593316827619,-14.419288722862166
1287,-12.465600897703712,-12.608660248529775,-14.034613226881717,-14.539555151906436
1288,-12.664800524964138,-12.81989269391464,-14.12191733097653,-14.664651507816886
1289,-12.947203622065421,-13.00905309675447,-14.266972743641977,-14.766645586531723
1290,-13.078758972399198,-13.16409623090604,-14.456752206116573,-14.820075697901306
1291,-13.079414286383244,-13.308064607947882,-14.652838873096218,-14.844981131407842
1292,-13.034860746613212,-13.465654860043653,-14.814671683797155,-14.872053482121048
1293,-13.095131942067033,-13.633872604262624,-14.942909238519382,-14.92092974208128
1294,-13.37738078784501,-13.799900643933261,-15.065532731812928,-15.002122637397495
1295,-13.672239598810473,-13.941716590722006,-15.233909363239123,-15.105895025110945
1296,-13.749409114640502,-14.046138908774795,-15.483779567527733,-15.213325279619896
1297,-13.774631452864012,-14.144797385365097,-15.776467633114232,-15.309857971402748
1298,-13.95178087444002,-14.274785082327206,-16.047380515651213,-15.387958111065942
1299,-14.187013095228497,-14.43720858068506,-16.2564493167511,-15.460689901328037
1300,-14.350421249851706,-14.618026670657637,-16.379969409281657,-15.542251599329095
1301,-14.393396967358255,-14.794149858799619,-16.422189310757506,-15.615960612596538
1302,-14.311396419793565,-14.945394110433956,-16.40879005873429,-15.664113910511736
1303,-14.314763853246184,-15.082216327034036,-16.353742970649577,-15.69715958131164
1304,-14.582123508574542,-15.22364865486132,-16.278604948007672,-15.729517369773946
1305,-14.829069178239775,-15.373147254997749,-16.246214959038458,-15.771029972220312
1306,-14.751430512378507,-15.526038902029644,-16.303972804205372,-15.81987740113295
1307,-14.53881847678885,-15.667967710015812,-16.424991912646544,-15.837089554742105
1308,-14.440774584520168,-15.78202687715829,-16.554695141482675,-15.782833422784828
1309,-14.429176063158803,-15.863671785044216,-16.65397426306934,-15.66256480238514
1310,-14.412689603691119,-15.91433154547299,-16.687668087582505,-15.499038208144006
1311,-14.222168822830199,-15.93427408269847,-16.62538162552196,-15.303930587861652
1312,-13.738903833491953,-15.924886495418194,-16.45724442002365,-15.091143479629576
1313,-13.272680931530951,-15.888407187460995,-16.198572373291498,-14.887490567730804
1314,-13.140626966652336,-15.82494381846023,-15.882172737355123,-14.708201064653373
1315,-13.096072310913847,-15.732121981825205,-15.544787642901966,-14.532879722812847
1316,-12.830753629435264,-15.608217633364099,-15.22179685073213,-14.336623606372275
1317,-12.460249885999774,-15.450494029048382,-14.958066218145575,-14.115467164089294
1318,-12.161169922876702,-15.262343913559793,-14.770354869961821,-13.875717602550509
1319,-11.975270485353903,-15.06581736824599,-14.596049730973974,-13.6407352340332
1320,-11.900462604917195,-14.881553314464352,-14.362471487771792,-13.42657303332472
1321,-11.752476648423542,-14.708053490568522,-14.058768629649583,-13.201598344190614
1322,-11.363956798439972,-14.533526825684092,-13.702518402116267,-12.926055785364412
1323,-10.972000673123812,-14.341611528337454,-13.320906109115429,-12.59210107018914
1324,-10.835736570118938,-14.11744634883072,-12.946794934174536,-12.207704966237225
1325,-10.7795698170564,-13.86328319555524,-12.593565684459703,-11.792080790439986
1326,-10.57966011821668,-13.586989793507389,-12.258866868303736,-11.36936889320015
1327,-10.286365055187382,-13.285033833534081,-11.940035534654472,-10.951493280923028
1328,-9.997869187542546,-12.954341836989805,-11.625627273050005,-10.540278109292737
1329,-9.800525737157725,-12.602988754229688,-11.284468024001855,-10.13090894700112
1330,-9.743494307420073,-12.239059346960499,-10.893091469471143,-9.713586516363453
1331,-9.627434401941905,-11.86423366326592,-10.462384433647662,-9.278095834823603
1332,-9.252998027404457,-11.478347503367708,-10.0150760250982,-8.814824842860375
1333,-8.78475672098218,-11.076632498364507,-9.571085580588358,-8.316622574474588
1334,-8.424951741729474,-10.656609856208862,-9.14239635179015,-7.773596438139433
1335,-8.090651390978666,-10.232156695192273,-8.71208849701483,-7.167358707521811
1336,-7.645205860838841,-9.815344370276113,-8.25822588229762,-6.475808565193354
1337,-7.01727229974752,-9.397141032268392,-7.789106958947638,-5.672541253039705
1338,-6.154464889230272,-8.961155663034567,-7.316525131472971,-4.734805717383392
1339,-5.14988034706007,-8.492094469346883,-6.831340324649686,-3.6568046180951925
1340,-4.046977626807679,-8.00901145045465,-6.370142147661751,-2.430569337919919
1341,-2.572393607263815,-7.578066818457942,-6.0291853230739445,-1.0710474890764095
1342,-0.478606720013824,-7.234659763353415,-5.825147367884924,0.4175107214626065
1343,1.769211918617476,-6.956042457237764,-5.698460982726898,2.060631127046541
1344,3.627730587354117,-6.7161492285687565,-5.540154114815728,3.865035407102567
1345,5.2941288623796385,-6.4991075467922315,-5.34960092026403,5.767564558744393
1346,7.095501890607172,-6.299473643439202,-5.138861393424629,7.671201005872846
1347,8.929033833827162,-6.103909723181845,-4.920380521735141,9.47044695213387
1348,8.108131561863216,-5.774128350094229,-4.230829977679602,8.527592071021386
1349,7.171676192999514,-5.455201362967561,-3.615939553095905,7.585439394550466
1350,5.965884550501709,-5.152913006753856,-3.1468856471408952,6.649312949671467
1351,4.759205574536051,-4.86080638266254,-2.8151785358377905,5.732477622052812
1352,3.8752330856032766,-4.572051990212434,-2.5597640004713256,4.847660494402217
1353,3.0777598610848758,-4.306768257980867,-2.2554529550988986,3.9858657620376494
1354,2.0329067443180384,-4.074017574931648,-1.7947006664633676,3.1329105286654144
1355,0.8450499202826794,-3.866032640645848,-1.2222309835491503,2.2826435843030874
1356,-0.28326957621463766,-3.6451552201555217,-0.6451342180161509,1.4348699540556114
1357,-1.2685840581371226,-3.374486391654649,-0.13565656099880957,0.6125655090218716
1358,-2.0787511555939617,-3.0589286485597866,0.26609348978855574,-0.16642699508130399
1359,-2.9098659583234934,-2.726441565804962,0.6050654140414015,-0.9397574831434616
1360,-3.9856450315686685,-2.4179372120487557,0.95548403405271,-1.757164013622881
1361,-5.112961890572864,-2.1444196825297217,1.3106942052411665,-2.628541576424254
1362,-6.0223845188324505,-1.9001811764778984,1.6355602253505406,-3.544291720396438
1363,-6.847151987543175,-1.67883048387958,1.9219226471476651,-4.48435715861699
1364,-7.78758781151721,-1.4706462955192543,2.1670818696069825,-5.419945559739413
1365,-8.787235613132918,-1.2700396350637597,2.3818914621583174,-6.339004059477499
1366,-9.740899155489164,-1.0762922507975325,2.5882084356479016,-7.2358063394843315
1367,-10.557383343208066,-0.8875080899390605,2.786475278162273,-8.079820663578241
1368,-11.181985548670642,-0.7032060306643515,2.976806443957786,-8.849253546701583
1369,-11.837124940907552,-0.5283608231422725,3.196313127045004,-9.575391800609742
1370,-12.766797490874117,-0.36639619740070317,3.476137984062297,-10.300691544887961
1371,-13.78083974502975,-0.21137212927049331,3.800435573336683,-11.03804076739671
1372,-14.602862541295469,-0.05413385689705831,4.1274797069095746,-11.781817659565153
1373,-15.303627520456912,0.11214176793676736,4.397121494230283,-12.501917268211617
1374,-16.0250309457536,0.2909927346580239,4.562718149804705,-13.1614777233291
1375,-16.780418979744884,0.47878983318725793,4.630818502641957,-13.759954377252813
1376,-17.547885561928826,0.6678659882026956,4.6518305165792935,-14.312701119541934
1377,-18.167443621645283,0.8519548846459651,4.725346047601457,-14.813049860370704
1378,-18.488918265581997,1.0261691976131295,4.941596273039454,-15.262382752266808
1379,-18.741711587511443,1.1872286908394176,5.294805469703029,-15.70313034380459
1380,-19.210741278254776,1.3332402427934,5.726766261998905,-16.18036695116568
1381,-19.76069782877968,1.465442344098626,6.170646025540605,-16.71086724906696
1382,-20.170492088868855,1.5848192994719104,6.562866609703402,-17.286271475698094
1383,-20.474075805078805,1.6813804931934082,6.896545608286766,-17.86096338789029
1384,-20.75801243284322,1.7483625125393443,7.188390438497292,-18.378535735829285
1385,-21.11344816142727,1.8036473624398128,7.408170526401581,-18.815247982453236
1386,-21.60608595292945,1.8704205160367302,7.527896887913736,-19.170687079919038
1387,-21.990808983056937,1.957719244065748,7.57502958504846,-19.454502737248152
1388,-22.011143689015466,2.0654439688024073,7.59556888085882,-19.690136461074815
1389,-21.95120028181136,2.1803024926048593,7.6273596096646274,-19.911096645530854
1390,-22.175495019220502,2.2861256629211772,7.699402131723536,-20.14470504791918
1391,-22.534480160114757,2.385734391125615,7.823376565777428,-20.399619631779114
1392,-22.76577059318301,2.488801327135012,7.987458573358812,-20.66782733088357
1393,-22.83511851383784,2.5957687897156143,8.145373573635498,-20.92111457540213
1394,-22.77617309746783,2.705480294883125,8.246165763713645,-21.126206156152925
1395,-22.761516928714936,2.817621396701332,8.2872816151341,-21.279967520097703
1396,-22.96677866006891,2.9305062519483775,8.282991134820177,-21.389478756003044
1397,-23.149990215043278,3.047059290492188,8.211994681707756,-21.424530742003505
1398,-23.014557027813353,3.1673890149351216,8.064665038895866,-21.365758082098388
1399,-22.77644696431318,3.276326406158051,7.885116255373398,-21.276393987463422
1400,-22.744274825683263,3.356251738206369,7.734526880770179,-21.230428659329032
1401,-22.85657844518517,3.3988695998856557,7.680511301202682,-21.229065205573406
1402,-22.965736296292107,3.404693069332778,7.758595326255582,-21.246113919405065
1403,-22.996124917213137,3.38966172145317,7.908212766869368,-21.261078176333037
1404,-22.899184809969828,3.3735180303510317,8.029866639905226,-21.254234571089096
1405,-22.839707094125327,3.3588205739294694,8.03944476543205,-21.23398716146658
1406,-23.001259878914265,3.3396876839403546,7.893629585783335,-21.219795766116135
1407,-23.16123669970134,3.3173801086102825,7.654912211097104,-21.19553524102836
1408,-31.744910021115807,-11.714553497340026,-5.155738854821484,-32.214956090241756
1409,-30.737686820142205,-12.066107959006604,-5.58014066015268,-31.34299623220022
1410,-29.69608547382786,-12.387086825687996,-6.048335879343577,-30.42889156227391
1411,-28.719903413170726,-12.675990574725292,-6.5342579755060175,-29.47903722185037
1412,-27.873969662082438,-12.939390320823312,-7.002674144011277,-28.50240448882218
1413,-26.952745946429726,-13.17861073149281,-7.482189707528504,-27.48941096812051
1414,-25.749737882584057,-13.398453430130035,-8.010465084936117,-26.419085375839586
1415,-24.4598452584358,-13.620097098675132,-8.622169394302174,-25.27868770903709
1416,-23.31233338654355,-13.848669930902396,-9.330125804095886,-24.072342758781144
1417,-22.194696172830902,-14.082217012104449,-10.078411565269956,-22.800556776599528
1418,-20.946462629396933,-14.292701942945921,-10.791640518789007,-21.45257160899687
1419,-19.540161053104924,-14.474159805489789,-11.424896617299192,-20.031477798270526
1420,-17.986604331508435,-14.66366549975717,-11.963624833646184,-18.557379426304557
1421,-16.426944665820667,-14.869238841986057,-12.438481398806497,-17.045098225986013
1422,-14.983804857254336,-15.091531252852219,-12.898957164619933,-15.49272215916636
1423,-13.430876823509807,-15.304428066300352,-13.37887733861938,-13.89583179517634
1424,-11.548495034366402,-15.476957847406856,-13.891473632593986,-12.256198350512836
1425,-9.568152220311969,-15.608597915496256,-14.416324651790713,-10.595020795453467
1426,-7.765405376919125,-15.710588546389152,-14.923153926200147,-8.946736664924314
1427,-6.1066238713852465,-15.7916322031873,-15.40516525604607,-7.337934479338542
1428,-4.482063632573628,-15.859240385847627,-15.874730471719351,-5.773018168107011
1429,-2.7549103246900954,-15.90867249174101,-16.3504650377242,-4.223575863648899
1430,-0.8216248513768621,-15.932512552093133,-16.85868680015536,-2.640600031651161
1431,1.0880878447326625,-15.937864619607291,-17.456405399689213,-0.9946279509189717
1432,2.746809276616373,-15.935173888989478,-18.167681069554263,0.7120443391982305
1433,4.447719170536108,-15.925250038233324,-18.890773689210377,2.4686289494238847
1434,6.499030921993457,-15.910360751982626,-19.511566406543206,4.269506981237946
1435,8.682014849400773,-15.903034695603745,-20.029023299847204,6.098907026985198
1436,10.71350268649376,-15.912793852774662,-20.47444933707979,7.926059295958805
1437,12.576362343420211,-15.940265896930836,-20.859270593459538,9.724742077218279
1438,14.334259658408321,-15.97702584608134,-21.196665105235297,11.492039389820699
1439,16.19208147529795,-15.994981046633644,-21.466520318879404,13.251051827283874
1440,18.321273323650793,-15.969095618529613,-21.659689843574895,15.033615911936405
1441,20.44256187714765,-15.907660380647414,-21.860478871914637,16.855134844408763
1442,22.247788880772895,-15.827183166209029,-22.153779333378584,18.700141132265642
1443,23.94612964583815,-15.730239211918697,-22.531974493898275,20.536839993881003
1444,25.801678268152266,-15.614123937927513,-22.946511951701073,22.346249689180752
1445,27.70935390620495,-15.466816597847854,-23.335542475132314,24.122359100930836
1446,29.51521157836006,-15.277361583517962,-23.631847134443912,25.866529639089975
1447,31.17435443751091,-15.056960351653673,-23.809185250306935,27.565176500472493
1448,32.68261091805911,-14.820679673824156,-23.867261330654593,29.209796768200817
1449,34.21246610934438,-14.567922320639378,-23.7825770669853,30.80153028995123
1450,35.927057869649516,-14.292791858979344,-23.567009971749645,32.358541273528125
1451,37.62892288072494,-13.989777892643414,-23.332302821737134,33.91181180498655
1452,39.0999211346578,-13.652974821641319,-23.19588409860101,35.48771476367499
1453,40.505238675003795,-13.279270114615317,-23.201412145878958,37.088720285021985
1454,42.04270014066867,-12.87044832496743,-23.33160403160657,38.69655794635104
1455,43.654933603307256,-12.43416212760057,-23.50959610306392,40.28639345394553
1456,45.23364941240306,-11.978973884150264,-23.631953614801514,41.835217474591516
1457,46.66329786243473,-11.511642898249576,-23.59208669830726,43.319336812952436
1458,47.869314322726304,-11.035374649797681,-23.34143707586401,44.72479544957999
1459,49.05315036022133,-10.542195423877805,-22.983520570948386,46.0748157493846
1460,50.42029840453652,-10.0279405086257,-22.648696085212528,47.424791078377766
1461,51.785159888663124,-9.508623953477946,-22.351481741541193,48.81304248389927
1462,52.93197246786462,-9.003271680830427,-22.06417846702896,50.22791712195885
1463,53.966845530094325,-8.527547101082439,-21.757178445595027,51.62885833479519
1464,55.049625095537436,-8.082319101787311,-21.403696187897594,52.99460536810918
1465,56.26581455577793,-7.6259439728519665,-21.03780667856239,54.332894170491514
1466,57.647317214791784,-7.114931333610645,-20.707821874511566,55.65052509312534
1467,58.988151737649346,-6.553140455856631,-20.39930569012437,56.94726962268582
1468,59.78191409402693,-5.981383144895615,-20.054586044336897,57.93443213625762
1469,59.981806797606104,-5.441183971956296,-19.67143829340333,58.01687080699534
1470,59.43675359702546,-4.978618439920389,-19.231106753261688,56.94365658174643
1471,57.90491817343075,-4.594845555788496,-18.744939958012928,54.97181665377782
1472,55.37694495375494,-4.261517958976392,-18.243182753678873,52.46398562830453
1473,52.31326492236914,-3.9546274388681684,-17.70893983547057,49.666371912162475
1474,49.21626179444834,-3.653799524317617,-17.112774520956982,46.7070040520742
1475,46.251307421531244,-3.3433175843369978,-16.46465337306901,43.69506717966124
