,TP9,AF7,AF8,TP10
0,-1.7735840678234563e-10,-6.31484016036249e-11,-6.2598100612277e-11,-1.1362898001516858e-10
1,-3.781134593057585e-09,-1.345157253173549e-09,-1.2867263681734077e-09,-2.4402404237248415e-09
2,-4.1596654788585815e-08,-1.5067347902364514e-08,-1.4559905954203025e-08,-2.7012596849424332e-08
3,-3.0217074022684675e-07,-1.1173651582974807e-07,-1.0884316386919853e-07,-1.9756738122711396e-07
4,-1.643068430641306e-06,-6.215361430126305e-07,-6.106950681514669e-07,-1.0821263718392816e-06
5,-7.157740780432613e-06,-2.7746081883895955e-06,-2.7501827124207686e-06,-4.750351457324943e-06
6,-2.6116710414615808e-05,-1.0387669432836852e-05,-1.0384711415765484e-05,-1.7470758801311312e-05
7,-8.238760055561539e-05,-3.3648948530223896e-05,-3.3912765636109223e-05,-5.555851106027843e-05
8,-0.00023015041335276454,-9.654432385816757e-05,-9.802517901463495e-05,-0.00015644995457101044
9,-0.0005801429303343397,-0.00024986898415285864,-0.000255379253422932,-0.00039744530492233197
10,-0.0013396747467084463,-0.0005919446396483753,-0.0006084630408466472,-0.0009245959461944948
11,-0.002869254340910058,-0.0012990436130079417,-0.0013417731366034468,-0.0019938919392284205
12,-0.0057579236491186285,-0.0026671192146516883,-0.0027659786422283466,-0.004026261268023325
13,-0.010918314689580523,-0.005165837107293686,-0.005375074468256513,-0.007676987705974376
14,-0.019701012197585376,-0.009505174110907788,-0.009916700988070985,-0.01391903104456539
15,-0.03402603499892535,-0.016714035069313085,-0.01747484059851055,-0.024138429952821946
16,-0.056527150012630846,-0.028229394176840356,-0.029562951490647776,-0.04023849277507795
17,-0.09070233072590349,-0.04599331636687664,-0.0482242282665128,-0.06474783349406599
18,-0.1410609880700517,-0.0725537858342515,-0.0761340829834245,-0.10092548438691724
19,-0.2132557684761963,-0.11116357044786213,-0.11669819266848977,-0.15285439088612682
20,-0.3141840338975997,-0.16586950499613118,-0.17413770793742764,-0.22551277630225636
21,-0.45204205770655437,-0.2415828250583298,-0.2535516739803142,-0.32481148535854526
22,-0.6363139709498661,-0.34411985280108515,-0.3609456425345931,-0.4575848485845219
23,-0.8776779550478981,-0.4802017483714678,-0.5032151160425102,-0.6315231408366886
24,-1.1878143644482002,-0.6574024423036527,-0.6880731099686609,-0.8550364862464624
25,-1.579104481173639,-0.8840353563668231,-0.9239129032595733,-1.1370430705600276
26,-2.0642143939178013,-1.1689720620356674,-1.2196000104596159,-1.4866786250452035
27,-2.6555657537167696,-1.52138945709714,-1.5841914226061633,-1.9129291097390375
28,-3.3647033941024214,-1.95044615247373,-2.026584962838142,-2.4241940650970304
29,-4.201578428656235,-2.46489332979852,-2.55510682625433,-3.0277938884949096
30,-5.17377391553471,-3.072630148512734,-3.177050652446584,-3.7294399649286754
31,-6.285708040285835,-3.7802186331794636,-3.8981864829722643,-4.532691758118951
32,-7.537856522813715,-4.5923776115367945,-4.722262389055317,-5.438429251406723
33,-8.92604103444106,-5.511479408248937,-5.6505251453582295,-6.444372136203717
34,-10.440833177471157,-6.53707628661309,-6.681288774618664,-7.544678515361632
35,-12.067123474984918,-7.6654857134212655,-7.8095807839135,-8.729655321397154
36,-13.783901435494421,-8.889464051904536,-9.026895136038641,-9.985609926542613
37,-15.56428591120134,-10.197996983860412,-10.321078203154737,-11.294867470886468
38,-17.37583469202107,-11.576231651689186,-11.67636901857185,-12.635971358846104
39,-19.181148919922858,-13.005570187444567,-13.073608179843918,-13.984075504190931
40,-20.93877216508942,-14.46393713113884,-14.490621086711933,-15.311526763350491
41,-22.604366904185355,-15.926224598107908,-15.90277135691839,-16.58862524559567
42,-24.132133865958814,-17.36490945214161,-17.283669924858632,-17.78453951849595
43,-25.476423430074075,-18.75082681002378,-18.60601522926197,-18.868343798938373
44,-26.59347405995207,-20.054074619880115,-19.84253077059421,-19.810135653936612
45,-27.44320156672652,-21.245015466923256,-20.966958813779307,-20.582186089351517
46,-27.99095565974111,-22.29533472672292,-21.955063663164662,-21.16006966558819
47,-28.209157319833974,-23.179109138829794,-22.785595128132027,-21.52372078740828
48,-28.07873233837124,-23.87383712063313,-23.441162782349423,-21.658363739645402
49,-27.59026289886927,-24.361381866606894,-23.908974492434574,-21.555268356523353
50,-26.744790136052675,-24.628780564953342,-24.181398397632083,-21.212290250284667
51,-25.554215765399473,-24.668877879068138,-24.2563158150879,-20.634163971115665
52,-24.041269452529132,-24.48074903319423,-24.13724300788597,-19.832528880411207
53,-22.23902955487235,-24.0698871068207,-23.833211788028486,-18.825680292535196
54,-20.190006924371428,-23.44814003420686,-23.358411811468386,-17.63805185252196
55,-17.94482325791421,-22.63339474452327,-22.73161033921093,-16.29944837600008
56,-15.560535797233518,-21.64901820109303,-21.975377349195885,-14.84406068271477
57,-13.098677997794262,-20.52307710182412,-21.115154400863123,-13.309304584015301
58,-10.62310021533944,-19.287368978255657,-20.178213903271264,-11.734534540619928
59,-8.197704723051014,-17.976306712405652,-19.192560922640457,-10.159688191105902
60,-5.884174860174756,-16.62570550778313,-18.185832089742092,-8.623920778940487
61,-3.7397984981897983,-15.271525694232267,-17.184245447330866,-7.164288490096864
62,-1.8154813015077005,-13.948626212854231,-16.211651324334206,-5.814536993649179
63,-0.15403576754290488,-12.689582227428458,-15.288727815741012,-4.604046228677637
64,-3.368375781151629e-11,-6.238209818350661e-11,-7.291311562454559e-11,-4.6074090389175086e-11
65,-6.154671308840298e-10,-1.2265040076628348e-09,-1.5064867846370425e-09,-9.561072150214443e-10
66,-7.605873413197235e-09,-1.399852488725948e-08,-1.6946840874544443e-08,-1.071642448206766e-08
67,-6.143938531317923e-08,-1.0510921811582339e-07,-1.2590321255285072e-07,-7.963626515783606e-08
68,-3.727423466773626e-07,-5.921336555533196e-07,-7.014701969651349e-07,-4.452342982679839e-07
69,-1.8109012928798166e-06,-2.676175138448217e-06,-3.135187914068002e-06,-2.0030210776428237e-06
70,-7.3475988057324975e-06,-1.0138741686281636e-05,-1.174604609357778e-05,-7.574648502066032e-06
71,-2.56495397737516e-05,-3.321612665367862e-05,-3.8057052650553634e-05,-2.483062870302225e-05
72,-7.878267375720143e-05,-9.632393620010331e-05,-0.0001091566484077752,-7.2197722703829e-05
73,-0.00021672831417037528,-0.0002517887772352443,-0.00028227402344942394,-0.0001895420158426965
74,-0.0005418303371243556,-0.000601980030154759,-0.0006678375659203877,-0.0004557419477163501
75,-0.0012462073494755156,-0.0013321195944532836,-0.0014631067932682476,-0.0010153634676138825
76,-0.0026645822613423184,-0.0027555631961748016,-0.002998020031003439,-0.002116495636881321
77,-0.005344099881449541,-0.005372584989093609,-0.005794298399107491,-0.004161436208881371
78,-0.01013170095882027,-0.009942767782728101,-0.010638156147400926,-0.0077713663793726245
79,-0.018278549375593544,-0.01757009341972605,-0.01866616232994306,-0.013865413686792123
80,-0.031559751586323584,-0.02979873019729579,-0.03146274833267562,-0.02375350224987097
81,-0.05240602467526548,-0.04871625942895948,-0.05116642834528682,-0.03924106016555795
82,-0.08404197069277831,-0.07705957659945209,-0.08057994381981588,-0.06274197396685165
83,-0.13062322038170457,-0.11831692933691121,-0.12327737312739234,-0.09739421915401811
84,-0.19736204851401873,-0.17681762230878148,-0.18369902954767534,-0.14717049861136544
85,-0.2906284202178465,-0.2577990731780028,-0.2672230560985744,-0.2169741894549152
86,-0.4180112743939292,-0.3674395008657993,-0.3802013717187221,-0.31270919007080666
87,-0.588323724552259,-0.5128439353408567,-0.5299472992289944,-0.4413111565705092
88,-0.8115362029527272,-0.7019717807036776,-0.7246629766599975,-0.6107273980873776
89,-1.098623558089754,-0.9434960132097372,-0.9732965582858519,-0.8298335573326794
90,-1.4613156726305772,-1.2465872688662658,-1.2853222140202463,-1.1082772275654773
91,-1.9117460931932624,-1.6206203952464489,-1.6704399331298247,-1.4562418327347106
92,-2.461999244237043,-2.07480620894849,-2.1381970007264823,-1.8841283373249575
93,-3.1235637794203925,-2.6177568239925013,-2.6975385553894125,-2.402157490700323
94,-3.9067071740725994,-3.2569986041114465,-3.3563006132625404,-3.0199011002085117
95,-4.819794331135404,-3.998452192960593,-4.120665029798596,-3.745756921024978
96,-5.86858024674426,-4.84590387899464,-4.994601653604505,-4.586387726562776
97,-7.05551311697975,-5.800496480975975,-5.979327919853998,-5.546150512785786
98,-8.379089073358315,-6.860270687458895,-7.072819790281764,-6.626546101298792
99,-9.833302412407848,-8.019789025965524,-8.26940974551727,-7.825722174276653
100,-11.407235190753884,-9.269874025345947,-9.559507008212739,-9.138063612230116
101,-13.0848270760848,-10.597489382220314,-10.92947201781496,-10.553902687587064
102,-14.844860317756998,-11.985787867426588,-12.361671289642334,-12.059378138914672
103,-16.661185794363007,-13.414342342168098,-13.834730341533009,-13.636466502814857
104,-18.503204566503832,-14.859566861937974,-15.323991775749764,-15.2632014771041
105,-20.33660561049261,-16.295323966836584,-16.802173497937734,-16.914087780234073
106,-22.1243450812262,-17.693702636815015,-18.240209217274856,-18.560705355145366
107,-23.827836574162713,-19.025939901763124,-19.60824066259598,-20.172488473086357
108,-25.408306714919842,-20.263448644682867,-20.876719267416583,-21.717653170791998
109,-26.828257297594007,-21.37890553467487,-22.017565293020965,-23.164236433257262
110,-28.052965203983,-22.347346949915785,-23.00532528384987,-24.481202458511298
111,-29.051945226772315,-23.14721765574295,-23.818265054636118,-25.63956583640974
112,-29.80029918685216,-23.761317147918433,-24.43933559654274,-26.613478925067813
113,-30.27987759817631,-24.177591990316095,-24.856953615322084,-27.38123125707411
114,-30.48018754686246,-24.389729027525565,-25.065546857381104,-27.926112382545924
115,-30.398992053875904,-24.397513693314313,-25.06582657888213,-28.237095885262708
116,-30.042561377823922,-24.20692926727041,-24.864764788253247,-28.309310968378714
117,-29.425554653435427,-23.829986190802522,-24.47527127039687,-28.144278448795934
118,-28.57052993781924,-23.28428468728417,-23.91558371253497,-27.749899589367608
119,-27.50710093373171,-22.59232812166341,-23.208402230928375,-27.140198227772075
120,-26.270778052686275,-21.78061795725747,-22.379815964598507,-26.33482840015981
121,-24.901548800317496,-20.87857301511618,-21.458082959902917,-25.358370422552483
122,-23.44226663790833,-19.91732524936978,-20.472334259242874,-24.23944760920224
123,-21.936927685626912,-18.92845077642849,-19.4512781109014,-23.00970305343894
124,-20.428920280729425,-17.9426979788337,-18.42198003795024,-21.702680895116742
125,-18.95933309467551,-16.988773955718283,-17.40878904847513,-20.352659103173
126,-17.565403154733975,-16.09224651760952,-16.432469879086813,-18.99348099815935
127,-16.27917602667219,-15.274611700986616,-15.509586594039664,-17.6574306649519
128,-1.2549842997194769e-10,-7.819416833721506e-11,-9.709445381522033e-11,-4.8501830642936546e-11
129,-2.5501050379552834e-09,-1.6818810957021366e-09,-2.0258017517933937e-09,-1.0617665581294888e-09
130,-2.7462036555868366e-08,-1.867382824232018e-08,-2.252274115610353e-08,-1.18908645620742e-08
131,-1.9455481936338493e-07,-1.3719717280556094e-07,-1.647343205201914e-07,-8.811341851081976e-08
132,-1.0313493502995228e-06,-7.560090654618043e-07,-9.018525464540131e-07,-4.886009403362191e-07
133,-4.3797957625291775e-06,-3.3432748567155735e-06,-3.954235813056048e-06,-2.169586727746153e-06
134,-1.5585869107211303e-05,-1.2399893920165991e-05,-1.4515348530467176e-05,-8.063263216408385e-06
135,-4.8005467306423624e-05,-3.979563283649912e-05,-4.60435440375862e-05,-2.588477239456262e-05
136,-0.00013116037644288163,-0.0001131362268017938,-0.00012925357181278838,-7.35055998314865e-05
137,-0.000324086825286899,-0.000290173514191036,-0.0003271681731197347,-0.00018813445203472157
138,-0.0007355212855402608,-0.000681351868008151,-0.0007580362234731074,-0.00044059896271773344
139,-0.0015525475579693951,-0.0014823517671700907,-0.0016276169048286338,-0.000955916952344795
140,-0.0030790889132844786,-0.003017993830316468,-0.0032718428691415335,-0.0019411078181694739
141,-0.0057850815543504745,-0.0057982062296303895,-0.006210286965631423,-0.0037208495376392114
142,-0.01036629343705539,-0.010586001003630434,-0.01121016182575106,-0.006781143371344796
143,-0.01781367896483243,-0.018476546459257212,-0.019359732659864484,-0.011820603009835043
144,-0.029490017653209653,-0.03098538363438514,-0.03214895061861478,-0.019808315708009453
145,-0.04721043133173253,-0.050142533782516374,-0.051553806185818604,-0.03204640072552988
146,-0.07332213954736212,-0.07858766159004267,-0.08011942334542317,-0.05023440495157059
147,-0.11077744965943918,-0.11965970147768488,-0.12103540943479224,-0.07653158846678178
148,-0.16319257545792817,-0.17747264719774153,-0.1781956547833443,-0.11361211103388201
149,-0.2348836769591636,-0.25696784276659707,-0.2562338523988725,-0.16470732073210184
150,-0.33087082194289297,-0.36393238741875766,-0.36052568270769897,-0.2336289184741269
151,-0.4568406277034816,-0.5049733881263121,-0.4971490133941351,-0.32476679227335625
152,-0.6190593290042342,-0.687438870955389,-0.6727946902927173,-0.4430557879216441
153,-0.8242300145482352,-0.9192782022059045,-0.8946225574453368,-0.5939065973462727
154,-1.079290768995455,-1.2088378095232897,-1.1700602128884692,-0.7830973072243996
155,-1.3911542704620827,-1.5645917026609857,-1.5065455621786612,-1.0166239584175616
156,-1.7663937333000501,-1.9948105956772162,-1.9112182936734914,-1.3005106935538717
157,-2.2108846121151475,-2.507178092970567,-2.390569705438696,-1.6405826403735944
158,-2.7294159071012722,-3.108367145959078,-2.950064553068591,-2.0422074655629685
159,-3.325288986758906,-3.803594507190994,-3.593752425944185,-2.510014347964663
160,-3.9999252865841206,-4.596174861990288,-4.323889253101351,-3.047601707706296
161,-4.7525067323766415,-5.48709934890666,-5.140591590586572,-3.6572471198360748
162,-5.57967394283756,-6.474664930858843,-6.041547086521298,-4.3396342243321815
163,-6.475306957612023,-7.554181243101954,-7.021803780503195,-5.093612019142048
164,-7.430411253338531,-8.717779901348067,-8.073658558413324,-5.916001678738955
165,-8.433128063656207,-9.95434772444162,-9.186661155910986,-6.801464995212594
166,-9.468882466218025,-11.249599983022954,-10.34774468641727,-7.742446685571264
167,-10.520675483312422,-12.586302870110732,-11.541487014251382,-8.729200137062444
168,-11.569517959160343,-13.944646283358255,-12.750499774503655,-9.749902704585915
169,-12.594994900175125,-15.302759220592712,-13.955933963555843,-10.790862555420404
170,-13.575940088302659,-16.637351214626662,-15.138083361344723,-11.836814496098139
171,-14.491192853021337,-17.924454905874917,-16.277060175362326,-12.871297512523322
172,-15.320402543910971,-19.140237696766597,-17.353511743958276,-13.877102243290148
173,-16.044841936951343,-20.261844994033268,-18.349343309407566,-14.836772611498173
174,-16.648188836081346,-21.268234254661945,-19.248410072299468,-15.733142621175935
175,-17.117235584920664,-22.140958184187454,-20.037142132586844,-16.549887031204474
176,-17.442489012423778,-22.864857112505927,-20.705068567448876,-17.27206330315171
177,-17.61862831353274,-23.42862473611529,-21.245211698779922,-17.886621878203147
178,-17.644795319240227,-23.825217848607796,-21.65432933974958,-18.38286249037648
179,-17.524700273569838,-24.052088996715067,-21.93299108298076,-18.752815919283943
180,-17.266536191396415,-24.11123067397631,-22.08548397244313,-18.991533364283775
181,-16.882705451077094,-24.009030056850868,-22.119552533626315,-19.097269426774595
182,-16.389372644703492,-23.755943691150566,-22.045987428703665,-19.071549339500944
183,-15.805867024691318,-23.366011230037785,-21.87808530110509,-18.91911630510391
184,-15.153965416079963,-22.856235632713318,-21.631009121186644,-18.64776028777267
185,-14.457091674579011,-22.24586360101629,-21.321083158230714,-18.268035029308425
186,-13.739471333166751,-21.555604073472832,-20.96505936304199,-17.792875135289215
187,-13.025279978326225,-20.806824143144997,-20.579392411181225,-17.2371295327622
188,-12.33782144131076,-20.020760854877203,-20.179559024157452,-16.61703123161919
189,-11.698767636632912,-19.21778418607762,-19.77945365345901,-15.949626000809301
190,-11.127486427272768,-18.41674147267191,-19.390887449512963,-15.252184234694926
191,-10.640477713976662,-17.634407050890395,-19.02321096741402,-14.541620889302171
192,1.8924820968529793e-12,-6.4788919529428e-11,-6.893861862244859e-11,-4.0658330486813934e-11
193,9.14871042670066e-12,-1.3150177108672404e-09,-1.4351786115270298e-09,-7.855368929026588e-10
194,-9.915232077103326e-10,-1.4844110472583526e-08,-1.6048203958426562e-08,-9.136376845034367e-09
195,-1.538545640432109e-08,-1.1056505920947313e-07,-1.1869024145931596e-07,-6.978736610464571e-08
196,-1.3051202976208883e-07,-6.179887390403284e-07,-6.588035106673741e-07,-4.0011224777870566e-07
197,-7.787577029851749e-07,-2.7725299195171555e-06,-2.9362407893968637e-06,-1.840049815814204e-06
198,-3.6146732136081036e-06,-1.0433007456527791e-05,-1.0981382877938581e-05,-7.088703992572505e-06
199,-1.3807137157092594e-05,-3.3972535722224346e-05,-3.555617615873205e-05,-2.3588955412608574e-05
200,-4.503941074631655e-05,-9.798862049175493e-05,-0.00010202897905426883,-6.937470054804475e-05
201,-0.00012887997949546448,-0.00025495007010982457,-0.00026423805108450883,-0.00018357530175989808
202,-0.00033024872171396127,-0.0006071379733182066,-0.0006267015648285232,-0.0004434179586608292
203,-0.0007704225826530223,-0.001339144373512247,-0.0013774724004262516,-0.0009894073575016844
204,-0.001658562997652902,-0.0027627354800560462,-0.0028335557176301755,-0.0020599320072048053
205,-0.0033323334511669313,-0.0053751284951932534,-0.005500153563458806,-0.004035987579695499
206,-0.006307897928671932,-0.009930758819320804,-0.010144119548453583,-0.007496125928697232
207,-0.011339327316643702,-0.017525510423120682,-0.017880921785095674,-0.013281146561319346
208,-0.019486955355825335,-0.029691162977818784,-0.030273098872534657,-0.02256733517039885
209,-0.03219335794044253,-0.04849645280888608,-0.049436629561633756,-0.03694609777207259
210,-0.05136437681812435,-0.07664960520989776,-0.07814983406587875,-0.058506572952316975
211,-0.07945110433242752,-0.1175954837085204,-0.1199574827966927,-0.08991629250174336
212,-0.11952718268320664,-0.17559872141943164,-0.17926088659980263,-0.13449337425690217
213,-0.1753543631598984,-0.2558025679198888,-0.2613831197647385,-0.19626230957136653
214,-0.2514282334926678,-0.36425201789747386,-0.37259745238312597,-0.2799844138725246
215,-0.35299551636850907,-0.5078694169618825,-0.5201067928881108,-0.3911536488122225
216,-0.4860344386632484,-0.6943714602882778,-0.711962685762091,-0.5359489297160307
217,-0.657190355525093,-0.9321184760796587,-0.956914317499304,-0.721135229316842
218,-0.8736600847190227,-1.2298901399996818,-1.2641811147219273,-0.9539077742316702
219,-1.1430203218639454,-1.5965861439856661,-1.643146799196691,-1.2416763882203454
220,-1.472998144902129,-2.0408555608945567,-2.102977996476711,-1.591790551717762
221,-1.8711849581422888,-2.5706643232312687,-2.652176350981825,-2.0112099135864105
222,-2.3446991168173255,-3.1928159587362566,-3.2980791749402076,-2.5061295859628476
223,-2.8998066667596705,-3.912446102902158,-4.046329512702286,-3.081574240866059
224,-3.5415138836235314,-4.73251597132893,-4.90034168763208,-3.7409794413733315
225,-4.273149360166871,-5.653333598152677,-5.860792485931812,-4.485782424186628
226,-5.095956963589474,-6.672133903408976,-6.925170692616781,-5.315047343450271
227,-6.008723680537951,-7.782749228187828,-8.087418340010528,-6.225151439153286
228,-7.007467783925049,-8.975400563257441,-9.337695434235293,-7.209558388244254
229,-8.085212606930561,-10.23663606977682,-10.662295920394667,-8.258703044111392
230,-9.2318693573979,-11.549437555571393,-12.043736260353212,-9.360007833147723
231,-10.434248818162466,-12.893507457798139,-13.461029498112593,-10.498045384247344
232,-11.67621646859789,-14.245738956459867,-14.890147546631235,-11.654854735468664
233,-12.938998634263218,-15.580860703291304,-16.3046632760678,-12.81040999286401
234,-14.201638996460533,-16.872236060303532,-17.676552535717203,-13.943230982335333
235,-15.44159564582907,-18.092785553628904,-18.97712526644264,-15.031115739887497
236,-16.635459449294803,-19.215991340021944,-20.17804515109541,-16.051965268750003
237,-17.759765469716225,-20.216934675423843,-21.252389581462335,-16.98466260607121
238,-18.79186120308353,-21.073312384339218,-22.17569680348968,-17.809961690758737
239,-19.71078915449411,-21.766376670103895,-22.926945478596007,-18.51133753440935
240,-20.498137388899302,-22.2817445555531,-23.489413866494896,-19.075748324120035
241,-21.138810615695412,-22.610028781532097,-23.851371374529062,-19.494262586594942
242,-21.621676301137825,-22.74725083794088,-24.006564008582924,-19.76251036566981
243,-21.940045229404852,-22.69500843244918,-23.954466700636946,-19.880926158289956
244,-22.091953702863364,-22.460383415777653,-23.700288783411377,-19.85476257411803
245,-22.080224909368773,-22.05559113109863,-23.254733102599424,-19.693866645444558
246,-21.91229941682611,-21.497387401681426,-22.63352341930085,-19.41222465188391
247,-21.599838542111918,-20.806263942279145,-21.856727894926788,-19.02729538744557
248,-21.158118536975227,-20.005475915464796,-20.94791767434819,-18.55916508934375
249,-20.60524712920186,-19.119955780197426,-19.93320812946572,-18.029568876971286
250,-19.961245982637735,-18.17517473155337,-18.840235594070954,-17.46083268361965
251,-19.24705218344988,-17.196016320697538,-17.697124043291787,-16.874795599948115
252,-18.48349808033535,-16.20572591147765,-16.531494064907942,-16.2917747495922
253,-17.69033104720478,-15.224994418842497,-15.36956089135119,-15.72963297395744
254,-16.885332704013155,-14.271225590210852,-14.235359796058162,-15.203003691420486
255,-16.083590980324907,-13.358023606714426,-13.150126644707733,-14.72271761961362
256,-1.4200632674982911e-10,-7.959275622589707e-11,-9.510472371554988e-11,-1.2360578246460652e-10
257,-3.0443591437343403e-09,-1.7184391487300489e-09,-2.1022692715042526e-09,-2.6262094781121513e-09
258,-3.3328323571218346e-08,-1.9136515464095895e-08,-2.329780260113275e-08,-2.9083959067513007e-08
259,-2.413422788160579e-07,-1.4111258786236068e-07,-1.7121355692610518e-07,-2.124968508901239e-07
260,-1.3093881409175799e-06,-7.806531151764424e-07,-9.428820226291349e-07,-1.1625735657763498e-06
261,-5.697973423909867e-06,-3.4662579329322555e-06,-4.164490039015549e-06,-5.097085423126006e-06
262,-2.0794470605939622e-05,-1.2907214343933089e-05,-1.541821229648688e-05,-1.8721522897180076e-05
263,-6.569754567269767e-05,-4.1578674635872076e-05,-4.9373809054878475e-05,-5.946047517034899e-05
264,-0.0001840390938158419,-0.00011860250812757,-0.0001400208528311713,-0.00016724147497703076
265,-0.00046572912977091955,-0.00030507280809333046,-0.00035820353491513386,-0.00042441918151417505
266,-0.0010806503945031602,-0.000718039994809743,-0.0008389512900087103,-0.0009864585746077073
267,-0.0023270458771345983,-0.0015650890679417499,-0.0018208332066986666,-0.002125628042365804
268,-0.004696621104945508,-0.003190903325974048,-0.003698987460224304,-0.004289207897462259
269,-0.008957305477403504,-0.0061365305225937975,-0.007092662018076366,-0.00817267994731267
270,-0.016253306652208872,-0.011211341824527103,-0.012927083037497159,-0.014807111608036579
271,-0.028220647886707646,-0.019576867877337794,-0.02252822516682093,-0.025658561096727057
272,-0.04711476862132909,-0.03284068319985776,-0.037727555677028124,-0.04273582347816408
273,-0.0759448711220184,-0.05315716223494083,-0.060972064540068,-0.06870119708953062
274,-0.11860742233420019,-0.08333020571376731,-0.09543295729022468,-0.1069771782377968
275,-0.1800086838605943,-0.12691104858128752,-0.1451044466673147,-0.161840177138469
276,-0.2661636655372763,-0.18828226508279025,-0.21488236786910847,-0.23849068996613784
277,-0.3842568896633482,-0.27271741755206935,-0.31061111407998837,-0.34308810411493806
278,-0.5426492067145975,-0.38640479707325426,-0.43908687546703307,-0.4827377297072861
279,-0.7508149765544545,-0.5364236557949527,-0.6080055428331825,-0.6654180231519973
280,-1.0191955978699236,-0.7306624165505716,-0.8258450282808663,-0.8998376384383141
281,-1.3589589340383246,-0.9776706132427968,-1.1016742265288726,-1.1952152023936
282,-1.7816597037663575,-1.2864396856264446,-1.4448843985198312,-1.5609796626946322
283,-2.2988030419796304,-1.6661120302543937,-1.8648433060198313,-2.0063954256723093
284,-2.9213215545070907,-2.125622651261089,-2.370477722142054,-2.5401236702632004
285,-3.6589845698129926,-2.673283102422496,-2.969795600952898,-3.1697384021035946
286,-4.519766325995044,-3.316322913681897,-3.6693647395948004,-3.9012222690224325
287,-5.50920704261284,-4.06040907525814,-4.473769751389852,-4.738472359511531
288,-6.629806759521114,-4.909169059489223,-5.38507321381664,-5.682849790288818
289,-7.880495987340887,-5.863746854513599,-6.402309684881427,-6.732808617901838
290,-9.256229055601313,-6.92242404275728,-7.52104267386584,-7.883639242355476
291,-10.74774500468177,-8.080338558594015,-8.733014403689669,-9.127358748780393
292,-12.341536401226408,-9.329331962926618,-10.025916121297632,-10.452775270237833
293,-14.020058163821792,-10.657951635018811,-11.383302683617151,-11.845745273609808
294,-15.762196289437165,-12.05162722227441,-12.784669205616774,-13.289631724859134
295,-17.5440007254964,-13.493031328342783,-14.205699952300803,-14.765957818692437
296,-19.339668522708067,-14.962623330936026,-15.618690842804167,-16.255236175136133
297,-21.122744177014972,-16.43936314571206,-16.993137524977747,-17.737938232581794
298,-22.86748517569856,-17.901569494882494,-18.296471667877817,-19.195554272265767
299,-24.55032361993835,-19.32788559421318,-19.494919609816943,-20.611682384263712
300,-26.15134078518681,-20.698304912847778,-20.55445043172589,-21.97307595577525
301,-27.655661916942996,-21.995201536731173,-21.44177540998068,-23.270574968554076
302,-29.054674590424113,-23.204304416798408,-22.125357976097472,-24.49984730814314
303,-30.346976364011383,-24.31555307092054,-22.576392907779056,-25.661872786997794
304,-31.538966530468933,-25.323774634664485,-22.76971544066911,-26.763114596511517
305,-32.645012316316034,-26.229128725736288,-22.684605100905326,-27.81533986388409
306,-33.68714126312845,-27.037277246598823,-22.30545497649663,-28.835071908802444
307,-34.69423768559281,-27.759250466235155,-21.622284451854473,-29.842680329496513
308,-35.70075059833985,-28.41099765550485,-20.631081655181326,-30.861139644436015
309,-36.74495156977533,-29.012629131583417,-19.333970497808973,-31.91451123841022
310,-37.86681165277079,-29.587375600851722,-17.739205664086807,-33.02622519121643
311,-39.10559488045729,-30.16030895298355,-15.861006660665929,-34.21725670428428
312,-40.49728986176708,-30.756884980866975,-13.719248481090013,-35.504304919347774
313,-42.07201893702987,-31.40138183325486,-11.339031078872877,-36.8980887808246
314,-43.8515745492102,-32.11531744416845,-8.75015230461657,-38.40187433371375
315,-45.847233822369404,-32.915934007288975,-5.986509108343727,-40.01034004256659
316,-48.0579943868235,-33.814837286623046,-3.085449766796325,-41.708871543946586
317,-50.46935760539051,-34.816873009530056,-0.08709607806572961,-43.47335556586171
318,-53.052760528219274,-35.91931198669836,2.9663504768153577,-45.27051597264408
319,-55.765726562001795,-37.11140054046256,6.0313098819115885,-47.05880478864328
320,-6.019729403459865e-10,-1.7140271688146226e-10,6.00068463303008e-11,-5.536322435874665e-10
321,-1.25507640830905e-08,-3.569830659295973e-09,1.2996193773138003e-09,-1.1453589463706423e-08
322,-1.4115500011837687e-07,-3.987278928996058e-08,1.4403127198217486e-08,-1.2838567844590236e-07
323,-1.0458311495046828e-06,-2.9437979947546075e-07,1.0585839300030288e-07,-9.475276092511917e-07
324,-5.808557197375103e-06,-1.63000790706716e-06,5.842178939417817e-07,-5.2419591576387144e-06
325,-2.586721707581529e-05,-7.24186727741061e-06,2.5905863587463954e-06,-2.3253874754649408e-05
326,-9.651651925505866e-05,-2.6979012366965352e-05,9.644083349739792e-06,-8.644542255734959e-05
327,-0.0003113046705532432,-8.695526798881069e-05,3.109019372068779e-05,-0.00027786821316607357
328,-0.0008885521000911495,-0.0002482265184616202,8.88240637970007e-05,-0.0007906752111118172
329,-0.0022858800081304084,-0.0006391982858161191,0.00022897161548374948,-0.0020285982853472336
330,-0.005378875309125229,-0.0015067227866231848,0.0005402617511323595,-0.004762424115722205
331,-0.011717482415585167,-0.003290410143147644,0.0011805298240611486,-0.010354278337526102
332,-0.023868740617501095,-0.006723542271375684,0.0024121650720379676,-0.02105709592387367
333,-0.04584793437650314,-0.012962306621547801,0.004646451209290981,-0.040390746014288895
334,-0.08363268624325128,-0.023742998656694884,0.008495779664968272,-0.07358947374597222
335,-0.1457462375912913,-0.04156445106152407,0.014831747077003594,-0.12810794601534015
336,-0.24388683600013364,-0.06989018335304038,0.02484622518802443,-0.21416504677061554
337,-0.3935695017350278,-0.11336155694631359,0.04011159116037655,-0.345295409604705
338,-0.614734407222917,-0.1780095322880607,0.06263538924183458,-0.538868384617444
339,-0.9322633420315188,-0.2714486043828519,0.09490375371984916,-0.8165232672769247
340,-1.376333732580398,-0.40303252044413507,0.1399070356694413,-1.2044594460408269
341,-1.98253064995111,-0.583948066031006,0.20114039323174637,-1.73351254857686
342,-2.791633760051161,-0.8272212949164501,0.28257180930014875,-2.4389449046981846
343,-3.849000393573139,-1.1476107587826276,0.3885702365630028,-3.359882558366988
344,-5.203479185168441,-1.5613650597349988,0.5237874460061119,-4.538342889966523
345,-6.905811133448019,-2.085827556658988,0.692988788917801,-6.01781679651965
346,-9.006505617870374,-2.738879167032416,0.9008306497203405,-7.841396591061565
347,-11.553216116036245,-3.5382204951928067,1.1515860143103005,-10.049473672889324
348,-14.587681841357295,-4.500506387128459,1.448824238285343,-12.677066457735393
349,-18.142344475934685,-5.64035869798319,1.7950563161672024,-15.75087648082292
350,-22.236790561487584,-6.969295705297084,2.191361919634146,-19.286206314791084
351,-26.874206823394832,-8.494628303584301,2.6370183053598777,-23.283904310851867
352,-32.03806464075853,-10.218382946519062,3.129153309689221,-27.727525519390007
353,-37.689268193373785,-12.136318383583118,3.6624450354012885,-32.58091304032264
354,-43.764005771210456,-14.23710673016565,4.22888999638765,-37.786407153506616
355,-50.17253310811338,-16.501748612945036,4.817660086598129,-43.263879050298804
356,-56.79908983607921,-18.903286502363198,5.415067139036761,-48.91076057346285
357,-63.50310494563773,-21.40686962672093,6.004651809197551,-54.6032009230034
358,-70.12178546810543,-23.970208138358313,6.567410314224756,-60.19842675606097
359,-76.4741071021113,-26.544434026407696,7.082167376593912,-65.53831589648566
360,-82.36614027394613,-29.075362675774286,7.526096211472857,-70.45412059545824
361,-87.59755571772367,-31.505123472553503,7.875376986958276,-74.77219880374025
362,-91.96906660943677,-33.774102290263045,8.105974973713375,-78.32053684395818
363,-95.2904864032432,-35.823115030885646,8.194509938755738,-80.93578007185071
364,-97.38901924837552,-37.59571156796484,8.119180388648367,-82.4704352102517
365,-98.11735854494617,-39.04049513187512,7.860700747510244,-82.79987372856769
366,-97.36115291835812,-40.11333474711127,7.40320674842642,-81.82875350519816
367,-95.04541004311393,-40.779348637663496,6.735084187697603,-79.49648798943052
368,-91.139447988356,-41.014544865575864,5.8496785088979495,-75.78142847273229
369,-85.6600695771895,-40.807021511451865,4.745847085823252,-70.70348424366252
370,-78.6727241890455,-40.15765151646248,3.428322146743117,-64.32498407491654
371,-70.29052812747136,-39.08020542356703,1.9078596480446601,-56.74967586291518
372,-60.67113253412224,-37.60089686660317,0.2011578178871232,-48.11986354452887
373,-50.01154932760069,-35.75736869478363,-1.6694615422548829,-38.61178515795182
374,-38.54116289742008,-33.597169940339526,-3.6766055970402753,-28.429436363456716
375,-26.513260534292247,-31.175803341314257,-5.788582309147724,-17.79713330855483
376,-14.195500686028309,-28.554447864175156,-7.970365449138486,-6.951181331473252
377,-1.8597992808880386,-25.797478946075678,-10.184715508368692,3.8689332946330595
378,10.227853712741569,-22.969919635404658,-12.393409620108201,14.429386152666295
379,21.817134883341893,-20.134957592124284,-14.55852666367845,24.510451603537756
380,32.68220373512779,-17.3516557848581,-16.643730305504747,33.914122558978896
381,42.62917411885945,-14.672969212612012,-18.615493081001713,42.47055591869722
382,51.501905809194554,-12.144157361484625,-20.44420842803921,50.04306154600722
383,59.18588576792435,-9.801654277196644,-22.10514411060803,56.53144313031131
384,7.938005409404421e-11,-7.478057718353162e-11,-1.5152379914916604e-10,5.971307821660032e-11
385,1.7528141788110766e-09,-1.5675188343186417e-09,-2.9892426684032995e-09,1.3302848311452666e-09
386,2.0248596608961346e-08,-1.7579241343056214e-08,-3.42249270258413e-08,1.5027069390603263e-08
387,1.5393983541624763e-07,-1.3048464001024196e-07,-2.557983897379206e-07,1.1222400670716954e-07
388,8.734025362417704e-07,-7.271807428899338e-07,-1.430931210528839e-06,6.266333979074971e-07
389,3.955022825123148e-06,-3.255313845494557e-06,-6.404929229033795e-06,2.798662840818963e-06
390,1.493428929535044e-05,-1.2232578702521603e-05,-2.3970534580135725e-05,1.044612981671946e-05
391,4.851714836306803e-05,-3.980433951334654e-05,-7.739776099481296e-05,3.361941020584441e-05
392,0.00013885796452460506,-0.00011479356485965763,-0.00022076438219121442,9.552235471789214e-05
393,0.00035674889916576354,-0.00029874882746458106,-0.0005666937710091381,0.0002441111424605439
394,0.000835457844744666,-0.0007117595457607172,-0.001328941711433171,0.00056965779460273
395,0.0018063310572302889,-0.0015706179808580275,-0.0028825248693234795,0.0012292636515266126
396,0.0036445986092814016,-0.0032412151047636843,-0.0058429732073173365,0.002479002255494968
397,0.006925271319055825,-0.006305955324925075,-0.011165124658326002,0.004714189949286374
398,0.012488546180553237,-0.011645632315338106,-0.020260725166505116,0.008518191189122993
399,0.021513523847832203,-0.02053380140239388,-0.035132779678041626,0.01471995416460797
400,0.035598050379601134,-0.03474029394411271,-0.05852272840950297,0.024459862901686058
401,0.056841036140275726,-0.056639124554983745,-0.09406386380613667,0.03926230500760643
402,0.08792174602901864,-0.0893145508963158,-0.14643101869626463,0.06111161851073613
403,0.1321685129529791,-0.136657414225493,-0.22147293869719373,0.09252605328863384
404,0.193607432343855,-0.20344220498151555,-0.32631061913746057,0.13662245508254794
405,0.2769802642852084,-0.29537381297058357,-0.469382937013794,0.19716293846594693
406,0.3877204007636079,-0.4190920138559451,-0.660420649787357,0.2785741086661364
407,0.5318765613550246,-0.5821218083252266,-0.9103314073635226,0.38592947515631026
408,0.7159758245291802,-0.7927590969876553,-1.2309817536546062,0.5248864870852654
409,0.946820455973771,-1.0598839959859634,-1.6348669218710088,0.7015709938205332
410,1.2312165361804828,-1.3926983118207426,-2.1346653726275795,0.9224038476193042
411,1.575636487488879,-1.8003889884348663,-2.7426823292257234,1.19386686039514
412,1.9858222071495553,-2.2917252339792196,-3.47019492255899,1.5222084818353838
413,2.4663405393935394,-2.8746029692715,-4.326720686330691,1.9130934199922776
414,3.020108085639258,-3.5555556970646074,-5.319240531362736,2.3712049372025295
415,3.647907578908989,-4.339255459099351,-6.451416217739336,2.899813571530481
416,4.347922839547839,-5.228030921191847,-7.722849768129379,3.500331253894298
417,5.115323154905935,-6.2214315906299404,-9.12843726366063,4.171874717197544
418,5.941930135441416,-7.315867538999861,-10.657871129660823,4.910866062130941
419,6.816000096609737,-8.504352611353351,-12.295342741418125,5.710700671176901
420,7.722152436553103,-9.776375792359879,-14.019490623618754,6.561512838391649
421,8.641469308771402,-11.117920098847852,-15.803628755586185,7.450067311246079
422,9.551784363870377,-12.511641149016027,-17.616274900869687,8.359800514868043
423,10.428168826532342,-13.937208730432252,-19.42198123198415,9.271028812002628
424,11.243612114872308,-15.37180479832408,-21.182449892136912,10.161333053906578
425,11.969882160469048,-16.790761144149933,-22.857895910599943,11.006119230876097
426,12.578538274587435,-18.168310360262534,-24.408600566004935,11.77934462770121
427,13.042057666087171,-19.47841556812049,-25.796581328091058,12.454388037911237
428,13.335026387143168,-20.695638437892814,-26.987291242505595,13.005031936955534
429,13.435337317444628,-21.796001838765857,-27.951252145306402,13.406514828504212
430,13.325332488121244,-22.75780329171656,-28.665523320636456,13.636604102092525
431,12.992825197980466,-23.56233823954851,-29.11491075121286,13.676634474915788
432,12.431939437015048,-24.194497766975523,-29.292832296096975,13.51245505804056
433,11.643710262044172,-24.64321335665839,-29.201770835895722,13.13522961665307
434,10.636398810935164,-24.90173096309026,-28.85327005039585,12.542039718566166
435,9.425489167830564,-24.967707393945904,-28.26745477731522,11.736248994480649
436,8.033350684337536,-24.843132892379504,-27.472088053889355,10.727598334432914
437,6.488567769702758,-24.534094082815887,-26.50120771985838,9.532016021275794
438,4.824958448388432,-24.050400306775163,-25.39341445958586,8.171142813017314
439,3.080321752731009,-23.40510320835989,-24.189908081438432,6.671588785482646
440,1.2949708058270173,-22.6139437673447,-22.932387652668375,5.0639550603258705
441,-0.4898780074943541,-21.69476255447584,-21.660942320288164,3.381668057656787
442,-2.233779986606259,-20.66690772537587,-20.412062262812203,1.659685484021732
443,-3.8987166308598638,-19.55067133726359,-19.216892911373783,-0.06685893927683166
444,-5.450645259739318,-18.36677837277046,-18.099840677481925,-1.7640014763477245
445,-6.860864140083385,-17.135945039753864,-17.077615922596898,-3.4002154809437273
446,-8.107122929180287,-15.878514326749313,-16.158770374626894,-4.947535190475427
447,-9.174421740258255,-14.61416835152171,-15.343753630932937,-6.3824809153274
448,-1.80148536303488e-10,-8.918749447925453e-11,-8.921168327942535e-11,-6.413020005396105e-11
449,-1.5819317211920433e-09,-1.8982757045709885e-09,-1.917272494867072e-09,-1.3606088413533172e-09
450,-1.9246640515141842e-08,-2.103322963940329e-08,-2.1903075944372996e-08,-1.498601853815027e-08
451,-1.4646071434293995e-07,-1.539476335021638e-07,-1.649609072951916e-07,-1.089238738693158e-07
452,-8.242302045412897e-07,-8.44486648116034e-07,-9.306604547469412e-07,-5.917117037356386e-07
453,-3.704381403434972e-06,-3.71494968453723e-06,-4.20589472896668e-06,-2.571462968976309e-06
454,-1.3869865607898186e-05,-1.3697349462471328e-05,-1.59062434540013e-05,-9.347432950243565e-06
455,-4.46588198205582e-05,-4.368046633671084e-05,-5.192813516097627e-05,-2.9343471797126144e-05
456,-0.00012664811192720433,-0.0001233590019303532,-0.00014979915734597088,-8.150153983375156e-05
457,-0.0003224101663342399,-0.0003142851907572505,-0.00038891034285477134,-0.00020416340425596157
458,-0.0007482951624977571,-0.0007331713769879767,-0.0009222549551141448,-0.0004684874773252653
459,-0.001603962168100439,-0.0015852621981526335,-0.0020221207215485267,-0.0009974422409328805
460,-0.0032097703230966118,-0.0032091317016576344,-0.004141272442122456,-0.0019914323656809586
461,-0.0060516517375326295,-0.006133627587392141,-0.00798999048903923,-0.003761614930169039
462,-0.010832517174489862,-0.011146898940696585,-0.014628007093329311,-0.0067718277836573285
463,-0.01852855612545174,-0.019376495848781292,-0.025568927942085526,-0.011689653088656129
464,-0.030447825207940052,-0.03237839169115216,-0.042893080574914824,-0.019446425230852108
465,-0.04828742223059153,-0.052231457092334226,-0.06936286301386967,-0.03130503205513832
466,-0.07418447324682977,-0.08163243980668071,-0.10853264342306813,-0.048933279467200726
467,-0.11075522927369874,-0.12398495352599596,-0.16484327697232934,-0.07447950468851905
468,-0.16111601915291687,-0.18347446714392243,-0.24368964902685952,-0.11064607933300832
469,-0.22887967267264064,-0.26511998340992327,-0.3514486178715298,-0.16075543981495893
470,-0.31812156686159326,-0.3747922341378848,-0.4954545879862358,-0.2288023295326438
471,-0.43331059147670903,-0.5191880503763318,-0.6839109049929056,-0.31948508643231865
472,-0.5792021257788043,-0.7057513235379765,-0.9257275054077037,-0.438208177657235
473,-0.7606923168619918,-0.9425327831565581,-1.230278872984589,-0.5910479382825572
474,-0.9826355277008275,-1.2379836758183416,-1.6070813074137886,-0.7846738257996523
475,-1.2496296351277887,-1.6006821884236586,-2.0653945157854157,-1.0262186475159243
476,-1.5657768138886126,-2.0389958816919704,-2.613759078317638,-1.3230932608790125
477,-1.9344304129430814,-2.5606882006408687,-3.259487780614218,-1.6827441494176265
478,-2.357941160301516,-3.1724820183986258,-4.008134524233926,-2.112355884602446
479,-2.8374180421502917,-3.8795978609720754,-4.862969039995278,-2.6185045695541698
480,-3.3725203764906455,-4.6852886439975165,-5.8244885715447605,-3.206772671801109
481,-3.961297674858082,-5.590396098363028,-6.889998833443453,-3.8813399175499055
482,-4.600092525553696,-6.592956213751465,-8.053295711571204,-4.644568841041779
483,-5.283519016839686,-7.6878816702094355,-9.304476287191711,-5.496606859177934
484,-6.004525234403348,-8.866748111324585,-10.629902814930597,-6.435029089440422
485,-6.754543612666107,-10.117708119822426,-12.012336357952027,-7.454547306217906
486,-7.523727694383252,-11.425551886537356,-13.43124806996027,-8.546810216981818
487,-8.301268512374303,-12.771926955331223,-14.863305977765233,-9.700318438736895
488,-9.075778545536462,-14.135721340304642,-16.28302415256574,-10.900473998293656
489,-9.835726194467908,-15.493605150933345,-17.663550218060013,-12.129778784937
490,-10.56989937874317,-16.820716155529837,-18.977557284466915,-13.368189204832376
491,-11.26787342985958,-18.091465099391826,-20.198198647809264,-14.593625581252052
492,-11.920456396512039,-19.28042777903502,-21.3000787191497,-15.782625096308179
493,-12.520084354375012,-20.363283561472198,-22.26019194482145,-16.911116976066246
494,-13.061140669654641,-21.31775487250766,-23.05878282679559,-17.95528900637462
495,-13.540176437007565,-22.1244996517971,-23.68008419503421,-18.892506157878085
496,-13.956014585760643,-22.767909186136787,-24.112897280019936,-19.702235810285813
497,-14.309727010625625,-23.236767147274414,-24.350985590613615,-20.36693033508307
498,-14.604482096338096,-23.524731921369057,-24.393264778342235,-20.87281700062627
499,-14.84526846249192,-23.63061305830163,-24.243781984799405,-21.21054753418377
500,-15.038509029624596,-23.558423375237307,-23.911489784382233,-21.375665284322594
501,-15.191587052041372,-23.317200283547614,-23.40983078118442,-21.368856611864373
502,-15.312311912030408,-22.920602561555125,-22.756158305936548,-21.195964466188006
503,-15.408356851346806,-22.386301312392405,-21.971025883256353,-20.86775538912354
504,-15.48670302466567,-21.735195448861095,-21.07738292898507,-20.399445589289623
505,-15.553124387557432,-20.990491995111146,-20.09971651638939,-19.810006330364534
506,-15.611746052579349,-20.17669912259139,-19.063179160945925,-19.121282749314688
507,-15.664705133253172,-19.318584627069136,-17.992740573170792,-18.35697244959807
508,-15.711937857316375,-18.44015416799372,-16.91239736671357,-17.54151993100357
509,-15.751109978905582,-17.563701911438013,-15.844469047477826,-16.698989348233876
510,-15.777699445214306,-16.708981352706214,-14.80900174165063,-15.851980613447369
511,-15.785231200408711,-15.892536375523717,-13.823293768447982,-15.02065207239263
512,2.8675651640719163e-12,-6.550438690557497e-11,-8.679069108198434e-11,-4.50778254218209e-11
513,1.9587397293472325e-10,-1.359339629136724e-09,-1.7449110801789458e-09,-9.916926737320652e-10
514,1.6162161302680511e-09,-1.5450688425384916e-08,-1.9471780000760705e-08,-1.1427264152809265e-08
515,8.205324609812771e-09,-1.1592601775172523e-07,-1.4315864086427137e-07,-8.692352947482214e-08
516,2.197137433048384e-08,-6.52196259179871e-07,-7.889501947590982e-07,-4.943612581846015e-07
517,-1.7240624097245703e-08,-2.9429029219999513e-06,-3.4865811478656957e-06,-2.24921049255741e-06
518,-5.302338359735229e-07,-1.1129219123485876e-05,-1.2914148218348197e-05,-8.555706819961552e-06
519,-3.316053547849045e-06,-3.639081088755664e-05,-4.137293540005383e-05,-2.8077121731846217e-05
520,-1.4278945745310578e-05,-0.00010532137727982236,-0.00011739217608644439,-8.139286090866438e-05
521,-4.9502931623496624e-05,-0.00027476760477490635,-0.0003005366253403681,-0.0002123265093836372
522,-0.00014689183224339363,-0.0006556732437277268,-0.0007046622342867977,-0.0005059272496975416
523,-0.0003858437217473446,-0.0014483211474465357,-0.0015318405259048132,-0.0011147081991546531
524,-0.000917187146541951,-0.0029907997157601718,-0.003119028252609914,-0.0022943309522458414
525,-0.0020049314939812697,-0.0058216167119474905,-0.0059994021671577365,-0.004449376343602126
526,-0.004080479889761694,-0.01075626870251255,-0.010980107745399087,-0.008189231353770896
527,-0.007809026820849225,-0.018976373310214276,-0.019237826701365746,-0.014393451028056697
528,-0.01416695953509407,-0.032128721611854996,-0.03243270129198298,-0.024285144475896955
529,-0.02452811773186286,-0.05243026501715877,-0.05283939829850784,-0.039509907860608075
530,-0.04075559913103934,-0.08277351287317511,-0.08349127549793503,-0.06221657423631802
531,-0.0652943516545873,-0.12682503663747274,-0.1283299595918647,-0.09513465531665682
532,-0.10125806348888718,-0.18910784430268626,-0.19234877226813976,-0.14164195280555464
533,-0.15250197423267559,-0.2750565778619683,-0.28171512431807005,-0.20581457032524364
534,-0.22367146580166924,-0.39103322221173337,-0.403854863702118,-0.29245063511078745
535,-0.32021509446088786,-0.5442907434404302,-0.5674808479947053,-0.40705865116385476
536,-0.44835059254848614,-0.742873150817335,-0.7825486002462338,-0.555801789225626
537,-0.6149736223372494,-0.9954430292361263,-1.060123514084688,-0.7453907502481151
538,-0.8275017322824973,-1.3110315145257347,-1.412146552268099,-0.9829201558512005
539,-1.0936497815715163,-1.69871067142817,-1.8510888532261653,-1.27564658501461
540,-1.4211376940532017,-2.1671938784248734,-2.389490503600629,-1.6307101400326287
541,-1.817336428289721,-2.724375700362785,-3.039385340535244,-2.0548054948132966
542,-2.2888632168543372,-3.376828460555354,-3.8116221643698927,-2.553812483948245
543,-2.841142153712411,-4.129277983556085,-4.715102835568272,-3.1324001995982353
544,-3.477950785739115,-4.984085463187147,-5.7559685498541535,-3.7936220730050216
545,-4.2009772025950625,-5.940765813412927,-6.9367759115769,-4.538522343248689
546,-5.009414922915873,-6.9955748291765305,-8.25571292275809,-5.365776449552577
547,-5.899624329707984,-8.141197647427973,-9.7059105314381,-6.271388973319788
548,-6.864889130344568,-9.366568992938753,-11.274907137915722,-7.248472498865864
549,-7.895293958914366,-10.656851281174118,-12.94432107308077,-8.287128869409488
550,-8.977744604809347,-11.993589788042994,-14.689779517526029,-9.374450611428616
551,-10.09614552073838,-13.355055019546366,-16.481141886943448,-10.494654837423823
552,-11.23174054679948,-14.716771626375241,-18.283041793431288,-11.629355027461493
553,-12.363612688019714,-16.052221458254813,-20.055754881233057,-12.757968267053316
554,-13.469327971949333,-17.333696543914176,-21.75638083472494,-13.8582474179849
555,-14.525697758105412,-18.533266870653225,-23.340307578974333,-14.906919936991107
556,-15.509624392815487,-19.62381872650165,-24.762905296456438,-15.880408163947365
557,-16.39898775856174,-20.580112793951255,-25.98137877784243,-16.75560029684043
558,-17.17352574624996,-21.379807675753504,-26.956690398880525,-17.510637300853556
559,-17.81566027589808,-22.004394370420503,-27.655454228408054,-18.125678952544263
560,-18.311222211832742,-22.439990462860276,-28.051695766776376,-18.58361233412179
561,-18.650033200099706,-22.67794929793701,-28.128372493895373,-18.870668494127372
562,-18.82630987631137,-22.715248823690356,-27.87855816140309,-18.97691763798361
563,-18.83886572299101,-22.55463659783487,-27.306208383001398,-18.896619844823338
564,-18.69109764028513,-22.204520963479254,-26.4264457767617,-18.62841647294426
565,-18.390757399129946,-21.678612781286745,-25.26532835457705,-18.17535652655678
566,-17.949521757090043,-20.995336409318128,-23.859093323727784,-17.544761660091215
567,-17.38238812050672,-20.177041848857314,-22.25289806568462,-16.747942521668076
568,-16.706934056543467,-19.24906114746348,-20.499108927410923,-15.799787117068417
569,-15.942487562056707,-18.23866043528743,-18.65521488937604,-14.718248200756905
570,-15.109259940682934,-17.173943758713367,-16.781465607528517,-13.52376088785112
571,-14.22749409187599,-16.082765879759375,-14.938350370805573,-12.238623453051119
572,-13.316678118486145,-14.991708481270893,-13.184044949876688,-10.886373596927543
573,-12.394867853292281,-13.925168120389053,-11.571956205749657,-9.491189497982244
574,-11.478152755863654,-12.904595405569047,-10.148489223832161,-8.07734009434855
575,-10.580288299490418,-11.94791398540742,-8.951148859473058,-6.668702747825958
576,-2.660120355034929e-10,-1.0204870884640928e-10,-1.6408644617733794e-11,-2.4047600218920995e-10
577,-3.612136364351318e-09,-2.1547650216002596e-09,-1.4743132778888264e-10,-3.821930780075208e-09
578,-4.193360258983052e-08,-2.394484451846439e-08,-1.8002472471850678e-09,-4.3679567669113083e-08
579,-3.068086495520261e-07,-1.7554755787832207e-07,-1.364118741876199e-08,-3.204896751178181e-07
580,-1.6835514750571058e-06,-9.64263224370447e-07,-7.934855030954339e-08,-1.764053011046974e-06
581,-7.392123366817225e-06,-4.2459066890492875e-06,-3.746943591454483e-07,-7.781120955813328e-06
582,-2.714038142026078e-05,-1.5663708794154966e-05,-1.497356548842439e-06,-2.874663636992309e-05
583,-8.600571328278771e-05,-4.995807385023374e-05,-5.209038883273746e-06,-9.180530846792699e-05
584,-0.00024091296650942528,-0.00014104607279243005,-1.6119742884101873e-05,-0.0002595241023733422
585,-0.0006078460446073706,-0.0003590788184189221,-4.513987386600164e-05,-0.0006615765510454224
586,-0.001402622160233982,-0.0008366562200048826,-0.00011598639771739576,-0.0015436349411102623
587,-0.0029973822322842234,-0.0018060118206540594,-0.00027659043147525565,-0.0033370026972601103
588,-0.005993950520960969,-0.0036483607308726023,-0.0006178388650559841,-0.006751241004632578
589,-0.011314073346457829,-0.006955851189963831,-0.0013025513592191504,-0.012890345929065133
590,-0.020305104584063358,-0.012605723484917517,-0.002607756774168263,-0.023390943539370615
591,-0.03485802913391395,-0.021845340117499803,-0.0049830352483503796,-0.04057862449183102
592,-0.057532733435926166,-0.03638562767357445,-0.009126827286313186,-0.0676359055506074
593,-0.09168328888841781,-0.05849911173636478,-0.016081187142142263,-0.10877246601025085
594,-0.14157379348033589,-0.0911171318908157,-0.02734356705223891,-0.16938532433834852
595,-0.21247309448618618,-0.13791909341298425,-0.044992049662102004,-0.25619360183788376
596,-0.3107148121161261,-0.2034049258740781,-0.07181821020184259,-0.3773297999052507
597,-0.44370774894767673,-0.2929405229312349,-0.11145965294379927,-0.5423674527448028
598,-0.6198815418628052,-0.41276512722863606,-0.16852231125759073,-0.7622642435323944
599,-0.8485535474774646,-0.5699496748110352,-0.24868081539570955,-1.0492006860046368
600,-1.1397058059288423,-0.7722962420998534,-0.358743637244879,-1.4162978067776026
601,-1.503665473456521,-1.0281710159855675,-0.5066684461529121,-1.8772030394038677
602,-1.9506883378325552,-1.3462665633058681,-0.7015124941220321,-2.4455417049187482
603,-2.490452507750275,-1.7352933940179662,-0.9533033620836618,-3.1342414408127826
604,-3.131477489740209,-2.2036056135615265,-1.2728175452458186,-3.9547480292943598
605,-3.880491929878683,-2.7587705327122105,-1.671258460314408,-4.91616227123975
606,-4.741780511732287,-3.4070971514346824,-2.1598315661990233,-6.024337918653251
607,-5.716546452060579,-4.153143183086043,-2.749222067027812,-7.2809894550642795
608,-6.802330214342866,-4.999224463839313,-3.448989462502997,-8.682865018100191
609,-7.992527213126053,-5.944953926960541,-4.266902141429174,-10.221043549489682
610,-9.276046908603954,-6.98683949408265,-5.208243343440642,-11.880415757891507
611,-10.637152571221616,-8.117970912012229,-6.275126336827034,-13.639405283474192
612,-12.0555148204072,-9.327824403858294,-7.465861038954709,-15.469979097101888
613,-13.506502911991584,-10.602210761501134,-8.774416332766965,-17.337984564914724
614,-14.961725722546738,-11.923387083827688,-10.190021976886648,-19.20383484744196
615,-16.38981999165414,-13.270344898900435,-11.69695124978933,-21.02354504353305
616,-17.757467320309114,-14.619278258598879,-13.274520130896395,-22.75009972627789
617,-19.03060492713243,-15.944225134552639,-14.897330635549165,-24.33510979228103
618,-20.17577966873767,-17.217864778467423,-16.535774680931834,-25.73069463973417
619,-21.16158172935901,-18.4124433899694,-18.156800700679142,-26.8915064075719
620,-21.960084952242934,-19.500791185306987,-19.7249287652546,-27.77679804610394
621,-22.548215703617583,-20.457386387032642,-21.203482383581186,-28.35242753967683
622,-22.90897195657005,-21.259416239140293,-22.55598806405172,-28.592687572583266
623,-23.032418931539862,-21.887782227956468,-23.74767885018682,-28.48185363265608
624,-22.916397065546096,-22.327996505996936,-24.74702694653521,-28.015354026256645
625,-22.56689176708757,-22.57091923952456,-25.527224164353946,-27.20048201528648
626,-21.998031828922542,-22.613292329249568,-26.067527557489793,-26.056592546025115
627,-21.23170353959884,-22.458033624452717,-26.35439111714215,-24.614752589410152
628,-20.296789402256156,-22.114267078164108,-26.382312460756708,-22.916843548821724
629,-19.228062410308326,-21.597077682968273,-26.154335838911752,-21.014144718858873
630,-18.06478739113046,-20.926994642583526,-25.68216926269641,-18.965456437856957
631,-16.849098465284314,-20.129221075203017,-24.98589360815573,-16.834848372031537
632,-15.624234836934505,-19.23264261636703,-24.093264189532114,-14.689140350716784
633,-14.432725256629077,-18.268659715662913,-23.038628975843523,-12.595238878929472
634,-13.314614114103472,-17.269898489749266,-21.861510515120568,-10.6174607900079
635,-12.305819226035135,-16.268862174371595,-20.604918911865834,-8.81497605478377
636,-11.436703168944488,-15.29658913299837,-19.31347940317506,-7.239494626308363
637,-10.730927012844237,-14.381383797602744,-18.031469231347682,-5.933307984589866
638,-10.204638424210271,-13.547683749901385,-16.80086413615793,-4.927775781512724
639,-9.866026474976872,-12.81511947178947,-15.659494757240678,-4.242323011849561
640,-3.745074734073297e-11,-8.418987764745096e-11,-1.535298957901701e-10,-1.1716079251510928e-10
641,-1.693219009737452e-10,-1.7205907002719732e-09,-3.096487936947602e-09,-1.2757132624496437e-09
642,-2.588394739141771e-09,-1.924603366806293e-08,-3.513208614107245e-08,-1.499219907029133e-08
643,-2.1245028519817276e-08,-1.4204103794045147e-07,-2.612752634878592e-07,-1.0868743632089838e-07
644,-1.3436187749518502e-07,-7.85879735774545e-07,-1.456793860568585e-06,-5.936801808096521e-07
645,-6.858145906362131e-07,-3.4872210278251e-06,-6.51010810641128e-06,-2.604868929168267e-06
646,-2.941966683792701e-06,-1.2970690323836818e-05,-2.4357203519084354e-05,-9.599442052667362e-06
647,-1.0888537015699922e-05,-4.172981687958464e-05,-7.869634514125362e-05,-3.068203249573451e-05
648,-3.5465318406462275e-05,-0.0001188989215009436,-0.00022471354262237339,-8.710658276527498e-05
649,-0.000103286102173664,-0.0003056080531783907,-0.0005774451470364001,-0.0002237561190021549
650,-0.0002725592212359982,-0.0007191574690977792,-0.0013549443725909174,-0.0005277005712311496
651,-0.00065925248837746,-0.0015681576587302647,-0.0029380773255828795,-0.001156026380456148
652,-0.0014763376869717214,-0.003200250992096213,-0.005946858966652592,-0.0023748768127765047
653,-0.003088245534241946,-0.0061632233989759614,-0.011331306444613474,-0.004611089635886181
654,-0.006081582453858169,-0.01127928917689828,-0.020473284589293136,-0.008516961702785283
655,-0.011351897433896545,-0.019731145278710043,-0.03529484651617923,-0.015047643963440478
656,-0.020204907198763424,-0.03315705325856266,-0.058367819430643404,-0.0255494449515995
657,-0.03446915824974145,-0.05375071766743135,-0.09301834714576793,-0.04185593261669803
658,-0.05661559032898741,-0.08436010237186965,-0.14341839392840866,-0.06638708022157966
659,-0.08987782377108154,-0.12857763327780514,-0.21465392783582185,-0.10224484650770685
660,-0.138365060391051,-0.19081264317453675,-0.31275721955945984,-0.15329662600237273
661,-0.20715720878409824,-0.27633564790889115,-0.44468929335199725,-0.22423616835667903
662,-0.3023694197693724,-0.3912833788917116,-0.6182589013739191,-0.32061023454528764
663,-0.43117119254493286,-0.5426136825219492,-0.8419668889196044,-0.44879872826696027
664,-0.6017443577259524,-0.7380006343859655,-1.124769413309631,-0.615936648672023
665,-0.8231651425603228,-0.985662594533504,-1.475759599667957,-0.8297680133756834
666,-1.1051984422876797,-1.2941194345906888,-1.9037740968596688,-1.098424932984285
667,-1.4579971685579511,-1.6718796423802282,-2.4169378738675547,-1.430129106218733
668,-1.8917057182100334,-2.127063197305072,-3.022166914352135,-1.8328180775509135
669,-2.4159736480407936,-2.6669716503269987,-3.724653859877122,-2.3137044323337372
670,-3.039393010936553,-3.297622323367797,-4.52736580563771,-2.8787824900311643
671,-3.7688800454479994,-4.023268532246358,-5.430586095940399,-3.532303546973192
672,-4.609028641011251,-4.845931800772157,-6.4315328006241215,-4.27624676548573
673,-5.561469005679924,-5.764974782674442,-7.524085402542649,-5.10981780881104
674,-6.624269948638231,-6.776744699269892,-8.698647983806485,-6.0290106267586046
675,-7.791426762269712,-7.874316296626671,-9.942171900765485,-7.026268955909384
676,-9.052478194944845,-9.047360490420225,-11.238353614450316,-8.090282692703118
677,-10.392294770077525,-10.282160009037314,-12.56801407971594,-9.205950242331655
678,-11.791076122487745,-11.561786596022602,-13.909655016258794,-10.35453125127689
679,-13.22458685309816,-12.866445974044238,-15.240174911826443,-11.514005111280522
680,-14.664648745763143,-14.173987207371674,-16.535714621238967,-12.659639598759478
681,-16.079892610157895,-15.46056286911934,-17.77259029819317,-13.764761488530135
682,-17.43675640862327,-16.701416176386743,-18.92826179230258,-14.80170754969462
683,-18.70069894503608,-17.871761748953762,-19.98227899573522,-15.742920760238668
684,-19.837581632364778,-18.947718684027215,-20.917147795893946,-16.562143908108787
685,-20.815156044493925,-19.90724898289365,-21.71906129035442,-17.23565203431025
686,-21.604583261246045,-20.731051644905456,-22.37845010531274,-17.743457576599027
687,-22.181903307416384,-21.403363318564683,-22.89031696537508,-18.070418451198567
688,-22.529369995274322,-21.91262032304951,-23.254334036034933,-18.207180337989744
689,-22.636568655100007,-22.251943851747292,-23.474696094445953,-18.150890244627575
690,-22.501241779049042,-22.41941972993487,-23.559737587032124,-17.90562882388973
691,-22.129760263966777,-22.418155528910148,-23.521336483531794,-17.48252318427927
692,-21.53719517787386,-22.256110377555984,-23.374141772316385,-16.899519169084527
693,-20.746965936238446,-21.945705669413762,-23.134673529413433,-16.180811145933127
694,-19.790064442103812,-21.50323726974221,-22.82035360869822,-15.35594709325337
695,-18.70387979920706,-20.948121044734076,-22.44853011635412,-14.458646049714616
696,-17.530673046762573,-20.302012853392135,-22.035559179941398,-13.525382593493463
697,-16.31577418790626,-19.587850928429443,-21.596002879587815,-12.593807873690313
698,-15.105592771150974,-18.828872303415807,-21.141992886724267,-11.701087761521105
699,-13.9455468873305,-18.047655309025632,-20.682796215867914,-10.882245142141226
700,-12.878022475821474,-17.26523711669268,-20.224603761987428,-10.168594648634413
701,-11.94047459079979,-16.500349115424356,-19.77054540936869,-9.586353968205804
702,-11.163774633993738,-15.76880412033977,-19.320918912547597,-9.155506291398927
703,-10.570893032922493,-15.083058809876134,-18.873604752150168,-8.888974013923695
704,-2.2441724629795057e-10,-7.356379404935312e-11,-1.5529624205714015e-10,-8.790994109208614e-11
705,-3.003310806738609e-09,-1.4108059894793805e-09,-3.292263320390558e-09,-1.6462802570178908e-09
706,-3.353234832111246e-08,-1.5617396945306127e-08,-3.744574972681722e-08,-1.91764536671473e-08
707,-2.4247012980436755e-07,-1.1362206057065518e-07,-2.807440742746047e-07,-1.4456606704496512e-07
708,-1.3052569576976774e-06,-6.200009880000641e-07,-1.5778253787062117e-06,-8.156596278357498e-07
709,-5.623276600333541e-06,-2.715033878890807e-06,-7.1064143766785555e-06,-3.681539690292327e-06
710,-2.02533604622144e-05,-9.976167785268862e-06,-2.678776826703847e-05,-1.389414077099151e-05
711,-6.296383592029254e-05,-3.1750873371164255e-05,-8.714590275583254e-05,-4.5253474086468984e-05
712,-0.00017307804839038421,-8.96413436188316e-05,-0.00025036047340812193,-0.00013026637177435574
713,-0.0004287702873240192,-0.00022871353008631975,-0.0006467024854511456,-0.000337665093570509
714,-0.0009721429728146035,-0.0005352263480422521,-0.0015239394613587628,-0.0008000801306225493
715,-0.0020429523502169963,-0.0011626588912238508,-0.003315611518088842,-0.0017542959270040008
716,-0.004021280744643164,-0.002367546933352249,-0.006727729074098161,-0.003595803654567287
717,-0.007478859469092477,-0.004556119281236294,-0.012841121566282473,-0.006948270078399834
718,-0.01323794232835003,-0.008341944510135054,-0.023224919098984668,-0.012747125769582084
719,-0.022435633748427265,-0.014613793404746632,-0.04005558046853929,-0.022334861798790667
720,-0.03659034555912322,-0.024611728222390324,-0.06623513195098503,-0.03756388553328104
721,-0.05766576295877822,-0.04000811422950671,-0.10550130131836424,-0.0609009957996557
722,-0.08812650370516134,-0.06298888854332024,-0.1625206290758242,-0.09552573845870085
723,-0.13097871894155166,-0.09632910363578351,-0.24295348664949104,-0.14541317989092933
724,-0.18978850443521367,-0.14345560186777695,-0.35347778907553074,-0.21539020564561234
725,-0.26867125096374084,-0.2084887838529808,-0.5017569293886879,-0.3111535814071798
726,-0.3722460762460189,-0.29625494910294264,-0.6963379737465947,-0.43923801631543496
727,-0.5055510270979213,-0.41226074139115315,-0.9464689759149074,-0.6069235300264191
728,-0.6739167392036366,-0.5626219730514626,-1.261829411300491,-0.8220736720546311
729,-0.8827985322377786,-0.753940650672382,-1.6521746195427602,-1.0928995861411661
730,-1.1375696118973986,-0.9931264784792792,-2.1269028259871754,-1.4276495499203954
731,-1.4432811241540264,-1.2871624660284773,-2.694560746828254,-1.8342292899635215
732,-1.804398148009562,-1.6428183811785841,-3.3623101116124556,-2.3197647661173946
733,-2.224524065934874,-2.066320358789927,-4.1353821960227135,-2.8901256954726744
734,-2.706128647162415,-2.5629895677221834,-5.016550529407235,-3.549434186949825
735,-3.25029728711118,-3.136866976139092,-6.005653471728523,-4.299587811625896
736,-3.856519686269845,-3.7903444974535936,-7.099198481505334,-5.139829619047712
737,-4.522535610357675,-4.523824844680223,-8.290078617268147,-6.066398589218997
738,-5.244253042796977,-5.335433091607258,-9.567428857570315,-7.072292506713536
739,-6.015750263962974,-6.220802192234076,-10.916644802384992,-8.147171263583717
740,-6.829368507527116,-7.172952544105545,-12.319578905903645,-9.277422316311013
741,-7.675896420328131,-8.182282129311023,-13.754919644322586,-10.446401780223267
742,-8.544842017300915,-9.23667884833839,-15.19874749189729,-11.634854774203207
743,-9.424782403950973,-10.321760467302283,-16.62524933245504,-12.821507521142369
744,-10.303776458739152,-11.421240333018762,-18.00756131774969,-13.983811873784292
745,-11.169820997737178,-12.517409087171469,-19.318700502382132,-15.098811106370055
746,-12.011327022530308,-13.591714630577515,-20.53253881151118,-16.144084982993377
747,-12.817589741389975,-14.625415255368468,-21.624769462797193,-17.098723340368544
748,-13.579224659842922,-15.600274870940284,-22.57381584808971,-17.9442717300486
749,-14.288542474341329,-16.499265138634705,-23.361635761257016,-18.665590798412335
750,-14.939838128910282,-17.30723746142943,-23.974379405341207,-19.251573485703368
751,-15.529574102730848,-18.011528287238075,-24.40286753673814,-19.695670788592793
752,-16.056444484167496,-18.60246406055015,-24.64286614334564,-19.996187382722237
753,-16.52131395285262,-19.07373721400047,-24.6951457508836,-20.156322086453713
754,-16.92703372333585,-19.422631536276104,-24.565326064374627,-20.18394401123311
755,-17.27814423515077,-19.650083652032677,-24.26351917915497,-20.091112165561753
756,-17.58048138627459,-19.76057667954716,-23.80379593048957,-19.893363096090905
757,-17.84070912796201,-19.761871774160795,-23.203509151335936,-19.608806725098173
758,-18.06580584943915,-19.66459256584222,-22.48251402189269,-19.257083799812555
759,-18.26253499291696,-19.481685815598116,-21.662329082399815,-18.858248399293853
760,-18.436931488490888,-19.227788364155483,-20.765281905961515,-18.43164495671015
761,-18.593834905522602,-18.918535193167585,-19.813681203707553,-17.994850682601133
762,-18.736497595622065,-18.569845889794497,-18.829052663693112,-17.562750754106546
763,-18.866291729454975,-18.197226927692675,-17.831469591161955,-17.14680518617421
764,-18.982533176704983,-17.8151250406123,-16.839001931259563,-16.754553388449978
765,-19.082433136985305,-17.43636279745826,-15.867299055103288,-16.38938599147602
766,-19.161180831413336,-17.071681624538623,-14.929313323675348,-16.050594927615833
767,-19.212152939890412,-16.729410380184596,-14.035163442948875,-15.733693479945295
768,-3.6125154518759125e-11,-9.57816782060784e-11,-1.0537700097612707e-10,-1.0675681187632254e-10
769,-5.654621463050236e-10,-2.0153751047965894e-09,-1.6889535370107865e-09,-1.9401696198102947e-09
770,-7.387636767365107e-09,-2.268371936394516e-08,-1.9704017106253697e-08,-2.1812230177650792e-08
771,-6.171243635008238e-08,-1.6825094574995924e-07,-1.4832123719614687e-07,-1.5987927266506299e-07
772,-3.853455311295712e-07,-9.353642383541151e-07,-8.381898606825469e-07,-8.794863795295704e-07
773,-1.9170811119204953e-06,-4.1690417846950195e-06,-3.7969217887078716e-06,-3.8808501292592745e-06
774,-7.929416658259455e-06,-1.556802032858417e-05,-1.440103863253717e-05,-1.435267640679388e-05
775,-2.81093934332356e-05,-5.025175640181561e-05,-4.7173482899953285e-05,-4.589766140294991e-05
776,-8.738850250379996e-05,-0.00014354630148571805,-0.0001365958277588793,-0.000129913585986424
777,-0.00024265873022654078,-0.00036960398944292384,-0.00035607006605378896,-0.0003314976673242416
778,-0.0006109519703955256,-0.0008705599321605426,-0.0008479890916505141,-0.0007738872435272613
779,-0.0014124659201574486,-0.0018985911320503757,-0.0018675900332061413,-0.0016730851172496912
780,-0.0030310030784307645,-0.0038725311333469665,-0.003842626447338077,-0.003383734964080956
781,-0.0060931990711657336,-0.007449729338536825,-0.00745011114921613,-0.006456649254169628
782,-0.011566571780957829,-0.013612710540937096,-0.013710501332467246,-0.011707644421623784
783,-0.020875002832362648,-0.02376891028390633,-0.02409865096486838,-0.020296432556779303
784,-0.036028655424541894,-0.039860277795486634,-0.040669364405508,-0.03381311037192309
785,-0.05976341673826312,-0.06447780294586784,-0.0661932622571816,-0.05436824090905682
786,-0.09568265140580748,-0.10097403690915238,-0.10429587066937757,-0.08468073865960413
787,-0.14839140810102813,-0.15356456502717117,-0.15958963941066087,-0.1281559581199151
788,-0.22361039561545562,-0.22740740350951763,-0.23778543418653858,-0.18894483804787088
789,-0.3282543799283534,-0.32864776466799595,-0.34576744361997025,-0.27197389303289426
790,-0.4704577130551705,-0.4644149305822467,-0.49161389816932477,-0.3829354798125376
791,-0.6595291113139993,-0.6427583772164267,-0.6845458651720591,-0.5282281992374792
792,-0.905819064197858,-0.8725119884442122,-0.9347879384932258,-0.7148386145417266
793,-1.220486530446182,-1.163078233884439,-1.2533279305605034,-0.9501576766153419
794,-1.615156715046307,-1.524128489746517,-1.6515676400121926,-1.2417283840337034
795,-2.101468347494709,-1.9652210594809358,-2.140863143288614,-1.5969252529983813
796,-2.690516601589276,-2.495344613100711,-2.7319605537380625,-2.022571088988437
797,-3.3922061896691855,-3.1224013203602152,-3.434341454659857,-2.524502109951174
798,-4.2145377785691895,-3.8526504463459466,-4.255500917782808,-3.1070982569960495
799,-5.162859196468305,-4.690139105297418,-5.200189813369885,-3.77280099719851
800,-6.239120341716471,-5.636151700013974,-6.2696614782112725,-4.521645488832277
801,-7.441176667325994,-6.688712824167157,-7.460970060046886,-5.35083719485897
802,-8.762189937575714,-7.842179648739949,-8.766373051300143,-6.254404547805169
803,-10.190176000233697,-9.086958763826178,-10.172892644107804,-7.222958916460292
804,-11.707747022567437,-10.40937893968197,-11.662088539510915,-8.243590775546702
805,-13.292089699002698,-11.791745306573556,-13.210088052830429,-9.299926593994524
806,-14.915211335889234,-13.21259216464532,-14.787907626598352,-10.372364475150892
807,-16.54447275971908,-14.647141338353896,-16.362083862728717,-11.438498061853902
808,-18.14341120821456,-16.067961175509758,-17.89561319003308,-12.473727864125367
809,-19.672838564702207,-17.44580866342926,-19.34917894253635,-13.452047498417821
810,-21.092181611917418,-18.75062456697048,-20.68262450681803,-14.34698015264108
811,-22.361012817219,-19.95263994747626,-21.856612543510582,-15.132628905279544
812,-23.440704037329144,-21.023542849387876,-22.83439405004442,-15.78479435941317
813,-24.29612279811255,-21.93764715004687,-23.583597950793653,-16.282105220790577
814,-24.897282549824702,-22.67300217881646,-24.07794285777168,-16.607102556376866
815,-25.220855265595144,-23.212382083346608,-24.298768641510467,-16.74721684984544
816,-25.251457411796153,-23.544098166407085,-24.236287641363866,-16.695578870977293
817,-24.98262876578197,-23.66258536390565,-23.890464602121316,-16.451610921137654
818,-24.41743748674455,-23.568725270447946,-23.27145110379256,-16.021354247919376
819,-23.56866350646506,-23.26988197921021,-22.39952378221218,-15.417501081368258
820,-22.458534652611824,-22.77964264447879,-21.304504591903676,-14.65911525030875
821,-21.118014679734664,-22.117271102760625,-20.024673523261388,-13.77104270012238
822,-19.58566814018782,-21.306899044287693,-18.605216932989702,-12.783031207375426
823,-17.906152186207795,-20.37649407098907,-17.096285305504296,-11.728595852099614
824,-16.12840821224688,-19.35665655376739,-15.550760375096859,-10.643682126516085
825,-14.303645033038803,-18.27930673219992,-14.021851209056788,-9.565190966268553
826,-12.48321858025478,-17.17632939879762,-12.560650796339544,-8.529438754738258
827,-10.716519860114282,-16.078245442408193,-11.213788376192579,-7.570630001886883
828,-9.048982603417693,-15.012977400927696,-10.021308229693389,-6.719420622848646
829,-7.520314645771472,-14.004770160604899,-9.0148934153054,-6.00164540306207
830,-6.163043131543561,-13.073318458738996,-8.216533660844222,-5.437274445998207
831,-5.001444190005682,-12.233140551834978,-7.637711208253654,-5.039650607175212
832,-1.5542518709778929e-10,-7.212421051793779e-11,-6.639997675226476e-11,-9.786787771213905e-11
833,-3.26915074078786e-09,-1.510182336250484e-09,-1.2424119610465143e-09,-2.0754503249692475e-09
834,-3.553245570886158e-08,-1.703138676533073e-08,-1.4105821593877113e-08,-2.2794285138120892e-08
835,-2.5502649436276517e-07,-1.2709632569924637e-07,-1.0532954475123914e-07,-1.6528196190004022e-07
836,-1.3703650152006702e-06,-7.120496261077642e-07,-5.917567870478142e-07,-8.97250341478442e-07
837,-5.901838342736895e-06,-3.2032302116347895e-06,-2.6732797675540513e-06,-3.903561025353972e-06
838,-2.1303585568821445e-05,-1.2088072944921355e-05,-1.0141758185271547e-05,-1.4231187474065189e-05
839,-6.654488962494781e-05,-3.94675094988564e-05,-3.331517902516748e-05,-4.488425068763325e-05
840,-0.00018427193749544855,-0.00011409636869988457,-9.69429808176244e-05,-0.00012544875709979175
841,-0.0004609940236307371,-0.0002973536210190094,-0.000254342030899318,-0.0003166190775738726
842,-0.0010577600900641463,-0.0007087883802876356,-0.0006102457953170132,-0.0007325752769037907
843,-0.002253466779666296,-0.0015636642472366662,-0.0013546724652757688,-0.001572983080445408
844,-0.004502223107001764,-0.00322429618666678,-0.002809555259274056,-0.003165934234899219
845,-0.008505095410107901,-0.006266065773277405,-0.005489082739989027,-0.006022436963658199
846,-0.015295139044333307,-0.011557932727310568,-0.01017379888101882,-0.01090216669425955
847,-0.026333041034478467,-0.020356090388275343,-0.01799754768387665,-0.018889191325367198
848,-0.04360907310251892,-0.03440809801094127,-0.030545190828621692,-0.03147533212827095
849,-0.06974543311560089,-0.05606329590237338,-0.04995753778560727,-0.050647671329231876
850,-0.10809141527600476,-0.08838353603575785,-0.07903804768072824,-0.07897537634278018
851,-0.16280221919299273,-0.13524631304618084,-0.12135373021796093,-0.11968945059655532
852,-0.2388907489622081,-0.20143044059310788,-0.18132057114751746,-0.17674735745360615
853,-0.34224073598587434,-0.2926727610670466,-0.2642620709008542,-0.25487297063314385
854,-0.4795692762782815,-0.4156833425019905,-0.37642844447836077,-0.3595613648917585
855,-0.6583277121791287,-0.5781065415726909,-0.5249639530861715,-0.4970379568287528
856,-0.8865319832077914,-0.7884164776852007,-0.7178109514141775,-0.6741627261365457
857,-1.1725172554863157,-1.0557380027905587,-0.9635416448909612,-0.8982727644790803
858,-1.524616717318098,-1.3895881181359748,-1.2711122486552124,-1.1769600363800108
859,-1.9507704861087605,-1.7995377341289813,-1.649539055515079,-1.5177855994220026
860,-2.458076984352926,-2.294799315055931,-2.107501608692128,-1.927936175513619
861,-3.0523052847999614,-2.8837518628173964,-2.652884401486533,-2.4138335566149736
862,-3.7373923260094934,-3.573420478926981,-3.29227486595687,-2.9807117345105665
863,-4.514953257098244,-4.36893307781343,-4.0304413358007185,-3.6321808541665916
864,-5.383836192244678,-5.27298140809792,-4.869819582502455,-4.3698010164519765
865,-6.339753997890845,-6.285317046195611,-5.810039934555616,-5.192692283573349
866,-7.375025024977324,-7.402315055816107,-6.847528553877404,-6.097209392103041
867,-8.478451689565288,-8.616638149407551,-7.975215996667041,-7.0767099875184964
868,-9.635360433251304,-9.917032114851786,-9.18238359245722,-8.121443122167046
869,-10.82781900389023,-11.288278852123911,-10.454673295258901,-9.218580107653747
870,-12.03503749540128,-12.711326683791922,-11.774279349359755,-10.352402774630654
871,-13.23394869131231,-14.16360896394841,-13.120330425953146,-11.504655311876382
872,-14.399951707402238,-15.619551885596929,-14.469459213189479,-12.655055879437597
873,-15.507791632060234,-17.05126140969988,-15.796543600456712,-13.781953941470148
874,-16.53253778787852,-18.42936815806875,-17.075590720334183,-14.863109525787337
875,-17.450615279914658,-19.723998731613236,-18.28072343492316,-15.876562071607575
876,-18.240839441822303,-20.9058330220956,-19.387219497113524,-16.801549745410256
877,-18.885401232195864,-21.947200348689645,-20.372547385519212,-17.61943553656541
878,-19.370753891030656,-22.82316317680979,-21.217340188072598,-18.314594457229045
879,-19.688357156448244,-23.51253605605596,-21.90625006334501,-18.875217057513353
880,-19.83524460261446,-23.99878934262059,-22.428630718434707,-19.293988461861122
881,-19.814391436152107,-24.27079214751814,-22.77900378981997,-19.568609317362576
882,-19.63487348294694,-24.323356507286327,-22.95727662148033,-19.702135213678144
883,-19.311822074477014,-24.15755454844879,-22.96869308586048,-19.70312362766147
884,-18.866192917223792,-23.780791790484294,-22.823514952615486,-19.585591132181424
885,-18.324378518197044,-23.206631961199083,-22.53644781204481,-19.368797040984116
886,-17.717702142968854,-22.454381013897617,-22.125841517282627,-19.076881351154448
887,-17.081835717784784,-21.54844971091086,-21.61270934347951,-18.73839353862215
888,-16.456184065086088,-20.51752450819041,-21.019621526486493,-18.38575355889252
889,-15.883273293175263,-19.39358496144406,-20.369536754581016,-18.054686791853708
890,-15.408172301971215,-18.210811992318668,-19.684639022738928,-17.78367048861194
891,-15.07796389252275,-17.00443479412592,-18.985246788932468,-17.613420759772154
892,-14.941266986309943,-15.809564834885082,-18.288856615768953,-17.586436905030986
893,-15.047795458644474,-14.660063494072855,-17.609374726017354,-17.74660492416732
894,-15.447923721822782,-13.587485721441945,-16.956577729281136,-18.138845686931262
895,-16.192216098901078,-12.620136234299572,-16.335829084406647,-18.80877703958341
896,-5.282178253110085e-10,-1.204340366122611e-10,-1.34209625473431e-10,-4.980819696293709e-10
897,-9.495270761552229e-09,-2.0758366428447288e-09,-2.782310622073607e-09,-9.439091582705512e-09
898,-1.0830253535280126e-07,-2.378733873615229e-08,-3.095697746593455e-08,-1.0627352654153124e-07
899,-8.035617916926534e-07,-1.7622207533151505e-07,-2.2721270945096343e-07,-7.820919883192006e-07
900,-4.47222317361796e-06,-9.797498728122305e-07,-1.2512719565395728e-06,-4.314416383131805e-06
901,-1.995118045249522e-05,-4.367224129289235e-06,-5.531443726794553e-06,-1.9075445926609233e-05
902,-7.453496803106818e-05,-1.6306818147901087e-05,-2.051186104327473e-05,-7.063651427171136e-05
903,-0.00024055318922054642,-5.2622319501599153e-05,-6.582123273264401e-05,-0.00022604169845313096
904,-0.0006865123588475261,-0.0001502343072485525,-0.00018706906855717412,-0.0006399759958708256
905,-0.001764404973367575,-0.0003864737682924957,-0.0004794418968667765,-0.001632847707246683
906,-0.004144169373940842,-0.000909106608908049,-0.0011241192227586095,-0.0038102648246699767
907,-0.009003311687210672,-0.001979225263695619,-0.0024396545637698484,-0.008230967242983795
908,-0.01827479378166869,-0.00402826832971032,-0.004949007073407512,-0.016626313476849813
909,-0.03495047633642962,-0.007729324669151022,-0.009461199845123284,-0.03166963602984591
910,-0.06343128275240789,-0.014081676115075064,-0.01716490194308694,-0.05728854873142521
911,-0.10990915415317376,-0.024506315474627588,-0.02972967638837034,-0.09900779611574688
912,-0.18275948657216423,-0.04094885557178974,-0.04940906493184581,-0.16430422532000824
913,-0.2929158311891793,-0.06598475427137424,-0.07913792466824242,-0.26294879537951654
914,-0.45419113526039,-0.10292003577394683,-0.12261449043890885,-0.4073033173959763
915,-0.6835021347990656,-0.1558787766622524,-0.1843557892065093,-0.6125324039869386
916,-1.0009469186139925,-0.22986677233639471,-0.269713780787263,-0.8966850844941663
917,-1.429681767552933,-0.33079935987637404,-0.38483943069871396,-1.2805971048139349
918,-1.9955441924967472,-0.4654808065793022,-0.5365831630169245,-1.7875656990844808
919,-2.726376117047172,-0.6415233276866591,-0.7323228612120818,-2.4427547236437435
920,-3.65101519951585,-0.8671959221562857,-0.9797146980317406,-3.2723001474275577
921,-4.79794283321834,-1.1511967626949342,-1.2863673616936775,-4.302103695454798
922,-6.193603126271595,-1.5023476459134653,-1.6594463957299153,-5.556325046277683
923,-7.860436093913127,-1.9292145908085574,-2.105221939945404,-7.055608793678737
924,-9.814698168934541,-2.4396646703698632,-2.628579647201814,-8.81510949430262
925,-12.064171726801023,-3.0403751420414156,-3.2325204753081924,-10.842404503395295
926,-14.6058903477142,-3.7363165356423527,-3.9176799661084365,-13.135407817783934
927,-17.42402609279453,-4.530236225013466,-4.681901083195802,-15.680416948918086
928,-20.48809720912261,-5.422172775662192,-5.519896155865911,-18.45043709094321
929,-23.751657879767183,-6.4090337030653375,-6.423032456399998,-21.40393101906239
930,-27.151624339191624,-7.48426981336802,-7.3792720420313715,-24.484137740456074
931,-30.60837290899541,-8.637677754176224,-8.3732896959881,-27.619086898460257
932,-34.026714700229896,-9.855358515518727,-9.38678344935151,-30.72240868891919
933,-37.297809517355056,-11.119853330314399,-10.398980940680952,-33.695001068829605
934,-40.30202947593792,-12.410469798061923,-11.387332572437577,-36.42756878445825
935,-42.91272391852098,-13.703800481726718,-12.328369842078876,-38.803994934626395
936,-45.000775171783985,-14.97442429947604,-13.198695074861192,-40.70544897970906
937,-46.43977395954246,-16.19576861474059,-13.976057772260495,-42.01507939685283
938,-47.111588766347104,-17.34109799120423,-14.64046369845551,-42.623088941303024
939,-46.91205969007249,-18.384585094079522,-15.175256449985076,-42.4319497325393
940,-45.75651849214643,-19.302411099166168,-15.568108320413646,-41.36148780726747
941,-43.584825508675884,-20.073837882293414,-15.811858285942533,-39.35355502262254
942,-40.36562260739476,-20.682192685984614,-15.90514014464236,-36.37601203689125
943,-36.099529612222064,-21.115708036740468,-15.852753132033406,-32.42576998475084
944,-30.821058580599573,-21.36816536265853,-15.66574026140594,-27.53067977553066
945,-24.599083435044573,-21.439299699872326,-15.361155380167267,-21.750114580905585
946,-17.535778128744667,-21.334934640971472,-14.96151743929253,-15.174159839656395
947,-9.764020024015808,-21.066830633887587,-14.493968561286115,-7.921401597146721
948,-1.4433412085581014,-20.652245197806042,-13.989170011342152,-0.13538317758489563
949,7.2454063815790954,-20.113219737249604,-13.479986060101748,8.020123191291269
950,16.10643141001139,-19.475623472232733,-13.000018986645955,16.366814290863335
951,24.93612703011237,-18.76799955351362,-12.58206826678567,24.718251179245637
952,33.530592153515315,-18.020270626225845,-12.256592664990968,32.88663903834401
953,41.693180609751934,-17.262370019027482,-12.050255138263186,40.689656964740415
954,49.241707513281185,-16.52286961263177,-11.984627076034938,47.957001514156744
955,56.01496317321591,-15.827675920858592,-12.075120636750007,54.53632662462135
956,61.8782266695097,-15.198862018099598,-12.330206205520769,60.29830042765682
957,66.72753085518909,-14.653695072825089,-12.750956938297797,65.14055371211641
958,70.49250380658903,-14.20390808035527,-13.330944843158392,68.99036154090929
959,73.13769342389023,-13.855250765922115,-14.05649393288862,71.80597396571984
960,2.5359792715022766e-11,-6.878641348353886e-11,-1.245410834719193e-10,4.631051995650711e-12
961,6.068136828576598e-10,-1.3886154493052716e-09,-2.5154945471451658e-09,1.1195603997160768e-10
962,7.506487771175172e-09,-1.539824358179133e-08,-2.836172136787421e-08,1.8249474759517416e-09
963,6.075012948494402e-08,-1.1269769823578326e-07,-2.0992614624535646e-07,1.745291987751468e-08
964,3.648638178345073e-07,-6.187795663473787e-07,-1.1649798147154766e-06,1.1779784404680278e-07
965,1.7402883558892528e-06,-2.7268859778175837e-06,-5.184585509504612e-06,6.117485658535933e-07
966,6.8906342490549815e-06,-1.008094339162439e-05,-1.93382725731889e-05,2.584378244726871e-06
967,2.3377375685003102e-05,-3.226108350820256e-05,-6.238160988977811e-05,9.232401437877842e-06
968,6.961085256043034e-05,-9.150349557809781e-05,-0.0001781785242551075,2.8706285308526105e-05
969,0.0001854356173247473,-0.00023429745839323394,-0.0004589843412311848,7.944587985794096e-05
970,0.0004488727842184292,-0.0005496243388411069,-0.0010821320727112187,0.00019923109041949873
971,0.001000279675197575,-0.001195496099678683,-0.0023633163671483303,0.00045933028624108046
972,0.002074718131000265,-0.0024351136977370357,-0.004828769795325537,0.0009851946843586774
973,0.004042823778837496,-0.004683435893667143,-0.009307299967184058,0.001985088815090067
974,0.007459969608342213,-0.00856424597373013,-0.017041529187132313,0.0037878206285573333
975,0.013122938928088116,-0.014976941616092861,-0.02981587104906245,0.006890301881788674
976,0.022132556646380235,-0.025171243840923768,-0.05009678878683649,0.012015009157742418
977,0.03595972332471536,-0.040826838804749764,-0.08117866115057637,0.020176532039060325
978,0.05651106381515065,-0.06413365811565717,-0.127326066441936,0.03275529772295612
979,0.08618900111756732,-0.09786713837442747,-0.19390058026442614,0.05157527132343429
980,0.12793962807799772,-0.1454514866963182,-0.28745758121930187,0.07898098788115675
981,0.18528051872763218,-0.211002874146042,-0.4157965746059955,0.1179077580761029
982,0.2622999161075509,-0.29934380016499473,-0.5879477370262023,0.17193742478051474
983,0.36361880794914875,-0.4159798483833321,-0.8140781292274286,0.24533077330558364
984,0.49430833533735674,-0.5670308997857556,-1.1053034765319492,0.3430267785773979
985,0.6597566914212958,-0.7591106862334895,-1.47339549898031,0.470598511638313
986,0.8654820460300213,-0.9991513292267776,-1.9303803650463354,0.6341559832559436
987,1.116891015881612,-1.2941730315782223,-2.4880307833037683,0.8401877202553985
988,1.418985745468162,-1.6510030965387434,-3.157262366550766,1.0953355831633549
989,1.7760266425708249,-2.0759526142110802,-3.9474538654242406,1.406101168338905
990,2.191161978317493,-2.5744631750778932,-4.865720089184356,1.7784868292053497
991,2.666039606297988,-3.1507395896656543,-5.9161749309620015,2.217579535677131
992,3.200419677022844,-3.8073875848716345,-7.099228788384387,2.7270911208278448
993,3.791810142856425,-4.545077600291216,-8.41096878242359,3.308873653647864
994,4.435148768868759,-5.362256880513153,-9.842670796886807,3.9624334649079738
995,5.1225559908449405,-6.254931812614387,-11.380489308164487,4.684471442987241
996,5.843182061398098,-7.216540670633329,-13.005364510078525,5.468480237769427
997,6.583169405802596,-8.237933481797414,-14.693176903706416,6.30443054864564
998,7.325747008939494,-9.307470641650768,-16.41516782877431,7.178578314811362
999,8.051468102158578,-10.411245400184773,-18.138630797636814,8.073422029458197
1000,8.738595609739297,-11.533427826893309,-19.827863313491395,8.967834346491859
1001,9.363632056558563,-12.656719913838767,-21.44535259747919,9.837384625571064
1002,9.901982384136966,-13.76290374947054,-22.953152030403576,10.65485932098637
1003,10.328729937425063,-14.8334578503217,-24.31438915324409,11.390975717397826
1004,10.619498363301556,-15.850211363124416,-25.494832125124134,12.015272265294538
1005,10.751365847790312,-16.796002387144977,-26.464431185462452,12.497146633123295
1006,10.703793488816087,-17.65530539239392,-27.198746546876837,12.807001538185062
1007,10.459527034748763,-18.414793703342923,-27.680175502953897,12.917449287674666
1008,10.005430933877937,-19.063806206503028,-27.898899861502077,12.804519409697718
1009,9.33321560456046,-19.594692609005744,-27.853489536392196,12.448810221711412
1010,8.440022787110115,-20.003018429562445,-27.551117780150047,11.836524919949886
1011,7.328839410315908,-20.287619060993983,-27.007366128033816,10.960335867384792
1012,6.008717284439394,-20.450501253274254,-26.245620723740817,9.82002717545184
1013,4.494783877305407,-20.496599670557792,-25.296084815151012,8.42287524048247
1014,2.8080381676989012,-20.43340512757998,-24.194453827339867,6.783739247504658
1015,0.9749346786077705,-20.27048901581664,-22.9803188299019,4.924848181016552
1016,-0.9732322844440927,-20.018954624131894,-21.695380651423836,2.875286717921936
1017,-3.001123997983348,-19.690850030120917,-20.38156941273924,0.6701984381736146
1018,-5.0703051589592745,-19.298578682055087,-19.079171705556902,-1.6502601297975665
1019,-7.140311694488315,-18.8543426569551,-17.825068977364598,-4.042168198337013
1020,-9.16980241503921,-18.369650038420225,-16.65118522337662,-6.459235967668527
1021,-11.117756488866817,-17.854912261900733,-15.583229819988352,-8.854284302405254
1022,-12.944678300145071,-17.319150114052988,-14.639802990931411,-11.18074470334719
1023,-14.61377191075822,-16.76981892951292,-13.831908341461606,-13.394117104953846
1024,-2.9936937931762283e-11,-6.558073160571002e-11,-1.1583933961346371e-10,-6.905647958923431e-11
1025,-6.851078832802104e-10,-1.4226499142086847e-09,-2.4413285823283225e-09,-1.4831391239477494e-09
1026,-8.178923790670497e-09,-1.6050140117458522e-08,-2.803361462461578e-08,-1.670522110719787e-08
1027,-6.443579285873487e-08,-1.1981014924395642e-07,-2.1172569122882284e-07,-1.244319832204663e-07
1028,-3.789215069209163e-07,-6.69958831621317e-07,-1.1975043862229378e-06,-6.941044748765452e-07
1029,-1.7782545162311508e-06,-3.002916507324827e-06,-5.4227054850335155e-06,-3.1015740560276412e-06
1030,-6.9561475264434e-06,-1.1275830000715424e-05,-2.0536802210029593e-05,-1.1600290957990083e-05
1031,-2.339682922239965e-05,-3.6600225455837303e-05,-6.709312593663826e-05,-3.7466972047249926e-05
1032,-6.927717786334087e-05,-0.0001051435334318832,-0.0001935372702603624,-0.00010699279369666214
1033,-0.00018398578839520983,-0.0002722924939325125,-0.0005020274949992891,-0.0002751910004451115
1034,-0.0004450142739038261,-0.0006451283870097423,-0.0011884364537518134,-0.0006471344054488867
1035,-0.0009928680589677504,-0.0014152756933548231,-0.0025989504268175293,-0.0014086262373057376
1036,-0.0020653974790732703,-0.002903661388184187,-0.005304241137234927,-0.0028675222393319513
1037,-0.004042657920178243,-0.00561795193439734,-0.01019067824544199,-0.005506545860478767
1038,-0.007503067742312708,-0.01032252117144551,-0.018566849496465046,-0.010047884833447849
1039,-0.013291149544139836,-0.018119806422408763,-0.03228283899824147,-0.01752917433685602
1040,-0.022596401545134114,-0.03054081647618756,-0.05385896777202856,-0.029389570041970212
1041,-0.03704180351136754,-0.04964131079078397,-0.08661945727649735,-0.04756342956386161
1042,-0.05877913179397555,-0.07809873538332951,-0.13482422875035627,-0.07457762676922622
1043,-0.0905866938443373,-0.1193034173459328,-0.20378875429566057,-0.11364675847040814
1044,-0.1359633836987145,-0.17743592456799773,-0.2999781127533926,-0.16875859309042246
1045,-0.19921126760035987,-0.2575211169593771,-0.43105824237008555,-0.24474029795341767
1046,-0.28549746458537295,-0.36544853269838606,-0.6058859675688711,-0.3472946060335049
1047,-0.40088511855876857,-0.5079486394037512,-0.8344204126300191,-0.48299448015856056
1048,-0.5523229283418942,-0.6925153452840912,-1.1275419435398966,-0.6592252415656942
1049,-0.7475831045883131,-0.9272670999612506,-1.49677019916119,-0.8840646279748803
1050,-0.9951388353673609,-1.2207418862117105,-1.9538792118429946,-1.1660937829161981
1051,-1.3039744238594122,-1.581625256275723,-2.5104142824231594,-1.5141356027397304
1052,-1.6833241969877883,-2.018415056206944,-3.1771217401027556,-1.936920980666007
1053,-2.14233993940726,-2.539031298059348,-3.9633089615353945,-2.442688058205051
1054,-2.6896907871656044,-3.150384440462905,-4.876158229443642,-3.038724419591135
1055,-3.333104052313751,-3.8579197815653288,-5.9200243150433565,-3.7308670853509605
1056,-4.078860240983711,-4.665159436779849,-7.095751846169465,-4.522980041899893
1057,-4.931260448672526,-5.573266196580901,-8.400053924102789,-5.416433689086212
1058,-5.892089115063371,-6.580655199148218,-9.824997044307619,-6.40961465541999
1059,-6.960099393380435,-7.682679606375382,-11.357638070630506,-7.49749744318994
1060,-8.130551659074184,-8.871415162162448,-12.979855958001984,-8.671310773878755
1061,-9.394837493947389,-10.135565519985931,-14.668413817215587,-9.91833080803324
1062,-10.74022143199953,-11.460505518338243,-16.395276045346765,-11.221830242684868
1063,-12.149730522555206,-12.82847326263016,-18.128191398668697,-12.561206508957058
1064,-13.602217191228036,-14.218914208417878,-19.83153711590796,-13.912304072992612
1065,-15.072614062648038,-15.608971885398962,-21.467402686027505,-15.247935698441486
1066,-16.53239072900002,-16.974111058209484,-22.99687576376298,-16.538596220291037
1067,-17.950212442260668,-18.288850673778423,-24.381478166789446,-17.75335076187618
1068,-19.29278990395774,-19.527576570343005,-25.584687835054897,-18.860868171091763
1069,-20.525898195277357,-20.665398188966797,-26.573473885559462,-19.83056036641818
1070,-21.61553192580565,-21.6790098583371,-27.31976703712425,-20.633779749435938
1071,-22.5291534945493,-22.547515871753216,-27.80178702119063,-21.24502029679199
1072,-23.2369826715107,-23.253179642010608,-28.005152264612743,-21.643063874161676
1073,-23.71326922125279,-23.78206064786343,-27.92370508836127,-21.812012214705014
1074,-23.937486578050464,-24.124508476360234,-27.559997792767852,-21.74214729066849
1075,-23.8953840743682,-24.275490674911595,-26.925401009496614,-21.430568661934068
1076,-23.57983822587604,-24.23473989153869,-26.039815075345064,-20.881565689172895
1077,-22.991450227649317,-24.00671533322429,-24.93098700267343,-20.106694816798417
1078,-22.13884701186625,-23.60038328476385,-23.63345851968362,-19.124546785982364
1079,-21.038656547214988,-23.028830674585958,-22.18719288496375,-17.960204775463843
1080,-19.715143850075933,-22.308733868819253,-20.63594783196105,-16.644411124893946
1081,-18.19951155870101,-21.459711538852066,-19.025477373124943,-15.212476451931456
1082,-16.528886879681874,-20.503595210303107,-17.401655088470733,-13.702979590991582
1083,-14.745034114665511,-19.463653721771006,-15.808615434082363,-12.15631885844541
1084,-12.892847632230751,-18.363808191520064,-14.287007641274352,-10.61318379848495
1085,-11.018692984300596,-17.227872250799496,-12.872449467847515,-9.113021120572654
1086,-9.168673042707224,-16.078848458331723,-11.594256137014993,-7.692568658661257
1087,-7.386901010471544,-14.938306330113187,-10.474504041384197,-6.384526893553048
1088,-5.3073647237459975e-11,-9.133365339066819e-11,-1.3396037498651524e-10,-2.0935268171772393e-11
1089,-1.128996442255918e-09,-2.013577053619073e-09,-1.9926098112919465e-09,-4.590250452795647e-10
1090,-1.2346812202351464e-08,-2.24031303090517e-08,-2.2819434469188967e-08,-5.297358628983131e-09
1091,-8.951686480116894e-08,-1.6503185299444205e-07,-1.6784971284908245e-07,-4.0779470525898784e-08
1092,-4.872047311241423e-07,-9.100889523439818e-07,-9.268228261966879e-07,-2.3694961607163093e-07
1093,-2.1319166328606787e-06,-4.020410215922108e-06,-4.101869388839433e-06,-1.1106455600616745e-06
1094,-7.844954623017853e-06,-1.48687907518641e-05,-1.5205781946111037e-05,-4.381953012913932e-06
1095,-2.5063563191819705e-05,-4.7502470432908984e-05,-4.87295963295496e-05,-1.498797758970362e-05
1096,-7.11997878242338e-05,-0.00013423062326192942,-0.00013824640394285214,-4.541535788498135e-05
1097,-0.00018316751067846932,-0.0003417632923561199,-0.0003537689568408262,-0.00012395480386853647
1098,-0.00043287671121853747,-0.0007958220342297971,-0.0008289947871636172,-0.0003087990807237177
1099,-0.0009504937803867767,-0.0017156906422654385,-0.00180110831249664,-0.0007098669962154689
1100,-0.0019568987000711424,-0.0034594927668281966,-0.0036656403881055385,-0.0015197648746112116
1101,-0.0038060760502719843,-0.006580224538940912,-0.007048477865680839,-0.003054521919076463
1102,-0.007037332707388288,-0.011891832995931589,-0.012896211694675813,-0.005803931524832405
1103,-0.012436437003014209,-0.020543917913391614,-0.022584430288938827,-0.01049073499113721
1104,-0.021104090886583122,-0.03410284901310321,-0.038041215056534496,-0.018137517617487244
1105,-0.03452949711067749,-0.05463610470586245,-0.061880225577525774,-0.030139831222737987
1106,-0.05466602632462205,-0.08479537878376395,-0.09753479300711346,-0.048343412767869874
1107,-0.08400504029939312,-0.12789253147307816,-0.149381784960838,-0.07512227180509594
1108,-0.12564278574690763,-0.18796099288776946,-0.22284197922974025,-0.1134529469704218
1109,-0.18333401298553947,-0.2697940654907114,-0.32444234301598424,-0.16697867096985436
1110,-0.26152477086749654,-0.3789510284924992,-0.4618250333777784,-0.2400559104067293
1111,-0.36535600794288425,-0.5217222480011747,-0.6436881691734351,-0.3377750902079129
1112,-0.500629588799996,-0.7050457400624663,-0.8796447675140691,-0.4659474507567159
1113,-0.6737294214581748,-0.9363697651548609,-1.1799889851884435,-0.6310509111865765
1114,-0.8914925820939349,-1.2234588762911451,-1.5553632992138589,-0.840129387186335
1115,-1.1610282745130465,-1.5741441499651772,-2.016326537369989,-1.10064206144722
1116,-1.4894857017369607,-1.9960218584823324,-2.5728305213631013,-1.420261492133883
1117,-1.8837751050946434,-2.4961084088339005,-3.2336219051554425,-1.806622078878193
1118,-2.3502492289503287,-3.0804628601927404,-4.005594767702595,-2.2670232199902323
1119,-2.89435534887401,-3.7537916443356827,-4.893127789909284,-2.8080944082964985
1120,-3.5202708252071506,-4.519053106966412,-5.897446566576935,-3.4354324148379223
1121,-4.230537888815966,-5.37708193372284,-7.016056143211932,-4.153223460091847
1122,-5.025715859562888,-6.326255114982207,-8.242290607368366,-4.963865716952148
1123,-5.904070921699772,-7.362221525703147,-9.565025057799138,-5.867609473498025
1124,-6.861324508363477,-8.477716205840833,-10.968590108041118,-6.862233653176068
1125,-7.890480876615072,-9.662477917193232,-12.432920166766383,-7.942778002506121
1126,-8.98175235816791,-10.903284575273398,-13.93395424099869,-9.101349979930202
1127,-10.12259709880615,-12.184115916839971,-15.444292587951459,-10.327024094417167
1128,-11.297879118868941,-13.48644657974026,-16.9340951605566,-11.605849032690026
1129,-12.490154581321583,-14.789666016970084,-18.372189787776424,-12.920974287662371
1130,-13.68008155033656,-16.07161472898274,-19.72734087610425,-14.252903150458444
1131,-14.846943559832381,-17.309219557842926,-20.96961453740826,-15.579873030133315
1132,-15.969270352756665,-18.47920461984796,-22.07176470294428,-16.878357530541965
1133,-17.025532642867365,-19.55884922709295,-23.010557847163206,-18.12367813457014
1134,-17.99488213803895,-20.526760220412722,-23.767952105176295,-19.29070731435222
1135,-18.85790371408519,-21.363623822874978,-24.332050228895522,-20.35463979290274
1136,-19.597343842303797,-22.05290167380518,-24.69775531288218,-21.291804623582124
1137,-20.19877842971799,-22.581437249439595,-24.867073482804194,-22.080487604890752
1138,-20.651184367770384,-22.939942400991644,-24.849028345287117,-22.701731170543404
1139,-20.947382400935894,-23.12333905896359,-24.659176789901274,-23.140077332532886
1140,-21.084324324249007,-23.130937945113157,-24.318742989161592,-23.384218823449196
1141,-21.06320475517824,-22.966443996426335,-23.85341490222281,-23.42752478927227
1142,-20.889386518542,-22.637786712060066,-23.291872856660962,-23.268410719938576
1143,-20.572138709419338,-22.156782356073442,-22.66414064356751,-22.910528017666273
1144,-20.124197282122882,-21.538643456558557,-21.999864159162374,-22.362756542729283
1145,-19.5611688370795,-20.801358892777074,-21.326629755558344,-21.638993097695828
1146,-18.900808259714232,-19.96497460036364,-20.66843347668169,-20.757739314719686
1147,-18.162209162313513,-19.050810113530723,-20.044403323349385,-19.741502928674027
1148,-17.364952041540366,-18.08064942577278,-19.467860263436584,-18.616036178896277
1149,-16.528258261163177,-17.07594572290562,-18.945781049256404,-17.40944349748396
1150,-15.670198148318535,-16.057078314536238,-18.478698565480425,-16.151197345889944
1151,-14.806998570839362,-15.04269662738143,-18.061045205527,-14.871105873663108
1152,-1.3910001145238265e-10,-6.73861630922174e-11,-9.916238681207941e-11,-7.536242999604598e-11
1153,-3.0563979475777716e-09,-1.4709811391721133e-09,-2.0146680696502903e-09,-1.5473519203145783e-09
1154,-3.426908519924963e-08,-1.6406914246866437e-08,-2.2659303399764974e-08,-1.7532704768152263e-08
1155,-2.538913741727172e-07,-1.2143873926557557e-07,-1.6806197617756662e-07,-1.3107893443227202e-07
1156,-1.406662713925214e-06,-6.744310401100794e-07,-9.347336097105144e-07,-7.346471232803536e-07
1157,-6.234968186228736e-06,-3.0070022659711417e-06,-4.170114542641311e-06,-3.300663370668451e-06
1158,-2.3102476528739974e-05,-1.1246216434065732e-05,-1.559451017911146e-05,-1.2419438299050903e-05
1159,-7.382990835059517e-05,-3.639522664943091e-05,-5.043565991383764e-05,-4.037160081074238e-05
1160,-0.00020835056718633064,-0.00010431676159942668,-0.00014442259521363528,-0.00011605904928783538
1161,-0.0005289342935658,-0.0002696603434569087,-0.0003729276326949982,-0.0003005306618161404
1162,-0.0012262434517371897,-0.0006379046576354731,-0.0008812410578006977,-0.000711467611030543
1163,-0.0026284939602485603,-0.0013974837213359254,-0.0019287401837969236,-0.001558823601343543
1164,-0.005263797106706982,-0.0028634638483080316,-0.003949102342376937,-0.0031934096752455105
1165,-0.009934639828859148,-0.005533545108582814,-0.007627820049838209,-0.006169642645650391
1166,-0.01780253348768257,-0.010156381149231224,-0.013997169172306503,-0.01132291679511581
1167,-0.03048006485562311,-0.01781139860545056,-0.024547461765298956,-0.019861035937916615
1168,-0.050126770422456036,-0.02999842947318322,-0.041351811753229106,-0.03346778710316024
1169,-0.07954425858531022,-0.04873447458734322,-0.0671997158779242,-0.054415072905087784
1170,-0.12226467649431776,-0.0766537084829423,-0.10573253319387114,-0.08567813416497763
1171,-0.1826249449323031,-0.11710537791452799,-0.16157158129817115,-0.13104642076458975
1172,-0.26581741215318855,-0.1742425997877842,-0.24042727609738765,-0.19522075853366042
1173,-0.3779062437768849,-0.2530934227048042,-0.34917578304283137,-0.28388580247108114
1174,-0.5257986237740397,-0.35960419247174064,-0.49588831822249063,-0.403745609561816
1175,-0.7171611337133756,-0.5006446101380908,-0.6897978315484616,-0.5625097681758002
1176,-0.9602745343082156,-0.6839641860023172,-0.9411886154136933,-0.7688181390524212
1177,-1.2638242096482064,-0.9180912067987347,-1.2611966105244057,-1.0320940708375663
1178,-1.6366281690998794,-1.212167786957296,-1.6615119259891968,-1.3623190437589743
1179,-2.0873091662554053,-1.5757178497889126,-2.1539802948829148,-1.7697260175579541
1180,-2.62392177815812,-2.018348694604176,-2.7501066640704335,-2.2644141211702244
1181,-3.2535489799545987,-2.5493908763869215,-3.4604715173522487,-2.8558933675899896
1182,-3.9818858089727955,-3.177485242951129,-4.294078360002617,-3.552574352896028
1183,-4.812830195204797,-3.9101299907066664,-5.257658448869706,-4.361223914140422
1184,-5.748102928934872,-4.7532043911840995,-6.35496569356787,-5.286412996613046
1185,-6.786919839618499,-5.710489264674069,-7.586100127152068,-6.32998709432483
1186,-7.925739161308046,-6.78320712375406,-8.94690200948313,-7.490592194653883
1187,-9.158105321870446,-7.969606892240017,-10.428460187066781,-8.763289864317313
1188,-10.474606754139781,-9.264618889416205,-12.016777530278034,-10.139293691311345
1189,-11.862959837960531,-10.659605046473214,-13.692632858097962,-11.605855577176547
1190,-13.308224058376304,-12.142226879123097,-15.431672485069356,-13.146324304555398
1191,-14.793145416553243,-13.696449528786495,-17.20475526020329,-14.740390537266402
1192,-16.298616698927322,-15.30269434584308,-18.97856282823412,-16.364522304310302
1193,-17.80423514137799,-16.938145361414353,-20.71647233111538,-17.992583663813228
1194,-19.288931085777264,-18.577207078818862,-22.37967273485945,-19.596617402033353
1195,-20.73163604288139,-20.192102913585153,-23.9284895476699,-21.14776117558922
1196,-22.11195554353925,-21.753595927103568,-25.323867127818865,-22.61725637579124
1197,-23.410811428810792,-23.231806744393392,-26.528944255240514,-23.977501034771432
1198,-24.611019801236033,-24.597098077747404,-27.51064820867661,-25.20309302109225
1199,-25.697774619642626,-25.820991296821635,-28.241226069455635,-26.271808071823543
1200,-26.65901264115283,-26.877078103491574,-28.699629965708684,-27.165459120379303
1201,-27.48564271831048,-27.741889665624107,-28.872675810114583,-27.87058886882773
1202,-28.171630873579435,-28.3956866167564,-28.75590285564384,-28.37895634688122
1203,-28.713941572732423,-28.823136183909618,-28.354073878117042,-28.687789767511813
1204,-29.112344641860634,-29.013847326682423,-27.68127250055147,-28.799791575695906
1205,-29.36910568069276,-28.96274098201659,-26.760574306924237,-28.72289622078882
1206,-29.48858489641385,-28.670239985947376,-25.623290908790548,-28.469795784762255
1207,-29.47677434143332,-28.142271529715718,-24.307809744500705,-28.057262115990365
1208,-29.340806104941027,-27.390083569473212,-22.858075681559452,-27.505305637987885
1209,-29.088463925264815,-26.42988489576321,-21.32178199760272,-26.83621982778008
1210,-28.727728099043023,-25.282326066275623,-19.7483566432557,-26.073565975494706
1211,-28.266378828318146,-23.971844688658138,-18.186843624089292,-25.24115490732427
1212,-27.711676750518173,-22.525903316907634,-16.683787862583966,-24.362080711100056
1213,-27.070131896618623,-20.97415136376708,-15.281234247614348,-23.45785622995239
1214,-26.347364346110133,-19.347543956673665,-14.014947305595744,-22.5476915947534
1215,-25.548052094480045,-17.6774507130449,-12.912947030528347,-21.647946087579587
1216,-7.813298106703865e-11,-6.168174261695589e-11,-9.967590762202447e-11,-7.119720001364627e-11
1217,-1.639340579975233e-10,-1.2822135062611862e-09,-1.9234842734116794e-09,-1.335639195398067e-09
1218,-3.235632107703209e-09,-1.4401884542785586e-08,-2.1441040658395225e-08,-1.528370553949937e-08
1219,-2.659233606920513e-08,-1.0678414028364568e-07,-1.571724146654306e-07,-1.1372174995747468e-07
1220,-1.687554024716098e-07,-5.932473799869729e-07,-8.644484604984083e-07,-6.346214353526595e-07
1221,-8.567301159256511e-07,-2.6419366890035686e-06,-3.815427348619172e-06,-2.839655426182094e-06
1222,-3.6386700329825655e-06,-9.856673313706597e-06,-1.4124274284223523e-05,-1.0647899458066133e-05
1223,-1.329868632222271e-05,-3.1790094774491266e-05,-4.5253214723787465e-05,-3.45252422007593e-05
1224,-4.272686656496225e-05,-9.075338737429618e-05,-0.00012848054775659612,-9.909758972677387e-05
1225,-0.000122723603625403,-0.0002336001962619242,-0.0003292659114471427,-0.0002564252853919497
1226,-0.00031948834284219283,-0.0005502716696059303,-0.0007730750963043352,-0.0006069509604171495
1227,-0.0007626552959018021,-0.0012007677255050217,-0.0016832233857117238,-0.0013298470911868483
1228,-0.0016861663430621035,-0.0024518831210092796,-0.0034330888447597456,-0.002723872976799273
1229,-0.0034831651114232897,-0.004724576111234575,-0.006614647847428662,-0.005259057742976187
1230,-0.00677467006109815,-0.008652247411176999,-0.012124565441601993,-0.009638663115362975
1231,-0.012490353172349486,-0.015149480973772667,-0.021267848636892565,-0.016869979365800612
1232,-0.021958388125821085,-0.02548987406323799,-0.03587719241389715,-0.028341476136298782
1233,-0.03700001628754045,-0.04139042255000434,-0.05844369526483356,-0.045902597663067854
1234,-0.060023113338271254,-0.06509853965020379,-0.09225190836105353,-0.07194108109235786
1235,-0.09410760706665715,-0.09947626587807183,-0.14150964002944016,-0.10945122416711808
1236,-0.14307414385364936,-0.14807472256425344,-0.21146092516108378,-0.16208526162513984
1237,-0.21152602830818676,-0.21519054818538572,-0.30846919772136483,-0.23417914012502536
1238,-0.3048534908178431,-0.305895137569175,-0.4400569155885146,-0.33074374295644937
1239,-0.42918912500293466,-0.42602718209750057,-0.6148875783813906,-0.45741319341397857
1240,-0.59130441303846,-0.5821394784370789,-0.8426763514386336,-0.6203434370508967
1241,-0.7984398519512027,-0.7813923500276776,-1.1340166860628682,-0.8260569227717103
1242,-1.0580653534290627,-1.0313883266070338,-1.5001129108412568,-1.0812328049408755
1243,-1.3775729012594597,-1.3399458498113226,-1.9524131710765227,-1.39244640380265
1244,-1.7639094341460064,-1.7148135430189904,-2.5021434463350216,-1.7658662702455128
1245,-2.223163955662228,-2.1633307737456695,-3.159751357025618,-2.2069216127681255
1246,-2.7601284135256194,-2.6920445971796205,-3.9342773511131783,-2.7199565925130176
1247,-3.3778564910403452,-3.3062974385949815,-4.832679672817648,-3.3078907844723515
1248,-4.077247695680363,-4.0098037805449005,-5.859147265199591,-3.971906788968344
1249,-4.856685842122733,-4.804237406840625,-7.014440676033548,-4.711186539419853
1250,-5.711760979850474,-5.688853141448793,-8.295304597348666,-5.522717217092287
1251,-6.635101910753849,-6.660168225706359,-9.693996599104153,-6.401185708993797
1252,-7.616342432555596,-7.711728217636654,-11.197974738202692,-7.33897699699575
1253,-8.642238319232455,-8.833980353742085,-12.789781955148536,-8.326286629501471
1254,-9.696943907252328,-10.014273576464886,-14.447157500312889,-9.35135060844865
1255,-10.76244752051101,-11.236998966396284,-16.143395222953618,-10.400788081462581
1256,-11.819154442233474,-12.483877366103258,-17.84795572185636,-11.46004387868608
1257,-12.846595514258135,-13.734392944225673,-19.527324621693378,-12.513909997055146
1258,-13.824229493681992,-14.96636283560615,-21.146093305406314,-13.547098391623447
1259,-14.732298822030094,-16.156624381119553,-22.668222248008263,-14.544832477907502
1260,-15.552692339077126,-17.281813484804154,-24.058431832396383,-15.493422035658377
1261,-16.26976531810238,-18.31920078538181,-25.283652522061633,-16.38078600103207
1262,-16.871067491986324,-19.2475472309552,-26.314456911752764,-17.196890075997086
1263,-17.347933514458997,-20.047937656218195,-27.126391688117888,-17.93407106607564
1264,-17.695897464638907,-20.70455035223545,-27.701128780081987,-18.587227066173924
1265,-17.91490309514841,-21.2053224604742,-28.027362267309783,-19.153861480431026
1266,-18.00929394756929,-21.542475219710827,-28.101390655546396,-19.633978702513335
1267,-17.9875812420501,-21.712869402338026,-27.927342024587293,-20.02983935932853
1268,-17.862001466644134,-21.718169370023517,-27.5170209942139,-20.34559265733591
1269,-17.64788874335698,-21.564803660818786,-26.889379840944997,-20.5868119620695
1270,-17.36289832507958,-21.263720434244604,-26.069639754008,-20.759966686972078
1271,-17.026126346465247,-20.829946893225568,-25.088110494966603,-20.871868289680073
1272,-16.657176662511993,-20.281972326739993,-23.978776055291647,-20.929130117987246
1273,-16.275228028512842,-19.6409839778047,-22.777728898627117,-20.937679688760404
1274,-15.898153844765464,-18.92999285906147,-21.521544858088408,-20.902357706054293
1275,-15.541742357532835,-18.172892348459005,-20.245693963589325,-20.826631114432256
1276,-15.219057851794167,-17.393495514229524,-18.983079127106006,-20.71243839874153
1277,-14.93997343756357,-16.6145974840753,-17.762784981399125,-20.560174979789
1278,-14.710894149609837,-15.857106868171229,-16.609103967889066,-20.368815735775442
1279,-14.53467612964211,-15.139285556505584,-15.540887041972697,-20.13616120976039
1280,-1.3288309523018482e-10,-1.339725670273575e-10,-5.873050886622392e-11,-4.324607057879513e-11
1281,-2.8795129437580383e-09,-2.5805223346468107e-09,-1.2013453837969607e-09,-5.77470073540102e-10
1282,-3.206574957319571e-08,-2.89029288532414e-08,-1.3713198084510895e-08,-6.97388277536436e-09
1283,-2.3624930497423006e-07,-2.1195428421104574e-07,-1.0305503156280675e-07,-5.351393111394082e-08
1284,-1.3012262436580382e-06,-1.1655232060793708e-06,-5.800023920390122e-07,-3.0869226616148784e-07
1285,-5.7341741397533574e-06,-5.139136119772996e-06,-2.614862453395295e-06,-1.42687014673344e-06
1286,-2.1123646078351054e-05,-1.8988331332996e-05,-9.869295950102046e-06,-5.518513126971932e-06
1287,-6.711075490615462e-05,-6.0664462335818434e-05,-3.2181058565608684e-05,-1.8418006836676098e-05
1288,-0.00018825401369201695,-0.00017157881895192383,-9.283149784339232e-05,-5.428600311323544e-05
1289,-0.00047493454675805,-0.0004376033179847518,-0.00024136147260502653,-0.00014390249887927427
1290,-0.0010937723215660854,-0.001021446159569235,-0.000574176687885731,-0.00034817215786814656
1291,-0.0023278209940740674,-0.002208675640355187,-0.0012652550055973764,-0.0007783449013145785
1292,-0.004625396844339788,-0.004468836843316688,-0.002609104599124088,-0.0016242529862063814
1293,-0.008655115061562963,-0.008532081043772054,-0.005077684546168104,-0.003191548182069563
1294,-0.015363736972742993,-0.015480575326474805,-0.009392209270852034,-0.005948487971732429
1295,-0.02603272118753555,-0.026852687579998112,-0.016609561440824268,-0.010582240572723488
1296,-0.04232871815875961,-0.04475643608186337,-0.028221439408358726,-0.018063851230238813
1297,-0.06634245967393904,-0.07198688834749183,-0.04626247633156874,-0.02971990096940404
1298,-0.10060954988689542,-0.11214008000839114,-0.07342157876176947,-0.04730752276061809
1299,-0.14810577737411534,-0.1697137616536897,-0.11314886766972387,-0.07308799324013608
1300,-0.2122091540296748,-0.2501831518863338,-0.16974907583137958,-0.10989282467126128
1301,-0.2966213992999138,-0.3600382408487431,-0.24845119008920968,-0.16117534266507358
1302,-0.40524335492058944,-0.5067684614864814,-0.35544357655659226,-0.23104026507244746
1303,-0.5420018890802796,-0.698781051418881,-0.497863776925952,-0.3242437700782603
1304,-0.7106300195361409,-0.9452414195326279,-0.6837326366306901,-0.4461569503406359
1305,-0.9144068484286922,-1.2558273456111788,-0.9218235286742398,-0.6026864324041621
1306,-1.1558689675071534,-1.640393762865274,-1.2214594100661358,-0.8001474650359489
1307,-1.4365097389100927,-2.1085508746319928,-1.5922335699259123,-1.045087077923246
1308,-1.7564867611060966,-2.669165047294955,-2.0436543933257965,-1.3440580253644592
1309,-2.1143604606063606,-3.329798850735207,-2.5847201885225677,-1.703347991013246
1310,-2.506887831151165,-4.096113357674076,-3.2234366538508903,-2.128672630001913
1311,-2.9288947853864924,-4.971261952843534,-3.9662961189169152,-2.62484508169784
1312,-3.373248382385061,-5.955309990492993,-4.817743385315088,-3.1954381808990586
1313,-3.830946343387225,-7.044718232712247,-5.779657091116036,-3.842458367893429
1314,-4.291335736505698,-8.23192960165266,-6.850877657350307,-4.566051912427458
1315,-4.742465548213301,-9.505097958072891,-8.026813062221258,-5.3642643290827285
1316,-5.1715692637895865,-10.847994003003661,-9.299152152025558,-6.232872680239988
1317,-5.565663946656748,-12.240116836373524,-10.655712156354307,-7.165307920497685
1318,-5.912242222859895,-13.657030251761851,-12.080442573492585,-8.152680666297025
1319,-6.200023832875459,-15.070930895551985,-13.553601551085507,-9.183918972433988
1320,-6.4197250012594,-16.451441624629147,-15.052113246291803,-10.246021013806903
1321,-6.5647978468528665,-17.766608688949802,-16.550105570685233,-11.32441918546805
1322,-6.6320892995236385,-18.984066817454746,-18.019617640299035,-12.403445275336885
1323,-6.6223699761013135,-20.072323010866665,-19.4314558228612,-13.46687938551925
1324,-6.54068821415725,-21.002098914328386,-20.75616725980276,-14.498558724342177
1325,-6.396512623457855,-21.7476639225269,-21.965090888908367,-15.483016898783186
1326,-6.2036375740501,-22.288087336943633,-23.031438993714374,-16.40612057713297
1327,-5.979839359631582,-22.608338326830317,-23.931357733237718,-17.255668821737228
1328,-5.746285601467518,-22.70016730670614,-24.644913413463815,-18.021921193184326
1329,-5.52671589837662,-22.56271149752051,-25.156952720714244,-18.69802371157266
1330,-5.346426819789898,-22.20278052669949,-25.457789821073817,-19.28030655446354
1331,-5.231108117551098,-21.634794268221256,-25.543680956472834,-19.76843351316472
1332,-5.205588537839317,-20.880363837394974,-25.41705749934966,-20.165390375326524
1333,-5.292557908446713,-19.967526615534013,-25.08650066056903,-20.477307276122335
1334,-5.511336412441762,-18.929666149122465,-24.566454305290303,-20.71311845194032
1335,-5.876761601205722,-17.804166454728037,-23.876685686045636,-20.884071428138306
1336,-6.39825867083147,-16.63086635943091,-23.041516529163747,-21.003106034203874
1337,-7.079150227493768,-15.450391858689008,-22.08885821139911,-21.084131203565153
1338,-7.916248890281385,-14.30245211329932,-21.049094370645584,-21.14123366481466
1339,-8.899760451299665,-13.224187047680827,-19.953861991612666,-21.187856886959217
1340,-10.013507835696187,-12.248651376912862,-18.83478756934609,-21.235990711070862
1341,-11.235467836720458,-11.40351155204672,-17.722238044550657,-21.295411981326794
1342,-12.538594751928681,-10.71001924064923,-16.6441463829999,-21.373014380948817
1343,-13.8918888524693,-10.18230852185443,-15.624968521125016,-21.472261909376012
1344,-1.378387209575514e-10,-8.102672444037082e-11,-1.2907218006477904e-10,-4.602053963017762e-11
1345,-1.7276724828855906e-09,-1.7645580172591443e-09,-2.6623060700196403e-09,-8.602296357146077e-10
1346,-2.0897844707668637e-08,-1.9791078396851774e-08,-3.019636124028625e-08,-9.758371413464945e-09
1347,-1.5681605548172543e-07,-1.4680789043930384e-07,-2.2483402531046767e-07,-7.268632041962529e-08
1348,-8.847237559601264e-07,-8.159754827511333e-07,-1.2539316000922404e-06,-4.0694807786057884e-07
1349,-3.999299135669683e-06,-3.635517257351308e-06,-5.602060726546679e-06,-1.8308857822047946e-06
1350,-1.5130965392042192e-05,-1.3567150258862665e-05,-2.095107208959785e-05,-6.9161133803383376e-06
1351,-4.943482674836749e-05,-4.3749431671351385e-05,-6.768211030908262e-05,-2.2626955653677188e-05
1352,-0.00014275525278904878,-0.00012478941756149524,-0.0001933772905157284,-6.561832638257916e-05
1353,-0.00037106161982478726,-0.0003206653855742095,-0.0004977753656735188,-0.00017175554203050148
1354,-0.0008808971781192339,-0.0007533377374450902,-0.0011716826836738845,-0.00041170084000832964
1355,-0.0019329074883284976,-0.0016377255369309505,-0.002552762561886958,-0.000914537345852937
1356,-0.003959225411637407,-0.003327972804197299,-0.005199962216659323,-0.0019013589987801483
1357,-0.007633877494175613,-0.006375070602047943,-0.009986786500103205,-0.003730554170044891
1358,-0.013953734762121625,-0.011595032921023775,-0.018211903493350924,-0.006956097344232008
1359,-0.024326022332642916,-0.020145955941131104,-0.03172384625063437,-0.012399445878021612
1360,-0.04065712312812339,-0.033611328062429315,-0.05305484884176057,-0.021234524085933144
1361,-0.0654362337658293,-0.0540858061653451,-0.0855569975209784,-0.03508378632442076
1362,-0.10180637833875703,-0.08425831491276864,-0.1335317137894428,-0.05612160751970909
1363,-0.15361429595934492,-0.12748588133969135,-0.20234113021294375,-0.08717943088398136
1364,-0.22542994627660254,-0.18785031294064833,-0.29848747092248834,-0.13184533399391551
1365,-0.3225259283332825,-0.2701889249678887,-0.42964466811142954,-0.1945490167669003
1366,-0.45080736872054716,-0.38009025057552764,-0.6046258140344334,-0.28062174811222146
1367,-0.6166841497860787,-0.5238461728678732,-0.8332711906777025,-0.3963196915348672
1368,-0.8268801629927122,-0.708353277769801,-1.1262447904889177,-0.548798547415624
1369,-1.0881786145502828,-0.9409584436683806,-1.4947322996177324,-0.7460279086960003
1370,-1.4071080279210215,-1.2292467018295035,-1.950040051844076,-0.9966353876129415
1371,-1.7895797656613635,-1.5807730785127816,-2.5031019029904265,-1.3096735351225124
1372,-2.2404938164877377,-2.0027442449562622,-3.1639087645249804,-1.6943067840599035
1373,-2.7633345684751602,-2.501660062179649,-3.940883196530282,-2.159420870149707
1374,-3.3597817676809134,-3.082929194739018,-4.8402285509399166,-2.7131631005657106
1375,-4.029363673846133,-3.7504765696198192,-5.865288237794404,-3.36242807648199
1376,-4.769179439361578,-4.50636327769988,-7.015955216045746,-4.112309659930095
1377,-5.573716055171471,-5.35044129012138,-8.288174213897156,-4.9655457067311985
1378,-6.434781782422113,-6.280065856979287,-9.673578869241503,-5.9219868937187226
1379,-7.341572898214558,-7.2898875186623995,-11.159302500608108,-6.978124341948037
1380,-8.28088379728619,-8.371743236908832,-12.72799431168265,-8.126712183107475
1381,-9.237462282401374,-9.51466230719396,-14.358062590834463,-9.356520371409557
1382,-10.194502610978049,-10.704997590862034,-16.024153356150983,-10.652249683142259
1383,-11.134259191967557,-11.926686417443475,-17.69785781143332,-11.994634906186997
1384,-12.038754422939865,-13.161638516422459,-19.348626104844858,-13.360753766187832
1385,-12.89054569614859,-14.390240883156023,-20.944849500492943,-14.72454843475095
1386,-13.673509892409898,-15.591961997049088,-22.455059394205403,-16.057554025560353
1387,-14.373599445671264,-16.74603081110797,-23.84918063142728,-17.329815092903292
1388,-14.979523079649997,-17.832159991403856,-25.09976919847039,-18.510957785543486
1389,-15.483306910779362,-18.831278542117328,-26.183161299164105,-19.571373023884348
1390,-15.880697777632864,-19.726236653620454,-27.080462730082505,-20.48345584619202
1391,-16.171379813474076,-20.502445638352604,-27.778314655084237,-21.22283872257989
1392,-16.358986706041275,-21.148418264680558,-28.269384270675875,-21.769552796656207
