,TP9,AF7,AF8,TP10
0,-4.827373290943301e-11,-6.437769906324384e-11,-1.0947950192233483e-10,1.7104307279678666e-11
1,-9.462202375316475e-10,-1.353164033648703e-09,-2.29876564904975e-09,5.140809175208581e-10
2,-1.0491791806309246e-08,-1.4880386174502077e-08,-2.5809230161374067e-08,5.503625644448127e-09
3,-7.642200650952316e-08,-1.0834890189115717e-07,-1.9073814356054498e-07,3.902636804360294e-08
4,-4.1701964266623984e-07,-5.918780064456466e-07,-1.0555817509187734e-06,2.0220171037997343e-07
5,-1.8256433142508938e-06,-2.596229914448802e-06,-4.67962427280992e-06,8.144541151568508e-07
6,-6.709386777618854e-06,-9.559264039109881e-06,-1.7367747070808707e-05,2.63745519358799e-06
7,-2.1381071848912647e-05,-3.049132923484217e-05,-5.5682289641174936e-05,6.969658030398161e-06
8,-6.053233614528973e-05,-8.627720002576216e-05,-0.00015790115713480927,1.4916494470081446e-05
9,-0.00015512172350316144,-0.00022060992822970946,-0.0004034404090841527,2.4420376936698698e-05
10,-0.00036512406257844306,-0.0005173727647786048,-0.0009426693670033712,2.291671164219273e-05
11,-0.0007986081855564214,-0.001126364787259609,-0.002039017937168801,-2.6882882661046264e-05
12,-0.001638361903601783,-0.002299201443661947,-0.004124421543441453,-0.00021037017570456424
13,-0.003176778826432727,-0.00443701434027419,-0.007868151330160097,-0.0006951884592758174
14,-0.005859028646574605,-0.008151189242177325,-0.014258034717048784,-0.001776901434422994
15,-0.010333729218005731,-0.014337746946894075,-0.024691975896119232,-0.003936171212333944
16,-0.017509447702576494,-0.024264993012821524,-0.04107641442020267,-0.007906758301119
17,-0.028614394759235315,-0.03967268246096568,-0.06592680820890306,-0.014752893727667558
18,-0.045255696641775645,-0.06287918855527684,-0.10246339847321308,-0.025953549377973277
19,-0.06947373426831298,-0.09689116571901768,-0.15469357669054512,-0.04348980293797761
20,-0.10378630946867766,-0.14550816676363834,-0.2274704530919792,-0.0699298813731395
21,-0.15121684444789965,-0.21341284752918377,-0.3265160921861401,-0.10850463873415475
22,-0.21530044797499798,-0.3062359864671813,-0.4583976884443792,-0.16316435192203094
23,-0.30006157637158604,-0.4305847411888009,-0.6304459269883085,-0.23860617113298588
24,-0.4099573951334073,-0.5940225035275135,-0.8506070004636579,-0.34026085099980247
25,-0.5497820374994498,-0.8049894909794026,-1.1272231513677269,-0.4742279190384876
26,-0.7245288879870898,-1.072654878501857,-1.4687409925075134,-0.6471503301425039
27,-0.9392107317245503,-1.4066938550462877,-1.8833519406785844,-0.8660227321133006
28,-1.198640909551876,-1.8169865137924248,-2.378574570517326,-1.1379314463874792
29,-1.5071822130228285,-2.3132399573021676,-2.9607942125757396,-1.4697288739078394
30,-1.8684737908184594,-2.9045403409500627,-3.634780324850929,-1.867650008229561
31,-2.28514942941911,-3.5988475491854754,-4.403206679611666,-2.3368837687668034
32,-2.7585628602566676,-4.402451376143482,-5.266202806860467,-2.8811166609192522
33,-3.2885370355990826,-5.319413899695171,-6.220967015464255,-3.502070631433204
34,-3.8731545822689455,-6.351027578722592,-7.261471296075319,-4.1990607804701385
35,-4.508605970704033,-7.495321917830066,-8.378286257343637,-4.9686015780803565
36,-5.189110356869394,-8.746652922549268,-9.558549870145521,-5.804091922340121
37,-5.906921501871472,-10.095408782041114,-10.786097313742914,-6.695609157775587
38,-6.652427537431618,-11.527862182764444,-12.041760909401905,-7.629839571898525
39,-7.414348620583413,-13.026194418198584,-13.303839444967965,-8.59016779911695
40,-8.180030870671235,-14.568709154031703,-14.548725717477183,-9.556940208044846
41,-8.935828750501928,-16.130244585332342,-15.751670565900884,-10.5079081597571
42,-9.667561719279249,-17.68278215240479,-16.887651816882066,-11.418846537990229
43,-10.361025124907123,-19.196238486464548,-17.932308200150953,-12.264331861148062
44,-11.002530535779163,-20.63941550400018,-18.862892107341843,-13.018653423490454
45,-11.579447551456306,-21.981072346717976,-19.659191595845797,-13.65682110718033
46,-12.080717876455866,-23.19107301924806,-20.30437163543398,-14.155625404861738
47,-12.497313118828863,-24.241555931066124,-20.78568738838807,-14.49469920807882
48,-12.822610253538777,-25.10806683413784,-21.095028230328786,-14.65752738680733
49,-13.052662773145405,-25.77059541002476,-21.229259934403608,-14.632349465473702
50,-13.186351029762113,-26.214458283749593,-21.19034342526845,-14.412903133222397
51,-13.22540186623139,-26.430977471859862,-20.985221028969292,-13.998962049037317
52,-13.174274957670676,-26.417912833218697,-20.6254743570975,-13.396630275100218
53,-13.039920877280135,-26.179619359539704,-20.126771000207,-12.618367291816105
54,-12.831423307585721,-25.72691437952614,-19.508129231609995,-11.682731335432882
55,-12.559544606105987,-25.076655176927524,-18.791040203922698,-10.613843960529332
56,-12.236199646010999,-24.251043338419436,-17.998494996530425,-9.440594230618677
57,-11.873887027334193,-23.276687490875698,-17.153968820394823,-8.195615602407647
58,-11.485109005378714,-22.183470010981775,-16.280416352064485,-6.914081317055861
59,-11.081811641723808,-21.00327480867247,-15.399330477639472,-5.632374205135098
60,-10.674874828295598,-19.76864148732555,-14.529911904696156,-4.386693832766568
61,-10.273678220793952,-18.51141537921668,-13.688389635097918,-3.2116675939859016
62,-9.885764069360915,-17.261462805485177,-12.887522824917141,-2.1390324468007917
63,-9.516611811487742,-16.045516483484242,-12.136303765300301,-1.1964503687130736
64,-1.2166766048602318e-10,-7.289043060541617e-11,-9.807000634423485e-11,-1.4509787884327964e-10
65,-2.7202080778985172e-09,-1.6051597077203147e-09,-2.10851273152399e-09,-3.2281305862022927e-09
66,-3.061416026242791e-08,-1.7982670128204694e-08,-2.3589347025484163e-08,-3.6111063775349815e-08
67,-2.277665871899957e-07,-1.3348841570148948e-07,-1.7434636883076462e-07,-2.667825395600831e-07
68,-1.2662467295172623e-06,-7.428721869871352e-07,-9.6556289418171e-07,-1.4700181887030732e-06
69,-5.6282198849458405e-06,-3.316097122385222e-06,-4.286928463240394e-06,-6.466523763930722e-06
70,-2.090130990928462e-05,-1.2406849535303566e-05,-1.5945413513115097e-05,-2.3737034928451312e-05
71,-6.69201408786467e-05,-4.0136209200454774e-05,-5.126769911675384e-05,-7.505116184580069e-05
72,-0.0001891638200710468,-0.00011491945467413485,-0.00014588041893345453,-0.00020938300204632833
73,-0.0004810154399657432,-0.0002965862953018826,-0.00037419813304305716,-0.000525405707382047
74,-0.0011171950297936036,-0.0007001088958388179,-0.0008782012973466282,-0.0012044873611898408
75,-0.0024000120276951786,-0.001529835737412972,-0.0019087288284357858,-0.0025555903173647317
76,-0.004819274506917263,-0.003125490028808714,-0.0038807931584801223,-0.005073019974782733
77,-0.009125889533457294,-0.006020367984420511,-0.007443465244971212,-0.009507563204864695
78,-0.016418355958383028,-0.011011288713408696,-0.013563764296634806,-0.01695096407889124
79,-0.028240340615138176,-0.01923894804048179,-0.023622767569471896,-0.028932664068630914
80,-0.04668620737926266,-0.03227635522621451,-0.039520792377827275,-0.04752620154065371
81,-0.07450970612365987,-0.05222188636289115,-0.06378692777503844,-0.07546070398401938
82,-0.11522909769999079,-0.08179211481443853,-0.09968636301808936,-0.11623067842016246
83,-0.1732199696169435,-0.12440804109945997,-0.15131696254770807,-0.17419503986598525
84,-0.253785173534091,-0.1842668331165585,-0.22368462756335925,-0.2546543589442306
85,-0.3631900646968494,-0.2663899713114208,-0.32274554427944846,-0.3638940712589969
86,-0.508650907325062,-0.37663804472996715,-0.45540286020369086,-0.5091812012672641
87,-0.6982651438792791,-0.5216825705377901,-0.6294459624737787,-0.6987030951813804
88,-0.9408742391618586,-0.7089262358254402,-0.8534225134367176,-0.9414386133819822
89,-1.2458528934914594,-0.9463649171313382,-1.1364366872199017,-1.2469550524901325
90,-1.622822414524625,-1.2423876687663529,-1.4878714470568584,-1.6251277003398859
91,-2.081290738999464,-1.6055144419758711,-1.9170378668995902,-2.0857833468935425
92,-2.6302267272218898,-2.0440753798254754,-2.432760037174711,-2.6382741411578805
93,-3.277581570781303,-2.5658398418920276,-3.0429096042937243,-3.290993600140339
94,-4.029775128869911,-3.177607546638739,-3.7539091328087815,-4.050851997259186
95,-4.891169481304859,-3.884778097159047,-4.570227957544783,-4.922733486672713
96,-5.863555716715394,-4.690918429623524,-5.493897723881855,-5.9089618473069985
97,-6.945682646007746,-5.597350174532946,-6.524077089232309,-7.008805225341959
98,-8.132857316217036,-6.602780335109346,-7.656695722347383,-8.218052156893064
99,-9.416646485176978,-7.702998864065539,-8.884206456223069,-9.528690959612932
100,-10.78470536940383,-8.890665488532912,-10.19547097002274,-10.928722019278062
101,-12.220755041879606,-10.155205405775215,-11.575798626868464,-12.402127568901548
102,-13.704723106929375,-11.48282928200788,-13.007150241571788,-13.929016450190463
103,-15.213054137049184,-12.856687516811517,-14.46850905049072,-15.485952410715965
104,-16.719187330979473,-14.25716229920319,-15.93641071278794,-17.046464304429577
105,-18.19418954144489,-15.662293981104323,-17.385613688685407,-18.581725970662276
106,-19.60752287127899,-17.048331160451227,-18.78988176178014,-20.061383480825167
107,-20.927918062824812,-18.390387020395206,-20.122842634602446,-21.454498546001776
108,-22.12431842748426,-19.663178319394923,-21.358881038038184,-22.73056950016091
109,-23.1668544970526,-20.841818355645135,-22.4740219763244,-23.8605855558085
110,-24.02780727557623,-21.90263158658112,-23.446759676676262,-24.81806623317033
111,-24.682518172688987,-22.823955616971144,-24.258790459521002,-25.580036447773104
112,-25.110206462057437,-23.586896087170473,-24.895612940031157,-26.127889175325148
113,-25.2946602281916,-24.176001565806853,-25.34696644611527,-26.448092109376127
114,-25.22477382888245,-24.579828758401707,-25.60708788294474,-26.532702153100104
115,-24.894913375664174,-24.79137299825992,-25.674777895058554,-26.37966150753539
116,-24.305101033834028,-24.80834484045855,-25.55327833676847,-25.992860867968446
117,-23.46101840854932,-24.633280304109466,-25.24997395175377,-25.381967917442296
118,-22.37383819607856,-24.273479515150793,-24.775940978132905,-24.56203185864611
119,-21.05990095587695,-23.74077579132494,-24.14537342510503,-23.552886168469108
120,-19.54025978943732,-23.05114422944983,-23.374923437001243,-22.37838141642174
121,-17.84011963514163,-22.224165323173256,-22.48299510556027,-21.065487547747473
122,-15.988199729480598,-21.282364839903284,-21.4890311675306,-19.64331035691776
123,-14.016047568993892,-20.250455945935826,-20.412829340415954,-18.14206980925637
124,-11.95733054242144,-19.15451324793922,-19.273919948381145,-16.59208821644056
125,-9.847127560327657,-18.02111091874788,-18.091029537349293,-15.022833980143732
126,-7.721237974983852,-16.876458347236458,-16.881647105350954,-13.462061881496556
127,-5.615519487074959,-15.745566783494068,-15.661701192521654,-11.935084085156083
128,-2.9432037645543255e-11,-7.956320587590506e-11,-5.878162424190818e-11,5.1569272523397915e-11
129,-1.8168766492858356e-10,-1.7054942837119582e-09,-1.2632451331502224e-09,1.1831346701228083e-09
130,-2.1958272667250367e-09,-1.9152265169864004e-08,-1.4348944206187116e-08,1.3038499324663501e-08
131,-1.526846410617502e-08,-1.421214141058029e-07,-1.0732279848205317e-07,9.488028429095567e-08
132,-8.233318552483426e-08,-7.893535984531848e-07,-6.005285428426315e-07,5.131126288724754e-07
133,-3.6577681424999094e-07,-3.5109876636350386e-06,-2.689331944436884e-06,2.204834267534192e-06
134,-1.4046721918559485e-06,-1.3071453300965253e-05,-1.0073872057180784e-05,7.860463507439367e-06
135,-4.7954928749726076e-06,-4.203759851233803e-05,-3.257323171318203e-05,2.3978843036305136e-05
136,-1.4798854338504353e-05,-0.00011959261922205803,-9.310085708083148e-05,6.407947866980133e-05
137,-4.169891726180102e-05,-0.00030664969523628796,-0.00023964893752357542,0.00015284840483608056
138,-0.00010803419747032582,-0.0007194463149927348,-0.000563966998571011,0.00033049087212642844
139,-0.0002589435086216851,-0.0015636515489688867,-0.001228404952410068,0.0006562111071685381
140,-0.0005777338352092428,-0.0031806571333605023,-0.002501968446253653,0.0012096924841616373
141,-0.0012074486653463955,-0.00610719697478982,-0.004806088782832359,0.002089651749191271
142,-0.002378801987876284,-0.011148734701751633,-0.008769992098051493,0.003408803056022832
143,-0.004444441600147461,-0.019466113411979694,-0.01529486477422202,0.005284768470676972
144,-0.007919056410785752,-0.03267369609203175,-0.025625191245854537,0.007826642987497632
145,-0.013524270767151647,-0.05294562199544343,-0.041424619260613714,0.011117151757004447
146,-0.022236515874585253,-0.08312493388831073,-0.06485245696945914,0.015190643292090578
147,-0.03533519554503601,-0.12682835932410041,-0.09863549267142072,0.02000749289350816
148,-0.05444755932524639,-0.1885376700682123,-0.14612841147995784,0.025425843677768335
149,-0.08158582704878646,-0.2736670182478874,-0.21135489248638423,0.03117207997945514
150,-0.11917136859524048,-0.38859466625958566,-0.299020770124885,0.03681208650746846
151,-0.17004024254306785,-0.5406472738194895,-0.4144906731079396,0.04172611027623913
152,-0.2374243365175884,-0.738025550571892,-0.5637204858275664,0.04509067259624812
153,-0.32490285799904284,-0.9896617548510197,-0.753139843611183,0.04587124515753496
154,-0.43632006445165844,-1.3050022956488416,-0.989481566845489,0.042829209070483196
155,-0.5756668309386338,-1.6937125547290948,-1.2795582294101142,0.03454596048686615
156,-0.7469258737350338,-2.1653058575484168,-1.629989689729803,0.019465909653479635
157,-0.953883072054061,-2.7287040167993726,-2.0468891705780807,-0.004041452683551131
158,-1.1999102448313597,-3.391742671606827,-2.535519203787079,-0.037602159855216685
159,-1.4877277364760628,-4.160640309709011,-3.099932319387679,-0.08274476168721807
160,-1.8191580074458362,-5.039454949647469,-3.7426145501606123,-0.14079916544911245
161,-2.1948838982490937,-6.029556590529816,-4.464152350555263,-0.21279413570321667
162,-2.614227127498096,-7.12914637023065,-5.262945029416461,-0.2993612173425757
163,-3.074963701458146,-8.332854617852234,-6.134984922205681,-0.40065341675988186
164,-3.5731929752633196,-9.631449375657334,-7.073726005323178,-0.5162870635020426
165,-4.1032758978748465,-11.0116842951617,-8.070058356926477,-0.6453147252353515
166,-4.657855379786659,-12.4563099751628,-9.112400845710804,-0.7862357997878264
167,-5.227967872636183,-13.944265871978372,-10.186917948899753,-0.937049534424425
168,-5.8032503704407965,-15.451061134729958,-11.277859109061001,-1.095352813991454
169,-6.372241432423109,-16.949342571110133,-12.36801110960268,-1.2584821194360636
170,-6.922768747024391,-18.409637069308715,-13.439246189698753,-1.423695575247679
171,-7.442409546164969,-19.8012449376701,-14.473141611414524,-1.5883871470137017
172,-7.919004267465146,-21.09325056699138,-15.451640659297839,-1.7503212387990517
173,-8.34119873268513,-22.255608315477087,-16.357721034307442,-1.907872701890949
174,-8.698986231685712,-23.260255201212107,-17.176034658791174,-2.060255023125291
175,-8.984218603004496,-24.08219832108927,-17.89348328241238,-2.207718446598081
176,-9.191054958058414,-24.700524168358886,-18.49969709222514,-2.3517001192616194
177,-9.316318264801932,-25.099279264220222,-18.987388720739506,-2.494910102447628
178,-9.35973369649169,-25.26817667040593,-19.352562341637707,-2.641340216271217
179,-9.324028393250117,-25.20309078594402,-19.594566432696606,-2.796186965977473
180,-9.214879887238862,-24.906313002821776,-19.715988586166606,-2.96568491006414
181,-9.040709513753503,-24.386552786772004,-19.722400687136208,-3.1568524730280014
182,-8.81232715157088,-23.658681880601634,-19.621972112895133,-3.3771581866042255
183,-8.54244388776097,-22.743232770514535,-19.42497666863679,-3.6341214558437342
184,-8.245078842289777,-21.665675423418502,-19.143225198666542,-3.9348678094451115
185,-7.93489457240555,-20.455507750559676,-18.789459737122808,-4.285663637351981
186,-7.626501512284348,-19.145204561384524,-18.37674633902376,-4.691459054868586
187,-7.333775393839045,-17.769076408695483,-17.91790219223296,-5.155469348444929
188,-7.069232356625281,-16.36209335215279,-17.424988324463833,-5.678825250200431
189,-6.843504413048633,-14.95872913545516,-16.90889254839893,-6.260319987178247
190,-6.6649530611179255,-13.59187862389098,-16.379018872708,-6.896276684943661
191,-6.539451215954009,-12.291895807175326,-15.843090289546451,-7.580553463499148
192,-2.2047384054388067e-10,-1.7397975208365946e-10,-1.480895467821751e-13,-2.079008543820124e-10
193,-4.797164649710315e-09,-3.7006313131840855e-09,-2.7377878955705186e-11,-4.541863281471763e-09
194,-5.35152526045787e-08,-4.123437099887297e-08,-1.0349809106548816e-09,-5.002696612647e-08
195,-3.9429311665818896e-07,-3.0390847929293164e-07,-1.2937489416561555e-08,-3.6414296062074023e-07
196,-2.173220168200959e-06,-1.6784649056089262e-06,-1.0105710977924452e-07,-1.9786065804667475e-06
197,-9.588062232690928e-06,-7.433296918688496e-06,-5.775210166502636e-07,-8.59167303452706e-06
198,-3.5391150887507553e-05,-2.7589571441237113e-05,-2.613976931712734e-06,-3.1167927362163435e-05
199,-0.00011279268951981763,-8.856242690056339e-05,-9.839118393892406e-06,-9.751233705154384e-05
200,-0.00031785609802041946,-0.00025174302999845995,-3.1850743515984825e-05,-0.0002695426938036
201,-0.0008070059641799619,-0.0006454935904193732,-9.090451217725339e-05,-0.0006709915840842301
202,-0.0018740728221540571,-0.0015152678829035294,-0.00023319371100765133,-0.0015278218607096068
203,-0.004030448501415107,-0.0032961499792310447,-0.0005460107637739548,-0.0032229749656336763
204,-0.008110617385796447,-0.006711070504381259,-0.0011816913159066937,-0.006366377565278119
205,-0.015403721416947644,-0.012896453721008555,-0.0023887048440301957,-0.011880387045868794
206,-0.027809896284507144,-0.023555161990849314,-0.004549738662189119,-0.02109986265098404
207,-0.04801778317962308,-0.04113435149186689,-0.008226249404783451,-0.03588464698056688
208,-0.07969676691195716,-0.06902315180965415,-0.014208723916029125,-0.05874041162650767
209,-0.12769411836734632,-0.11176186934398029,-0.02357164497574789,-0.09294165426915149
210,-0.19822346978462882,-0.17525072043287984,-0.0377316669962341,-0.14264826071732492
211,-0.2990272495610141,-0.26694215246585934,-0.05850663077650802,-0.21300466036022395
212,-0.4394923783751773,-0.39599703064870584,-0.0881718567978298,-0.31020855729391295
213,-0.630696314870655,-0.5733819177280631,-0.12950893384666143,-0.441534963361149
214,-0.8853600563619842,-0.8118829788482296,-0.18584130885074546,-0.6153011795345907
215,-1.217686355906571,-1.126012255458937,-0.26105061259836276,-0.8407596128240684
216,-1.6430653764452339,-1.5317845820582894,-0.3595678632616194,-1.1279078286766855
217,-2.1776361852187787,-2.0463484316568823,-0.48633437574830574,-1.487208920491169
218,-2.837700672113479,-2.687461393453417,-0.6467282619030719,-1.9292200662485308
219,-3.638996267684462,-3.4728104725748197,-0.8464537957537566,-2.4641329115023862
220,-4.595844719550518,-4.419188437987992,-1.0913926664681568,-3.1012358872261574
221,-5.720205492788469,-5.541549354825543,-1.387418256216601,-3.84831532112319
222,-7.020673349466588,-6.85197845243815,-1.7401764802777957,-4.711018819192089
223,-8.501469550569816,-8.358622771778123,-2.154839234217832,-5.692210527615523
224,-10.161484056341122,-10.06463873332772,-2.6358388955854637,-6.791353127595103
225,-11.993431179508503,-11.9672200049807,-3.1865944465565916,-8.00395520096251
226,-13.983182485161342,-14.05677297212896,-3.8092414937808545,-9.321124243044038
227,-16.10933768869671,-16.31630696907735,-4.504379672511271,-10.729264532177801
228,-18.343086619185826,-18.721101639593318,-5.270851545102654,-12.209955054726388
229,-20.648403199701608,-21.238704094655912,-6.105567050674896,-13.740035849470123
230,-22.98259642081145,-23.829294055500732,-7.003386747983375,-15.291921807194623
231,-25.29722432901841,-26.446436509349894,-7.957075456185308,-16.834151611910244
232,-27.539356223632325,-29.03821957935854,-8.957335412827677,-18.33216674777132
233,-29.65314687148801,-31.54875169738801,-9.992924779057313,-19.74930209267118
234,-31.58166603040269,-33.91996837432468,-11.050863362114034,-21.04795641475644
235,-33.26890832364442,-36.093676593463016,-12.11672302843054,-22.190898865180568
236,-34.6618938446959,-38.01374579464875,-13.174995751435452,-23.142657034026712
237,-35.7127599583922,-39.62834008567066,-14.20952789761141,-23.870924027092272
238,-36.38074059195374,-40.89207797322032,-15.204005481978324,-24.34791710896041
239,-36.6339315127271,-41.76800441369944,-16.142471915410948,-24.55161941587169
240,-36.45074879495659,-42.22926575727424,-17.009857349689554,-24.466839406989223
241,-35.821002367917536,-42.260391061850896,-17.792497205469008,-24.08602994515495
242,-34.746526169222804,-41.858102632170954,-18.47861696625363,-23.40981966094841
243,-33.241329595063654,-41.03160333802933,-19.05876095551964,-22.447222861820507
244,-31.331260092366975,-39.8023167616161,-19.526144632643796,-21.215509955653424
245,-29.053192245736398,-38.203086710964755,-19.87691284890358,-19.73973731412459
246,-26.453782952903733,-36.276873153951065,-20.110290258840802,-18.051952715615545
247,-23.587853756704902,-34.075010174706804,-20.228614386127695,-16.190108935899474
248,-20.51647885724095,-31.655116210454214,-20.237246470252092,-14.19673274461077
249,-17.304869868916484,-29.078765921126717,-20.144360074951305,-12.117408730810197
250,-14.020155438316445,-26.409045265810665,-19.96061251486713,-9.999146338287446
251,-10.729155161050624,-23.708115903908972,-19.698709412849457,-7.888703666631784
252,-7.496242948856846,-21.034911673834337,-19.3728779795295,-5.830942647069549
253,-4.381385658987328,-18.44307901830152,-18.99826962180451,-3.867287192725682
254,-1.4384293833168647,-15.979255797299254,-18.59031687246951,-2.0343493088207616
255,1.2863104411180655,-13.681760395379408,-18.16407300331636,-0.362778597546605
256,-4.596932259428394e-11,-4.631371267552872e-10,-1.0060903551382151e-10,6.084424475704853e-11
257,-1.0257447405581693e-09,-1.5941351916929603e-09,-2.1985439784794858e-09,1.30297320603908e-09
258,-1.147024625162223e-08,-2.4407138473138588e-08,-2.4423119695676744e-08,1.353087896095091e-08
259,-8.558060241592566e-08,-1.756797229274996e-07,-1.7958693276343246e-07,9.186127517393138e-08
260,-4.810541681532299e-07,-9.66523178797624e-07,-9.892281225475062e-07,4.5833645247980394e-07
261,-2.179974719683864e-06,-4.2677149022868256e-06,-4.368506114349467e-06,1.7905525191189735e-06
262,-8.318686662679334e-06,-1.5789805314146112e-05,-1.6165523010989296e-05,5.6878498572035334e-06
263,-2.7554781700793082e-05,-5.05544125241447e-05,-5.172765504625914e-05,1.501522206600732e-05
264,-8.102287004108702e-05,-0.00014336903267889755,-0.00014655665757776448,3.318547039521878e-05
265,-0.00021516444385277797,-0.0003668127309322018,-0.0003745156830953547,6.0571172657571e-05
266,-0.0005231741674842948,-0.0008591642983665095,-0.0008761105582360781,8.54481431594861e-05
267,-0.00117794152058701,-0.0018643824509408174,-0.0018990340675699318,6.649606683390048e-05
268,-0.002479172316961266,-0.0037853199355960296,-0.0038524789988147257,-9.59719574529154e-05
269,-0.004916968099242676,-0.0072503972011826855,-0.007375797475777045,-0.0006024110564058562
270,-0.009253658050162062,-0.013192737893298301,-0.013421001611476845,-0.0018119660552550815
271,-0.016625143078020346,-0.02293979087920015,-0.02334740376877361,-0.004317491980589685
272,-0.02866231933363677,-0.03831026919974589,-0.039025345146661956,-0.009039019824679402
273,-0.0476321731649005,-0.06171409913320136,-0.06294439004154659,-0.01733666798414816
274,-0.07659687657894737,-0.09624954645516522,-0.09831953879607042,-0.031143441790968573
275,-0.11958781681351706,-0.14579005819068278,-0.14918703503464928,-0.05311762950105304
276,-0.18179018938042113,-0.21505184620127446,-0.22047947032940743,-0.08681366513156283
277,-0.2697327378167104,-0.3096320418719553,-0.31806849309026763,-0.13686942400797078
278,-0.3914764936403072,-0.43600708274807887,-0.4487628912899205,-0.209206982808841
279,-0.5567959351027704,-0.601481709066443,-0.6202504150304987,-0.3112429920885861
280,-0.7773457813066775,-0.8140810610950581,-0.8409735491644076,-0.45210403479941186
281,-1.0668065772176156,-1.0823813942995024,-1.1199324842385583,-0.6428416090513956
282,-1.4410021975470422,-1.4152789831880301,-1.466412605751797,-0.896640484935427
283,-1.917982324092273,-1.8217013123161825,-1.8896387009676479,-1.229012982549808
284,-2.5180628137235255,-2.310269320194645,-2.3983635102408627,-1.6579701942395773
285,-3.263816682472571,-2.8889240914486325,-3.000403910526281,-2.2041594185413844
286,-4.180008141852828,-3.5645353278905234,-3.7021435249625196,-2.8909551031003984
287,-5.293461606826866,-4.342512271860009,-4.508025449356615,-3.7444882988375245
288,-6.63285670661262,-5.226439795370897,-5.420062591655331,-4.793596927990148
289,-8.228439040274,-6.217763246889987,-6.437395395829738,-6.069676234776021
290,-10.11163489271946,-7.3155447261759745,-7.555927114467975,-7.6064060932309445
291,-12.314556708939943,-8.51631103032915,-8.768065087845123,-9.43933002751777
292,-14.869385291037698,-9.814009159792073,-10.062592618555438,-11.605260491888062
293,-17.807614999784263,-11.200079538316048,-11.424690124651251,-14.141486756229789
294,-21.15915031397763,-12.663649926451539,-12.836116607571238,-17.084766217947802
295,-24.95124645553624,-14.191845053881638,-14.275553537568927,-20.470087568070248
296,-29.20729373097839,-15.770198790604361,-15.71910360372567,-24.329205147827743
297,-33.945454759336016,-17.383147705963097,-17.140927059532753,-28.68895781928632
298,-39.17717554719855,-19.014578179060454,-18.51398934525391,-33.56940219847225
299,-44.90560491424604,-20.648394121485634,-19.8108860266882,-38.98180842973645
300,-51.12397136620772,-22.26906985976708,-21.00470553517948,-44.9265859036299
301,-57.81398122581795,-23.86215275942186,-22.069887240780066,-51.39122522458754
302,-64.94431546756147,-25.41468324275779,-22.983032336587424,-58.34835973863519
303,-72.46931387191071,-26.9155052833465,-23.72362790053452,-65.7540632257545
304,-80.32794243135673,-28.355448164099858,-24.27465013995438,-73.54650818456595
305,-88.44314219441469,-29.72736923693042,-24.623020789074584,-81.6451100027518
306,-96.72165397969621,-31.02605734768032,-24.759900280829203,-89.95027509968261
307,-105.05440298267429,-32.24800665415675,-24.680811819732966,-98.34385517350515
308,-113.31750995538805,-33.3910801334283,-24.385600920812017,-106.69038489330302
309,-121.37397157417038,-34.45409054986108,-23.87824449277526,-114.83914739741594
310,-129.07602259512007,-35.43633287633172,-23.166531460026825,-122.62707218594109
311,-136.268157743155,-36.33710583106997,-22.261642790563663,-129.88242541073723
312,-142.79075376615384,-37.1552605015316,-21.177662334717155,-136.42920557665943
313,-148.48419391267893,-37.88881137511643,-19.931050906215983,-142.09211107222825
314,-153.19336085309794,-38.53463950006488,-18.540114496643454,-146.70190294900493
315,-156.7723326083735,-39.08830978845066,-17.024493571169835,-150.10095041152783
316,-159.08909217451472,-39.54401522014418,-15.404694509655766,-152.1487208440987
317,-160.03004757780425,-39.89465059878503,-13.701677194747017,-152.72696351395382
318,-159.50415664312916,-40.13200828898473,-11.936505443034894,-151.74433800260013
319,-157.44646048287038,-40.24707885594598,-10.130060324002523,-149.14025550594533
320,6.874816998392634e-11,-9.882604025132549e-11,-1.1150063900187118e-10,8.823141094797844e-12
321,1.4711426093759561e-09,-1.8246851552962418e-09,-2.287936904497224e-09,2.0860215267124097e-10
322,1.694072102471744e-08,-2.0395588998194543e-08,-2.5314277553318254e-08,3.439833466034139e-09
323,1.2966462494070307e-07,-1.4901966401219494e-07,-1.8478488353073356e-07,3.4237834767288936e-08
324,7.475535379169864e-07,-8.15485021466279e-07,-1.0138386393072972e-06,2.4330472461855587e-07
325,3.469166235069968e-06,-3.5748982777951796e-06,-4.473788551661522e-06,1.3365295739688395e-06
326,1.3524210403958846e-05,-1.3125863023906187e-05,-1.659516529227143e-05,5.974964192536304e-06
327,4.563134962236469e-05,-4.167470716601443e-05,-5.338841183591353e-05,2.2535536274292927e-05
328,0.00013623448692048597,-0.00011721378275273607,-0.00015245480632982927,7.365890860767898e-05
329,0.0003661344019869157,-0.0002976390158947956,-0.0003933865375214519,0.00021306027356560989
330,0.0008980887817083696,-0.0006928431684642828,-0.0009302706027930768,0.000554686872627891
331,0.0020336627110080106,-0.0014969806862036635,-0.00203917821492543,0.001318107797776813
332,0.004292407114029157,-0.0030329474448134762,-0.0041823687756988815,0.0028929840794178676
333,0.008514594870061792,-0.005810679220070957,-0.00808926573250962,0.005923919214292421
334,0.0159866582715088,-0.010600022601097998,-0.014852437792310231,0.011415350253531579
335,0.02858643994847066,-0.018517638494782752,-0.026035191370985828,0.020854621661934965
336,0.04894341173724339,-0.0311257008835898,-0.04378609789017357,0.03634989986001232
337,0.08060696244436805,-0.0505382064754799,-0.07095469139858597,0.06077791839258815
338,0.1282135120882205,-0.07952869042080211,-0.11120135235983844,0.09793453399878975
339,0.19764052970299703,-0.12163119492932997,-0.16909277142375104,0.15267870390660743
340,0.2961326763570496,-0.1812245916933062,-0.25017239307674394,0.23105786437450257
341,0.4323826574628574,-0.26358891837916204,-0.3609932960008489,0.3404000588904581
342,0.6165475587450406,-0.3749214477971091,-0.5090998024629858,0.4893560374719284
343,0.8601811613390427,-0.5222999984913265,-0.7029444610971706,0.6878736250083416
344,1.1760645788058084,-0.7135818173939982,-0.9517294165047733,0.9470875858468749
345,1.5779217718416947,-0.9572284391246157,-1.2651655859253383,1.2791112787390826
346,2.0800128858365974,-1.2620503888522618,-1.6531490576110428,1.6967214370110446
347,2.696606382665488,-1.6368703868196979,-2.12536089657957,2.212933954231954
348,3.4413399169929852,-2.090109633301653,-2.690803208018498,2.840476059819346
349,4.32648913674137,-2.629308420794693,-3.3572901817507574,3.5911681844251024
350,5.3621724105278865,-3.260599232217591,-4.130917572575478,4.475236578832434
351,6.555527310022115,-3.9881570559091966,-5.015537643850727,5.500584808524768
352,7.909900996690898,-4.813657255981286,-6.012269098742352,6.672058156535906
353,9.424101079383323,-5.7357754421134715,-7.119072942398162,7.990739462321252
354,11.091755650199948,-6.749765922758668,-8.33042529143779,9.453317787526803
355,12.90083067561242,-7.847155192384945,-9.63711642164884,11.051572197515766
356,14.833349297601087,-9.015584260237823,-11.02620132253351,12.772011388784064
357,16.86535060401177,-10.238828370861292,-12.481120450650298,14.595705439573617
358,18.967115076142935,-11.497014784561584,-13.982000367082517,16.498338474587264
359,21.103670636440697,-12.767048999461787,-15.506133093666232,18.450500781296817
360,23.235577763243683,-14.023247557752892,-17.028621248654968,20.418226467761464
361,25.319975530838903,-15.23816214119823,-18.523164399574657,22.36376889503215
362,27.31185385283453,-16.383565988930982,-19.962951668175354,24.24659182597332
363,29.165501926332464,-17.431560832361495,-21.321617346526647,26.024540658100122
364,30.83607013613286,-18.355751613673167,-22.57421084070659,27.65514643287692
365,32.28117350529906,-19.13242816508599,-23.698130062731227,29.09700648622694
366,33.46245985712754,-19.741688551141035,-24.67396859327138,30.311180189873
367,34.347065500593914,-20.168438418514366,-25.486231397514917,31.26253645047305
368,34.908885502265775,-20.403204714984643,-26.123881238402323,31.920991521798282
369,35.129594239445126,-20.442710441669494,-26.580687622370373,32.26258112903329
370,34.99936444757311,-20.290169311562167,-26.855361451395776,32.27031954421678
371,34.51724856964357,-19.955274581330915,-26.951470797224644,31.93480940707506
372,33.69120385170101,-19.45387394616635,-26.877145632675646,31.254578892675493
373,32.53776117870736,-18.807341059548058,-26.6445912546187,30.23613644995286
374,31.0813560042788,-18.04167268265755,-26.26944081639424,28.893747055024587
375,29.35335682560584,-17.18635740312435,-25.769986178560192,27.24894702778951
376,27.39084144393467,-16.27307607975611,-25.16633251411295,25.329826122104308
377,25.235182800966605,-15.334304657820956,-24.47952521479272,23.170114971838924
378,22.930513814313954,-14.401895956349321,-23.730697274343104,20.808122425683226
379,20.522144049599884,-13.505717988456833,-22.940281446474323,18.28557060398205
380,18.05500031823565,-12.67242223228747,-22.127324447065206,15.646375798476297
381,15.572158706106705,-11.924406326270624,-21.30893102988616,12.935420980628727
382,13.113527645311915,-11.279022604401847,-20.49985492105254,10.197361215445726
383,10.714731131913512,-10.748067719412314,-19.712242453587905,7.475497382840639
384,7.565946999142125e-11,-7.201351301930164e-11,-7.750629092492099e-11,7.353561939309848e-11
385,1.6195388511043986e-09,-1.5581124280728549e-09,-1.523080106986851e-09,1.6162825170929116e-09
386,1.747600809086183e-08,-1.7273055096354014e-08,-1.7514075895530157e-08,1.72839724806797e-08
387,1.2448616550260421e-07,-1.269401602097184e-07,-1.3269649901602186e-07,1.2163350903953625e-07
388,6.609033582753724e-07,-6.995836222091156e-07,-7.556433904040405e-07,6.348274135925409e-07
389,2.798456509818176e-06,-3.094239222320826e-06,-3.456344164314418e-06,2.6282875373128265e-06
390,9.875571731060064e-06,-1.1479302964163205e-05,-1.3260260590706779e-05,9.017411909214632e-06
391,2.997223414772556e-05,-3.685741056564955e-05,-4.3991790808529276e-05,2.6450403319131936e-05
392,8.012467543237792e-05,-0.00010485466986853412,-0.0001291085843261479,6.792432441799158e-05
393,0.0001922838396329108,-0.0002691963211265036,-0.0003411939464990449,0.000155609803602132
394,0.00042071206352215006,-0.0006329298859753668,-0.0008235642738467199,0.0003229500917947076
395,0.0008501578302871608,-0.0013793353577753044,-0.0018371069484776677,0.000614935858462736
396,0.0016039596217468496,-0.0028141199814531947,-0.003824480409752911,0.0010855903922087438
397,0.0028511760883182364,-0.005420006689788147,-0.007492390225667759,0.0017919743159188048
398,0.00481180319994927,-0.009924219865684453,-0.013911065163525247,0.002784232437102035
399,0.007759023978332476,-0.017378607575730096,-0.024628501658474647,0.004091271679710678
400,0.01201721566471049,-0.029251120915877168,-0.04179553116009522,0.005701608896810129
401,0.017954132420303425,-0.04752603096560581,-0.06829616056604308,0.007538807533923968
402,0.025965339086302417,-0.07480861705259476,-0.10787574979194708,0.009430768047135166
403,0.036448713852803724,-0.11442822769059359,-0.1652573679712476,0.011072062898629564
404,0.049766876637214436,-0.17053179230247462,-0.24623427889082292,0.011978747888920501
405,0.06619594446476083,-0.24815827392575254,-0.35772434117839014,0.011435847122202865
406,0.08586012410936791,-0.35328343092741243,-0.5077707139196993,0.008438964595268127
407,0.10865315802352685,-0.492823808915655,-0.705473160692281,0.001632890133607588
408,0.13414924524329394,-0.6745892878068114,-0.9608358644993096,-0.010748777960535083
409,0.16150751766779417,-0.9071748657164782,-1.2845211704340762,-0.030938309385422188
410,0.18937537086693187,-1.1997846831376717,-1.6875039724560295,-0.06167792405791466
411,0.21579695542622765,-1.5619844899267983,-2.1806281866095394,-0.10624845178574326
412,0.23813396383647636,-2.0033826835779798,-2.7740743848203477,-0.1684779409558822
413,0.25300647723441544,-2.533244519355054,-3.4767555958047387,-0.25272586435255784
414,0.2562619823582201,-3.160048928185968,-4.295665914433513,-0.3638389055364327
415,0.2429806132815446,-3.8910023659333635,-5.235213336267535,-0.5070747262470654
416,0.2075240622735617,-4.731528980367326,-6.296573635288231,-0.687990746946884
417,0.14363428511420961,-5.684760749842132,-7.477105731199366,-0.9122960541179358
418,0.04458600567442618,-6.751054677103389,-8.769870533197702,-1.1856662666018964
419,-0.09660584879711619,-7.927566172219119,-10.163294471982574,-1.5135235088698484
420,-0.2869260911438005,-9.207908071489795,-11.641015595491183,-1.9007862812784955
421,-0.5330526672592071,-10.581923114048047,-13.181943975225543,-2.351596667488025
422,-0.8410134276946564,-12.035594108600195,-14.760559068894402,-2.8690347853186844
423,-1.2158199655864097,-13.55111060519614,-16.34745468638348,-3.4548325866050043
424,-1.6610956264333,-15.107103890057328,-17.9101277602889,-4.109100918155073
425,-2.178717548287715,-16.679053887730376,-19.41399115964465,-4.830084933725037
426,-2.7684943125594583,-18.239862505623346,-20.823574612813125,-5.613963260746916
427,-3.427901181988972,-19.76057859870105,-22.103862898470055,-6.454705703536404
428,-4.151893822808282,-21.211250640405236,-23.221708224198224,-7.344002807120846
429,-4.93281885031086,-22.561874961298134,-24.14724522055661,-8.271278444323533
430,-5.760435601226668,-23.783400637894697,-24.855232929126508,-9.22379376541192
431,-6.622058416181905,-24.848747274430373,-25.326248833135796,-10.186847359210844
432,-7.502822695469456,-25.73378939500839,-25.54766535262105,-11.144072380254766
433,-8.386071423639832,-26.418261178339176,-25.51434902166086,-12.07782686368144
434,-9.253852094150124,-26.886537899561947,-25.229036304735203,-12.969668663520201
435,-10.087507315245087,-27.12825561007454,-24.702356960708148,-13.800901572157207
436,-10.868336152242128,-27.138738043332925,-23.952495080321402,-14.553174423686807
437,-11.57829783329749,-26.919209065146067,-23.004498246538475,-15.209110714730683
438,-12.200725266647721,-26.476779623161953,-21.88926541407237,-15.75294294933701
439,-12.721013321954551,-25.824209411146384,-20.642262755365813,-16.1711238838413
440,-13.127246333280349,-24.979454628492192,-19.302032600011795,-16.452886240934657
441,-13.410730935198435,-23.965023596748786,-17.90857260881352,-16.59072325336433
442,-13.56640415474763,-22.807170995180307,-16.501669616729515,-16.58076457444549
443,-13.593092520990371,-21.534968627108544,-15.119274643343648,-16.42302569081893
444,-13.493605522605261,-20.17929559301354,-13.796002260368619,-16.12151394319546
445,-13.274655541620103,-18.771793322881116,-12.561829054345257,-15.684180343824792
446,-12.946605775112173,-17.343831034460443,-11.441052917578688,-15.122713174691732
447,-12.523056966123486,-15.925524889585692,-10.451558268175823,-14.452176505096357
448,-8.405392511632015e-11,-5.928397982164225e-11,-9.901784073090488e-11,-1.495556730303834e-10
449,-1.5502149322856407e-09,-1.2471052574470301e-09,-2.134509882007796e-09,-3.199480727724761e-09
450,-1.6922284826562158e-08,-1.397206554121301e-08,-2.3789122435713055e-08,-3.4057624227885055e-08
451,-1.2127235586562886e-07,-1.0363535513846749e-07,-1.7530270579747512e-07,-2.394838158835242e-07
452,-6.481135732674568e-07,-5.770804342746125e-07,-9.682196125667477e-07,-1.2560372712348074e-06
453,-2.7687183891728696e-06,-2.5809767770330058e-06,-4.288522691506112e-06,-5.260113315553811e-06
454,-9.88222178657924e-06,-9.688268781215305e-06,-1.5919709263604687e-05,-1.8389765373253016e-05
455,-3.042813145738631e-05,-3.1486831518909225e-05,-5.1103882103195834e-05,-5.541146591733621e-05
456,-8.282033161376486e-05,-9.068281008061149e-05,-0.00014523802219120775,-0.00014744351122890868
457,-0.00020317994368141245,-0.00023565626601328014,-0.00037221901170288895,-0.00035322098064648525
458,-0.00045645968200472487,-0.0005606070786347414,-0.0008730035010218018,-0.0007739545924824651
459,-0.0009515096637930671,-0.0012353099054524777,-0.001896583829827962,-0.001571517554100236
460,-0.0018606358894409543,-0.0025460471321286887,-0.00385485264715781,-0.002989589051119634
461,-0.003444172049200185,-0.004948587025586218,-0.007391863660436547,-0.00537740515412489
462,-0.006080389717522261,-0.009133223926440712,-0.013466900219502066,-0.009215765061333736
463,-0.010300687493735269,-0.016100978995791503,-0.023449590379522853,-0.015144832246748143
464,-0.01682946977340021,-0.02724907936690539,-0.03922402744897709,-0.02399305642155314
465,-0.026627540431829657,-0.044462739761218645,-0.06329741044477911,-0.03680622069063795
466,-0.04093719955324053,-0.07020898419445398,-0.09890706562717964,-0.05487515191805291
467,-0.06132652187874828,-0.10762673480098045,-0.1501179008754881,-0.07976004065571303
468,-0.08972951576823361,-0.16060573377803936,-0.22190055217469537,-0.11330874537095681
469,-0.12847808244932493,-0.23384526787756046,-0.32017898539363715,-0.15766610193168945
470,-0.18032105080191335,-0.33288247359014456,-0.45183545704496236,-0.21527122111621572
471,-0.24842515502623944,-0.4640795897965816,-0.6246608350607985,-0.28883997787802046
472,-0.3363527687977423,-0.6345602007617351,-0.8472395896802842,-0.3813302816469304
473,-0.44801160040752075,-0.8520863981886754,-1.1287613951014328,-0.4958882522788376
474,-0.5875724927836681,-1.1248717925112057,-1.4787551756019084,-0.6357741569814895
475,-0.7593529588123407,-1.461329131313932,-1.906746333560525,-0.8042678647084225
476,-0.967666037852739,-1.8697555713363887,-2.421843432167684,-1.0045545165375978
477,-1.2166363182912636,-2.3579630681643633,-3.0322663293771255,-1.2395919798784971
478,-1.5099874213665625,-2.9328656755920406,-3.7448332471996713,-1.5119625019800833
479,-1.8508078045372562,-3.60003966201408,-4.564429143767439,-1.823711985183528
480,-2.24130434555039,-4.363276134733429,-5.493481723030842,-2.1761815995811142
481,-2.682555670980948,-5.224149112746761,-6.53147422034004,-2.5698379599577317
482,-3.174279361391838,-6.181624364063624,-7.674525524351879,-3.004109622970044
483,-3.714628770405211,-7.231735405593075,-8.915068051557675,-3.477239033017274
484,-4.300035996931451,-8.367352449046809,-10.241651892568639,-3.986160155617079
485,-4.925117345872094,-9.578067516015482,-11.638899945678743,-4.526412743593067
486,-5.582656168866366,-10.85021441096675,-13.087632959664427,-5.092104219054716
487,-6.2636751446448695,-12.167035952675723,-14.565175710229557,-5.675929241393974
488,-6.957605818927922,-13.509003227209384,-16.045846228759846,-6.269255066525778
489,-7.65255779788076,-14.854283160795225,-17.501619619038085,-6.862277940629769
490,-8.33568373106219,-16.179341981768157,-18.90294725507139,-7.4442522814361025
491,-8.993629567603865,-17.459663714736667,-20.219701887752326,-8.003790488812918
492,-9.613052968670033,-18.670555286398933,-21.422210268560367,-8.529227015572348
493,-10.181186679331521,-19.788003638231036,-22.482328092494974,-9.009035981412072
494,-10.68641861404598,-20.789545885151828,-23.37450793030385,-9.432287397275948
495,-11.118856828162214,-21.65511134657374,-24.076809608401586,-9.789123274290127
496,-11.470845768695945,-22.3677943695851,-24.571804152722017,-10.071231714663845
497,-11.737400386601426,-22.914519260200333,-24.847326657687443,-10.272294635448727
498,-11.916526965247131,-23.286563215013146,-24.89703990612026,-10.388383240457763
499,-12.00940392434379,-23.4799096747786,-24.720778874809227,-10.418275056595004
500,-12.020402393311796,-23.495412691597732,-24.32465607896446,-10.363667677687932
501,-11.95693480559111,-23.338762288074545,-23.720918690578575,-10.229267588321104
502,-11.829129732357003,-23.020250859427435,-22.927560107687146,-10.02273763787304
503,-11.649342015898252,-22.554350797127807,-21.9677006189683,-9.754493752646384
504,-11.431518233315032,-21.9591230242506,-20.868763328100894,-9.437349971210875
505,-11.190447819420791,-21.255484398969504,-19.66148181321057,-9.086020299712391
506,-10.940938965436303,-20.466368457605686,-18.378784351693152,-8.71649542140484
507,-10.696964913309671,-19.61581841381154,-17.05460534741521,-8.34532108296375
508,-10.47082987410206,-18.728053574502002,-15.722677508359313,-7.9888123023695945
509,-10.272404199914577,-17.826550406776406,-14.415358279255852,-7.662242994097136
510,-10.108475628929934,-16.933177544607762,-13.16254123339993,-7.379054012513571
511,-9.982257618954833,-16.067420294073923,-11.990697943573652,-7.150123817094969
512,4.824387655745394e-11,-6.215553544949593e-11,-1.2129271017029537e-10,2.042465892784643e-11
513,1.0716764292126334e-09,-1.2830120582570661e-09,-2.478834071834838e-09,4.6018792506901623e-10
514,1.1627088899734381e-08,-1.4443167030440183e-08,-2.786988940689513e-08,4.322930398303171e-09
515,8.302940390977678e-08,-1.073508805417116e-07,-2.0605328245977868e-07,2.533474445495285e-08
516,4.400403425638455e-07,-5.984194997141813e-07,-1.142597778899174e-06,9.869864298699894e-08
517,1.8519035195084571e-06,-2.676774084209006e-06,-5.0814859119174246e-06,2.3676720116039507e-07
518,6.467722199854091e-06,-1.0041848704762412e-05,-1.893649241915614e-05,9.083330349936703e-08
519,1.9346916885577252e-05,-3.260169287070382e-05,-6.099915338054949e-05,-2.301729006036479e-06
520,5.077824029118703e-05,-9.377953683751391e-05,-0.00017385776648951116,-1.3866319843447314e-05
521,0.00011920944596691063,-0.000243430817892817,-0.0004465148263956509,-5.3669523154260774e-05
522,0.0002543215791091704,-0.0005786275559794133,-0.0010486398647260363,-0.00016592281412532297
523,0.0004996257932010929,-0.0012745283067187247,-0.002279307646247658,-0.00044061309397487255
524,0.0009139973732896631,-0.0026271787183357593,-0.0046315659519849455,-0.001042995664584827
525,0.0015717178837096723,-0.005109413714759839,-0.008872978347631037,-0.0022525136008095165
526,0.002560736415366717,-0.009440118146253432,-0.01614103694588399,-0.004511121849315189
527,0.003978893189299272,-0.01666601855371724,-0.028051074100581757,-0.008480458829290037
528,0.005927763018529736,-0.028253953392549845,-0.04681289925463934,-0.015106621972188518
529,0.008503608066597522,-0.04619020736527042,-0.07535070821006581,-0.025690318526922756
530,0.0117847282534316,-0.0730819838524937,-0.11741876117919055,-0.04195889519597031
531,0.015814340176188206,-0.11225445774203421,-0.17770300801731595,-0.06613534573366142
532,0.020578115644836224,-0.16783520199672713,-0.2618965770638361,-0.10099803663127442
533,0.025975765874555936,-0.2448163046770968,-0.37673532723565245,-0.14992378343134055
534,0.03178656193697577,-0.34908345228308874,-0.5299790259428916,-0.21690631398128388
535,0.03762930678955938,-0.48740092601604385,-0.730324533197208,-0.30654232129443715
536,0.042917851767782456,-0.6673420923456344,-0.9872398163399805,-0.42397834774663473
537,0.046813692227470095,-0.897156722485128,-1.3107115930119573,-0.5748135326230428
538,0.04817750624165851,-1.1855693847862403,-1.710904650585128,-0.7649555576054361
539,0.04552178420209961,-1.541507105075322,-2.1977370215250835,-1.0004297725689855
540,0.03696696884643614,-1.9737592483535693,-2.780381777418098,-1.2871444661085367
541,0.020203784750895567,-2.4905778026037106,-3.4667127901526062,-1.6306185609542487
542,-0.007535297250552061,-3.0992315515133773,-4.26271800759974,-2.0356814952892237
543,-0.049492194146010166,-3.8055326097549904,-5.1719092810084435,-2.506158347333539
544,-0.1093832904033013,-4.613358087256304,-6.194762232370931,-3.0445559970479295
545,-0.1913794498338767,-5.524192931102646,-7.328222686475898,-3.6517680320618116
546,-0.3000617838841465,-6.53672198190944,-8.565317300833755,-4.326817002160098
547,-0.4403492000532976,-7.646499732445816,-9.89490467597317,-5.0666523032997635
548,-0.6173944126422043,-8.845724968578663,-11.301598967308607,-5.866020230655276
549,-0.8364462591581479,-10.123144260448049,-12.765890719258461,-6.717419560815763
550,-1.1026778489245772,-11.464103116835915,-14.26447956121473,-7.611151656570822
551,-1.4209822391509668,-12.850756657300618,-15.770821240682494,-8.535468968668994
552,-1.7957398344661861,-14.262443212891068,-17.255878165929172,-9.47682034563135
553,-2.230564274432271,-15.676214835260598,-18.68904923494544,-10.420186055819421
554,-2.7280359457904866,-17.067508900833484,-20.03924220438889,-11.349490151994507
555,-3.289434288427709,-18.41093554084168,-21.27604102448968,-12.248073125599651
556,-3.9144817412393365,-19.681147233946383,-22.370912147624104,-13.099204104208999
557,-4.601113500398917,-20.853750236429708,-23.298388404625246,-13.886609421727643
558,-5.345288145163769,-21.906213165860578,-24.03716717127473,-14.594993343682944
559,-6.140854425651332,-22.818726388277884,-24.571061589017145,-15.210527072364238
560,-6.979488880291433,-23.574967083106266,-24.889749721496017,-15.721283925937259
561,-7.8507172968829,-24.162728947788516,-24.98927651384173,-16.11760179332502
562,-8.742030268239908,-24.57438223386949,-24.87227670960234,-16.39235845482202
563,-9.63909920711018,-24.80713875107602,-24.547902540082962,-16.541150717871957
564,-10.526094251291534,-24.863107046120067,-24.031456916539412,-16.56237400032773
565,-11.386099730552665,-24.749134440540367,-23.34374982401965,-16.457204490335045
566,-12.201616662173267,-24.47644424117696,-22.51021148826421,-16.229490925924896
567,-12.95513556309048,-24.06008750296463,-21.55980962620393,-15.885567059394527
568,-13.629757189776234,-23.51823859093583,-20.523828772473873,-15.433998757362538
569,-14.209834093870128,-22.871371922910615,-19.434576571501417,-14.885281339476752
570,-14.681602557714053,-22.141363217138494,-18.32408453422001,-14.251503271710353
571,-15.033772955390884,-21.350561958078334,-17.222868943192793,-13.545991919688863
572,-15.25804712656384,-20.52088238664862,-16.158811599413607,-12.782955904018037
573,-15.349533953110724,-19.672958055294835,-15.156210562731292,-11.977136748708013
574,-15.307038757871336,-18.825400021975017,-14.235038845000188,-11.143480047082402
575,-15.133208054764612,-17.99419148236525,-13.410435213058577,-10.296833511142616
576,-1.1051640306304799e-10,-9.12170530412928e-11,-1.0477135393756734e-10,-1.8535540847232675e-10
577,-2.323925766421001e-09,-1.8521078856888641e-09,-2.223101707598035e-09,-3.986362024542163e-09
578,-2.5552693215723203e-08,-2.0960916184467684e-08,-2.474101983454424e-08,-4.2654232807858435e-08
579,-1.8519419024182818e-07,-1.5562378351878314e-07,-1.8156517786594632e-07,-3.0176491407232985e-07
580,-1.0045186451957644e-06,-8.66082994126311e-07,-9.975901307813303e-07,-1.5940057193131631e-06
581,-4.363616061478815e-06,-3.86399933133009e-06,-4.390492556908479e-06,-6.73135075449218e-06
582,-1.586929297522298e-05,-1.4442599994084694e-05,-1.617688619616918e-05,-2.376364605860025e-05
583,-4.987111268246697e-05,-4.6665424286416854e-05,-5.149551112114063e-05,-7.241927799560243e-05
584,-0.00013871394424219718,-0.00013344469232923342,-0.00014503016828285942,-0.0001952272181368434
585,-0.0003479752307130591,-0.0003439890314875244,-0.00036819451695785713,-0.0004746575123063969
586,-0.0007993295464642495,-0.000811197655293502,-0.0008554140650856938,-0.001057290849375605
587,-0.0017023574062517781,-0.0017712611568220743,-0.0018413341072365998,-0.00218566782029936
588,-0.0033961216258865524,-0.0036170370988306347,-0.003710253750496545,-0.00423811060104374
589,-0.006400708172053912,-0.0069658458173360825,-0.007058369092637249,-0.007776362306230941
590,-0.011478161218868584,-0.012741287039669072,-0.012768466042796722,-0.013600254977801155
591,-0.019701340045855765,-0.02226755715625635,-0.022095512045475017,-0.022807802808453032
592,-0.032528184032614336,-0.03737346972613253,-0.03676017668422823,-0.03685819400455607
593,-0.051877685642483184,-0.06050185203968518,-0.059045750921423154,-0.057634171861770646
594,-0.08020253885932227,-0.09481814829235924,-0.0918923314698783,-0.08749927866209316
595,-0.12055202370501247,-0.14430999975307948,-0.13898057699991997,-0.12934448160682718
596,-0.17661740854493518,-0.21386753676415984,-0.2047959348422606,-0.18661801806589376
597,-0.2527512726601672,-0.3093324581853965,-0.2946631335968575,-0.2633321044792068
598,-0.353951939594564,-0.4375030939171783,-0.41474018564244475,-0.36404053856444274
599,-0.4858048305587812,-0.6060828751701318,-0.5719614255073863,-0.4937821376990543
600,-0.6543740945888789,-0.8235612038013366,-0.7739204889797395,-0.6579863411595586
601,-0.8660403804477338,-1.0990186488648737,-1.028686733026891,-0.862339180478939
602,-1.1272840423327666,-1.441852588434149,-1.3445523488562152,-1.1126102123299932
603,-1.4444171940560395,-1.8614245747626006,-1.7297120706091225,-1.4144437809627157
604,-1.8232724447691413,-2.366636485033472,-2.191882574228581,-1.7731208335095823
605,-2.2688604137416712,-2.965448537753863,-2.737874013445875,-2.193300143930358
606,-2.785011889603128,-3.6643581355575425,-3.373131306838819,-2.678750047074771
607,-3.3740236048139605,-4.467863890099002,-4.1012674338866395,-3.2320835996771264
608,-4.036328912401855,-5.377943725386165,-4.92361472885677,-3.8545113755507288
609,-4.770215984954706,-6.393579267243001,-5.838822563096409,-4.545626642606835
610,-5.571616192223722,-7.510360380415277,-6.8425304886016125,-5.303237204011951
611,-6.4339837492477185,-8.720203317119351,-7.927144637282223,-6.12325660424004
612,-7.348284355093758,-10.01121315075227,-9.08174185143265,-6.99966477554354
613,-8.303105349173853,-11.367715829475616,-10.292120755096496,-7.924544697787066
614,-9.284893076070238,-12.770477341068712,-11.541011970180787,-8.888197448492813
615,-10.278315086547238,-14.197117462751939,-12.808451272909057,-9.879333388775814
616,-11.266736140334894,-15.622713939711007,-14.072310112205608,-10.88533256909688
617,-12.232788473281007,-17.02058048781001,-15.308968110216716,-11.89256323151249
618,-13.159009207504818,-18.36318968133804,-16.494102531246362,-12.886743909764284
619,-14.028511751593715,-19.623200545228965,-17.60356087935701,-13.853332231605219
620,-14.82565407325775,-20.774541462936313,-18.614275468920347,-14.777922113386548
621,-15.536665218138378,-21.7934926012566,-19.505173724990563,-15.646630642059264
622,-16.15019266482875,-22.659709013600125,-20.258035774682845,-16.44645669892534
623,-16.657737079224653,-23.357126212479937,-20.858252005337153,-17.165595395748774
624,-17.053947513009746,-23.874694373566932,-21.29543774971788,-17.79369559466003
625,-17.336758559588763,-24.206895257343515,-21.563869747859503,-18.322051906503905
626,-17.50736080212352,-24.354007026978874,-21.66271886879129,-18.74372726545688
627,-17.570006415826946,-24.32209579645519,-21.59606494736539,-19.05360709477185
628,-17.531662397266565,-24.122728198043966,-21.372691731694136,-19.248390784242407
629,-17.401533932847208,-23.772415576536133,-21.005672141903187,-19.32653019147432
630,-17.1904891660559,-23.29181655438274,-20.511765655678293,-19.28812768804437
631,-16.910423368151253,-22.704739570920307,-19.910660009559308,-19.134807644291634
632,-16.57360461675931,-22.036999491524295,-19.224097892721232,-18.869575193542083
633,-16.19204405691149,-21.31519155994151,-18.474935357765705,-18.496674799558033
634,-15.776931374618613,-20.565451079565513,-17.686181854837276,-18.021458739085883
635,-15.338170311213442,-19.812267840236217,-16.88007187955238,-17.45027229567163
636,-14.884040384430307,-19.077420404120218,-16.07721519522987,-16.790358570984335
637,-14.421000384978363,-18.37908725872591,-15.29586668351415,-16.049781858188975
638,-13.953637836121285,-17.7311801997851,-14.551348581514985,-15.237365015330322
639,-13.484757542064203,-17.142931025190173,-13.85564785002106,-14.362633581856363
640,1.539165692442196e-11,-1.0737324420227084e-10,-7.80301420918833e-11,2.181379522983172e-11
641,3.367925620166124e-10,-2.0453233055730218e-09,-1.6426924530334324e-09,4.894589005269944e-10
642,3.0915823971076386e-09,-2.2786148878882823e-08,-1.9079331625489062e-08,4.627568089183799e-09
643,1.7688085655322835e-08,-1.6692928358574578e-07,-1.4551684796432286e-07,2.753332595532617e-08
644,6.687014366618863e-08,-9.182425385581538e-07,-8.308980185384576e-07,1.1123364193686153e-07
645,1.507948124466917e-07,-4.056594743201228e-06,-3.7969900802984667e-06,2.9724157506984234e-07
646,-1.2851459829826993e-09,-1.5042602359596e-05,-1.4505019946094243e-05,3.463027309701344e-07
647,-1.8330718584343194e-06,-4.831118600829285e-05,-4.777861976529977e-05,-1.3420448785544898e-06
648,-1.0369626842544295e-05,-0.00013756351656960398,-0.00013890077547741133,-1.0635323061305666e-05
649,-3.9427726135546806e-05,-0.0003536661223613221,-0.0003629789363583256,-4.3857516294844277e-05
650,-0.00012121045285935355,-0.000832957744186792,-0.0008653566892886055,-0.00013884821645771423
651,-0.00032184566186309777,-0.0018185331506809586,-0.0019052897723096374,-0.00037216380456642033
652,-0.0007640692142844762,-0.0037164071804870616,-0.003914148566006873,-0.0008830328159158552
653,-0.0016576634121595135,-0.007167473560707005,-0.007568342563755411,-0.0019039204897785733
654,-0.00333757644805291,-0.013134965387007811,-0.013876173202604,-0.0037968893339510503
655,-0.006308964795515091,-0.02300578299150982,-0.0242769030371591,-0.007094372898329781
656,-0.011297754597426518,-0.03870255749672383,-0.040749253321902226,-0.012542416315576035
657,-0.019304714283208596,-0.06280162609233439,-0.06592505566514213,-0.021143822645572647
658,-0.03166043326191398,-0.09865016778517682,-0.10320176898186094,-0.03419799309803321
659,-0.050077922267053314,-0.15047366983976362,-0.15684519363609797,-0.05333359036533466
660,-0.07669870785122909,-0.22346288325734398,-0.23207136873744563,-0.08052953512117884
661,-0.1141273430309494,-0.32382781594495874,-0.3350948288367734,-0.11811942399196038
662,-0.1654484802876261,-0.45880550330762226,-0.4731295871505955,-0.16877455868134725
663,-0.234220470114844,-0.6366086041394416,-0.6543296903615607,-0.23546173692184888
664,-0.32444020585895383,-0.8663035144555448,-0.8876580662203736,-0.3213738856587409
665,-0.44047573207093516,-1.1576097133350969,-1.1826755843805132,-0.42983428983860983
666,-0.5869658152530617,-1.5206163867262137,-1.5492466019236677,-0.564178199428609
667,-0.768688940318201,-1.9654177974673364,-1.9971625050195656,-0.7276186676057329
668,-0.9904076945783057,-2.501675071408099,-2.5356905955151774,-0.9231064108123431
669,-1.2566978696149433,-3.1381186134687535,-3.173061771397924,-1.153196115995104
670,-1.5717744862623475,-3.882011758119227,-3.915916465832244,-1.4199336491706587
671,-1.9393290319994918,-4.738601984644629,-4.768733881355032,-1.7247796593694658
672,-2.362393316940364,-5.710590576055285,-5.733274297045229,-2.068584802886849
673,-2.8432454300684853,-6.797654530744252,-6.8080677564868095,-2.451630067019685
674,-3.383372216903099,-7.996055444484234,-7.987984358617131,-2.8737423704261174
675,-3.983500311490393,-9.298368683645426,-9.263921290744916,-3.3344907176816556
676,-4.643703806098304,-10.69336226660881,-10.622639296436812,-3.8334617410125498
677,-5.363591049233668,-12.166048434264681,-12.046776224219318,-4.3706057685329815
678,-6.142566040988071,-13.697922066144248,-13.515057621489245,-4.946636195147469
679,-6.980151958430315,-15.267389315814707,-15.00271431501342,-5.5634566420254306
680,-7.8763561802357245,-16.85037777040634,-16.48210514438894,-6.224582919250923
681,-8.832048535052765,-18.421106992465415,-17.92353032004759,-6.935520845871493
682,-9.849318136453066,-19.952986470716624,-19.296208193407757,-7.704057227419232
683,-10.931769840051713,-21.419597739585058,-20.569376481419678,-8.540420422307195
684,-12.084719736265855,-22.79570956434164,-21.713469060608023,-9.457269482572013
685,-13.315250659676272,-24.058270278807782,-22.70131209543262,-10.469477069253745
686,-14.632093714487919,-25.187320121734796,-23.509279107294965,-11.593681157554764
687,-16.04531033278168,-26.166769049770227,-24.118343985181802,-12.847593687813488
688,-17.565761231520305,-26.984992101920785,-24.51497399054934,-14.249070333545657
689,-19.20436334018994,-27.635204692688543,-24.69181134523974,-15.81496368451172
690,-20.97115246257635,-28.115593613910473,-24.648101674618964,-17.55980118311128
691,-22.874186870188243,-28.42919505478686,-24.38983993123611,-19.494347545309672
692,-24.918343769480355,-28.58352739672625,-23.929618870851503,-21.624127493630905
693,-27.104075237329166,-28.590002606106893,-23.286180947708115,-23.947996974389888
694,-29.426201529541217,-28.46315447296701,-22.48369072988178,-26.456858447305244
695,-31.87282657495473,-28.219733669918234,-21.550760578046237,-29.132617406882062
696,-34.42446212147199,-27.877727796623816,-20.519276301199394,-31.947472391560012
697,-37.053442847827846,-27.45536870539571,-19.423080792062894,-34.86361917490849
698,-39.72370462581133,-26.970189204356434,-18.296581384495042,-37.833431979228095
699,-42.39098225308576,-26.438186743140736,-17.17335028685118,-40.80016126805305
700,-45.003461987287764,-25.873143215105276,-16.08478672614174,-43.69916013077338
701,-47.50289907686202,-25.28613816269235,-15.058904612827295,-46.4596208620906
702,-49.82618259481709,-24.6852783146154,-14.119301197847417,-49.0067717331234
703,-51.90730105321621,-24.07565058824968,-13.28435116064023,-51.26445317599463
704,-9.406396484734564e-11,-1.205301254336323e-10,-5.841685956334703e-11,-1.435889430061176e-10
705,-1.9118128721387586e-09,-2.582738693803337e-09,-1.184594386546685e-09,-2.977973221365205e-09
706,-2.0543897478975144e-08,-2.8851658335179238e-08,-1.3358190950619148e-08,-3.140158245747503e-08
707,-1.455864409755375e-07,-2.129441865954051e-07,-9.948835567869995e-08,-2.1870343292377233e-07
708,-7.702807679042301e-07,-1.1781958183875454e-06,-5.567882772129624e-07,-1.1375445015484721e-06
709,-3.2601464213805694e-06,-5.2287678634358465e-06,-2.505297035087695e-06,-4.734114282410754e-06
710,-1.1544075750027892e-05,-1.9452199905295225e-05,-9.472282199713887e-06,-1.6492571873956427e-05
711,-3.532528449325138e-05,-6.25933975139954e-05,-3.104764431283033e-05,-4.969454890636252e-05
712,-9.575635010002048e-05,-0.00017835703548831376,-9.029532046774724e-05,-0.00013279075007763865
713,-0.0002344988821062057,-0.0004583813242047437,-0.00023722139716165033,-0.0003209894649245169
714,-0.0005271363616584948,-0.0010782798630212535,-0.0005710424753537518,-0.0007132510220759395
715,-0.0011019691733313937,-0.0023497881987376624,-0.0012741005596565577,-0.0014759556181895045
716,-0.0021652310192417108,-0.004791227643827443,-0.002659920133985505,-0.0028744451433737575
717,-0.00403360682855331,-0.009217356697013538,-0.00523710231934268,-0.005313274739165579
718,-0.007174500135934086,-0.016848331906495085,-0.00978958321371828,-0.00938531989442786
719,-0.012253805201665474,-0.029435980071532072,-0.01747237908274043,-0.015929007609874184
720,-0.020190059651624143,-0.04940381820241877,-0.029920388635600908,-0.026092005005651
721,-0.03221286896977396,-0.07999515933974823,-0.049366158255368636,-0.04139869921586682
722,-0.049922428830092166,-0.12542118197235294,-0.07876071944520069,-0.06381762053234367
723,-0.07534585186728551,-0.19099814942719734,-0.12188968680942715,-0.09582357343950443
724,-0.11098490892333757,-0.2832603381574036,-0.18347485841066635,-0.14044783332036298
725,-0.1598488684866069,-0.4100330827795069,-0.2692498139299993,-0.20130866098421002
726,-0.22546555779191066,-0.5804491243044393,-0.38599678782401614,-0.28261387262934934
727,-0.3118637493620669,-0.8048915377901009,-0.54153173011455,-0.3891274402875035
728,-0.4235206379075665,-1.0948481860895916,-0.7446252089781291,-0.5260931778278952
729,-0.5652695556293115,-1.4626659894716965,-1.004848764700854,-0.6991105255497463
730,-0.7421651177700747,-1.9211982526139286,-1.3323394927699932,-0.9139602207867779
731,-0.9593055157348346,-2.4833446165760282,-1.7374799207363194,-1.1763809935955518
732,-1.221614498080385,-3.1614905560435815,-2.2304955042754773,-1.4918020312726616
733,-1.5335885840105834,-3.9668612710603077,-2.8209780732774172,-1.8650395680265355
734,-1.8990182314062505,-4.908812822177535,-3.517349978468152,-2.2999695073125075
735,-2.320694990664082,-5.9940908948705625,-4.326290079786388,-2.799191453949294
736,-2.800119898772394,-7.226094104205369,-5.252148539010647,-3.3637027265690724
737,-3.3372310652284374,-8.604183738614525,-6.296382069758447,-3.9926034111531368
738,-3.9301700345079666,-10.123084776001274,-7.457044329067072,-4.682854772752779
739,-4.575106675151564,-11.772423428310104,-8.72836710020821,-5.429112954240502
740,-5.266140868959053,-13.536443993688657,-10.100466552046036,-6.2236576274886835
741,-5.995296210102964,-15.393942191477715,-11.559205089729444,-7.0564310614675065
742,-6.752616439977473,-17.31844340343483,-13.08623323066633,-7.915197033825571
743,-7.526369709283471,-19.27864261951883,-14.659227832160697,-8.78582152132114
744,-8.303359334770219,-21.239108951919413,-16.252333280595117,-9.652668847926446
745,-9.069332958312456,-23.16124217817193,-17.83680145027945,-10.499098792595495
746,-9.809475373527844,-25.00445292630998,-19.38181492549398,-11.308042784170103
747,-10.508964149041883,-26.72752292965706,-20.85546674957501,-12.062631202976272
748,-11.153561906326551,-28.290088367986034,-22.225859451253527,-12.746839274671565
749,-11.73021507745086,-29.65417869122019,-23.46227695408431,-13.346116380604144
750,-12.22762659404734,-30.78573636205424,-24.536375885181208,-13.847963145652724
751,-12.636769588565569,-31.656040272360663,-25.42333840921192,-14.242422599262188
752,-12.951311010541005,-32.242957513417124,-26.102927564865873,-14.52245602991936
753,-13.16791804293911,-32.53195469275849,-26.560388492995628,-14.684180671976753
754,-13.286426164789601,-32.516810769803826,-26.78714496397097,-14.726954792075933
755,-13.309855319337858,-32.19998782587565,-26.781249955899607,-14.653305658424367
756,-13.244269453740047,-31.592633494325504,-26.54756114290247,-14.46870660433983
757,-13.098484078786404,-30.71420798363759,-26.097626215585983,-14.181219980944938
758,-12.883635754980183,-29.59174863262928,-25.449278033682933,-13.801032169792082
759,-12.61263587202313,-28.25880454518752,-24.62595472235866,-13.339914105347297
760,-12.29953817181416,-26.75409181639052,-23.655774064900392,-12.810645339041544
761,-11.958854706162713,-25.1199350085665,-22.570404152941467,-12.22644122448079
762,-11.604857937202866,-23.40057185093051,-21.403782613929913,-11.600421167253142
763,-11.250907252370785,-21.640404884683473,-20.19074436937761,-10.94515116715015
764,-10.908836272277322,-19.88228555045498,-18.965622438924708,-10.272286527051152
765,-10.58843322637559,-18.165912983837543,-17.760887599017877,-9.592331358289064
766,-10.29704076310518,-16.52642188826378,-16.605890700050132,-8.914521238762935
767,-10.039294284808182,-14.993221961215946,-15.525766260011173,-8.246824879987113
768,-2.0687015479249316e-11,-9.342786958450799e-11,-1.1484329078913151e-10,-7.048442880785079e-12
769,-4.765662698793535e-10,-1.930094679122726e-09,-2.4076253590389265e-09,-2.310888503035719e-10
770,-6.126392931344417e-09,-2.140237965746764e-08,-2.680761952672519e-08,-3.8791366934231234e-09
771,-5.120812029017038e-08,-1.5685668529719973e-07,-1.9675835909814227e-07,-3.8549071365572355e-08
772,-3.1749767771726943e-07,-8.623370890583318e-07,-1.0823758454507932e-06,-2.6959207846017187e-07
773,-1.5612706999128532e-06,-3.8052472234307555e-06,-4.774171995155437e-06,-1.4450302884077724e-06
774,-6.362507477751801e-06,-1.4087183196164224e-05,-1.7645082449003192e-05,-6.267614513530232e-06
775,-2.217338477404814e-05,-4.514791880190249e-05,-5.638088961248829e-05,-2.2847059298027768e-05
776,-6.767827099596792e-05,-0.0001282483317457939,-0.0001594417629310519,-7.199756372002176e-05
777,-0.00018437714649993762,-0.00032888204904235727,-0.0004064229119170909,-0.00020051782134252708
778,-0.0004553451232108703,-0.0007726469577765867,-0.000947615514790383,-0.0005024519651343567
779,-0.001032720074527004,-0.001682946055194536,-0.0020454122879993036,-0.0011496559299359788
780,-0.0021747432973241074,-0.0034323799349463943,-0.004128199940800136,-0.0024320404860962157
781,-0.004292360533653151,-0.006608904618822766,-0.007856284213426547,-0.004806965826487344
782,-0.008004651506050058,-0.012096817082279695,-0.014198395248368915,-0.00895657052828598
783,-0.014201702783086556,-0.021171440141658344,-0.024516455954039316,-0.01585122271314046
784,-0.02411284797744425,-0.03560499906778408,-0.040655426116546704,-0.0268165854810194
785,-0.03937734820289981,-0.05777959795715234,-0.06503395740660135,-0.043600892448560524
786,-0.06211351163657774,-0.09080140462574256,-0.10073017249731278,-0.06843794493708621
787,-0.09498096137142142,-0.13860819749858985,-0.15155517720577788,-0.10410010327309606
788,-0.14122933434623697,-0.20606045772643913,-0.22210519723090363,-0.1539341967914162
789,-0.20472533449277025,-0.2990044350371357,-0.3177819225139504,-0.22187201728918357
790,-0.2899491252873254,-0.424294389207267,-0.4447702189275885,-0.31240632389501766
791,-0.4019509296626456,-0.5897608421295621,-0.6099631910340046,-0.4305235840583591
792,-0.5462596781000444,-0.8041124775298552,-0.8208268074758683,-0.5815862913704554
793,-0.7287376103391959,-1.0767614823999552,-1.0851997810680785,-0.7711605200983108
794,-0.9553776760828517,-1.4175656710342603,-1.4110287477173733,-1.004788006781808
795,-1.2320440982132665,-1.8364855134121822,-1.8060435114882039,-1.2877060699794405
796,-1.5641603097730306,-2.343159911091732,-2.2773817870611675,-1.6245227768800552
797,-1.9563524523489166,-2.946410824085346,-2.8311772166910587,-2.018858692408554
798,-2.412060535595083,-3.653693210913937,-3.4721283493845663,-2.4729700621388013
799,-2.9331330096060646,-4.470512770260937,-4.203069690447515,-2.9873712061963205
800,-3.519423721164501,-5.399839267148288,-5.024568707480801,-3.560476178476924
801,-4.16841287326948,-6.441547444416765,-5.934574535206048,-4.188281371837873
802,-4.874875511889766,-7.591920321119874,-6.9281446348068885,-4.864111594869471
803,-5.630621977418855,-8.843250729162316,-7.997274413834799,-5.578451880040326
804,-6.424334379097645,-10.183575893394789,-9.13085149212361,-6.31888551782509
805,-7.241521235062563,-11.596576445752302,-10.314750879538717,-7.070155351163334
806,-8.064608851345938,-13.061665336109032,-11.532080071849695,-7.81436030298407
807,-8.87318282352143,-14.55428374731926,-12.763574496040343,-8.531292740548944
808,-9.644386392825256,-16.04641067384969,-13.988134478448796,-9.198914960044974
809,-10.353474583185237,-17.507280882363368,-15.183485636086646,-9.793965222522576
810,-10.974514551281692,-18.90429333640704,-16.326935943592126,-10.292675934454575
811,-11.481213981316913,-20.2040797419542,-17.396195313068812,-10.671579385304756
812,-11.84785123031159,-21.373691577249463,-18.370217914585243,-10.908370502451076
813,-12.050273763694845,-22.381854636639517,-19.230024130815362,-10.982791711856471
814,-12.066925606454735,-23.200233439566667,-19.95945833138628,-10.877502370628033
815,-11.879860414095507,-23.804644330722393,-20.545840719259804,-10.578894485558676
816,-11.475694652428334,-24.176156030175825,-20.980476294405644,-10.077817673710152
817,-10.846455465992667,-24.302019859157966,-21.25899121472082,-9.370179554767565
818,-9.990280137401413,-24.176378744300802,-21.381476068987862,-8.457392742571924
819,-8.911928447318884,-23.800714046846103,-21.352426237080934,-7.346645874574309
820,-7.62307552672337,-23.184001747242686,-21.180480977548164,-6.050983231468204
821,-6.142360742415693,-22.34256382246949,-20.877974475315472,-4.589185125858306
822,-4.495177565215918,-21.299615937605516,-20.460323095942744,-2.9854491220546984
823,-2.7131999376037457,-20.084527900137708,-19.94528280645081,-1.2688799783961522
824,-0.8336519603206054,-18.731827765610245,-19.352118429453554,0.527196401633373
825,1.1016607654745532,-17.279993189654576,-18.700731501089393,2.366073090089171
826,3.047528631908805,-15.77008387683974,-18.01079555857023,4.208628737376794
827,4.956684614174175,-14.244276231710133,-17.30094648542891,6.014388506283148
828,6.781271567323046,-12.7443651886688,-16.588071147032327,7.742643959284826
829,8.474375394638795,-11.310298499194428,-15.88673029893951,9.353594910733522
830,9.99156545799544,-9.978805535243657,-15.20874225703817,10.80947640447292
831,11.292382612401488,-8.782176232464613,-14.56294288315237,12.07563571945647
832,-6.906109598418092e-11,-1.0629016698915499e-10,-7.592714916485786e-11,-7.591575830727364e-11
833,-1.3037419032191037e-09,-2.0141186465018197e-09,-1.613401816785766e-09,-1.528493709593436e-09
834,-1.3790818261520838e-08,-2.2644419676082937e-08,-1.8764947708027266e-08,-1.5864535539439256e-08
835,-9.60956128116664e-08,-1.6645356762734596e-07,-1.4349703613017052e-07,-1.0865935159884644e-07
836,-4.994882567683097e-07,-9.181145280590588e-07,-8.21839921427756e-07,-5.55066698546428e-07
837,-2.075303917219267e-06,-4.063022747713494e-06,-3.7680821552231154e-06,-2.2660542634587213e-06
838,-7.210199006519073e-06,-1.507576258019439e-05,-1.4444753735258989e-05,-7.737732711697599e-06
839,-2.1641979160013932e-05,-4.839359568782916e-05,-4.774645096763754e-05,-2.284281437062547e-05
840,-5.755642976162368e-05,-0.00013758297690150421,-0.00013927618563276664,-5.9811495509000476e-05
841,-0.0001384049735030564,-0.00035282937607236615,-0.0003651106791728095,-0.00014177700915321472
842,-0.0003059932789470468,-0.0008282549024312702,-0.0008729470423993922,-0.0003093341871302947
843,-0.0006305997594595835,-0.0018012537339726709,-0.0019269434466002461,-0.0006296611009950402
844,-0.0012251132026735861,-0.0036653738110234728,-0.0039675719364000725,-0.0012088004723600173
845,-0.002264277725412586,-0.007037409348514201,-0.007686703439955773,-0.0022076418102283447
846,-0.0040099615626152585,-0.012838382158020313,-0.014117162592011737,-0.0038620419864934443
847,-0.006842891671930088,-0.022387003948528793,-0.024735123411242805,-0.0065074728283077135
848,-0.011300556413878917,-0.037502917120578495,-0.04157270292921504,-0.010608569260931447
849,-0.018120058382781107,-0.06061541675196869,-0.06733661556623981,-0.016793785333218878
850,-0.02828369810657134,-0.09487142083748593,-0.10552657499777955,-0.02589483693282594
851,-0.04306410533785178,-0.1442343229490343,-0.16054440350199878,-0.03898970197762662
852,-0.06406493161902883,-0.21356331627512912,-0.23778199013949758,-0.057446873167235527
853,-0.09325252629156966,-0.30866117822754313,-0.34367397481893014,-0.082967584275117
854,-0.1329736249653417,-0.43627771483102923,-0.4856999603312057,-0.11762200339981776
855,-0.1859538448289972,-0.6040563270992193,-0.6723215810697184,-0.16387490703708715
856,-0.2552717677754715,-0.8204126455001466,-0.9128420090780026,-0.22459610440976416
857,-0.3443037591767575,-1.0943369021091462,-1.2171792604498932,-0.3030508954636488
858,-0.4566356096603439,-1.4351156274609507,-1.5955496015823714,-0.4028661281025236
859,-0.5959386730368958,-1.8519731888804511,-2.058063011937158,-0.5279679090443433
860,-0.765810358659682,-2.3536393927973314,-2.614238723863693,-0.6824876865222995
861,-0.96958149386692,-2.9478555212692132,-3.272455150207798,-0.8706343892819609
862,-1.210096088816616,-3.6408373912106846,-4.039354902723055,-1.0965318534981825
863,-1.4894722648104661,-4.436719911010279,-4.9192318584016625,-1.3640230898951469
864,-1.8088563086988438,-5.337012700035305,-5.913432862822583,-1.6764459322633787
865,-2.1681846451419142,-6.340100171940567,-7.019811004663834,-2.036387873231773
866,-2.5659705939300985,-7.440821564777049,-8.232269734475835,-2.4454309922904653
867,-2.999133796748841,-8.630166327477228,-9.540436868580931,-2.9039005123874686
868,-3.4628899278386407,-9.895117726760018,-10.929504370871744,-3.410632493698913
869,-3.950716614379915,-11.218672421566179,-12.380263675519068,-3.9627772935898316
870,-4.454408354271241,-12.580056137840904,-13.869357365459871,-4.555655483604083
871,-4.96422879625056,-13.955145798910022,-15.369756666337974,-5.182681837821996
872,-5.469163369936513,-15.317097029541765,-16.851461067801097,-5.83537088952577
873,-5.957269327639132,-16.63716354513716,-18.2824022712715,-6.50343454593507
874,-6.416114096608459,-17.88568234165655,-19.62952056890084,-7.174978365035713
875,-6.833286655980289,-19.033186641048747,-20.859968757449852,-7.8367982320942495
876,-7.196960677289725,-20.051598078292844,-21.942387872302998,-8.474773335187248
877,-7.496482782521952,-20.915441428207,-22.848191355331522,-9.074344859428663
878,-7.722955021358627,-21.603019993402345,-23.5527904966179,-9.62106329214768
879,-7.869778087692399,-22.09748813087642,-24.036694509983118,-10.101181275563896
880,-7.933121294669141,-22.38775960750756,-24.286423444205692,-10.502264043428807
881,-7.91228710394969,-22.469196555611184,-24.29518095753709,-10.813786002472643
882,-7.8099420893750935,-22.34403351960794,-24.06324622116871,-11.027680319076598
883,-7.632192449794789,-22.021503913369394,-23.598059127181862,-11.138808731015011
884,-7.388490225072629,-21.517651417469548,-22.91398973248133,-11.145321312925303
885,-7.091365661064272,-20.85482549806822,-22.03180053130461,-11.04888040985115
886,-6.755991053698478,-20.060877281724455,-20.977827661685176,-10.854729109927145
887,-6.399591229059296,-19.168088407391334,-19.78292336626038,-10.571592164789683
888,-6.040725000229432,-18.211880171060795,-18.481215760150786,-10.2114059384202
889,-5.698469973267529,-17.229362426564013,-17.108752135786812,-9.788883434805063
890,-5.391549468198383,-16.25779060992003,-15.702097806675699,-9.320930198144456
891,-5.137444670890199,-15.333004452027119,-14.296963388127576,-8.82593622382635
892,-4.951537147186177,-14.487923168294056,-12.926929403487502,-8.322977264782718
893,-4.846326405348224,-13.751169111785655,-11.622328621943378,-7.830965412227441
894,-4.830764282555317,-13.145885212840913,-10.409334406665264,-7.367792977003317
895,-4.909742661963897,-12.688801388339595,-9.309288682517352,-6.949515027251662
896,-2.1319521349301582e-11,-8.33069523910806e-11,-8.325114731087352e-11,-1.6809484455211557e-11
897,-4.956795927688967e-10,-1.7679678852411666e-09,-1.782023151175942e-09,-4.559164373667467e-10
898,-6.1441218923098535e-09,-1.9992276179061094e-08,-1.985158952282789e-08,-6.332960731822108e-09
899,-5.027382421652301e-08,-1.490444002643589e-07,-1.4603080295445625e-07,-5.6044815817904226e-08
900,-3.0705342135104884e-07,-8.328583124250713e-07,-8.047692834289059e-07,-3.6132355776670817e-07
901,-1.494894541008202e-06,-3.731108319277489e-06,-3.555187233041893e-06,-1.8236264787574642e-06
902,-6.054539646591124e-06,-1.40014660821251e-05,-1.3158256914204586e-05,-7.5538339000229615e-06
903,-2.1030981540673037e-05,-4.5405305632825746e-05,-4.210342831070411e-05,-2.6563077566094528e-05
904,-6.412446208683625e-05,-0.0001302553109462078,-0.00011925535670387488,-8.13660065696405e-05
905,-0.00017483030416407073,-0.0003366560542754213,-0.000304585295958947,-0.00022158756276274797
906,-0.0004327759870720728,-0.0007955553227399589,-0.0007119791504523302,-0.0005455899638294341
907,-0.0009852144247772619,-0.0017397658176994358,-0.0015418638716096873,-0.0012316646429880386
908,-0.0020852146288780206,-0.0035563959257027223,-0.003124945952943362,-0.002579689896490666
909,-0.004141529930649923,-0.006853193107456137,-0.00597781279518967,-0.005063551526900081
910,-0.0077804689508961175,-0.012538262830414993,-0.010870526921444483,-0.009394058105412
911,-0.01391929651334459,-0.02191151301073233,-0.018905566652851032,-0.01659137687060999
912,-0.02384968292933456,-0.036764920322636674,-0.031606398895053615,-0.0280650213419019
913,-0.03932850601251086,-0.059487240308184045,-0.05101253965153376,-0.045698162948556546
914,-0.062671956253146,-0.09316704993578953,-0.07977621881642874,-0.07193164848475901
915,-0.09684746615482773,-0.14168611089595648,-0.121253909913038,-0.10984169342895436
916,-0.14555652747630843,-0.20979320363765983,-0.17958427045166478,-0.16320386708849913
917,-0.21330007701281004,-0.3031471436441093,-0.2597427161745046,-0.2365348547634525
918,-0.30541704163952155,-0.4283170341251507,-0.36756213543768074,-0.335102879244807
919,-0.4280861217646904,-0.59272823952229,-0.5097092894715791,-0.46489789540169163
920,-0.588281189434176,-0.804544257762031,-0.693607351593953,-0.6325538637728875
921,-0.7936718714301136,-1.0724776064546746,-0.9272968667250845,-0.8452174687132259
922,-1.0524629621402721,-1.405526855580288,-1.2192301736570135,-1.110360413901507
923,-1.373169215174423,-1.8126417621597957,-1.577997969627629,-1.4355358010048276
924,-1.764325727407747,-2.302323794507284,-2.0119910884867336,-1.8280829887336447
925,-2.2341383937868557,-2.8821748618993297,-2.529005495194532,-2.294789509688537
926,-2.7900834802403973,-3.558412466966137,-3.135803672462171,-2.8415226875563184
927,-3.43846985650896,-4.335374417780326,-3.837650623920297,-3.472847122142106
928,-4.183981491856435,-5.215040270428502,-4.6378472225921765,-4.191646911038849
929,-5.029221163486253,-6.196599406336084,-5.537287158471738,-4.998773205927367
930,-5.974278725170347,-7.276096662293656,-6.534065852416532,-5.892738299411048
931,-7.01634851973171,-8.446185374709971,-7.623170055737779,-6.86947669943519
932,-8.149420431963437,-9.696014327719045,-8.796275224083036,-7.922191458264313
933,-9.364067614251159,-11.011269372114082,-10.041674099677323,-9.041300512219667
934,-10.64735110218327,-12.374382610059861,-11.344354364645998,-10.2144932615603
935,-11.982857399648228,-13.764912486773996,-12.686235978934402,-11.426902339256237
936,-13.350879647031482,-15.160087543229677,-14.046570221128809,-12.661389588977155
937,-14.728746265586308,-16.53549572953557,-15.402492957264514,-13.898938810423397
938,-16.09129330339689,-17.865890849603613,-16.729714842551914,-15.11914120827164
939,-17.41146868874325,-19.12607867272524,-18.0033217048026,-16.30075339152643
940,-18.661048972898307,-20.291838225659653,-19.19865003676832,-17.422303005399463
941,-19.81144260224648,-21.340829379393092,-20.29219608015148,-18.46271423235794
942,-20.834548780285534,-22.25343654892204,-21.26251303488381,-19.401924737180412
943,-21.703637814081,-23.01350040412269,-22.091049853460337,-20.22146711165237
944,-22.39421755277521,-23.608894990430443,-22.76288700934209,-20.904991216326287
945,-22.884851035847948,-24.031916342520184,-23.267329447852998,-21.43870851609012
946,-23.157892604969096,-24.279460048017906,-23.59832436203956,-21.811744922704076
947,-23.200113310059844,-24.352978529405043,-23.754681059102126,-22.016394198807834
948,-23.003191321657432,-24.25822311044714,-23.740081428909445,-22.048269286728047
949,-22.564049116817195,-24.004790137213075,-23.562881655095822,-21.906353873261132
950,-21.885026187897036,-23.605503402538687,-23.23571794581334,-21.592960988192225
951,-20.973883474921017,-23.07567582836117,-22.77494028451663,-21.113609211885077
952,-19.843643034930228,-22.432300906490067,-22.19990766199038,-20.476829762836545
953,-18.512273058836016,-21.693228175364084,-21.532185289449785,-19.69391904919839
954,-17.002233837136668,-20.876376712520667,-20.794688469117773,-18.77865110778612
955,-15.339904479910318,-19.999036290577703,-20.010818909421683,-17.746962825424145
956,-13.554913060972867,-19.07729783404492,-19.203637323566866,-16.61662216465336
957,-11.679394399071278,-18.125643760136235,-18.39511135839336,-15.40688615761578
958,-9.747200016966229,-17.156715543671012,-17.605470688711392,-14.138151747214792
959,-7.793084157000763,-16.181261426734576,-16.85269209823395,-12.831599345311192
960,-1.0933850956528488e-10,-1.1104104057053888e-10,-1.193345732151209e-10,-7.38837482542284e-11
961,-1.7416622368930443e-09,-2.1927484860644744e-09,-2.527286386125096e-09,-1.5025346280514474e-09
962,-1.935659981200007e-08,-2.4584471502886377e-08,-2.8003262945108007e-08,-1.5673129947479837e-08
963,-1.3909751626742562e-07,-1.814960507965809e-07,-2.050790870864965e-07,-1.0784613219320238e-07
964,-7.508748301107707e-07,-1.0052025785325872e-06,-1.1268341627943951e-06,-5.54688435922559e-07
965,-3.2559838173048348e-06,-4.467246882332669e-06,-4.970805350782912e-06,-2.2863317251717175e-06
966,-1.1863784402386474e-05,-1.664823073631586e-05,-1.8398889081084622e-05,-7.913668840236312e-06
967,-3.751919390702431e-05,-5.368262725303733e-05,-5.895816021819034e-05,-2.3804967573010487e-05
968,-0.00010551768546908777,-0.00015333139947397475,-0.00016743811110257693,-6.390738647047987e-05
969,-0.0002689211779614043,-0.00039510900763116896,-0.0004291738795835367,-0.00015636582226712881
970,-0.0006303547549896744,-0.0009321094153400769,-0.0010073886010818747,-0.0003544727252655409
971,-0.0013749927195623156,-0.002037452388593454,-0.002191232328750677,-0.0007539470006667143
972,-0.0028172990036336647,-0.004167605211389328,-0.004460231099363273,-0.0015187535295803757
973,-0.005463291017567653,-0.008043813573722327,-0.008565577504904238,-0.002917493320818935
974,-0.010088787948298684,-0.014751553818286581,-0.015627255283673105,-0.005371877516389394
975,-0.01783252395386899,-0.025856333187750668,-0.027244513294523504,-0.0095181379998685
976,-0.030301312159482657,-0.043532287471540275,-0.04561566535141559,-0.016281529933001797
977,-0.049682712259486776,-0.0706978593669481,-0.07366150135900781,-0.02696327037959065
978,-0.07885878467810017,-0.11115041863543167,-0.11514467649622666,-0.04333815669263517
979,-0.12151247916524106,-0.16968915292902437,-0.1747753724648067,-0.06775962411119278
980,-0.18221610933194582,-0.2522131683625281,-0.258291548430868,-0.1032671740185765
981,-0.2664894617494132,-0.36577983949981197,-0.37250060015962577,-0.15368905640486047
982,-0.3808137622355445,-0.5186074523066507,-0.5252686385041614,-0.2237309866678144
983,-0.532587325990647,-0.7200064527995677,-0.7254442014424103,-0.3190397799440979
984,-0.73000964706428,-0.9802254353518111,-0.9827052214275604,-0.44622950205770767
985,-0.9818831820837784,-1.3102014854949253,-1.307321511390436,-0.6128574975370743
986,-1.2973262694300967,-1.7212095935037153,-1.7098298060518269,-0.8273387094472259
987,-1.6853962973530363,-2.224412341569093,-2.2006242323043264,-1.0987889871384229
988,-2.1546290368348204,-2.830318577102086,-2.7894715869043294,-1.436791330699945
989,-2.712507497982312,-3.5481678204582807,-3.484967466813405,-1.8510830161227758
990,-3.364881267946458,-4.385265153616604,-4.293955601693076,-2.3511661959951202
991,-4.115364533680132,-5.3462987048409785,-5.220938197313464,-2.945849826708636
992,-4.964747253062743,-6.432677970953544,-6.267509296888546,-3.6427364785273393
993,-5.9104585840479755,-7.641935528236481,-7.431845775773398,-4.44767342735466
994,-6.946124081619814,-8.967236603727029,-8.708291310378447,-5.364193001634798
995,-8.061257907592521,-10.397040033859842,-10.087067259859449,-6.392971996546409
996,-9.241128054159512,-11.914949960814834,-11.554140663669676,-7.5313434991184875
997,-10.466826247798465,-13.499790095280552,-13.091273426738907,-8.772896039466211
998,-11.715564771743372,-15.12592167293487,-14.676268378450185,-10.107194025774783
999,-12.961210243213234,-16.7638128857159,-16.283417676343262,-11.519649705841163
1000,-14.175050011759613,-18.380852405505056,-17.884147624199105,-12.991570633682299
1001,-15.326771264976433,-19.94238370686377,-19.447842176315756,-14.50039831998861
1002,-16.38561725335059,-21.412921390898383,-20.94281602231745,-16.0201439814974
1003,-17.321670425871382,-22.757496736302077,-22.337397963785474,-17.52201659569661
1004,-18.10719986203658,-23.943068294647222,-23.60107700357673,-18.97522733001332
1005,-18.718001235277637,-24.939925388610483,-24.705657741386627,-20.347943445609854
1006,-19.13465261166603,-25.723008614995234,-25.626368762118528,-21.608354641038183
1007,-19.343609330248963,-26.273072410874484,-26.342868023174496,-22.725806160108927
1008,-19.338066403954013,-26.57762065851143,-26.84009295227488,-23.67194649313621
1009,-19.118527256193794,-26.631557038943406,-27.108909982739117,-24.42183381466971
1010,-18.693032754904664,-26.437506873392362,-27.146528234671184,-24.95494504382296
1011,-18.077023506735443,-26.005785575290776,-26.956654338026752,-25.25603493906926
1012,-17.29282994032394,-25.354009331826454,-26.54937909393212,-25.315799828575983
1013,-16.36880720699232,-24.506364769457694,-25.940800750863854,-25.13131080774219
1014,-15.338153674084344,-23.492574596100365,-25.152403119187863,-24.706193594825994
1015,-14.2374712581141,-22.34661409909546,-24.2102186986259,-24.05054575623709
1016,-13.105141758322228,-21.105247653507018,-23.14381681760679,-23.180595786351113
1017,-11.979604765981167,-19.806464133109642,-21.985164138562517,-22.11812169256299
1018,-10.89762890469809,-18.487894728271932,-20.767409651897655,-20.889658506157033
1019,-9.892668664652065,-17.18529597118051,-19.523648499399556,-19.52553391224948
1020,-8.993393778286341,-15.931174926900695,-18.28571869412483,-18.05877861484515
1021,-8.22246720182571,-14.7536230634066,-17.083082065316024,-16.52396292654962
1022,-7.595632042322397,-13.675411101786052,-15.941835582344385,-14.956013180759218
1023,-7.1211484062190635,-12.71338022946044,-14.883891748540846,-13.389060652746274
1024,-1.0077209528000206e-10,-1.079654272829434e-10,-1.468717558445729e-10,-5.7926758342816504e-11
1025,-2.2893926033314973e-09,-1.9922633213487658e-09,-2.7715106305880466e-09,-1.416321500391282e-09
1026,-2.6022254459243848e-08,-2.2454596755698134e-08,-3.162670958284062e-08,-1.731592751986555e-08
1027,-1.9594632257471382e-07,-1.6575501489121658e-07,-2.3511398271144448e-07,-1.391259964264016e-07
1028,-1.1036387338554195e-06,-9.184081532561416e-07,-1.3094748065212768e-06,-8.298418590067418e-07
1029,-4.97360969804522e-06,-4.083578459898386e-06,-5.840548148202918e-06,-3.931152905731216e-06
1030,-1.8735027613742035e-05,-1.522571374641138e-05,-2.179812282172176e-05,-1.5456202284109377e-05
1031,-6.084882797442846e-05,-4.911436909067668e-05,-7.02378646256557e-05,-5.2050382153920486e-05
1032,-0.0001744334356097311,-0.00014030975082069902,-0.00020003290112982936,-0.00015378103213952354
1033,-0.0004495575654173692,-0.0003615283068400214,-0.0005128511195225126,-0.00040628466617355965
1034,-0.0010573130116114935,-0.000852567357770494,-0.0012013373814226363,-0.0009749987249469023
1035,-0.0022974778198682827,-0.0018622965146359023,-0.0026025530977306015,-0.0021532999600302398
1036,-0.004660472298521767,-0.0038055712415303263,-0.005267359032350625,-0.004425195087472979
1037,-0.008903158824953692,-0.0073360271652137,-0.010044943166770966,-0.008542084988781994
1038,-0.016136936287903525,-0.013434643488594388,-0.01818033317853208,-0.015612128422417337
1039,-0.027925439596118436,-0.023512740170525875,-0.031421538955057934,-0.027199714168027408
1040,-0.04638781786624366,-0.03952659566571166,-0.05213179673710485,-0.045431321430257555
1041,-0.0743019519034944,-0.06409906785436056,-0.0834010338455386,-0.07310252437069355
1042,-0.11520012293228991,-0.10064144369910999,-0.12914899428270807,-0.1137790957438923
1043,-0.17344770827816894,-0.15346637553311923,-0.19421054351757552,-0.1718831781611951
1044,-0.25429372268091655,-0.22788046080641464,-0.28439179753673016,-0.2527535460530165
1045,-0.36388085144928234,-0.3302431563962679,-0.4064843516898507,-0.3626675253109004
1046,-0.5092025235349585,-0.46797770187637094,-0.5682245602984337,-0.5088117689765409
1047,-0.697995946635988,-0.6495198801130765,-0.7781859200118789,-0.6991902846895977
1048,-0.9385630023538095,-0.8841920118530123,-1.0455953476519269,-0.9424609833966064
1049,-1.2395152913571275,-1.1819926190431345,-1.3800683847204906,-1.247696296594134
1050,-1.6094450498505453,-1.5532966371253427,-1.7912637823251012,-1.6240686601529761
1051,-2.056529726684157,-2.008466665492596,-2.2884640114370365,-2.080467512835994
1052,-2.58808436932718,-2.5573821969059054,-2.880094478423913,-2.625060632301294
1053,-3.210082299726245,-3.2089006445237565,-3.57320013821072,-3.2648188561811886
1054,-3.9266705253686176,-3.970270857196203,-4.372903370532831,-4.005029180320762
1055,-4.739711554205292,-4.846526247162033,-5.281871145197532,-4.848826540164654
1056,-5.648387373318587,-5.83989017854522,-6.299822391151838,-5.796778917884132
1057,-6.648903884054309,-6.94923041199978,-7.423107941789022,-6.846563365622876
1058,-7.734334551529998,-8.169601636309592,-8.644395232810227,-7.99277153496741
1059,-8.894639861354932,-9.49191496668038,-9.952487887856046,-9.226881726439558
1060,-10.116893907192075,-10.902770343569522,-11.33230618416072,-10.537429847184377
1061,-11.385740866223177,-12.384481856008437,-12.765048025816482,-11.910403858334716
1062,-12.684092426563954,-13.915317204011593,-14.228541475475083,-13.329875487257796
1063,-13.994062893676249,-15.469961211762515,-15.697789462399227,-14.778869522115787
1064,-15.298122409603788,-17.02020015700188,-17.14569561559595,-16.24045534988106
1065,-16.58043133162836,-18.53580957935053,-18.54394818365245,-17.699028219807477
1066,-17.82830138901917,-19.98561416220944,-19.86402771000154,-19.14173002918779
1067,-19.033712974300396,-21.33867525773141,-21.078294469178257,-20.559942524332122
1068,-20.19480405313899,-22.565550622974676,-22.161104402026307,-21.95077101121564
1069,-21.317235791300206,-23.63956279711192,-23.089897874601064,-23.318425152084373
1070,-22.415334029897465,-24.53800800333784,-23.846204328058327,-24.675396210992314
1071,-23.51290499566594,-25.24323700473503,-24.416507870182045,-26.043328129728856
1072,-24.643628803810444,-25.743543276886452,-24.792924095426233,-27.453483842498972
1073,-25.850945889915117,-26.03380213538801,-24.97364670511543,-28.946718734623968
1074,-27.18736966189374,-26.115816721833784,-24.963133494260155,-30.57289017609876
1075,-28.713183140426516,-25.998342281115317,-24.772014368527337,-32.38965532309548
1076,-30.49450745310593,-25.696777997598133,-24.416718520584443,-34.46063831640442
1077,-32.60076457938099,-25.232534645455136,-23.91883284461195,-36.85298170801421
1078,-35.10159402744595,-24.632105236127614,-23.304218209215215,-39.63433399442579
1079,-38.063321026210225,-23.925883508492397,-22.601923500444887,-42.869363527743324
1080,-41.54510993133622,-23.146790338583006,-21.84294858439274,-46.61592641797402
1081,-45.59496844919978,-22.32877993881177,-21.058915868410246,-50.92104984732211
1082,-50.24579371461619,-21.505305221810946,-20.280715385358448,-55.816920111799185
1083,-55.51166818552874,-20.707824355030592,-19.537189936629904,-61.31708445064958
1084,-61.384619967665465,-19.96442806568907,-18.853924671272445,-67.413085257024
1085,-67.83205716787305,-19.29865978491866,-18.25219968710381,-74.071742911697
1086,-74.7950684092983,-18.728588756817896,-17.74815520565705,-81.23328828573327
1087,-82.18775171914268,-18.26618066026636,-17.352207191565473,-88.8105178712214
1088,-9.9425571487898e-12,-1.1073733293842871e-10,-8.559822225836409e-11,1.1161699036588856e-11
1089,-1.811007475537076e-10,-2.4135446042102713e-09,-1.891894171775351e-09,2.846938004406099e-10
1090,-1.1185172765827137e-09,-2.7592334488728164e-08,-2.1531572289666517e-08,4.272784849188797e-09
1091,-1.7755329875658596e-09,-2.0808547071662382e-07,-1.6176019205205904e-07,3.921764300126601e-08
1092,2.5780788503253197e-08,-1.1747671871025105e-06,-9.086527483262598e-07,2.576456367979061e-07
1093,2.680577124685959e-07,-5.310276416827235e-06,-4.082904145856672e-06,1.310899611747329e-06
1094,1.5429328243948217e-06,-2.0079974211184592e-05,-1.5335392122379802e-05,5.437693318232334e-06
1095,6.6114926875549976e-06,-6.552383212040512e-05,-4.967884052340273e-05,1.9071013907585364e-05
1096,2.317179525298058e-05,-0.00018887918933129135,-0.00014211773237828829,5.8133377327469976e-05
1097,6.97192700822612e-05,-0.0004898669518678763,-0.0003657390338588008,0.0001574315012732092
1098,0.00018572321431673165,-0.0011601084113484477,-0.000859475709417461,0.00038565073654963115
1099,0.0004477538168730295,-0.0025393662330984107,-0.0018671451288250263,0.000867529698605832
1100,0.0009933455400089823,-0.005189981917222384,-0.003788450770681649,0.001815058484623879
1101,0.0020545097122895723,-0.009989334023087534,-0.0072416558263639,0.003569999270667905
1102,0.00400282597722805,-0.018238628396909814,-0.013136777048384717,0.006660422590561239
1103,0.007407834884130915,-0.0317849495011945,-0.022757459334109865,0.011873941755805141
1104,0.013109985124456077,-0.05315214230525179,-0.03784907597592091,0.020349735500786715
1105,0.022308725570265593,-0.08567457252571406,-0.06070984069315906,0.03369035745965287
1106,0.03666553340900915,-0.1336259634525889,-0.09428055797020465,0.054092907295719174
1107,0.058420684112525316,-0.20233330749482314,-0.1422269212011513,0.08449745086467532
1108,0.09052126331144746,-0.2982634793025932,-0.20900609324337985,0.1287485851345517
1109,0.13675624009161572,-0.42906805636606093,-0.29990712064338115,0.19176376716990196
1110,0.20189249584302657,-0.60357061038113,-0.4210532590899316,0.27969963481518656
1111,0.2918037907117028,-0.8316810114944102,-0.5793542210055775,0.400105271144711
1112,0.4135829827814133,-1.1242235370697105,-0.7823980567133615,0.5620493558492888
1113,0.5756265012566228,-1.4926698412250001,-1.03827566866184,0.7762064522443574
1114,0.7876791449778305,-1.9487737698506027,-1.3553352117850914,1.0548863839272185
1115,1.0608267788253243,-2.50411196908032,-1.7418680899743604,1.4119899787497954
1116,1.4074245533618488,-3.1695415483106397,-2.205732392580041,1.8628747307505962
1117,1.8409490501854788,-3.9545931405896746,-2.753923342021374,2.4241154812026653
1118,2.375764457411818,-4.866824127300521,-3.3921039437570317,3.113148330885583
1119,3.026795698289146,-5.911162288837461,-4.124112939155559,3.9477908808975677
1120,3.809105491560662,-7.089274492442897,-4.951471501594209,4.94563863046417
1121,4.737377547327229,-8.39899802193202,-5.872914554282487,6.123345682085902
1122,5.8253141804508655,-9.833873492967214,-6.883976336778183,7.495807152030225
1123,7.084963053540923,-11.382817607185618,-7.976661933730564,9.075269927922296
1124,8.525994036388777,-13.029970845390443,-9.139236098062437,10.87040680071662
1125,10.154952919473379,-14.754749237350742,-10.356157516208397,12.885395985237595
1126,11.974523711354932,-16.532120434400777,-11.608180869091731,15.119053354077888
1127,13.98283527089166,-18.333112688177998,-12.872641226788815,17.564068106556782
1128,16.17285077475967,-20.125551654956997,-14.123926181323064,20.20639371549766
1129,18.531879610923003,-21.875005241687937,-15.334131286883828,23.02484440347454
1130,21.04125030836018,-23.545902246227833,-16.47388428276401,25.99094269357793
1131,23.676179711680934,-25.102777581329395,-17.513313549033743,29.06905546355458
1132,26.405867560059153,-26.511586488613577,-18.423126628897467,32.21684426102111
1133,29.19383692838518,-27.741023110981967,-19.17575589243917,35.38604057863007
1134,31.998529942552324,-28.76377557101039,-19.746521120553954,38.523539024188295
1135,34.77415543881233,-29.557650491048822,-20.114753661161764,41.572782121018484
1136,37.47177167783438,-30.10650468621285,-20.264824565339676,44.475391459217214
1137,40.04057376939571,-30.40093037483933,-20.187020303131064,47.1729826694267
1138,42.42934293989551,-30.43865234407157,-19.878214535510605,49.609087479103714
1139,44.58800389022989,-30.224610535152188,-19.34229279128268,51.7310958795419
1140,46.46922789649924,-29.77071870182005,-18.590298171786426,53.49212591664208
1141,48.030013603910646,-29.095308108534816,-17.640279538805316,54.85272835177464
1142,49.23317515217611,-28.22228345200438,-16.51683818745075,55.78233863810204
1143,50.048668653461355,-27.180035044796195,-15.25038405366755,56.26039912984706
1144,50.45469322036612,-26.00016562524298,-13.876127460831848,56.277089678913924
1145,50.438511621180304,-24.716101001864306,-12.432846654134089,55.83362408249177
1146,49.996947934956296,-23.361660374532583,-10.961484133634725,54.94209236913046
1147,49.136534728024834,-21.969664125178785,-9.503635157657838,53.62485347576738
1148,47.8732994022028,-20.57065392656342,-8.099998811411982,51.91350791684209
1149,46.2321973515134,-19.191792282288603,-6.788864983494787,49.847503776662876
1150,44.246217208852805,-17.855996544842544,-5.6047091055825256,47.47245002051262
1151,41.95519964075274,-16.581346884547756,-4.576960685326388,44.838227241587
1152,2.1253234580978986e-11,-8.787547813972957e-11,-1.3277658883476922e-10,3.21079333679526e-11
1153,4.268487291338695e-10,-1.818865345869259e-09,-2.8120985143471257e-09,5.858743434752108e-10
1154,4.133911645297705e-09,-2.0361041522488683e-08,-3.108381339906911e-08,4.834877978002001e-09
1155,2.603004809841412e-08,-1.50612439635283e-07,-2.265741722099427e-07,2.3918826866478337e-08
1156,1.1969216343359513e-07,-8.357705434024397e-07,-1.235972747650303e-06,7.126894770841118e-08
1157,4.27974670802332e-07,-3.7221999732851807e-06,-5.399549795992216e-06,6.960071170003043e-08
1158,1.2345232247808701e-06,-1.3903953588844551e-05,-1.974732420955305e-05,-5.504510572485989e-07
1159,2.929810118486908e-06,-4.494521614398614e-05,-6.24011620945683e-05,-3.990212132471805e-06
1160,5.7347172322843525e-06,-0.00012871183373308324,-0.0001744933263059441,-1.655407240286541e-05
1161,9.00973129450021e-06,-0.00033257306460010214,-0.00043996525604449995,-5.300094064328493e-05
1162,1.007536112372627e-05,-0.0007867773782922513,-0.0010155382801370946,-0.00014299296527728515
1163,2.678181216683268e-06,-0.0017246722995348605,-0.002172859952194306,-0.00033931943433341606
1164,-2.450676862095693e-05,-0.0035379206024713835,-0.0043544811329333,-0.0007270084152008647
1165,-8.871800369357179e-05,-0.006848035798729518,-0.008244968944687575,-0.0014319759628502766
1166,-0.0002125122304907481,-0.01259448670948031,-0.014857928156488466,-0.002627517171714313
1167,-0.00042085863353283104,-0.022138346887967078,-0.025638665756653176,-0.004536696953386076
1168,-0.000735044976488125,-0.03737896709391727,-0.04258041503301687,-0.007428608224996892
1169,-0.001162633297068521,-0.060879396361247486,-0.06834945233163792,-0.011606625918943483
1170,-0.00168295274106225,-0.09599425918492441,-0.1064114381345124,-0.017387198403469573
1171,-0.0022279571866201196,-0.1469915971774626,-0.16114843499888515,-0.02506824028055312
1172,-0.0026586349010931693,-0.21915798675466192,-0.23795382033859994,-0.0348866745007383
1173,-0.002737507205337601,-0.3188743154455471,-0.34329103035944625,-0.04696513870117929
1174,-0.002098128088466588,-0.4536482555014536,-0.48470183353343255,-0.061248520192277826
1175,-0.0002129372533292016,-0.6320890204831385,-0.6707505654973498,-0.07743200304134507
1176,0.003638691904713784,-0.8638107110326525,-0.9108923946261023,-0.09488370465578552
1177,0.010399890141700894,-1.159252643111179,-1.2152562342572668,-0.11256658170286547
1178,0.021260462686963022,-1.5294085926826768,-1.5943365020641023,-0.1289658945486042
1179,0.03767263528580183,-1.9854618024088906,-2.058592695531779,-0.14202995921760117
1180,0.06135486429641814,-2.538328642077155,-2.617961776837841,-0.14913296181143054
1181,0.09428002207959488,-3.198120610165042,-3.2812954946150255,-0.147068941621474
1182,0.1386444828585182,-3.9735414416930683,-4.055742601796742,-0.13208535848275343
1183,0.19681539745798005,-4.871242953578157,-4.946103787246487,-0.09996286431562466
1184,0.27125474036012714,-5.895169427597071,-5.954194165306972,-0.04614521512084339
1185,0.36442035081386515,-7.04592536775808,-7.078253477145308,0.03407993588509845
1186,0.4786459225696487,-8.320204961196307,-8.312446965937626,0.1453520212370166
1187,0.6160035170964744,-9.710323146626582,-9.646499670435421,0.29196641670631346
1188,0.7781535459034972,-11.203887494498806,-11.065503404589306,0.47757067116772334
1189,0.9661882158741838,-12.783646848494753,-12.549929036951662,0.7048408580536227
1190,1.180475157751849,-14.4275467019078,-14.07586716783437,0.9751537683682412
1191,1.4205084434433508,-16.109012628686273,-15.615508446562139,1.2882732285538236
1192,1.6847745492615143,-17.797472036981762,-17.137861220683245,1.6420708092987535
1193,1.970641067222304,-19.459111619862558,-18.60968971872747,2.032302285860502
1194,2.274275991172277,-21.057853920352017,-19.99664136373528,2.4524609816913148
1195,2.5906050087955257,-22.556522352738455,-21.264517987107244,2.893727197417353
1196,2.9133132549215337,-23.918150835342576,-22.380633620259392,3.3450291836778834
1197,3.2348963959064414,-25.10738286045415,-23.315192149229517,3.7932257648184406
1198,3.5467638092020195,-26.091896214174614,-24.042612344429198,4.223414145319634
1199,3.8393941550342916,-26.84378433049215,-24.542726357563815,4.619359051069571
1200,4.102541012171445,-27.340823880769772,-24.801781184491777,4.964031617474291
1201,4.325483715352325,-27.567560863943662,-24.813180929582302,5.240238878924884
1202,4.497316335299431,-27.516154140269286,-24.577920690192755,5.431317954785363
1203,4.607266028598153,-27.186925757887053,-24.104679782382096,5.521863581350154
1204,4.645030733496469,-26.58858106737002,-23.40956172971186,5.4984537926376325
1205,4.601125267394546,-25.738077797207676,-22.515489482148602,5.350336423616012
1206,4.467224191540434,-24.660141088699365,-21.451285118514345,5.070038841755487
1207,4.23648937078102,-23.38643991581605,-20.25048226040898,4.6538651425792725
1208,3.9038700847032493,-21.954458219936487,-18.949935232934724,4.102249155494511
1209,3.466363940067542,-20.406110360796884,-17.588300594106094,3.419937924810254
1210,2.923227719866752,-18.786164110772702,-16.204473262602086,2.615988503152792
1211,2.276128662204306,-17.140544569609006,-14.836060693478915,1.7035704244595993
1212,1.5292284707650914,-15.514598435835916,-13.517974353553246,0.6995766042446218
1213,0.6891945811184244,-13.951399677741215,-12.28120851678653,-0.37594389644843723
1214,-0.23486425187998716,-12.490174717244164,-11.15186289088451,-1.5005074654872756
1215,-1.2315382742761662,-11.164917986790963,-10.15044882208378,-2.65003886265577
1216,-7.340961405826531e-11,-8.333525077792033e-11,-1.0075748316755861e-10,-3.334389930577524e-11
1217,-1.4497415484369323e-09,-1.7889645892115223e-09,-2.1192791126437554e-09,-6.499497661143441e-10
1218,-1.569887262135681e-08,-2.0024861749536604e-08,-2.354599144047735e-08,-6.7124229776486865e-09
1219,-1.1206539786907788e-07,-1.4809646417176716e-07,-1.7267693534268407e-07,-4.5948581895770216e-08
1220,-6.000747712016335e-07,-8.210293256078097e-07,-9.497079481433591e-07,-2.3754929209906167e-07
1221,-2.5809035753164783e-06,-3.6505995926990487e-06,-4.190943466323777e-06,-9.974754599784575e-07
1222,-9.326968926886653e-06,-1.3605310966373256e-05,-1.5507151457975165e-05,-3.572054711293408e-06
1223,-2.9246707006141858e-05,-4.3852399348040035e-05,-4.963914749069825e-05,-1.1288096911635703e-05
1224,-8.151518358219055e-05,-0.00012515114712047273,-0.0001407224144582564,-3.2232705095594974e-05
1225,-0.0002057329779029204,-0.00032211535463487164,-0.0003598190974111669,-8.449591649451283e-05
1226,-0.00047711976610321344,-0.0007587845627580003,-0.0008420627032519756,-0.00020547044046411057
1227,-0.0010286714145714179,-0.0016556839662080806,-0.0018253164046984525,-0.0004667781985245809
1228,-0.002081358684095063,-0.003379924943742381,-0.003701433891042946,-0.0009960461408198313
1229,-0.0039828664630513575,-0.0065089928290215735,-0.0070801905826424144,-0.002006083444626966
1230,-0.007254653431980968,-0.011907781877277842,-0.012864860245195819,-0.0038312990123694824
1231,-0.012646330819349107,-0.02081724312550274,-0.022337327597961656,-0.006970670274128977
1232,-0.021195500428627716,-0.034951719535165515,-0.0372495280521172,-0.012136210213284752
1233,-0.03429020976436253,-0.05660063667606784,-0.05991683188684147,-0.02030545307463951
1234,-0.053730084889830054,-0.08872867476384033,-0.09330768176545333,-0.03277578972545577
1235,-0.08178110452207034,-0.13506691192735307,-0.14112237243544137,-0.05121753642114369
1236,-0.12121805027193047,-0.20018583099107173,-0.2078524578551748,-0.07772158457425267
1237,-0.1753480121909569,-0.2895397489840278,-0.2988111276724528,-0.11483653400892907
1238,-0.2480080019293957,-0.40947146182609023,-0.42012435502620016,-0.1655894928223581
1239,-0.3435298002686667,-0.5671660064689588,-0.5786730256984799,-0.233484390599158
1240,-0.46666582842877763,-0.770543696037457,-0.7819778795897544,-0.3224719294813684
1241,-0.62247129965523,-1.0280851078014939,-1.0380219816097906,-0.43688637708256867
1242,-0.816140297944698,-1.348584453208485,-1.3550094138933937,-0.5813462723046449
1243,-1.0527966272421359,-1.7408324864123406,-1.741063555953333,-0.7606185238395561
1244,-1.3372439732496113,-2.213235428313204,-2.203873217182627,-0.9794480205393824
1245,-1.673683729832855,-2.773381838987926,-2.750299566388003,-1.242357525816736
1246,-2.0654124073578206,-3.4275745228782886,-3.385960930679582,-1.5534251770902519
1247,-2.514513581333384,-4.180349030383758,-4.114815906584493,-1.9160492199404955
1248,-3.0215616428172964,-5.034003834735968,-4.938767678349107,-2.33271146636363
1249,-3.585356048526356,-5.988169586692931,-5.857313815697711,-2.8047521927244925
1250,-4.202705254507162,-7.03944575836323,-6.867265912767905,-3.332169720630543
1251,-4.868278985534343,-8.181132262649474,-7.962562010943522,-3.913457771714136
1252,-5.574545806435761,-9.40308106943106,-9.134191619697306,-4.545492801204049
1253,-6.311809956084506,-10.691688329238943,-10.37024823745816,-5.223481723967608
1254,-7.068356973430142,-12.03004111732579,-11.656117680601842,-5.94097760271073
1255,-7.830711900822229,-13.398224912028233,-12.974802605384369,-6.689967060086827
1256,-8.584007140029188,-14.773788806627605,-14.307374939956059,-7.461028760374291
1257,-9.312449883177784,-16.132355866003216,-15.633539277486388,-8.24355774833902
1258,-9.999872011691872,-17.448356691498606,-16.932282405901503,-9.026046131834468
1259,-10.630338999169368,-18.69585586611633,-18.18257773697334,-9.79640686354418
1260,-11.188789190680176,-19.84943418768073,-19.36410894544639,-10.542324527273125
1261,-11.66167130335369,-20.885085014571374,-20.457974923526848,-11.251615375281844
1262,-12.037546417173868,-21.78108105058095,-21.44733834766356,-11.912578592854828
1263,-12.307621210269575,-22.518768669172324,-22.317982773912938,-12.514321861431425
1264,-12.466181697336689,-23.083250391024144,-23.05874817220151,-13.047046567748803
1265,-12.51090111394133,-23.463922121583533,-23.66182196884418,-13.502281250208476
1266,-12.443001688267914,-23.654839796289984,-24.12287159760367,-13.87305589560213
1267,-12.267257597227275,-23.65489959920951,-24.441014644530398,-14.154014226621028
1268,-11.991835024663807,-23.46782627181109,-24.61863313272806,-14.341465710816756
1269,-11.62797438110835,-23.101974516418963,-24.661048485080958,-14.433383143165127
1270,-11.189528800153303,-22.569958419023838,-24.576082402846776,-14.429354879722652
1271,-10.692381405513467,-21.888132496606048,-24.37353561473474,-14.330502921702633
1272,-10.153770987556817,-21.075954825603155,-24.064620671204903,-14.139379007468705
1273,-9.591561140503392,-20.155267306182918,-23.661386428300432,-13.859850645883355
1274,-9.023491180901374,-19.14953023855892,-23.176170570192827,-13.496987634158023
1275,-8.466448079172158,-18.08304804635639,-22.62111267206848,-13.056957195903696
1276,-7.9357971886092145,-16.980220392463533,-22.007754269761644,-12.546932752785622
1277,-7.4448059036239975,-15.864848458136306,-21.34674465762571,-11.97501785438799
1278,-7.004188730976399,-14.759520243802411,-20.647662243128593,-11.350183216798097
1279,-6.621794872527479,-13.685091887275222,-19.91895187438952,-10.682211407908556
1280,-4.408881340040743e-11,-1.0330645162485428e-10,-7.458060324483531e-11,-1.1549287936791985e-10
1281,-9.947850838899984e-10,-2.191122325684885e-09,-1.2410286727770942e-09,-1.6225661320459924e-09
1282,-1.1487891654199458e-08,-2.441204354094023e-08,-1.4333376988649286e-08,-1.9921607571575667e-08
1283,-8.752489254314908e-08,-1.7956493615836592e-07,-1.0766984277459266e-07,-1.5314570275065695e-07
1284,-4.978206997048451e-07,-9.901140406207783e-07,-6.085594046862729e-07,-8.783576474471801e-07
1285,-2.2607705307369103e-06,-4.378440311679012e-06,-2.7642097454282233e-06,-4.010751844821754e-06
1286,-8.564224204912346e-06,-1.6227942405444798e-05,-1.0539609814141865e-05,-1.5239448913789516e-05
1287,-2.7919587895645365e-05,-5.201395285406629e-05,-3.479216854872964e-05,-4.9745243100259994e-05
1288,-8.02006128043134e-05,-0.00014760898745084475,-0.0001017524315300096,-0.00014290771365119283
1289,-0.0002068303871780242,-0.00037777945685010193,-0.00026841171377499373,-0.00036830594975445534
1290,-0.00048623244131993146,-0.0008849449476851874,-0.0006478521119391314,-0.0008649589919945115
1291,-0.0010553110980015114,-0.0019204187828965851,-0.0014475897895262566,-0.0018751821681716144
1292,-0.0021373034393720775,-0.0038996334052031497,-0.0030235186832288127,-0.0037936747443329207
1293,-0.004075938908594206,-0.007471887194321893,-0.00595107156156433,-0.007227635275720596
1294,-0.0073754213655723225,-0.01360401757005477,-0.011113848023179763,-0.013066706515220608
1295,-0.012745223945949284,-0.023676159434546273,-0.019808363375843317,-0.0225603537869165
1296,-0.02114802124231125,-0.03958636800789722,-0.03386183778055463,-0.03739887645868836
1297,-0.03384833823708726,-0.06385933749516623,-0.05575811472863975,-0.059792811474123804
1298,-0.05245877079783892,-0.0997527127588954,-0.08876481429703004,-0.09254411413463187
1299,-0.07897999588819542,-0.15135264717828514,-0.1370526823542294,-0.13910120290387973
1300,-0.11583028538187869,-0.2236484980462154,-0.20579588926381495,-0.20358885238248195
1301,-0.16585993584166345,-0.3225751667190386,-0.30124001465832045,-0.2908032150814016
1302,-0.23234603927393516,-0.4550109350455286,-0.43072304498416486,-0.40616238328915993
1303,-0.3189634343241934,-0.628719024195458,-0.6026343387592247,-0.5556041141296074
1304,-0.42972851670502343,-0.8522227140807256,-0.8262975888966858,-0.7454247554651359
1305,-0.5689138282300191,-1.134606755579635,-1.1117665378395492,-0.9820568525905663
1306,-0.7409329749973613,-1.4852418899206363,-1.4695266122947046,-1.2717872447121634
1307,-0.950197431755228,-1.9134343191654488,-1.910101519695293,-1.6204224308094033
1308,-1.2009490765118174,-2.4280076203448937,-2.44357083143129,-2.032913267068881
1309,-1.4970746339181442,-3.0368304615529107,-3.079012171362454,-2.512956183041529
1310,-1.8419102779699288,-3.746309135122761,-3.8238892960982342,-3.062592498066909
1311,-2.2380461952490562,-4.560868945732627,-4.683414556746581,-3.681830742267224
1312,-2.687141806739704,-5.482452464276129,-5.65992041318479,-4.368318860473631
1313,-3.189762558028983,-6.510065216260074,-6.752279320882685,-5.117093663802911
1314,-3.7452487024999974,-7.639400198829722,-7.955413892019746,-5.920433565457522
1315,-4.351625308933263,-8.862571498788455,-9.259939285808871,-6.767837270373023
1316,-5.005560845367982,-10.167984096311741,-10.651976882630537,-7.646145538512095
1317,-5.702379219414582,-11.540361700733143,-12.113172216001958,-8.539815655622052
1318,-6.436127231011223,-12.960947299886513,-13.620940868880002,-9.431349184254815
1319,-7.199696168609521,-14.40788228346926,-15.14895396176591,-10.301863470062202
1320,-7.984992921829405,-15.856759932388782,-16.667860656058117,-11.131786859339073
1321,-8.783152724070034,-17.28133833669044,-18.146229741913725,-11.901647426094815
1322,-9.584782783301973,-18.65438715691977,-19.551676954013907,-12.592916212447317
1323,-10.38022390824555,-19.94863292593973,-20.852130223100048,-13.18885941571762
1324,-11.159815991437847,-21.13775966591775,-22.017172652852462,-13.675350309043537
1325,-11.914152943555859,-22.197416203309018,-23.019393551288957,-14.04159123536162
1326,-12.634313406638256,-23.10617922075735,-23.835672264802973,-14.280698941265468
1327,-13.31205533404713,-23.846421997420315,-24.44831859411396,-14.390112758177809
1328,-13.939965314834987,-24.405042884525596,-24.845997695367494,-14.371794545232996
1329,-14.511557207548572,-24.77401450155822,-25.024376615719323,-14.232201308632405
1330,-15.021318916899588,-24.950723913048517,-24.986443606515945,-13.982025223870561
1331,-15.464710546793567,-24.93808502633769,-24.74246928109727,-13.635710415942437
1332,-15.838121231601571,-24.744416473673187,-24.3095994337054,-13.210770346890916
1333,-16.138795282051234,-24.38309062355414,-23.71109154283325,-12.72694308885884
1334,-16.364740550072387,-23.87197141823066,-22.975229143429903,-12.205233050922857
1335,-16.514632868259728,-23.232669752628965,-22.133968817643403,-11.666895870034327
1336,-16.587729931836193,-22.489654380876868,-21.221392006810202,-11.1324272453027
1337,-16.583806134259916,-21.66926322408595,-20.272046903686046,-10.620616096622454
1338,-16.503116891259587,-20.798663970754962,-19.319273361419878,-10.147717576960968
1339,-16.346397244603633,-19.904813779229684,-18.393605539811723,-9.726792664736406
1340,-16.114895388428845,-19.013465759266783,-17.521342830836723,-9.367249062826595
1341,-15.810437543334887,-18.148265046911693,-16.723369806553603,-9.074603931249754
1342,-15.435516628425463,-17.32997022587054,-16.0142911712271,-8.850473737001826
1343,-14.99339372879157,-16.575827254484974,-15.401928872877466,-8.692781371651929
1344,-3.091742707736251e-11,-8.905434506809603e-11,-8.013464395459893e-11,5.300939365425893e-11
1345,-3.9152767562040766e-10,-1.8355700863073792e-09,-1.6746015436228788e-09,1.1396370569901103e-09
1346,-4.0752075936019715e-09,-2.0349115788445964e-08,-1.850993190780726e-08,1.2914919614332689e-08
1347,-2.6960872793529626e-08,-1.4898692667478793e-07,-1.3533331285610883e-07,9.634163070816281e-08
1348,-1.3480930464016245e-07,-8.177973179762077e-07,-7.421910178821955e-07,5.34522000223417e-07
1349,-5.477027555415682e-07,-3.6014764194562796e-06,-3.267646321249969e-06,2.3586855177394054e-06
1350,-1.9089966217618623e-06,-1.330194300630003e-05,-1.2073909843536903e-05,8.641758897735446e-06
1351,-5.937545872746911e-06,-4.252528384111641e-05,-3.8643100168905494e-05,2.7106616373705318e-05
1352,-1.693899457237834e-05,-0.00012049276694255174,-0.00010970062968351954,7.450744037487818e-05
1353,-4.506923699983072e-05,-0.00030823117858750563,-0.0002813769178500294,0.000182821084112716
1354,-0.00011275245958589977,-0.0007224486202642072,-0.0006617869311569686,0.0004066166886994227
1355,-0.00026608143660600557,-0.0015702652424638532,-0.001444432970971789,0.0008303286065025629
1356,-0.0005931620246268052,-0.003196545012417066,-0.0029545661701717353,0.0015737986671177583
1357,-0.0012511365833347704,-0.006144934926020743,-0.005710082921373583,0.0027943905038300045
1358,-0.002503100120722223,-0.011232911337337108,-0.01049771532520977,0.004683979434039077
1359,-0.004765466447048518,-0.019640167014468957,-0.018464257268940576,0.007458947074590843
1360,-0.00866561955056767,-0.03300848064130555,-0.031221381493099765,0.011340959388814725
1361,-0.015108875808061115,-0.05354971999855268,-0.050961234604874034,0.016526027060698254
1362,-0.025352785805734614,-0.08415680370950536,-0.0805783620003007,0.023139443826326614
1363,-0.04108557230820813,-0.12851036034392052,-0.12379152943142448,0.03117484087225645
1364,-0.06450403077123082,-0.19117167748421326,-0.18525669068378825,0.040416808694084067
1365,-0.09838459192594945,-0.277650634078102,-0.2706599146078176,0.050348257241503505
1366,-0.14613962256450636,-0.3944360267599499,-0.3867769424960685,0.06004579362597728
1367,-0.211849686356927,-0.5489753684862899,-0.5414846917212428,0.06806867558107864
1368,-0.30026175295863866,-0.7495920972828952,-0.7437098966190431,0.07234905325586422
1369,-0.4167435193508294,-1.005330255917927,-1.00330143597768,0.07009298342479706
1370,-0.5671852476776859,-1.3257200195541403,-1.3308157638976905,0.05770295885944583
1371,-0.757842793809084,-1.7204617685571224,-1.7372090352475467,0.030733409324890493
1372,-0.9951186994620745,-2.1990315063795056,-2.233434678599365,-0.016109288813604013
1373,-1.2852822070653604,-2.7702160703768324,-2.829950990955353,-0.08891150080470164
1374,-1.6341336820270644,-3.441592530765409,-3.5361495891311647,-0.1944327035636747
1375,-2.0466239465723097,-4.218972129292254,-4.359722124308313,-0.3399154027531095
1376,-2.526444112131271,-5.105834694221776,-5.305989430001101,-0.5328223678003167
1377,-3.075606271895806,-6.1027842226471805,-6.377223989997623,-0.7805037370888124
1378,-3.694039495024678,-7.20705971296941,-7.572002811415414,-1.0898020488857798
1379,-4.379228569628803,-8.412136847019717,-8.88463274503538,-1.4666092184484312
1380,-5.125924435078468,-9.707455327160128,-10.304693085726122,-1.9153954345945954
1381,-5.925954820212272,-11.07830331752477,-11.816740008057113,-2.438735243424478
1382,-6.768160971441869,-12.505884484744271,-13.400213439203775,-3.036860098489807
1383,-7.638481485482984,-13.967584804820667,-15.029579281912406,-3.7072689639676075
1384,-8.520197334850405,-15.437446026527269,-16.67472896587895,-4.444428910449145
1385,-9.394343527423665,-16.886841053275017,-18.30164498895797,-5.23959585387998
1386,-10.240282870688459,-18.285334220111636,-19.873326336270903,-6.080781483931418
1387,-11.036426548409036,-19.601697261861947,-21.350952241035095,-6.952885999955543
1388,-11.761075364189908,-20.80504050730355,-22.69524733301541,-7.8380078019888
1389,-12.393345398834544,-21.866009307587507,-23.867996440427078,-8.715931324416612
1390,-12.914133321710061,-22.757988691962197,-24.83364392971608,-9.564783378195102
1391,-13.307070412688356,-23.458255368464464,-25.560901434438332,-10.36183727112422
1392,-13.559411091302465,-23.94901587691832,-26.02428025123311,-11.08443319444809
