,TP9,AF7,AF8,TP10
0,-0.032617192205500904,-0.008271076182334572,-0.010730517338436982,0.006124457899541208
1,-0.031650838416086624,0.024520610681894622,0.03145548826744824,0.007601838143826774
2,0.01818695256006271,0.03945220665122066,0.05358743260288873,-0.011804613793634684
3,0.09424898422440606,-0.022661964588471237,-0.025284935884546417,-0.03725796509529545
4,-0.3607564477616113,-0.42233141068701535,-0.5299995627204468,-0.09899055012416062
5,-0.6407441041818831,-0.8013316829551232,-1.1554505709373577,-0.14871371631030464
6,-0.4516696566132776,-0.6546849500616387,-0.9376109484082059,-0.09394034239734925
7,0.20806132821784928,-0.006637987557265107,-0.01632985854118507,0.053469936303261516
8,0.9500612789036988,1.1085506599268464,2.3806917331770348,0.2416970100996271
9,2.0434739335852363,1.8022350072140214,3.620010787233689,0.3755433670929644
10,2.078645991236938,1.7041521201703396,2.721151933493986,0.39714838197976987
11,0.9620653090149367,1.0166346809040268,0.3232001683877954,0.3199447543722621
12,-0.3305688431726817,0.45410331907718593,-2.513987691965726,0.2560244285705952
13,-1.6977822682470924,0.17972815722414892,-3.7860617875995906,0.2352403301697251
14,-2.503253818574721,0.16268996247327872,-3.189460837128578,0.23363107699942068
15,-2.530744055943252,0.33307190998198105,-1.3257124977343966,0.24972360870246454
16,-2.083352212672983,0.2919484465347869,-0.47888234842957306,0.2375574580578658
17,-2.225728128293101,0.24493688936766772,0.19398746629813488,0.2579633782886183
18,-2.339909515417272,0.24963804508437976,0.23068945619237324,0.25592278626554305
19,-2.2650291673254532,0.33582589989076467,-0.1363304427500115,0.21851193250916354
20,-1.9461009462222898,0.4768605713921211,-0.04617772448953392,0.15729417181690636
21,-1.4899445112772531,0.6112158331524501,0.01591707144414571,0.06805019818461508
22,-1.073954031635636,0.7174419171819159,0.10966174170986344,0.11471798324833894
23,-0.8548668994295427,0.7201392499763195,-0.0777082070533936,0.10426952734325327
24,-0.8775324427888833,0.6363909392335515,-0.5569616547862333,-0.029468723596182883
25,-0.9836806388523688,0.549842133035053,-1.1568494213145193,-0.288506613466741
26,-1.015452012951053,0.6160413581206877,-1.644081819655029,-0.5291850050260938
27,-0.8025137073619678,0.5666732132695502,-1.843306209321112,-0.7180017508991428
28,-0.8238075379208768,0.33309388362996417,-1.7570845496283443,-0.7229423573108664
29,-1.0733457687322345,0.016295012173370003,-1.6858709530001825,-0.5752973315355181
30,-2.1293140989481136,-0.4856486856942491,-1.5325397972946744,-0.47424117624816936
31,-2.6410166529257717,-0.7345668898148008,-2.095607177316708,-0.4328142253501435
32,-2.659260082944271,-0.512625365505134,-2.040248541465779,-0.39361555313619057
33,-1.0955359494476384,0.012985819399801452,-1.081399692642111,-0.27443081462832547
34,0.9775930227181048,0.5435360721927012,0.6769855196981116,0.0016545691832842019
35,2.479870530644779,0.8626113297560895,2.8159059649067775,0.38415495650466286
36,2.1642553180699693,0.7160422055490574,3.397170833203628,0.727105986046826
37,0.19804673029382858,0.28374001545651456,2.075092961009283,0.7229288904811102
38,-1.3419257151342898,0.021184190735963376,-0.9839553092463909,0.38658218146760165
39,-2.7952982390522356,-0.06715567340291385,-2.59821452961721,-0.11788678058303376
40,-1.123551881308441,-0.013819447636222653,-2.67686675207739,-0.4829334222150111
41,1.0201620115818375,0.11980579531570501,-1.1462434992534047,-0.458273865636884
42,2.481926321897067,0.016547659855621902,0.5717554586556408,-0.17756377272789836
43,1.9013172879185636,-0.11592375928499657,1.6469534346493655,0.37961296110403336
44,0.5012510179944377,-0.25845739674296586,1.662750191410896,0.8169181180040652
45,-1.8772130234562687,-0.35007588342679313,0.6008226607245049,0.5295735489863354
46,-2.7345882821242595,-0.2892035276768695,-0.6879210836974107,-0.24714595150981855
47,-0.36496397263488267,-0.21598069956556484,-1.775926964412644,-2.186554784863813
48,2.1399114954901672,-0.14317603554323766,-1.7752588455083864,-3.080083706973218
49,4.458901986306041,-0.28934067546135245,-0.5544435975827303,-2.1192993519294294
50,4.327810920506115,-0.39324565777417825,1.1380878278849247,0.028828108742270153
51,0.20528459938529664,-0.32470804715319723,1.728424574521643,3.217024576154332
52,-3.8614583904547546,-0.04227662488147196,1.450490000175585,4.441873310010535
53,-4.352714910407951,0.22609675272514526,0.5940177748757662,3.0832874803393606
54,-2.186142814532454,0.6103381078057337,0.18605556928211942,0.12027281556374653
55,0.7939233498666233,0.6496681274369214,0.1034476454031652,-2.374330122015316
56,3.4265851583825033,0.021305742658647014,0.22662317180831665,-3.7680468312262176
57,3.2935360355712953,-0.6314629287283703,0.3649811736850429,-3.1152116568481123
58,1.5257124812667022,-1.0577415281960345,0.24946053859914596,-1.1370202243048224
59,0.5018794087854836,-0.8944413856387713,0.052120140783364834,-0.13553634767763337
60,-0.7808921052814164,0.011142228808502987,-0.16195173637508142,0.40980376958771936
61,-1.5469740711245958,0.9281346687937453,-0.34616076279755165,0.43338467692371824
62,-1.5668037451964472,0.9967279882810801,-0.4152267582809891,0.4007199060323772
63,-1.185349850882474,0.5872868487744329,-0.4234867935384591,1.1928909587480645
64,-1.2404243577583667,0.15354969184594675,-0.39475129547707805,1.8822012463147382
65,-1.2488059655382344,-0.1779739671658424,-0.37544067656831975,2.3350986025848903
66,-1.3445689912187,-0.1958846167510665,-0.655168409135437,2.578886136179826
67,-1.7273345682181882,-0.08650990400895281,-0.6566904572786332,2.3025109467867906
68,-2.0885588882726234,-0.13503304617910356,-0.22128018708034594,1.9280653544750257
69,-1.9110582855017633,-0.16430981418860452,0.37336527914734674,1.3473805862353536
70,-1.1652408008645274,-0.1787499249736269,1.485305086896086,0.793523279926153
71,-0.1788886052812848,-0.17953756738008264,1.8819182814802897,0.5035056313899972
72,0.49305957724386046,-0.171661143315525,1.1691165137456527,0.5224520428220762
73,0.7435305521921545,-0.1378412753940651,-0.16406973965989755,0.654188668051541
74,0.5825458035151978,-0.24717730322300252,-1.6214034634364518,0.5713154044962518
75,0.5191304227578077,-0.2362437004401086,-2.324894170893256,0.5422768140409954
76,0.54605569679785,-0.05432110567940822,-1.7575782045489188,0.524531008762783
77,0.541697437310535,0.3066230579553379,-0.36169802262169387,0.5235630557476079
78,0.5688008116785339,0.6542708480668789,0.49845355440954536,0.5332425858993599
79,0.5975099800553831,0.9187097540525422,1.1059491661210759,0.4720300741012569
80,0.821727939778582,0.513018402044535,1.1390852903962503,0.6459880793438142
81,0.8494997613413826,-0.23274515972338874,0.8077240476445073,0.6285922788195581
82,0.4853654707653014,-0.7098363181755294,0.8877171172857883,0.30966926920820426
83,-0.11873963647973489,-0.6690717615492734,0.9790991511136871,-0.13438811714925825
84,-0.4992362861971048,-0.11353708236773696,0.969960947730897,-0.8897120209875434
85,-0.39864538581298925,0.4314051377627145,0.8024272190464165,-1.1852900417878325
86,0.0850381108570748,0.5542826329610014,0.5282811175627218,-0.7951696777958588
87,0.6779267337981729,0.11617013144583094,0.25413501607902794,0.08322255048795271
88,0.780362460757062,-0.33499027737271786,0.0866012873945489,0.8551380894036379
89,0.6171688011819633,-0.5093618901194819,0.07746308401175919,1.2669793423672004
90,0.3977817391457096,-0.2419694705268461,0.16884511783965656,0.854730414947308
91,0.28022487712249605,0.21186387165843973,0.1867592402625326,-0.5335684404158673
92,0.22672281086104498,0.5765059366469035,0.041634839166007354,-1.3916458781691199
93,0.2327061349290123,0.42760620906804586,0.056147279275660156,-1.513538623495958
94,0.21831214018809905,-0.1038957474217681,0.3222086812859556,-0.7441459156525025
95,0.1604844989690883,-0.5363895804609726,0.5813614678641112,0.2549206915366228
96,0.5205867001690219,-0.4743232874944872,1.545395921287935,1.069269790299667
97,0.5679977165267247,-0.12038216900351889,1.7585911982848017,0.9815181486589601
98,-0.16072082054562187,0.3385394152146737,0.8038913464816613,0.2302313911215933
99,-0.9293991092458196,0.5044293855905292,-0.6765489960780282,-0.4023419284084575
100,-1.1450220168244927,0.3207432947146167,-2.9661613729340033,-1.0099202916074845
101,-0.6267549220616546,0.19173159249113542,-3.860173322164911,-1.3350567478084825
102,0.45845962488596237,0.1704248365969504,-2.5343664980106486,-1.3277700168630338
103,1.4905561593779408,0.24012198401389598,0.006132157475385647,-1.0751833048124504
104,1.3447468311790556,0.37180949508812877,2.8184406465334257,-1.2707986662983501
105,0.7434254233364858,0.47573989834647995,4.123861733169774,-1.2561892767306055
106,-0.011328358560374438,0.43714528936840846,2.883166606052143,-1.0543791354788923
107,-0.5012603303022737,0.3076664917507071,-0.009355919824408643,-0.7247326588894343
108,-0.47417688684154513,0.14323146992478214,-2.362735803961001,-0.3968504791960818
109,0.2808138428886225,0.05091729688961652,-3.5154213870120543,-0.1901069639253228
110,1.1143646929832405,0.05665529621752376,-2.585059723185691,-0.17964803710783903
111,1.0602132067976529,0.10512568404536153,-0.3866021254681925,-0.2992338288995656
112,0.27861190321328766,0.19107671715138141,0.826007780071628,-0.2784851146767894
113,-0.9580694830520021,0.2659797748263181,1.5878245067110144,-0.29436378674173014
114,-2.1947506895917446,0.2985847540975516,1.4305052430586411,-0.30406741967030504
115,-1.9381732208905216,0.2607243276308111,0.8504927693856535,-0.30459670873913636
116,-0.3538128367812554,0.42918299067007704,0.7335816449759548,-0.29930381805082285
117,1.0459328470844715,0.4164002189586409,0.8039311719972724,-0.22501879885230802
118,1.4692526731057693,0.14991644819101807,0.7787194984835206,-0.4531667471361662
119,1.0386954890264224,-0.2638094853242591,0.49827269218094195,-0.4946407951622849
120,0.11232807311585824,-0.6478159151857588,-0.0870024938281185,0.11649697192163529
121,-0.3862728691559087,-1.0034581969147074,-0.6161675003530465,0.7816541639168537
122,0.23768388928288273,-1.00732511753001,-1.0649448451080141,1.1125093730686455
123,0.4235375896583227,-0.68390717426192,-1.0733234647765257,0.9521810258985062
124,0.3116155656513485,-0.4287980982438535,-0.6943679505924929,0.3963962350363526
125,0.13466236380885524,-0.1272994354161438,-0.4444902663513015,-0.18534034894727483
126,0.04657327245616916,0.05694974742301163,-0.1319580478230424,-0.1285776857090081
127,-0.020835411361970382,0.06699970285060186,0.05903386349978204,0.06428884285450365
128,-0.0036183868726481607,-0.0062932791003979804,-0.0073688398141392025,-0.05697253543918771
129,-0.011660907824277067,0.023127771185391142,0.019357523531663118,-0.043131281880059005
130,0.013005157626567003,0.026100230143107923,0.03794703063910686,-0.0445154072359719
131,0.16246290244834294,-0.025875799631681795,-0.01205506296932575,-0.06989103876104111
132,-0.22234177795600396,-0.3432305224295696,-0.3842737165918244,-0.0788483192173248
133,-0.5066637752086652,-0.6254939129651511,-0.7029895066105296,-0.21807152055801715
134,-0.634373641859488,-0.4977628897731167,-0.6107474240253705,-0.2336772080167553
135,-0.2613859068954749,0.039037419393134695,0.024977450395526762,-0.0708078043621509
136,0.6445997842557728,1.08822926043564,0.9713773856448158,0.23881227176391787
137,2.0707049740012526,1.525079884226704,1.327102795367237,0.648555717024628
138,2.361838034611634,1.040372975722738,0.8583685657663,0.7333579902983106
139,0.8591830834085858,-0.1953969456760931,-0.2515598950971271,0.39206008970349016
140,-0.9915509794405115,-1.375316950574659,-1.0581370490060396,-0.22733810275302363
141,-2.42966928459093,-1.6618021833055758,-1.1611179032730659,-0.7359115028959404
142,-2.447245460133007,-1.012501410687463,-0.6272010273293367,-0.8897795142492235
143,-1.4237997626209418,0.27199917844509985,0.0770898078070422,-0.5883309242051536
144,-0.3346639704738207,0.9645984302306431,0.4524083406174692,-0.10043751296173357
145,-0.3110447132475738,1.0143656971450734,0.5187165629866021,0.2512905688555608
146,-0.5044734771122587,0.4427850929642264,0.2579304657662598,0.36744844288052775
147,-0.492345825981046,-0.25805191818657647,-0.0034924988644807007,0.1750565260446182
148,-0.3910740797873478,-0.4318378526656069,-0.14291692166309802,-0.19523278067084796
149,-0.35249344477332795,-0.04960159849937403,-0.15246276391298733,-0.47176655406368817
150,-0.22461632427073525,0.5450117091182426,-0.0293091119498139,-0.46609416733378284
151,-0.21988082898635922,0.7068877318537597,0.07112838716626195,-0.13962040356007868
152,-0.4085253326683502,0.48446423696835156,0.18820658137471374,0.40181652023138237
153,-0.6913188066039474,0.10100261970135341,0.16293988020169714,0.7949459823313585
154,-0.9912530644309301,-0.22260004266926822,0.007062151451643009,0.7944909290210332
155,-1.2016468134936893,-0.16621330130629974,-0.1210593315170541,0.3759912992703496
156,-1.2342566781222575,0.01944023088213346,-0.16698764728353727,-0.12303441390619438
157,-1.1150248466095858,-0.007438673758019959,-0.04130184201804952,-0.4481696463040264
158,-1.0516214490965579,-0.23938718683315827,0.16331541833174565,-0.5830103438494165
159,-1.131690274161363,-0.5736861297895637,0.2471874425863909,-0.5117513991751216
160,-1.2642621623908359,-0.6474539843227397,0.028859325656442142,-0.45537201037878366
161,-1.0638293202419284,-0.26236284433511253,-0.21821957799546055,-0.5179383829791095
162,-0.49957655520889743,0.32813639617834056,-0.3551749330025026,-0.5139912358289856
163,0.26291735050254056,0.6310749200287461,-0.2794211165381478,-0.44162687141005075
164,0.8351929807910783,0.34325059503242883,0.034834403904367366,-0.32321245690633926
165,1.07803530772299,-0.3133778254581166,0.19694581369072678,-0.27602244119921016
166,1.0372284804620855,-0.6244545382779387,0.1199239937897511,0.010015119609470241
167,1.0869240475498252,-0.35822335423709906,-0.22741480611365159,-0.007405052879381091
168,1.2561980308142084,0.28883885109895624,-0.5384970040913425,-0.4386107177618177
169,1.3673381877829152,1.0089590316661727,-0.5418917512498016,-1.066473149763973
170,1.2908529966488358,1.0138533287866625,-0.21910445134054696,-1.627546938682473
171,1.1329713634481104,0.15467065633752036,0.21311575609982725,-2.2591185328158656
172,1.4700954718138328,-1.0501550948086416,0.4530876998075327,-2.256502112379619
173,2.08409270721806,-1.754151749284514,0.535326357470481,-1.6031270146108518
174,2.0979468096626563,-1.4892674757945745,0.4605114549141892,-0.9548392111508479
175,1.30585474834958,0.01302217324695873,0.450927109121371,-0.23532700889426555
176,-0.017283280093346398,1.4999758521161217,0.45040279064086275,0.2043748924847557
177,-1.2336255302211379,1.7520738841534176,0.4518070700008,0.2283586325599749
178,-1.7353938254874757,1.03922820301724,0.47755219159964923,-0.011478768192217575
179,-1.5813759354129369,-0.15504276440408538,0.5230239698628235,0.09175881857098067
180,-1.5034056826237725,-0.983422054327517,0.5551221582657674,0.0218834590335774
181,-1.7179553917387365,-0.9571448566089786,0.5818702991041336,0.02887099498731785
182,-1.677727404804136,-0.35131044691520497,0.6016632645218876,0.15697582080589012
183,-1.6909975127166101,0.1783189885370963,0.6177110481080336,0.36660189941809856
184,-1.729107745920892,0.6208562251311687,0.6011359041266362,0.5762279780303063
185,-2.340335503308112,0.6194295332509411,0.7735645472845708,0.7043328038488774
186,-2.7205592803073935,0.19163299021172636,0.7591635708140759,0.7113203398026177
187,-2.272763754819555,-0.5000375042885238,0.46672679040202114,0.6414449802652155
188,-1.063315555598961,-1.0368978765114876,0.007950316566727317,0.5886134525393748
189,0.3689573566031487,-0.9550511734210212,-0.4429513859304224,0.816983395254299
190,1.3990349658684267,-0.0635175997382316,-0.7590124803569026,0.7941464009828062
191,1.6115744594881294,1.063252368634771,-0.7710510254259539,0.3754681726721132
192,1.0636197150434428,1.5638374507423765,-0.5553111399082375,-0.200539009595028
193,0.755317357751927,1.0772190024085342,-0.5056942730461417,-1.2129567753726755
194,0.3611405035420581,-0.2676228754371519,-0.404730753817341,-1.5989042099200759
195,0.1624629417662608,-1.1792677879767473,-0.34303082539974084,-1.0216766518646205
196,0.38148585521429174,-1.1648550491520875,-0.3396653747587808,0.07951445787131106
197,0.8467993871883264,-0.49560169146057925,-0.3733198811683808,1.2711455644848524
198,1.0324312501396935,0.31038191577823976,-0.37487160864932667,1.962911312087511
199,1.0547768687695467,0.6102092972642047,-0.33656191979688904,1.3831343546199506
200,0.4020356352944875,0.31468672930603697,-0.34039288868213285,-0.003642733592444103
201,-0.4760075841117053,-0.1279465791105462,-0.410627318244935,-1.6963713605564934
202,-0.7931993445393599,-0.26018052496149396,-0.47963197692941717,-2.6399431888708427
203,-0.4779761259757374,-0.1978811867694602,-0.7323342671052194,-2.1151221598450753
204,0.11022158132680501,0.06501537526710427,-0.7887913743061717,-0.30297723514109437
205,0.6002382786166034,0.3375060675634714,-0.5451304711504997,1.173711451812562
206,0.6232536315795195,0.3144383920949088,-0.09587029854256537,1.705629670312405
207,0.2896432988961675,0.1354775063756718,0.35609066728761724,1.28910243213704
208,0.2791879002928942,-0.009683164922591227,0.5753729783964336,0.3582812022483348
209,0.5960161835795399,-0.10751380538929371,0.4462643045873876,0.25584632049264133
210,0.8854228932092763,-0.174553649448135,0.10687223342218229,0.38401506376496053
211,0.7946875725370349,-0.21030272792523247,-0.04311571364450113,0.6734930500381652
212,0.560859677853361,-0.2754580219633005,-0.14078931934632968,0.7651446699223207
213,0.48199928899497574,-0.3214548800999158,-0.11414548647890196,0.6912364287994159
214,0.58853763966856,-0.3237109829407995,-0.042065341498660196,0.5246430258332312
215,0.6524914334047086,-0.3011499545319629,-0.03252580238582917,0.21845208275379555
216,0.6027219309255629,-0.28511530937021484,0.0065497705180867435,-0.06427616281295184
217,0.3266062736170617,-0.32771975848370655,0.016922398373448694,-0.23797638108506164
218,0.09580301602095634,-0.4048348064360656,-0.11414461927392666,-0.33891313198589695
219,0.12122338714892963,-0.3208766743336112,-0.2403615581821599,-0.39205998927984653
220,0.21520597757803886,0.19473805359920748,-0.33507389209857,-0.25051158597990825
221,0.19541214221089617,0.6813249318313032,-0.2551051096492207,0.11796563678862662
222,0.17155972662607674,0.7625283808693825,0.039598991264705244,0.6257533727898462
223,0.12117846183694997,0.3804389677654753,0.41934591477877614,1.041827009319615
224,0.23778573811798137,-0.2708197704500715,0.6206784016609642,1.3098746449524914
225,0.2731874149564869,-0.8897566114808082,0.2649008972559234,1.2537980660822237
226,0.09120235300400667,-0.8628684721578446,-0.3575839625595942,1.0501568782427648
227,-0.2567893164458801,-0.36443252092984824,-0.9235428769350545,0.859889595957464
228,-0.4778387072013855,0.3203171261307003,-0.8895378095117813,0.7849569507978096
229,-0.4346594409995703,0.8600933826365367,-0.37376782239009837,0.6583443317898807
230,-0.11854863173204593,0.8592694775899449,0.5303568957479017,0.44369290366569186
231,0.21053448818974319,0.32993891113277435,0.9743170047193087,0.16559377593005284
232,0.29037379671665475,-0.4882213899290076,0.712143306991727,-0.19632152900801833
233,0.3114996903501049,-0.8441436545109942,0.23696260378146722,-0.4046867438420228
234,0.33716320966343344,-0.7790663318457565,-0.5183786720724627,-0.41605211919660484
235,0.5513306903088376,-0.3628443720629429,-0.7751693044674378,-0.30239836565078454
236,0.6349659392043281,-0.08268758132098289,-0.4243482926252842,-0.28668107733349635
237,0.3840211045766079,0.027514830497259585,0.24632890320924636,-0.44748669583118095
238,0.03058984962454281,0.04049755751273311,1.0826486432202787,-0.4314061339814122
239,-0.062163416558947346,0.02298782387953427,1.4210464642491905,-0.13659583340232473
240,0.14409952663762185,0.17197420320628276,0.9085845852642781,0.34582102209072596
241,0.5319828274818826,0.2908986536408492,-0.08277403953363408,0.788485127744336
242,0.941659797610783,0.3635747066841951,-1.1286438263123257,1.2025536778417383
243,1.0521892354775177,0.367538855032014,-1.6370173681486744,1.2067084147396745
244,1.0322334332821803,0.2964642207290178,-1.2236666993961884,0.8272626721250775
245,1.1256254748802428,0.40010263478951624,-0.2719974892617593,0.5230897964026873
246,1.1960785310147062,0.402297288262036,0.5432317540295728,0.17329851093770263
247,1.0777837813314393,0.23212736509358545,1.0012638565156013,-0.06929200244910462
248,1.1090435932956428,-0.065598860770544,0.5771499604275661,-0.07882278847394668
249,1.0731985574407064,-0.43653403827879256,-0.21820328054410465,0.08434450803917508
250,0.8558597383799863,-0.617545851275479,-0.5126818493651576,0.11644292600941908
251,0.5267170755160361,-0.5138170443882968,-0.5475452210947866,0.18829409381910125
252,0.19579135790230384,-0.22282980423471002,-0.2563219840780897,0.23220314081390692
253,-0.0589916109038551,-0.058350140628350027,0.12127130479498151,0.23459817974089625
254,-0.09929428363324835,0.03853417329832644,0.06889687244062881,0.21064779047100238
255,0.04518950494216671,0.032342122958073566,-0.03444843622031418,0.218631253560967
256,-0.008352768984212396,-0.010535584183822392,-0.002357280720627527,-0.0653698565665021
257,-0.0056839265639696095,0.042734766331106754,0.00917840713838408,-0.05605472739960982
258,0.04210584170049824,0.03599740000286655,0.008456891858535147,-0.05698624031629907
259,0.004164715388990187,-0.058364081162931986,-0.01691245686624366,-0.0740639771222682
260,-0.03599992763878454,-0.5775085660503894,-0.09842006413046692,-0.05428826823586227
261,-0.3326616806335297,-0.9230320463718055,-0.23890332784929585,-0.22539694489778678
262,-1.1531467346650266,-0.6997342308653425,-0.2304410613941439,-0.22815835278763066
263,-1.8511082586222387,0.016584294913024294,0.045742516120968586,0.026554041755883828
264,-0.20492826282555615,1.0439292118698305,0.4072529339668856,0.39912845174023237
265,1.6368968092493672,1.6268121803734654,0.6670385705725552,1.08355750338532
266,2.2922171718425726,1.5300846100297054,0.5436101288856586,1.2824927724343858
267,1.3528174676944977,0.9656214151629493,-0.010249651976943476,0.770227573841366
268,-0.688625919387117,0.6576324751880844,-0.6459736792095585,-0.17451376555307438
269,-3.057321056538924,0.4702547263074821,-0.8475009221812043,-1.1662300701263304
270,-3.1636251490057554,0.45909688577062135,-0.6483458294586011,-1.5585165697397023
271,-1.4948370827969502,0.5112788988116023,-0.14999913687448468,-1.1196958035837499
272,0.2180689433576392,0.6141902150348474,0.24205212918698804,0.1317900478634253
273,1.661166542677858,0.7106264742468551,0.22043117348389907,0.769807355947033
274,1.879447977577012,0.372520798753881,-0.054436432664263484,0.8224254048603296
275,0.11735612133670051,-0.33342949756019685,-0.23029576287547454,0.10766298055712485
276,-1.7054537815260744,-1.0505915683427802,-0.612420195909009,-1.0630654693495183
277,-1.5725043542792136,-2.4866764897212668,-0.7724790835036384,-1.1567993099522196
278,-0.32722410783295064,-2.5578088157323955,0.032186371412838366,-0.1286486080316827
279,2.0482653073042085,-0.8450114975966283,1.201450113310034,1.5348113697526897
280,3.0675415211859853,2.8183377400639973,2.2951275791129078,2.548587827971242
281,2.5051413947888808,7.005705788038568,2.2858833428485044,2.3057878577458233
282,-0.6206072896878027,7.051867643568424,0.30575927557565336,0.9186065817611061
283,-2.7104800878065065,2.858819633449909,-1.8724189493628858,-0.35335145865002504
284,-3.011356559600785,-6.622770631150636,-2.2248502340846925,-0.29119780086803293
285,-1.6101400407093849,-11.926525408016767,-0.9291605103908875,0.4126971730532525
286,2.237001233021334,-10.199327069740383,0.684717322877848,2.7387925233210826
287,4.270762336676976,-3.2152968456106166,2.9739428758177,3.880393116704404
288,0.9546407034255053,7.22301234013193,3.1066426738762556,-0.13014824426824317
289,-3.8926467492576733,11.332957174737832,-0.0672585235165658,-4.205707603667735
290,-5.71673680994662,7.515678519712135,-3.039210290407672,-7.160895513380426
291,-2.7210293573615005,-1.2529881748450868,-4.74664147679049,-4.514975468007348
292,2.3515583831761293,-10.21419680898025,-3.5873173420484328,0.7613659544974666
293,8.4645356803195,-16.652239692226726,0.29285864468249123,7.163075282755227
294,7.9652012295793,-13.001739040074812,4.04448622478998,8.146828452107343
295,0.022625175464613234,1.8159823389504388,4.007792071146708,0.6701831963198275
296,-6.970117183960867,16.463617118978927,2.0175521895074837,-5.581683763674246
297,-9.221622555402867,23.844345519475702,0.09269217315519365,-9.500921056436214
298,-5.725682941392799,17.856134175145606,-1.3515414320078245,-6.63299806049106
299,0.5537452269868273,-2.3030854158222103,-1.2179135103616825,-0.6348266183785409
300,7.794927251323419,-17.742069310300717,-0.18882618861269473,7.584382510703033
301,7.299600939288388,-19.542977570189553,0.4330451634360506,8.388739176070818
302,2.5148348236825466,-10.274583176097332,0.49024743792321157,3.629939414516067
303,-4.164831021364253,1.6997639039829977,-0.12411388525791464,-2.979564881333731
304,-8.342938891795225,10.16272540426957,-1.3549565751907962,-8.454644119320598
305,-7.685851509727166,10.17447239634984,-1.9267827359667589,-7.996529040388646
306,-2.596290538622211,2.7122784315203927,-1.5922313233671852,-3.0522793527334597
307,3.1955919847948318,-3.295053562071673,-0.5846565148654688,2.906250082843252
308,5.6708319326091425,-8.575350706405704,0.7051472889865553,5.237736263341269
309,5.686485711565443,-7.725042665553626,1.3669314297864585,5.006246072400077
310,3.8860309020758996,0.458545554754629,0.9892186826621516,2.8485959460175296
311,4.0762226206772425,7.6722106424265935,-0.29469200547527186,2.681473267250807
312,4.24012483175415,8.077405222025446,-1.1419300104281573,2.4403209692230634
313,4.20190133772556,3.6543336152209123,-1.118836011236699,2.405035117300443
314,3.7194700097437394,-2.8440262813818267,-0.31444331673624815,2.352138649306352
315,2.778254816376868,-7.579549328763711,1.2809201699659618,1.8526320961020504
316,1.8627258264463504,-4.835137158904967,1.9440247114790963,1.4230091684570374
317,1.3032358881554806,0.0631564184805383,1.4595504884835322,1.1604618237850859
318,1.2727182551577971,3.7848877596544916,0.14993042552983915,1.1461410595302521
319,1.577894585134634,5.121248837115739,-1.5226183500567076,1.2893487020785888
320,1.3674349336293918,2.9194262723421005,-2.4359111816975236,1.1807308617241714
321,1.693637558168283,-1.7255287626742832,-1.8603074898817602,1.3633767402390882
322,1.6610172957143932,-4.510576417107501,-0.17555166652853854,1.3451121523875962
323,1.062979150726428,-3.468557642132269,1.7425291828696945,1.0102613751102498
324,0.08437127710976047,-1.399092286958169,2.5929855777853286,0.4623237395655033
325,-0.8355977165432622,1.524133515761121,1.854132727853197,-0.16729306085412332
326,-1.5983137584745837,2.580512709957742,0.0479479344436784,-0.2571063435068204
327,-1.6231696443817059,2.3706031419425906,-1.3381050439483615,-0.29987468082077673
328,-1.042748381359616,1.4020024283339747,-2.0537762559493,-0.5588503872309427
329,-0.5547529012347618,0.933099023156992,-1.8227930776513117,-1.2140785984213558
330,0.20553488266808706,0.6521650573905048,-1.086423916430314,-2.437730029275658
331,0.8090701972515374,0.6347392251393338,-0.8885936617458003,-2.796007106355628
332,1.2088584730992942,0.744515356240768,-0.6921508471609298,-1.8521441206687634
333,1.1922920128381942,0.8523015811318795,-0.7183951563030457,-0.21576217073229353
334,1.008561377633871,0.9432538910520546,-0.8012319773369382,1.6658516323341461
335,0.3000166784757248,0.5094456507105499,-0.6789542757398261,2.52308335037608
336,0.47310173125746124,-0.1471203193610593,-0.5561223888648327,1.7262534713747746
337,1.0592034538746629,-1.1284469700970874,-0.44625795468289403,0.045850421248775586
338,1.790171079330356,-1.395211991845377,-0.38467774811136696,-1.5401586631192385
339,1.7705987140292787,-0.7173372251624259,-0.39198114726625033,-2.456856275570626
340,0.6666449148803619,0.8922498606727223,-0.4266679837496671,-1.787599107989337
341,-0.9217131153581242,1.9930592807976515,-0.4279579296356804,0.5574086383410295
342,-1.9806156295884345,1.7706746781529683,-0.43998715388567267,2.3162826245503414
343,-1.9284221227416625,0.5890428935829618,-0.44579284842210054,2.9822840988507178
344,-1.8051296922467992,-0.8846802338232957,-0.44630795165133297,1.8092414486094603
345,-1.498752063410688,-1.1075605118374934,-0.4447947840251751,-0.7771266585312127
346,-1.4875331039844584,-0.2236392657922024,-0.3859757056053401,-2.566081206114409
347,-1.4526993956315954,1.3198477368899073,-0.5817074477434614,-2.6433426985981945
348,-1.539789541064404,1.7489367176432389,-0.5648733716312329,-0.9626691106317175
349,-1.6366715238612006,1.0182266555642798,-0.21322197689466937,0.851096529656715
350,-1.5518351865827262,-0.23795865036889974,0.36370163163875113,2.2094314742770766
351,-0.9602288905181563,-1.3142567029221621,0.9389133038586801,2.0257290216683477
352,-0.04177287971833562,-1.6282966290595184,1.290693093818752,0.4740631550544216
353,0.6368882795282045,-1.3888403497025594,1.3098810823620286,-1.3940610483568592
354,0.7582436441269994,-1.10878104668893,1.1180011969292627,-2.118840751846529
355,0.3453977993854048,-1.1196434438998386,1.1931614729326185,-1.6215546066107045
356,-0.14644723577965063,-1.1161188237471982,1.159560530355316,-0.3526495958126949
357,-0.33165765022730576,-1.0583281743579223,1.1629206246130463,0.9277491867042078
358,-0.2430743242129142,-1.2839892202686316,1.1355780015791637,1.3453360711798825
359,-0.1718690082822381,-1.3911688833115452,1.4822350197363963,1.241383448251142
360,-0.2348699524957524,-0.8687031470310731,1.6192911306950755,1.0146741872765284
361,-0.2534799741537451,0.06235563811214362,1.206384131742017,1.0949934951967983
362,-0.12280356421544066,1.8938475220890374,0.25987805713679646,1.124408125178257
363,-0.00206798075462071,2.6111576061102424,-0.7922978767050429,1.121466662180111
364,-0.0656472891253101,0.8163835344591058,-1.5402325198951359,1.0675398405474372
365,-0.2512810559655625,-1.9543481150471134,-1.1684127944973017,0.8941297127387152
366,-0.33860954340056554,-3.393233540695791,-0.20959686118513227,1.0455841313230345
367,-0.1535903713374666,-2.847797806544733,0.4318559042315406,1.0135086535240967
368,0.2630911051277153,-0.3337764785405025,0.467645946436944,0.5374127607527399
369,0.5727411726624921,2.10406422303316,0.05853697967869574,-0.2707705728344793
370,0.36797322431565277,2.0311536134986135,-0.44220993563323907,-0.9943685468712804
371,-0.23411579174543784,0.7753397951994178,-0.5837834998663638,-2.3242548770851705
372,-0.6317997870050022,-0.26607865690712174,-0.16238003409803353,-2.4195603747452825
373,-0.5096217611183226,-0.9779242093674554,0.09241692326241151,-0.4192442088900379
374,0.010497436081436218,-1.0671969971227262,0.288390201643316,2.158474799207244
375,0.5850945506548142,-0.749575014847936,0.19228287860809662,3.992149677178484
376,0.9307331198634434,-0.8950188672802835,0.1751115776574928,3.0336417015908146
377,0.9423496350729434,-0.9018402540480466,0.15397096275275787,0.40607778945332174
378,0.8087943965511362,-0.7201508255768276,0.21089303221534497,-2.0423604284332257
379,0.9160918323180316,-0.42284085171483393,0.263255782749417,-1.9406373115561795
380,0.9169959702631375,-0.12553087785284112,0.23546182036741103,-0.7374530578016114
381,0.7322531923712958,0.0561585506183762,0.1557124535571472,0.22265406542375127
382,0.42994682854828314,0.06606888308044254,0.06525836801755625,0.3313623781923581
383,0.12764046472527132,-0.03303444154022107,0.010301697320285609,-0.13299257046028645
384,-0.025785465721664624,-0.021702539934728045,-0.05769222515970045,-0.012800074912415197
385,-0.021917645863414856,0.11125025008005203,0.2558414277025468,0.057602807521092925
386,0.04899238487116261,0.042274846582244785,0.1692329082629413,0.039235969135469506
387,0.16502698061865262,-0.1567845626990439,-0.345248802755343,-0.08661474740960537
388,0.3090085649434709,-1.2303815925056778,-3.1299490865372745,-0.7355591139295165
389,0.2960776299460618,-1.8169128988777108,-5.231163894845569,-1.1173330489684914
390,0.3083295463775102,-1.1378324776805768,-3.7235815424861514,-0.8337890754605523
391,0.3890884231623922,0.28537351598986477,0.3482257141946672,-0.09687650378522698
392,0.6344409804535107,3.3673377214383042,9.342688359045694,1.3340816954047314
393,1.241313943675456,4.498860577098586,13.33768647970509,1.9106889998334957
394,1.1699667434503165,2.778378044968408,9.363678397361872,1.3045797696221497
395,0.32146137189960694,-0.5433943322405302,0.3471541836269316,-0.35634344007437063
396,-1.4965704495988605,-4.802042975205922,-10.35539095433048,-1.736095219051783
397,-2.8277791235484204,-6.598996049315385,-15.09256223264254,-1.9426411616846258
398,-2.8270273424572894,-4.581085850106596,-11.439959703279573,-1.0136697498326268
399,-1.4616068375043665,-0.35264988455932955,-2.449495067718441,0.5759819012161069
400,0.3451249082742546,3.693363741920977,3.812925569301996,0.8915524904632031
401,1.0821232482078043,5.724955616559766,7.670131398555476,0.30202426784495046
402,1.3352059950379216,4.146818208398673,6.487792266005625,-1.1021701461713356
403,1.2417560717971798,0.42574357057177054,2.0564844343683983,-1.883658085115605
404,1.6806350164238055,-2.5884188331122133,0.4858309529512045,-1.837065386497188
405,2.1129313045417093,-4.2195746588340075,-0.9110572558651351,-1.0042409594186188
406,2.4211255768592403,-3.1599871061417293,-0.9872511581642075,0.44518541649830035
407,2.571020133945273,-0.40747804046152025,-0.2253121351734798,1.0436493792200792
408,2.239075308239411,1.3392615001996364,-0.4783084439833086,0.7183478405600197
409,1.7340346544441807,2.4742817672683324,-0.4132775207208535,-0.5697862991702367
410,1.0121188864802806,2.2260590384477332,-0.6169255705358102,-1.3258870008720869
411,0.31642562494693693,1.0886978096587074,-0.5911227542264312,-1.1887031447618095
412,0.23208624039826659,0.7891453723184861,-0.20837685551240284,0.3758696074922574
413,0.4794476087993918,0.4780869841392298,0.41230261258455014,1.7616245055893192
414,0.10542081966206246,0.4611201629658159,0.9880699701541849,1.6835332805517926
415,-0.8841577236327897,0.6307883746999551,1.4866715824582333,0.40923266933087077
416,-2.6845865645574127,0.5811884376371497,1.491674692482341,-1.2706592065019058
417,-3.8930280462539026,0.5603200370914275,1.0606281768993833,-3.024483152660177
418,-3.2756413707317606,0.5624068771459998,0.7553762158702327,-3.139583142233309
419,-1.098813834516871,0.6006656114798236,0.2865943973950498,-0.16765650393380774
420,1.4035582434856733,0.6632708131169894,0.3451540886297837,2.641231005722214
421,2.949772714437917,0.7063111649262556,0.30404833798131936,3.543491882666579
422,3.1246496962630617,0.7890810616977613,-0.09705927532394554,2.2216195097615477
423,2.1627273787043295,0.8278486079420114,-0.7912380015270514,-0.43605190015790896
424,1.6418290991095352,0.6951185172290384,-2.272870970939625,-3.2747841400119486
425,1.5203157898067428,0.44798237354009773,-2.736220234781346,-3.0275687384134935
426,1.496943564629895,0.14424824167486186,-1.625113596246957,-0.8297342692930414
427,1.4961505390534637,-0.09100891579272599,0.2894810328358791,1.085059399741995
428,1.1975228607668058,-0.1748869994941825,2.770409016304113,2.297112375788235
429,0.9636594913906137,-0.12044746612428989,3.839040653259585,1.9741039811952976
430,0.7685735390827869,-0.09746215481414172,2.5969830271379375,0.194693650676564
431,0.7646306065790793,-0.10360867899531565,-0.04280930922080045,-1.9640051415061024
432,0.9268587880226743,-0.12771926758984092,-2.318039792848063,-2.1957285390469354
433,1.0292910739419388,-0.12530820873038834,-3.587439557924558,-1.309274840275517
434,1.159313392490015,-0.08110546297375884,-3.0200804684748603,-0.19718290721364737
435,1.2387714760471724,-0.008773697190183501,-1.2638678160301233,0.5860725098217255
436,1.2431055533321083,0.06355806859339161,-0.4561838684601376,0.8475837278113915
437,1.1587945193599243,0.1077608143500207,0.18231487385516018,0.75017133003891
438,1.212316527070542,0.11017187320947318,0.2171420779814489,0.7551989017370608
439,1.4495074940908874,0.08606128461494832,-0.13112996328143944,1.0522583463396054
440,1.2050955113302804,0.10939618161738131,-0.05513330410162583,1.2485904592191404
441,0.3746592952097495,0.06350207920460701,0.06514875962182033,1.4904282366542871
442,-0.7722882907564598,0.06809148944588456,0.05312055324947548,1.484050279657702
443,-1.7327031061012859,0.1522306772026371,-0.16739656357684174,1.2193301895080475
444,-2.22808286535431,0.2424703114734854,-0.528242754747178,0.9318140804730316
445,-2.2105193440968964,0.5224806376142281,-0.8033614948507,0.6193287452001444
446,-2.113595253210088,0.5923870234807375,-1.281060964877455,0.4283654847556028
447,-2.2586279315887827,0.3360417324009102,-1.267370935929755,0.4179493069131734
448,-2.466911007537603,-0.09671985392905383,-0.6755878913388393,0.5221110853374683
449,-2.4569579216951327,-0.628755594868934,0.055865147021327055,0.45788054662821925
450,-2.16775751819147,-0.8776553243530151,0.7797677075790479,0.5464103843316721
451,-1.7687158482741896,-0.6712469758978696,1.3942021855772877,0.5375574005613266
452,-1.3581408320357193,-0.16786980188481826,1.4056270711842538,0.37525269810499695
453,-1.1035404674956322,0.1457366802583404,0.8863999732440692,0.10966318499464017
454,-1.0901273777568048,0.36637783060372564,0.5433269329185655,-0.08986372620604391
455,-1.232951994473331,0.3784128024407465,0.12228808114255355,-0.4357066733624546
456,-1.1964240194175573,0.2580630840705369,-0.1630415824460995,-0.4686895596466979
457,-1.2056291340004142,0.29739951090315897,-0.17500644027428583,-0.012420543131371864
458,-1.2112544818010487,0.2585428826176935,0.010616074746146125,0.6332055138136551
459,-1.2115613189538106,0.3819000373038845,0.03282633224927496,1.359614980261097
460,-1.0967844798518551,0.3652501146905796,0.1026810887959935,1.8577137708170977
461,-1.4061843306791648,0.13164493720560505,0.14537010668565467,1.9546800603262056
462,-1.4529168176215845,-0.2461499718316974,0.14769859857054526,1.745859005180684
463,-0.8572440856461689,-0.62180467650193,0.12441367972163926,1.7855593580581022
464,0.3283769361709872,-0.8468516647051139,0.13611905028144036,1.6941612310426437
465,1.6043409780636364,-0.8570474386253125,0.12446327626402402,2.1971757995223733
466,2.6676624315505655,-0.7374830717713261,0.12613404573440914,2.377424194481816
467,2.175769215047265,-0.694549451875724,0.15222003790569183,1.566023554889202
468,0.5350475109177343,-0.9673090515861693,0.166828893203557,-0.21196765165602666
469,-0.6275001255484084,-0.9463731795464804,0.21169309732431418,-2.6689716573284064
470,-1.0701017886939468,-0.45434627967791064,0.2773180944508131,-3.650084308848732
471,-0.6821995422636669,0.24221046872834065,0.37619206483261924,-2.496433615354795
472,0.13520408040410858,1.3652590101733377,0.41374722208801257,-0.07288283623185879
473,0.7424556833025979,1.9341201886557466,0.4877553205299675,2.3229572384843937
474,0.4672342414209728,1.3226093470698896,0.40800774452807886,3.1576817751124713
475,0.2621498318343496,-0.021206127148750142,0.18186555301548693,2.085428396229975
476,-0.0010018462174769573,-1.7068774502296613,-0.07226202641713436,0.12269138990820551
477,-0.2300629358405936,-2.6712561660717355,-0.2979316222026641,-1.560513372941218
478,-0.3837796348594833,-2.06624080030476,-0.3871806364401795,-2.3374623244501205
479,0.08890215034770242,-0.3236723912052663,-0.40041430547033185,-1.489180011131696
480,0.7302492726886951,1.3936313357456918,-0.3304026777693405,0.24429482643282274
481,0.9596487007335434,2.363897902999509,-0.47736970066154494,1.0880606684605425
482,0.49552113970285083,2.1968258862154575,-0.6228199796807865,1.4289052234880093
483,-0.6453421575488483,1.2075934687768277,-0.49280502705594875,1.0788036417033293
484,-1.5191309598249938,0.7064302231403179,0.08323206150523088,0.6184823580653636
485,-1.4878276529787786,0.4913537030424082,0.6412659071429642,0.7937348647058157
486,-0.6306723762235007,0.5010832506149037,1.2924770110570107,1.0366284053884425
487,0.07708527283194685,0.4778090219808206,0.944247618173892,1.197329618374566
488,0.4189673838097667,0.015351739178173035,-0.1748753103888453,1.2059118335945085
489,0.324652199914626,-0.4317754874821648,-1.2091232675274344,0.9970361722213302
490,0.1356106401396989,-0.7305063444385163,-1.5899177290910504,0.8164755144071036
491,0.1379151283721815,-0.8729312825668432,-0.6253977269317867,0.7820186469079229
492,0.18786577897533194,-0.7607676111831077,0.645418091110697,0.9852489104632379
493,0.19043621888741535,-0.6485515163236661,1.5633498477800856,1.1191209441181094
494,0.20990255688635878,-0.48166256595768586,1.109594051985765,0.9908613441289823
495,0.5239735015991376,-0.21680690044547551,0.18157498904318087,0.625671628016017
496,0.7282777663699052,-0.36180250597529695,-0.8188103073643771,0.23515700795534167
497,0.5686283639518332,-0.3303141551959825,-1.0637594871458838,0.07639617295285014
498,-0.24372230732670366,0.07708437349478817,-0.5320110524113107,0.06839414341267218
499,-1.1844898035822107,0.7015986048254081,-0.009326955579000401,0.20926726247913188
500,-1.3867718278062209,1.947093207328915,0.5899205548879056,0.16228510935421384
501,-0.18798474408613441,2.3663796333723264,0.558336853923588,0.03389425366721634
502,1.4929097745206348,1.5440008828383023,0.10734477413799007,-0.16344031401592235
503,2.2106088238697086,-0.20284465134087884,-0.6729031801396566,-0.4351152752487871
504,1.7049011227558768,-1.7018992825563675,-1.001433452499653,-0.5505336176726104
505,0.4722228087475264,-2.3840166066546247,-0.8613532191479762,-0.4237876241183263
506,-0.35800342542322494,-1.8524939072490767,-0.36281729482033154,-0.15467997455319332
507,-0.4030158792036252,-0.6149677310330043,0.05712816786744419,0.011279211537243247
508,-0.05181814581859853,-0.13551460522523964,0.17470549322537715,0.08914431910505005
509,0.061854366646229966,0.15298890586953645,0.08478890662153973,0.053495311756299194
510,0.028019921111807223,0.06780149546578186,-0.0981636676866788,-0.027227318295432457
511,-0.014009960555903523,-0.05063015733352593,0.019568145395055764,-0.0076450473078772
512,-0.09408414050893639,-0.011097779884394369,-0.007811999460804062,-0.02787079761510754
513,-0.06655694353453799,0.05253515476981498,0.022879258764193236,-0.02369017797284133
514,-0.06930966323197789,0.02689870213783868,0.041334848866423114,0.05295451546870412
515,-0.11977619101837478,-0.07250315267292616,-0.02966815140471113,0.17837310473668722
516,-0.13587451672794262,-0.5975570981954544,-0.43036548816245607,0.3197168447518541
517,-0.375008944313739,-0.9758167923089889,-0.7593110270424747,0.34858608595184626
518,-0.5342213694708832,-0.6589635800077196,-0.6782818754548993,0.3575442508182676
519,-0.31749722734766644,0.1869415562484909,-0.24524751511424125,0.40332638350511985
520,1.0019855441190426,1.7739742394288036,0.6375612850248754,0.4306425310421046
521,1.987949695519597,2.5430187129253143,1.093333321259946,0.9638057117524383
522,1.8590609778500355,2.0358092635866245,0.8053845123174087,1.012410358463382
523,0.595838188820879,0.6041579595197678,0.07732600594161322,0.30248705971379775
524,-1.168356128956248,-0.6697268061491876,-0.705378027983897,-0.8113832330676656
525,-2.5375044372927738,-1.3585917466753081,-1.0545513956286463,-2.2752154485288414
526,-2.516051612713706,-1.2979471927339297,-0.7809680280081331,-2.9588916030774395
527,-1.3878120360918287,-0.7345920409579137,-0.1301892000864556,-2.4290893126818878
528,-0.5250029062358513,-0.6995858451602764,0.4004210455054105,-1.1085118059422066
529,0.3507741047615348,-0.6094169486358235,0.6830170568006566,-0.3077167311834224
530,0.8382509479249698,-0.6028974228584044,0.4821983741783535,0.26106924161069145
531,0.806088947527545,-0.638736937904365,0.006143219562255796,0.2920939310358247
532,0.6365436548134051,-0.5893762509805168,-0.3973002605125253,-0.018152963215508966
533,0.5030545619151985,-0.5582936998565091,-0.6509893554702537,0.03374087572278336
534,0.5152515942715226,-0.5392988075029488,-0.48891915089243554,0.18830625315923882
535,0.8332327753636495,-0.5382627224654819,0.20916779089841847,0.17284971541559296
536,1.79694104761289,-0.5486235728401511,0.6874101603260496,-0.11052014321790776
537,2.5607338299540023,-0.5188787886570662,0.7619269853805949,-0.5742162755272713
538,2.1010494102462607,-0.5977522908316518,0.4372065512994287,-0.9750588955005799
539,0.6592222170912119,-0.5898649406141931,-0.27152087918578083,-1.4469892911422384
540,-0.8285289170028165,-0.44526351996078656,-0.5388037694240908,-1.443589775185067
541,-1.2995816018488813,-0.20864301343703098,-0.2945307725436241,-0.9433300799003216
542,-0.8126059765650244,0.0772540888833075,0.49647605853716104,-0.4142111003261486
543,-0.011611418365232731,0.07402572214696168,0.9271232699622417,0.10659302761278626
544,0.009918843747898143,0.08019927367476481,0.9117169928568549,0.4567750937696298
545,-0.5850741252771404,0.2622316453589585,0.5280037289702593,0.5579065331272692
546,-0.9450016716156456,0.8431048185715496,-0.2202682277421345,0.4890192843472187
547,-0.8207043780219536,1.4037783605152272,-0.4846790252445011,0.5966152508990274
548,-0.5216179981509415,1.092553610311428,-0.07701927430393113,1.0787053226265066
549,-0.2958818935183912,0.07208395684657748,0.5926449480360794,1.0255952312918342
550,-0.45597647824659276,-1.1813822483962855,0.7443577636121665,-0.005840349396701805
551,-0.8584868747094726,-1.7422063837517603,0.4088430501996164,-1.409436907509925
552,-1.155457716636709,-1.0449896055235395,-0.2579919438705174,-2.8249374306341695
553,-0.9851257453244773,0.46215541223901124,-0.7389055045021303,-2.662720773208271
554,-0.5997510317541552,1.5403116862737785,-0.5697865070044916,0.24938408542501436
555,-0.4685107887551133,1.435013164934156,0.040525164497812016,3.1899011586657418
556,-0.36909697558986493,0.5442033303068867,0.3556061749597673,3.6161317034271314
557,-0.1894212482685227,-0.8078668061011534,0.1326907987129995,1.833625560557901
558,0.11021466521135241,-1.3032007578238662,-0.2897230993817683,-0.5912934584831269
559,0.5526117632406513,-0.735319164490659,-0.49973396763573663,-3.1519871586521706
560,0.8569124748723869,0.2793671538954059,-0.38032088274532977,-3.07899593727816
561,0.9434003613799463,1.2387732584372628,-0.05086979043374891,-0.09295633825429447
562,0.8500983338834349,1.193357354945205,0.45355273110088595,2.0593348192753083
563,0.8407365715785469,0.3054136338686817,0.3746678469059895,2.8851629039983693
564,0.7462887031344791,-1.3901790830476992,-0.021917699491556433,1.948214308471742
565,1.02885794641238,-2.461619220668009,-0.47099802066864016,-0.046912994519372114
566,1.124233986453241,-2.140603029223141,-0.6135103808889525,-2.4465664683498525
567,0.6882368279654036,-0.6172438841067669,-0.1046194330901589,-2.232182249356321
568,-0.9898430598831633,1.6964895574362493,0.6757478456699781,-0.7367319671948216
569,-2.428138502046015,2.819921542203958,1.0760932439663315,0.04998713404131301
570,-2.5074214983978678,2.3732297501473827,0.7216284043853056,0.605178641747879
571,-1.0034696871431055,0.7150644730591036,0.05884851479204468,0.7299936314843163
572,1.433533963701001,-0.7080539973563085,-0.5285044684234135,0.44462599761184174
573,3.734823644302007,-1.4387938744583602,-0.5514310135255307,0.22470556858813204
574,3.769836935404196,-1.322683425727963,-0.2292613880153971,0.8728859185871801
575,1.5829030606246248,-0.627735305480483,-0.0026370619863000724,1.3064645903716705
576,-1.6698204066379285,-0.511374814980413,0.08135104157507933,1.495218411173714
577,-4.017825757160801,-0.35187029401896125,0.05009433128788822,1.210910466968092
578,-4.134110183242718,-0.343170047421064,-0.12108527243149236,0.8327601761069527
579,-2.193703413401603,-0.4301725134000373,-0.1869581601693962,0.552691316405359
580,0.1557569550475083,-0.35305724542440003,-0.11612774768218331,0.49184032601177363
581,0.9246308685408581,-0.49740058337233906,0.05876115621631495,1.3222810242776089
582,0.9247572090303448,-0.48296624957754486,0.19286713193223926,1.6225860137866452
583,0.41680419015823494,-0.21833679667299088,0.21115750114779272,1.0043053455622142
584,0.5690137488347391,0.16644171691768134,0.07867222024952604,-0.6019767119178845
585,0.49200492606740687,0.7442262315209208,-0.201894753849316,-2.51304414736995
586,0.6380681332437292,0.9943802343495294,0.0013011735665976855,-3.059496041927632
587,0.8551137272613634,0.7434313167520419,0.42639502049534095,-1.8273773200624122
588,1.2863638922069542,0.21307597677897047,0.7306645615478845,0.41844809377681175
589,1.436363731384166,-0.308333294622957,0.44937662775609943,2.0824602193174337
590,0.8502025695278866,-0.5877239528986808,-0.15539870461271488,2.8759254469492346
591,0.14454613992020315,-0.33396786588640326,-1.092807716980862,2.3630614727273676
592,-0.17159256473875542,0.23952292233723774,-1.3738594578984487,1.3311067389962878
593,0.15847324823689313,0.7983695038672266,-0.3768566088240882,0.8025571028199648
594,0.7762277371877682,1.389431637642157,0.7517716913120696,0.6274035870156991
595,1.1649370956129252,1.14868451850858,1.317705907855413,0.6037536098466338
596,0.6359811562496953,0.014816597638772272,1.023814951439991,0.45338561387078974
597,-0.2088666783164422,-1.4986899905404187,0.23191397856961293,-0.17168759503188397
598,-0.40100662794912256,-2.563718781877681,-0.7595377700195877,-0.6355300162955411
599,-0.05665588328477733,-2.184771807008092,-0.8565095649111545,-1.2647067870247564
600,0.7009315755500974,-0.2576534032919171,-0.4946848475623775,-1.254638292393131
601,1.3452788665814992,2.062396431999356,-0.26049654497969427,-0.5415573997337142
602,1.5546040604394307,2.812229329847651,0.11520862429302643,0.2579015092507525
603,1.48920328844258,1.932657414916079,0.2613278388323138,1.0476309388974392
604,1.3239850919408336,0.05536846820610528,0.008919628649710909,1.789900269570183
605,1.3735867472603778,-1.6633645619296702,-0.41495193093884136,1.7970499204004733
606,1.4578865507316925,-2.0436964295996334,-1.0859744629605308,1.1143610133134907
607,1.772073289278057,-1.2077721151225245,-1.3198463502106454,0.5629532780098455
608,1.9724015962438235,0.13382421552815554,-0.8338945485757944,-0.1113815195421945
609,2.2521515754096146,1.0337388117096218,0.01335583878269117,-0.4252892398839821
610,1.6150276281733076,1.2577322792597778,1.1049173636126848,-0.45501770772821
611,-0.3047113125168877,0.6399601995876437,1.6326954903547872,-0.3888472194216553
612,-2.3333515087383763,-0.44647035029868115,1.135311930763502,-0.61628099519103
613,-3.1671121812181293,-0.9682741504795035,-0.5671163753976165,-1.1285312021462228
614,-2.3865569915592233,-0.9791105836146843,-1.730072865262577,-1.2513215716705401
615,-0.707400501323292,-0.46469406839154814,-1.9584853826220014,-0.7689865915797618
616,0.8658122819822083,0.039457488897650383,-1.0238803391891365,-0.020673362163155476
617,1.1195778954328717,0.273958215618472,0.5342780447045117,1.1623989608643526
618,0.8526954241680913,0.3156419176432145,1.6400484264018749,1.612127008934308
619,0.7831622421099189,0.19280136871364711,1.7502927414551832,1.0089515626383632
620,0.8996153155209524,0.22626725799071618,0.6089065096597877,-0.775699831340074
621,0.8459726663080361,0.20777392156380448,-1.0087921354889795,-2.0483123898528266
622,0.8736842796687226,0.21015489439513563,-2.4872961165666867,-2.1324930550200705
623,1.0023562030689852,0.25380606296953806,-2.504933247912439,-0.8554312460260101
624,1.3249067012395785,0.2766480773588059,-0.9668740964135668,1.1705599211595983
625,1.61840872616708,0.49383877395072673,1.751338603918964,2.5894722033408524
626,1.5942422630427229,0.5229137913599294,2.93653810973183,2.584278922567415
627,1.2270053979534006,0.29158596394501923,2.190234236497014,1.1209292353377842
628,0.6803908991797896,-0.22505096184683485,0.14897602399684476,-1.0483902961735962
629,0.49497011712473105,-0.7794004818375644,-2.0908006712775915,-2.560500944889688
630,0.36404110778567295,-0.8487606368155846,-2.707792949800686,-2.57002054652528
631,0.21343856154117202,-0.35906441922824817,-1.6929703670192124,-1.135065223279772
632,-0.130141935532462,0.6270075852056539,0.559848096739693,0.8278188661767726
633,-0.49871889881311604,1.1592701760988684,1.7693545353375437,1.654006879956155
634,-0.808213786333571,1.1688444902869601,2.0709493759056654,1.5318575187033396
635,-0.8127094571321678,0.6677806804105338,1.272716326671968,0.6328658733850638
636,-0.5406784929333555,0.14661399389843086,0.17464137790043943,0.18596004285408813
637,-0.3419471152381607,-0.07042894921127434,-0.13814254853141533,-0.09495879766233689
638,-0.10151554983632878,-0.09276913881350272,-0.1625206453310767,-0.11171623254392565
639,0.04541485124256807,0.041806736513790424,0.08126032266553784,0.05585811627196247
640,-0.08341073450674727,-0.0047492539487910684,-0.012493672270928378,-0.029006213792854438
641,-0.11606323563328758,0.02411614722521475,0.05955811385986912,-0.0481223580958039
642,-0.13305408476480685,0.01106603775247865,0.0317544705216601,-0.04621074366550891
643,-0.14472506501999985,-0.03847049610277934,-0.08717468449281586,-0.011164479110101691
644,-0.08350341899500469,-0.2653422253181477,-0.6878421773352107,0.052414642755765045
645,-0.16573993314606003,-0.4264560725463148,-1.104018336136509,0.09938247014706948
646,-0.167002121624781,-0.3033448352199578,-0.7732411116327054,0.11136355732904349
647,-0.34529801917253733,0.017583248886225658,0.05082854011037735,0.1500373994289953
648,-0.2762553271712964,0.7074485948981211,1.9219527326244905,0.22439903183002227
649,0.4112260537332809,1.0031025415134072,2.707758741785433,0.3249031122187038
650,1.2553482093709216,0.6941195917207414,1.76236190381793,0.6165267289607382
651,1.5248155890732398,-0.0024441052458826357,-0.2072279645354298,0.6398067513980059
652,0.9801354149979667,-0.805646208823778,-2.840823902204711,0.11157599171528362
653,0.03720849381325267,-1.1702595079224778,-3.943828428739654,-0.5642946898974335
654,-0.9080899325294883,-0.9109883480269219,-2.777123156283213,-1.0151922900806303
655,-1.0943457740646445,-0.23679770560233035,-0.2565518845971237,-0.874791965639031
656,-0.9072771411848323,0.15101625051491432,2.1303268148891905,-0.12106915762017514
657,-0.8954606844478797,0.4317656618835185,3.3348127230142284,0.7213235111245363
658,-0.7919621208912635,0.4470792661399877,2.460710989369659,0.8385923434423497
659,-0.806545958631955,0.2939432235752951,0.3172717135610743,0.5198357292082612
660,-0.9926376607624074,0.3482770107881673,-1.25957802428303,0.0463752120600565
661,-1.6584536767619718,0.3384116917142428,-2.176173973274926,-0.309004987366819
662,-2.0561227852147432,0.33939822362163524,-1.7449027203452807,-0.285994866687287
663,-2.1184775749629616,0.3171472234234698,-0.4407013487173499,-0.06762893983072707
664,-1.1212201547120795,0.4659029267891457,0.17773621716332372,0.1340825269727573
665,0.23463223276548492,0.48895518653234593,0.6604397555240086,0.26766924571823897
666,0.9996363335677737,0.2864825596325843,0.6867690394345912,0.213278230424706
667,1.0885115492972353,-0.06446973743645876,0.4234762003287642,-0.016898297325945465
668,0.6007510059959152,-0.5278709450758383,0.5025297583885436,-0.1914714291843591
669,0.28778743648669314,-0.7694708519025962,0.4962997260169953,-0.2613105022965892
670,0.09147020840806552,-0.6358449175158424,0.5907731014184544,-0.23574177456375273
671,0.35425260830507155,-0.13904444300666283,0.5331554731971497,-0.16829780934046829
672,0.3219723690379562,0.11768765007066798,0.2767668932784904,-0.13794788503607208
673,0.3175134668460539,0.027670770338873985,-0.09288937718329325,-0.2450023620046626
674,0.27527709889480506,-0.24110789002481112,-0.43205812189750736,-0.28836466211427464
675,0.3834642391799083,-0.4804877955079838,-0.6126634235293518,-0.26458955652134425
676,0.3902139397199062,-0.386310736595524,-0.5962399177922753,-0.11275568733744801
677,0.16635211963459323,-0.07576295363780118,-0.5078640475403312,-0.15710565692799155
678,-0.21280446944909107,0.2865602107496538,-0.48257892957301696,-0.24268845984386328
679,-0.4290241168240777,0.2933437849305075,-0.6555208753690658,-0.19834717553744574
680,-0.3644534025328261,0.018565934898993202,-0.6382266807894605,0.08502561726592969
681,0.03565766474614292,-0.2220735181173738,-0.36642229528877945,0.5862380301001241
682,0.45781015880679066,-0.40958007889084924,0.2732511252353383,1.5894153957243855
683,0.4224461538583911,-0.4133000055584219,0.8232600948066003,1.672778426568371
684,0.1090541463664869,-0.2754334891510732,0.9018571358111197,0.5083990089417156
685,-0.1954678202815366,-0.16882031815560053,0.4170569008095604,-1.70343662218778
686,-0.38775898639476314,-0.20531863206587916,-0.3890750093741155,-3.4202089584034354
687,-0.512489456140329,-0.19343030154099708,-0.6467927899761884,-3.15870563197029
688,-0.5559557219149771,-0.06537403856126836,-0.36863848279825706,-0.8329055196210314
689,-0.6515327867693502,0.07491237332398593,0.184639053235805,2.59299353242802
690,-0.7256853314078656,0.2050727826278633,0.4746493617478885,3.7108136926576663
691,-0.6641090240218445,0.19525622202822288,0.40147892020631926,2.6048531270622517
692,-0.8226643595667422,0.15287171407504144,-0.0828009447463257,-0.3476302908452906
693,-0.8200575080525265,0.22302639918800096,-0.5706800406659549,-2.728770714136081
694,-0.4634416613220283,0.5010848434952889,-0.6198596624749806,-3.127537712516476
695,0.05806004301183573,0.8506006569775242,-0.2783883210734771,-1.626783483044505
696,0.8961267913249308,0.8997173621696635,0.09518102915363776,0.5100758289648862
697,1.315786622031253,0.500806366894662,0.34054965479614197,1.8807288384118932
698,0.6563578191449773,-0.2979177000680988,0.2685467717052714,2.2982536007044168
699,-0.24217483026249093,-0.9295755195543061,0.04099518958196683,1.4920412106440601
700,-0.4668328720030642,-0.9650655798976722,-0.07886709876888384,0.5121269372141726
701,-0.18574399560766758,-0.27777378576796435,-0.07308543762621986,-0.1306955189639351
702,0.5104165180315964,0.5018071298280414,-0.025039377845506697,-0.5478253295548808
703,1.182023695708398,1.0232875935897994,-0.0350368616930246,-0.5633358027749646
704,1.1265090689672734,0.9427011560160273,-0.045391765829127136,-0.41377111923693416
705,0.8884639553517022,0.2872999333552096,-0.04445625858567344,-0.5484360318632711
706,0.938043530170158,-0.4583740985852238,-0.02730529245568949,-0.5850895191692566
707,1.0299009296897808,-0.7566338635388071,0.0007599248479205102,-0.5870888002950375
708,1.0796443954595065,-0.58425944637172,0.02882514215153043,-0.5670959890372275
709,0.7557837454418701,-0.03319373048449262,0.045976108281514216,-0.5746828927506716
710,0.4453989559561699,0.5061044025465165,0.04691161552496788,-0.5783162535642625
711,0.46319239295873865,0.48015116636276234,0.0375565430904313,-0.5593892614641742
712,1.0471456600665638,0.045007813954576405,-0.005501773480875653,-0.5663841227909665
713,1.7019573580412073,-0.3943353646265065,0.13302824866758184,-0.6098947562671588
714,2.0259474607175125,-0.863621529907712,0.11917524645273583,-0.6758098021797484
715,1.7146571749671304,-0.6303932117923341,-0.06459572270605002,-0.7243010562831235
716,1.1543471809037193,0.19884317898839765,-0.6848818810448063,-0.7982823862320426
717,0.9262977889076042,0.8737769731916596,-1.0971300933964692,-0.8054348510947839
718,0.9273163555940059,1.3075077087994018,-0.9632259043109883,-0.7078577023507626
719,1.022785096063954,0.5923296107228763,-0.318694712494903,-0.5640341271431998
720,1.147857435191935,-0.49680384351611306,0.4298347705516773,-0.3995078722658275
721,1.0919509208493094,-1.291063597958703,1.1890955990391376,-0.28466263086707055
722,0.746091698027737,-0.9638316206094941,0.9153993838088851,-0.2579305998959521
723,-0.07140365447208505,-0.191722440984191,0.19143728482058509,-0.2992884898227335
724,-0.7062752511508896,0.6332743118343529,-0.23536969912896155,-0.30417847490365024
725,-0.733613839506127,0.9394356561951244,-0.29480142476348176,-0.3490256841221241
726,-0.15256597815437756,0.47857807605575187,0.19366822548276136,-0.14283774655656634
727,0.862737756397085,0.20551253542540304,1.2251949220436513,-0.13179350052560895
728,1.2588390823206244,-0.11021548182985695,1.6280656398888935,-0.6986084455588676
729,0.706729465117722,-0.15847549576474954,0.6196873535224429,-1.5784621224454936
730,-0.28402316830997065,-0.08565478958053901,-0.5175161048830579,-1.9908926220416974
731,-0.39092569391945164,-0.13144124148648326,-1.586182288302986,-1.228764313606121
732,0.22233258906840722,0.025627176508091376,-1.3685817201126749,0.5036414182162778
733,1.2429550579608017,0.0087186494039459,-0.09620760907494667,2.20091077781942
734,1.5305518318024176,-0.30127101417204744,0.9620154946778507,2.2793263553116847
735,0.5718864461634248,-0.6797458012268187,0.8884685633790154,0.64804320712135
736,-1.1768915864417362,-1.5612662297255935,0.09069394559588485,-1.256870510656329
737,-2.139761553852676,-1.8688569739836542,-0.924099382793412,-1.9863123211017553
738,-1.9932225991887191,-1.2341409825222882,-1.1916854434968582,-1.3648827952340432
739,-1.333588776273314,0.2575072102328053,-0.6349235136367698,0.017308905343952755
740,-0.2884688303804234,1.702138002764942,-0.032200567332751964,1.2107687661294717
741,0.024081081792595577,2.1623846066342476,0.45618939138044506,1.1477951723502573
742,-0.2653411212932884,1.347780164269884,0.6477357045731,0.2840031367558383
743,-1.5371255394587988,-0.5748569916944806,0.39807648001171747,-0.926868147605411
744,-2.2145613089845804,-1.5671837463190117,-0.04372025508317506,-1.865866463110748
745,-2.0923355391505503,-1.5707587174511597,-0.21990057400563762,-1.727634806855364
746,-0.9783172156907618,-0.6244481587597988,-0.426525375797165,0.08746351020027338
747,0.911037240959733,0.34428810284752365,-0.6362531631907163,1.957179646904566
748,1.8218435727082438,1.014378007400856,-0.855188318702575,2.8114638763897704
749,1.2116894282739221,1.0918828485322758,-1.2088300011168527,1.5855122085728732
750,-0.07633659444588209,0.13284320805857158,-1.3928910204023912,-0.7867609008240494
751,-0.532611233765586,-0.5246000043170157,-1.5154417990731048,-2.529614560549918
752,-0.3234934894324813,-0.8507431017450079,-1.3532855491444935,-2.42876054105739
753,0.8269368387724426,-0.3106668749336824,-1.1114575954700385,-0.791871884018055
754,1.575071036390361,0.39775652434504827,-0.7004452383633255,0.8919827875100188
755,1.0329666588641215,0.631976239538916,-0.3082131271614472,1.924099600846577
756,-0.12361349250952831,-0.05747391858156059,-0.12111521556784342,1.4609368672162621
757,-0.8724899606191137,-1.2268713379902514,-0.1303060971678221,0.6118435664972499
758,-1.1981289392406065,-1.567736094538087,-0.192276964781758,-0.7833616406924203
759,-0.9738883654513335,-1.1857688496926542,-0.08254069268943157,-1.3443801891704485
760,-0.6171181424546356,-0.154251133696709,-0.00743956381750122,-0.901538734182873
761,-0.5758447781850332,0.4936545249892725,0.03666195928157889,-0.06444298565736378
762,-0.4465143450553058,0.7692508865079125,0.034457100813673945,0.5689498886799073
763,-0.3080514956972279,0.5325079517889881,0.002697349146407911,0.6438591516322358
764,-0.08518279020618248,0.04492333549327916,0.0031948699705624545,0.31833339711361996
765,0.038108090355397375,-0.053903174320825684,-0.001429283934198991,-0.1513657421495856
766,0.04483304747693805,-0.05946762846975722,-0.0016815105108223408,-0.07800956407223766
767,-0.022416523738468884,0.029733814234878427,0.0008407552554111652,0.039004782036118575
768,-0.05223515908867213,-0.008956849251784445,-0.007445599520580395,-0.008309560609835537
769,-0.05223515908867213,0.03708837058843739,0.03382247218190339,0.024704301565898992
770,-0.05223515908867213,0.02856297810742675,0.011886769732381647,0.040520861812491045
771,-0.05223515908867213,-0.04715352766867777,-0.06778371096722732,-0.0243069542010384
772,-0.01997405426770882,-0.47385182889146404,-0.30894964506466,-0.4486272024878927
773,-0.06121965604173994,-0.8085008017751139,-0.46385343316779315,-0.7788195468106354
774,-0.16963958434952003,-0.5858074306433407,-0.38560295765407,-0.6447286398697221
775,-0.12178653217297908,0.024228901359569233,-0.12460515562764346,-0.1543268328500754
776,0.3205411716770607,1.4432446302421764,0.3062466850238405,0.9413412321465956
777,1.6885484965355055,2.1580517288487373,0.4865982606151423,1.4510177667982225
778,3.345180504148398,1.5135747071164172,0.35981358815325726,0.9725219867989953
779,3.2134358128746854,-0.30385681318590874,0.029620566663212524,-0.06970395029338719
780,0.6632586105458114,-2.5397476948264277,-0.28138730487135294,-1.3356957205015514
781,-3.502116292725966,-3.267552995295334,-0.4325729263939159,-1.87438131616417
782,-5.595058042390388,-2.087584076690308,-0.331578919664462,-1.3422171191176906
783,-4.245782253443504,0.7557290830334983,-0.08341569991470699,-0.13625507186978097
784,-0.653568430415709,2.7261306013512403,0.11249188888384135,0.7954419641225886
785,3.229243284318801,3.0914177864089005,0.25912466023969577,1.3481760370132283
786,4.391825736296082,1.4931451717078235,0.16485576498448495,1.1674487568252374
787,3.112649588686125,-0.48222449535153333,-0.17441098388843018,0.5135645021510019
788,0.9688542947021809,-1.4444509396335947,-0.47515665400334833,0.27005897227184744
789,-0.7966620726121082,-1.1864191444069294,-0.8152410267260162,0.058553287724227646
790,-1.7582493390162304,0.0952025512810633,-0.5099522807383479,0.047016614021630265
791,-1.1785756542985233,0.894435548091686,0.11318394738427895,0.15000932858543017
792,0.6697881007399166,1.2596491386552022,0.5505559728309255,0.10736853647905494
793,1.734331331269739,0.6660065234499953,0.4968646093503182,0.2610804445361979
794,2.038392870286947,-0.2689185481783694,0.04752464683401237,0.08792932396090278
795,1.1649538578716192,-1.186608973571533,-0.4782238025336945,-0.18091803308571672
796,0.11929114474163513,-1.1431094245869136,-0.6194064662952337,-0.7266654356646585
797,0.17981192266087728,-0.7241517048484406,-0.1316110398621847,-0.8879963503796287
798,0.8950719877141816,0.24621676646779078,0.26893420320283656,-0.02345289290691066
799,1.7939816802452406,0.8938819085130216,0.4631023395869617,0.9661069394387689
800,2.027830435191569,0.5700263957531313,0.10994735247627974,1.4872845676493844
801,1.5038110999561642,0.08341205185875508,-0.2927490536818048,0.8692243836907243
802,0.5065969053632748,-0.6767690977683172,-0.4296189330059957,-0.056152676305416635
803,-0.0900380447616411,-0.9487463608137471,-0.17335784449145614,-1.1597906614162512
804,-0.21226064950521706,-0.7139634551035831,0.2655645138334395,-1.131936369835604
805,0.19413101168262392,-0.1375390059705569,0.5593358923067363,-0.16974135363090195
806,0.6616277235176496,0.2562999299689604,0.5476563622644267,0.58262649460134
807,0.9978770999610097,0.5047767491686351,0.4066697014053148,1.0724169501781977
808,0.9573588714081166,0.4459308779634426,0.42652699090236557,0.9123603736235518
809,0.7801948699556498,0.1894127467507297,0.41682580216576853,0.49909257026493536
810,0.8156881259377493,0.11648563237618181,0.408717497691647,0.018445027050767723
811,0.8148565467200296,0.043870434908127684,0.4026582527003264,0.07517715653099968
812,0.8026113893768413,0.03990960595532476,0.38833882170591627,0.22344673068106966
813,0.673043763488489,0.0791135487680169,0.38085003118202665,0.08728343049093937
814,1.2299866612362154,0.04739307626324665,0.38044155169890537,0.3475037569112611
815,1.2581342137506626,0.10646402067296219,0.3845263465301179,0.3214817242692285
816,-0.47303989930149665,0.0983208888961756,0.3931921455261925,-0.15558887416802658
817,-2.465926277912403,0.005893395821665731,0.3631099537067562,-0.8545286592037349
818,-3.3344236672421173,-0.18863225633478925,0.3661181728886999,-1.8803532211404497
819,-2.3469105395899312,-0.5001610696361984,0.3979415129160419,-2.3329074613101244
820,-0.030036763860556065,-0.4865176350571445,0.5010259779258018,-1.9094629257132698
821,3.1765426795747427,-0.1269067450505819,0.7557067860118872,-0.913751851265686
822,3.614820119567979,0.6830960099186667,0.690517818302528,-0.2557623398883664
823,1.2834471983323728,1.2735736294780946,0.12601532547891603,0.16598761188003175
824,-1.7307142276166663,1.1601306269543337,-0.6222084083683405,0.19327563179465546
825,-3.718242860845704,0.3598381856301308,-1.391168172123986,-0.0010741540185437853
826,-3.427744682967648,-0.7772232153514008,-1.389715687405544,0.16379688961815814
827,-0.4463261018119766,-1.4071733036368463,0.0027728699690777736,0.18659215438024673
828,2.5551216285128024,-1.436204239800529,1.4539175055832405,0.4184697051908876
829,2.598483150865607,-0.9402095993278585,1.8340591481441944,0.4031349914431268
830,0.9523905523644771,-0.5873936468652854,1.2336769042172464,0.04346815940115052
831,-0.7967428229343491,-0.43409404076874103,0.0150314221036549,-0.4904842302862809
832,-2.1746040751039915,-0.42376077038984905,-1.0583705806290684,-0.9791554752232128
833,-2.1467178920914023,-0.5270934741787688,-0.989642383854564,-1.4525063202235247
834,-0.7834382110631712,-0.42032965648773213,-0.38556226330435717,-1.5207349544256015
835,0.572773159146027,-0.637288405771923,-0.0721654854638886,-1.0331632810992786
836,1.886657063411182,-0.6155925308435035,0.20415046053889788,-0.48096089647035506
837,2.559462985047832,-0.2178348238224881,0.32173084172178007,0.20915404733397108
838,2.40225825586965,0.32425093002607897,0.26300578746843617,0.642671075447684
839,1.8356174842461288,1.273489244774524,0.2097079007305158,0.9782374671771544
840,1.9892253426421735,1.7226380489427155,0.22586654790567207,0.8015918858886334
841,1.974260536430244,1.2320620108233453,0.22558734044934559,0.42785542808414134
842,1.832872043037948,-0.35917757255165017,0.22837941501261017,-0.14198585925745885
843,1.5024188697087606,-1.6103791634736748,0.1997065336059485,-0.7608226611010307
844,1.2142237002967442,-1.9645857187310456,0.2829331032626689,-1.0420925923069242
845,1.0239098107351032,-1.0460973771262314,0.2746104462969967,-1.0698767772240614
846,0.9770424292538379,0.5568229874032908,0.12202840192634312,-1.0201417203276448
847,1.0198776631042263,1.5950796224506094,-0.08669381590798458,-1.1617294965752163
848,0.8571125186278689,1.6062008828039456,-0.4592459982856396,-1.9003990928948717
849,1.0264430133638354,0.34521262707312644,-0.599540795315542,-1.9982831297993406
850,1.0038542952368332,-0.6693412698280142,-0.40123444854440826,-1.169631332090127
851,0.6462844827758536,-1.1627673945925847,0.07820325024579709,0.5293129542894278
852,0.021852761586089398,-0.7656594711020015,0.49844097218905636,2.2630519679322516
853,-0.6640051057736714,0.1003718985995696,0.6127072220437029,2.7343161939029277
854,-0.8748020693070546,1.030651358065314,0.32982921550288224,1.6484692879277723
855,-0.8033018625378481,0.797896146197111,-0.29229798076115243,-0.5848509104399222
856,-0.9077483891907328,0.02149907726620893,-0.6250946379449401,-1.7696279528263157
857,-1.95885038741785,-0.5316957069572548,-0.6281973997459399,-1.9139646687092136
858,-3.074008985747884,-0.7567857599137225,-0.28386122637078925,-0.887735265677225
859,-3.352998575767499,-0.3354232062750678,0.12265298292741371,0.14777452535772986
860,-2.5581147119979337,0.22772043059746855,0.32366689479810506,0.5159991633753018
861,-1.1248057402816711,0.561504995738194,0.3581939335234862,0.4051851078556096
862,-0.10366242690663627,0.24728635505312835,0.24367404069101442,-0.0006685174351782827
863,0.22514995522148484,-0.15029491966669964,0.20936282704194492,-0.01751699708333336
864,0.017943073352584243,-0.43047083084996424,0.21513998886906474,0.17094945470397205
865,-0.09422343116342424,-0.3584180209131035,0.21236435589133973,0.3596903985935033
866,-0.04151876114810723,0.10298190019232065,0.19175157742344376,0.4520945520781131
867,-0.012147807257188309,0.4973295573150223,0.13697560091402763,0.4664269606039681
868,-0.015084902646280256,0.46406922915402177,0.07597446198317816,0.3273687564144078
869,-0.06893165144629812,-0.07330347229318661,0.06721233337701515,0.292356173722904
870,-0.1570445131190543,-0.6127357391485875,0.09418492278460831,0.4316529229487531
871,-0.2335468246797372,-0.5490342395218528,0.027648326030078087,0.7504170099270009
872,-0.3222252238159738,-0.0013683486674693907,-0.11738904908202763,0.8299973075899529
873,-0.3216791541714436,0.6698990770476243,-0.20960012754083118,0.4884500679659156
874,-0.2284501746641235,0.7685502727166863,-0.18612793883842815,-0.18534198884554443
875,-0.13374554161910593,0.21688330851104312,-0.04706864276881673,-0.6890930148201502
876,-0.0071192068446836315,-0.5067589204813958,0.0584627123026383,-0.6564115331848535
877,0.05996825909220943,-0.7569314675798109,-0.0017956211118218546,-0.07659024491396191
878,-0.13877993559780544,-0.5117257766174605,-0.17159609150784966,0.4082038844549807
879,-0.09299556316659086,-0.021618991556114214,-0.32156624838222014,0.3966385758094831
880,0.6273503601617204,0.3447860606835325,-0.3831438503455605,0.11033348420877315
881,1.6091333172698663,0.3847365224632908,-0.3186851156245071,-0.3525367376717424
882,2.009157386325935,0.23794236209371097,-0.17341477152336054,-0.5463195244549196
883,1.513269332453567,0.13670411071087307,-0.031544125830903595,-0.4074226912932719
884,0.40977908300389393,0.11137377899996138,0.0928250140715011,-0.006599864847366528
885,-0.8436107833765892,0.10897348275522788,0.1446190968803115,0.35096476595321335
886,-1.1344302989528825,0.11326977181983737,0.13341205407592174,0.6308426763882304
887,-0.7128135717824003,0.16438880448556967,0.12304647606666669,0.45395270732375487
888,-0.05496895923099126,0.17330162203628546,0.12466672704768864,-0.23607171689176065
889,0.37011745738401747,0.020440459734693057,0.11273497607698185,-0.750594359161605
890,0.5453961676379601,-0.15247215484017773,0.08065801936338865,-0.8994657051090956
891,0.3736904900427894,-0.24829570767427342,0.04157776420247996,-0.6192247438546477
892,0.025896912600968144,-0.22325903518946205,0.010068840175116105,-0.15847619184204403
893,-0.03545702627039366,-0.09574766111447819,-0.004502518024375917,0.11319254117656634
894,-0.04171414855340427,0.04490886664413225,-0.006788561819069144,0.06601012652642813
895,0.02085707427670201,0.029649639131066864,0.0034209998402117826,-0.037707534056559654
896,-0.03610784488928846,-0.0071149638421872,-0.0066969957759952965,-0.006949110125843375
897,-0.03577255831799438,0.03614675030173348,0.017169411078595716,0.035279930747799296
898,0.0689614589852337,0.013258868832267075,0.039101459715079855,0.014047141756975627
899,0.24927444576632637,-0.0518356201774586,-0.02053039254150997,-0.058346490793948394
900,0.4340443537422423,-0.3994745290545315,-0.33280750163891804,-0.3866375802745835
901,0.5596367622372452,-0.5654192150104019,-0.7392099498959575,-0.5482583432241518
902,0.6068425384899538,-0.42467674596997007,-0.6761618567213781,-0.4054707949142131
903,0.4727024375451184,0.2935071738309021,-0.1598805263540345,0.0512185376902933
904,0.3129714544835802,0.9161937527294164,0.9714084312109389,0.6279497714925043
905,0.6595037021721702,0.8653413883552349,1.932024294192419,0.7599193267407519
906,1.265381232675961,0.1228495276647761,1.729071537740425,0.42508547694845156
907,1.3997000912502628,-0.9537214782458217,-0.017034414514554723,-0.28531556270677727
908,0.6862280078881773,-1.768940474659948,-1.9792995870886854,-0.7765918537549399
909,-0.5390391723762031,-1.081969347323172,-2.689502960682279,-0.8984120135072591
910,-1.6833163936996538,0.38336452613300265,-1.8724135122175778,-0.3190026584180201
911,-2.075436755091908,1.5127673474896313,0.4810015814484852,0.9754062387009463
912,-1.728064702752764,1.8084078657393718,2.134979286321174,2.3179915700777514
913,-1.5131778001153389,0.6712950614193245,2.1530688433322407,2.447379004654254
914,-1.5328034033081612,-0.8026881473818951,0.9951559635560262,1.2729918809204017
915,-1.572309573124405,-1.8143112124948073,-0.19797588073622663,-1.2600020941564267
916,-1.7094486332216732,-0.7680446915821458,-0.9944624971817134,-2.852207154975547
917,-1.6415863931236105,0.34841304270344337,-0.9921767596709794,-2.509696699072577
918,-1.267595767904381,1.5222171970749114,-0.3632589099153366,-0.7298171031696336
919,-0.7098788641958171,1.23600928380625,0.15813248329659196,1.2360814348544702
920,-0.1991560189261647,0.0721703389886818,0.5621275783721894,2.068482774584024
921,0.1338905909349258,-1.0580625899215008,0.6276569511770771,1.8611615988555903
922,0.11706346139049398,-1.2496720963897971,0.3597136411074254,0.9113692392817841
923,-0.10700824807268522,-0.34024448931971285,0.00805169147704064,0.6611534205621535
924,-0.17898889502139875,0.15170202773507235,-0.09585339986990225,0.40136400426965935
925,-0.3435937361423243,0.3631714153582557,-0.060302056404361884,0.387193672471887
926,-0.31433568532165435,-0.09634612381357,0.08093083277130103,0.5288969904496106
927,-0.23760484900362475,-0.5738395095147563,0.11573706772166706,0.5021047734515219
928,-0.5645044260068122,-0.7890603942985067,0.25802069802011873,0.44077810646806503
929,-1.0080698233426886,-0.36849250807530776,0.23207690647466245,0.4469107731664108
930,-1.2461202437362768,0.17869011059664655,-0.10732300615465032,0.5593429959694148
931,-1.1618782430861287,0.6259411125672957,-0.45949877187367644,0.7433229969197845
932,-0.8284498694514023,0.5501332534120824,-0.8728659831879233,0.9273029978701534
933,-0.4705199207060918,0.10025662259112748,-0.6402153777191195,1.0397352206731563
934,-0.48078410377299047,-0.3105716220800885,0.12155861197276474,1.045867887371502
935,-0.683477982747602,-0.3431251708724889,0.8492595870680819,0.984541220388046
936,-0.658740547243373,-0.2642221932475111,0.9300485872471849,0.9360198545808921
937,-0.6867010863830898,-0.20084551231049608,0.29676615021423,1.0810072384556801
938,-0.37511039346222935,-0.4501382958995517,-0.5468399405622297,1.246028303605578
939,-0.6244156328165881,-0.6789351382838983,-1.032762108615812,0.9024160601477141
940,-1.0456998500789367,-0.7168017612857155,-0.6581981586230219,-0.13296374490266993
941,-1.0791568837075523,-0.5400921104908446,-0.11342954954431048,-1.5521320511695373
942,-0.598975730350353,-0.3838650032944726,0.5658553763417741,-2.1874794084743003
943,0.28108290758990406,-0.2612177838911593,0.7197289468447224,-1.6559662867776193
944,1.2052277266725062,-0.20133637349674105,0.3408306460151457,0.10481088474709635
945,1.53636419490318,-0.33868787726872923,-0.4091306621245823,1.3975279848887991
946,0.9781540008449588,-0.4205337430728304,-1.018142308866972,1.4396177328506878
947,0.577836447107864,-0.32179741912650783,-1.0036467869954344,0.5304684824457558
948,0.19212199587034826,-0.059514528639223026,-0.4252136449818237,-0.3965364867928966
949,0.20135546651443967,0.23288740063027455,0.6227136849436941,-1.4417214117878527
950,0.6585900629420938,0.3657254649422505,1.0729282001262328,-1.5918919567946257
951,1.2691811645628976,0.23234662447299456,0.891697674000212,0.18598893940095795
952,2.334408324190791,-0.03092478042711142,0.2156629838122015,1.9340997314182362
953,2.7361981728555094,-0.36871817694479925,-0.4325346372864393,3.345474595274741
954,0.2251641134662525,-0.496507868042735,-0.7341495507400342,3.0148224835159843
955,-2.345794515800037,-0.26120206525658407,-0.6052662831905206,0.05854635250720536
956,-3.2193347299430175,0.12668719711228144,-0.18201886406887643,-3.1154133363346377
957,-2.079159629328245,0.7587143022640179,-0.002086319368779543,-3.542923350394185
958,0.3498049535635838,0.9757097668414506,0.14504556376234876,-1.6646907772003525
959,3.2289047571806373,0.5122305419170672,0.1530709392058648,0.38590300618896495
960,3.301498589809601,-0.2623827857722246,0.0728171847707042,2.444587973047189
961,1.3679416612647517,-1.412434982203334,0.09085833765890343,1.8247508763332425
962,-0.4560623497323705,-1.8477562919720758,0.11698863342946603,0.12418370817503949
963,-1.9780985293343636,-1.1415095823488193,0.11437560385240972,-0.7591755161068576
964,-2.0207566797959693,0.3579489169402441,0.06647006160637844,-0.6970031461197372
965,0.23033609265797475,1.7571954509987817,-0.011920825705308875,-0.031221529423693786
966,2.4650478241690545,2.342883803510669,-0.07955461463539867,0.8573412677540775
967,2.3747105543647677,1.6801501080522396,-0.14478984615237467,1.2834398740781676
968,0.9838199266104033,0.2682926734504469,-0.18900056383649175,0.060107361142906955
969,-1.2077579095501965,-0.528908743953655,-0.0992237452049906,-0.8809253388656888
970,-2.3943694638365187,-0.9025641646915711,0.07105887394535357,-1.2728175718025962
971,-1.6595887237578415,-0.8563760885397315,0.3023472122443477,-0.8227245698797654
972,0.49053295464173174,-0.807320379373971,0.49598570620775106,0.46661410680070925
973,1.5874299002871948,-1.1785695923392583,0.5813916680283862,1.6330396367357327
974,1.6998180542849355,-1.408669397877931,0.5536028546457487,0.704581022671553
975,0.29545514276460644,-1.7560847115178366,0.5195351354058063,-0.6907160968301067
976,-1.3279057567748835,-1.748483411560539,0.47939227765519155,-1.2482720593890881
977,-1.57537043756089,-1.337723931609824,0.6446456685285755,-0.8163790875466245
978,-0.1430897069150649,-0.8491451694035026,0.6281203294412367,0.2377514869904498
979,1.1536302938735208,-0.33059674815513457,0.32515577950670044,1.6059435156039206
980,1.2732731909214854,-0.06944305499616812,-0.09715717388859851,1.630223662844219
981,0.5155576728888275,-0.01866550478270794,-0.8132590041832956,0.7203835349614371
982,-0.6216259196289292,-0.06152580026644121,-1.0941893883503737,0.16476909252121397
983,-0.9883004429582061,0.2401396802147463,-0.7425663627864458,-0.5125090208201614
984,-0.7402322610431529,0.49744635237324386,0.15310018730709646,-0.9183278003643063
985,0.035494688191386424,0.4921033853048207,0.8624348055597741,-0.9305236506927925
986,0.410512259648394,0.21318416922862304,1.058018384208792,-0.6742115349960252
987,0.3391793651505258,-0.23917518435214574,0.5865442134389073,-0.8464018024392403
988,-0.07831355474228856,-0.6418772132659267,-0.3674822774558293,-0.8868892007610307
989,-0.4905866236429576,-0.6649297777044252,-1.0026653416799165,-0.6719203510311142
990,-0.580157674263522,-0.08807954880977284,-0.8733664650149774,-0.22459669706461877
991,-0.3463669191420111,0.5319699032808543,-0.2039519212516977,0.2914285040441784
992,0.30768993921926774,0.7032321220540914,0.46492145817541974,0.6747834688477572
993,0.8925162463122713,0.4429813705962605,0.6075176956264524,0.7997399843710512
994,1.2047424706036924,-0.0688505504935628,0.11975483425618733,0.6933012009041053
995,0.4739589798737824,-0.32833313028806516,-0.5274496669435765,0.6724691538252092
996,-0.4785096265966504,-0.05799414843029082,-1.0165609625350234,0.6787716092423068
997,-1.0870275538579601,0.3611190058143774,-0.5547433211670049,0.6436086009619764
998,-0.6771269392790003,0.46307398115049664,-0.0462916896616265,0.721357068096705
999,0.20722285599644444,0.31703556525041526,0.47797446437481744,0.7551499549357088
1000,0.8391691497344298,0.07102642767038478,0.474468149481983,0.5857159933742538
1001,0.6365054596464795,-0.14563820983240405,0.030000057964218584,0.23217443208276248
1002,0.020745961723732984,-0.11800288434423861,-0.65184558113773,-0.16435222946388137
1003,-0.007942667403677356,0.12125226945330547,-0.9593316148796789,-0.45373598166095747
1004,0.4533233712761186,0.3032156950916231,-0.17347686124877798,-0.536335858459753
1005,0.9260298778422775,0.3073431506892808,0.6454294871479849,-0.44797324580407266
1006,0.7817802549729633,0.1590112671790671,1.2814204174550743,-0.41338740181673234
1007,0.45349740676068034,0.03288547952565639,0.8806672893573907,-0.5027987146793068
1008,0.2093210467211174,-0.07538042694536852,-0.27604161133254346,-0.49519146432493394
1009,0.39109127853322423,-0.15378823698687938,-1.3551980469814513,-0.35572520782810163
1010,0.8612150562180241,-0.29461402823261396,-1.3519501345482001,-0.1275076971969223
1011,1.1874421058302682,-0.4316937436592421,-0.413086661547961,0.09798542545888127
1012,0.9627785806669793,-0.6932235573647765,0.560135915233985,0.2395867357957289
1013,0.5095906122167083,-0.6835899485204847,1.2096996354201024,0.26267079696264034
1014,0.20723931919184752,-0.34178006111252235,0.9779773090455035,0.17526333568804434
1015,0.026958705207005634,0.10270465152221434,0.2837602844132938,0.14234567870135845
1016,0.04435949139032833,0.5368387269230018,-0.5343174179884641,0.05529228240871389
1017,0.13622215565200144,0.9097005260328046,-0.8875187402613992,-0.034812761976313986
1018,0.08261645070068707,0.9162289437069113,-0.7986897041916666,-0.08786900108300277
1019,0.048508741695816184,0.5977706252146682,-0.4879463395590503,-0.08118791511492468
1020,0.014401032690945406,0.38125047228411724,-0.0652699338687112,-0.04410736335995124
1021,-0.006442567256475567,0.11318373395934711,0.06361655143600546,-0.0187223847743977
1022,-0.007579490889971249,-0.050634828350234175,0.05562046870536819,-0.0009508190015495403
1023,0.003789745444985601,-0.059570386294393096,-0.030676752429252736,0.00545008482380058
1024,0.00729315259671468,-0.011713656875475861,-0.006008389330147041,-0.011179964175957981
1025,-0.013845668932733573,-0.00995660834415445,0.02726260189610654,-0.0540567695554172
1026,-0.036377326283517135,0.022255948063404057,0.01681441221850523,-0.049769089017471194
1027,-0.058919085283369386,0.07496740400304508,-0.04956756146728973,0.02883838751153711
1028,0.006978786822174149,0.13909368036965636,-0.31964891195041445,0.15746880364991395
1029,0.14052525648866984,0.13706177549630322,-0.4865043842764029,0.2860992197882904
1030,0.15982676285357328,0.1422432701557158,-0.3984596919437887,0.364706696317298
1031,-0.27112577829795986,0.1874542971908395,-0.11912442743564058,0.36899437685524383
1032,-1.4858633875951073,0.2385150488741779,0.3701346851847792,0.32611757147578535
1033,-1.8838505481888128,0.513836814508309,0.5813268805582102,0.2929930883375033
1034,-0.6075501054985762,0.5593594886775054,0.40771651086106125,0.43524334313180785
1035,1.815863966896819,0.24637190152136773,-0.07816441822711934,0.4210183176523771
1036,3.454151056588571,-0.3056377051337341,-0.45311291909901596,0.16022618386281962
1037,3.2996678328929265,-0.8119880300809534,-0.5661985099484275,-0.26652458052009137
1038,1.591044046725706,-1.1284000633651792,-0.348040189670451,-0.6932753449030009
1039,-0.20839588558479544,-1.1456589015443186,-0.0636801673564906,-0.954067478692556
1040,-0.6066409872492008,-0.9730705197529234,-0.09766676881578165,-0.9682925041719861
1041,-0.38233691095909106,-0.9637675023321016,-0.25604613990101044,-0.826042249377684
1042,-0.1744914305819833,-1.1178131736855654,-0.5302512458991374,-0.868018374022024
1043,-0.3562709962761685,-1.2371187183813694,-0.6732269339729456,-0.8667271179998262
1044,-0.11296644627563984,-0.8556045604725069,-0.5485421881259533,-0.9179343405641374
1045,-0.020595187313824315,0.0013724365412528805,-0.31474323443742913,-0.8827269512534097
1046,-0.6765701863762522,1.0209306030063976,-0.07202756178672433,-0.7368890558104254
1047,-1.6514991183707783,1.7649041645369892,0.13616211970336048,-0.5000706177794622
1048,-2.117677961575641,2.1654513984097017,0.24141751704077372,-0.36536013307065385
1049,-1.6109213586252678,1.9663882136044482,0.15451166254972296,-0.3608728080742778
1050,-0.40712381849662027,1.664675278226776,0.13715965821992418,-0.2638959586388604
1051,0.8855350646400862,1.3360886540817323,0.2448144502681954,0.32613801015372396
1052,1.2926682048788032,0.9624921099921759,0.40580804319332586,0.8637686700544995
1053,0.8872135921230795,0.7289764564300972,0.577238451172934,1.1487375722554876
1054,0.369725017893758,0.7169077296953472,0.6756636672527434,0.7224378216676575
1055,-0.25495176516766777,0.8498506604678417,0.6647412602609425,-0.27397071144273843
1056,-0.6506878818891517,0.821156313399062,0.5838309996137575,-1.4065140894263335
1057,-0.7084788899747216,0.7439559337119133,0.5319881017800475,-1.6754305941962369
1058,-0.2247050890221423,1.0187249504796276,0.6451368259524946,-0.38125599943721933
1059,0.26663561357570503,1.0031804495390269,0.6312967319574306,0.8349667439379239
1060,0.27578654729639596,0.5017740130179554,0.40281389115945376,1.3642133760378674
1061,-0.2995318938009759,-0.3286828898662906,0.011377862628195158,0.6314995189039667
1062,-0.9410259731099844,-1.173503677016019,-0.3520075234799518,-0.48909153374508696
1063,-2.0606513105398303,-1.6574326579824796,-0.6424567209836487,-2.0602848339879354
1064,-2.353090140864352,-1.8406091039628074,-0.7144383339426065,-1.9654129469422095
1065,-0.796988876178587,-1.5576040849101331,-0.4403554052739715,-0.699970160691347
1066,1.5664657893843923,-1.387706646246691,-0.13577942333698934,1.3423855440966728
1067,2.995528032779053,-0.9839467838948016,0.28960885330775377,3.129166007566784
1068,2.7123955883851263,-0.5542209997868977,0.6205966396470446,3.1121588594676473
1069,1.0463935967848736,-0.3720443619014224,0.7700048548813503,1.3548891833189487
1070,-1.0568954176915888,-0.3517804597921913,0.6994347816181413,-1.9020085159388516
1071,-1.4674711241351646,-0.36509124676740723,0.6215411917849225,-3.219365990669481
1072,-1.0969784165564795,-0.12650056099771798,0.5841358451023877,-2.6439131070680744
1073,-0.8561433879514023,0.09540542935776997,0.4712029111640147,-0.6560426092514
1074,-0.8829178401663412,0.21576785365744394,0.5859136601145276,1.2948067052028023
1075,-0.8412606705068001,0.18314189092734356,0.5946205796259206,2.164121305147832
1076,-0.8389884612526434,0.05666317742491138,0.34696658245090506,1.5458540308179998
1077,-0.8617105537942111,0.0006184232792173106,-0.2305201473935856,-0.05277105433715845
1078,-0.8856044652735806,-0.03729008640263803,-0.9133887357126491,-1.055940010243821
1079,-0.7912006382939044,-0.013774356218479281,-1.1167994800281065,-1.7188664942672838
1080,-0.8006410209918722,0.04965522558434621,-0.7024008531368255,-1.6069907223619584
1081,-0.9737147037879448,0.10527389756203936,0.13419469096716857,-0.9980143497731376
1082,-1.2569261847269715,0.06860323218930729,0.729794572088475,-0.8188247345211729
1083,-1.5401376656659975,0.07623590577498295,0.8628476354471877,-0.8450423778167331
1084,-1.7132113484620684,0.17651218436167748,0.4863696410264696,-0.8194741450825556
1085,-1.7226517311600356,0.3681690314763909,0.006294448022199896,-0.5801878956688533
1086,-1.5286220203141552,0.5261119243780565,-0.3297100309955271,-0.029107675098799954
1087,-1.8464070277677032,0.7275300656038914,-0.47129532699369325,0.5490235769108304
1088,-1.8387699128807586,0.7250485529256526,-0.33425132726396634,0.7071567320057941
1089,-1.3350558357581206,0.5029511393811624,-0.1274139308777294,0.740840274171845
1090,-0.35960092465448,0.26229115720487517,0.002305411322117688,0.8634033037939681
1091,0.7344374688697062,0.023710648357392505,0.07647383371493302,1.1947634831418539
1092,1.5249378610422237,-0.20462518517350747,0.06591800686616725,2.3210652952677138
1093,1.7474606401599888,-0.2064828558531048,0.059000754361033615,2.55433512443263
1094,1.5218940708699331,0.0063723886811485955,0.1744043556251361,1.3974359961095089
1095,1.5791002984498888,0.183030541542046,0.29402162384300656,-0.3665551668662696
1096,1.5448566176984935,0.4491192843118196,0.39751955273510875,-3.185515761300681
1097,1.5653971248117076,0.3936827591194408,0.4029690284539631,-4.263292182264392
1098,1.5727344385780961,0.4186542654125068,0.3854951209122587,-2.624615047330824
1099,1.4798233956262514,0.6821866763804307,0.4287615947329125,0.8150376577776707
1100,1.6650805768669104,1.0878480617101616,0.5251989734250311,4.035866707676601
1101,1.75436237601428,2.1131868084931575,0.6043154026723659,5.476484159093967
1102,1.4249636132664103,2.397098090632607,0.658754563885399,4.0880247331260025
1103,0.8371351665452467,1.5317289248437134,0.6773786377935896,0.9653602299431145
1104,0.242866065684088,0.0655154375639801,0.6738448655682107,-0.7889963773240908
1105,-0.13108923436741654,-1.7669753485626771,0.6878215519752892,-1.696872727801372
1106,-0.08159107049285583,-2.706453521034662,0.7678993138004606,-1.6383920931384974
1107,0.19745639925522412,-1.8607413215749313,0.7623181145215066,-1.4312970438779655
1108,0.09905375536630334,0.06250286514161513,0.6357303587050529,-2.1758291057377086
1109,-0.09787704475502798,2.1857900205642102,0.4259935911674869,-2.6449968982381673
1110,-0.20459075765652798,3.5044727828239357,0.2947252566827931,-3.21881899456851
1111,-0.352028243188739,2.6694169756400425,0.1764313581061834,-3.213256066558766
1112,-0.12672583626488904,0.2897079591116861,0.017070300323862746,-2.593076236813897
1113,-0.286745823950843,-2.6289278852998166,-0.06893383723676022,-1.9384775106553331
1114,-0.7074845468169457,-4.141241913776519,-0.1580800185064887,-1.1171181331981586
1115,-1.1554209468691121,-3.1484069684100335,-0.0870266114644153,-0.9972202573491316
1116,-1.201622244573103,0.028276156364411803,0.10814606913447786,-0.9416291339498043
1117,-0.7651184223408884,3.0379542179017784,0.3048154719189256,-0.6180084453662875
1118,-0.02659620208831103,4.004854497589439,0.34398121755459005,0.46738090322633824
1119,0.5891322804944348,2.4810790801108222,0.22681369822213684,1.4356742282655939
1120,0.5299195893728351,-0.8229896123434586,0.06712477480046819,1.9097708800039161
1121,0.49642980008784365,-2.927918829522051,-0.053173696829544356,1.6782588815319393
1122,0.3329059586649335,-3.343884899633544,-0.03783375200261431,1.169605049472387
1123,0.3197751582223476,-1.926731922056397,0.08503685228728856,1.2522165703746237
1124,0.31082141649409983,-0.10704423116119446,0.3520202119596101,1.487776418822585
1125,0.4478640386029402,0.8148019418234567,0.445384008757448,1.7149189496749668
1126,0.7444390901557036,1.1856551015536345,-0.06913776182914845,1.8387813014165273
1127,0.8329197900025217,0.9346368862008543,-0.5109245216134185,1.6086331310293165
1128,0.43759003150531806,0.8583550786406341,-0.789671522861604,1.1038786036343342
1129,-0.2848308389948269,0.9712745447175923,-0.5057429268585573,0.5737447125665607
1130,-0.9179212413775384,0.9866123770167123,0.1400419775572965,0.14824345151061388
1131,-1.1692752941990678,1.1123382155260109,0.9306036441672345,0.11665653353045848
1132,-0.9837173051166679,1.1042572758318703,1.0078683284914194,0.009834994403315978
1133,-0.6889359950227342,0.9111902732047366,0.2301718046552665,-0.2055123281558263
1134,-0.6932045025557938,0.6130899068238177,-0.5457843401389525,-0.8960678134467357
1135,-0.7359775198027511,0.3566519314189064,-0.9804122851687823,-1.7648124001280596
1136,-0.6826163906337313,0.19535292390609454,-0.6398045885173448,-1.6563024568216382
1137,-0.4731641881874537,0.11000492151469822,0.08085818166809372,-0.576595887341692
1138,-0.369918865210061,0.056184536690419604,0.7813725636610972,1.7111135622447697
1139,-0.3308384951873072,-0.158172684598929,0.7310571791995779,3.215832440619745
1140,-0.7192047189456239,-0.34421830208938076,0.311638305399187,2.9143029027961243
1141,-0.4619092808313645,-0.3427829403428305,-0.07785106730201999,0.8045762164751546
1142,0.4390661062835933,-0.16349991215447135,-0.31670715939276123,-2.188778851932881
1143,1.3558590140787026,0.1282313547667307,-0.33352609302535197,-3.3920718816717637
1144,1.6203501046144881,0.29942488329998906,-0.13010949908415714,-2.058089103031615
1145,1.0916259114326619,0.3001132492528056,0.036732570170159635,0.4608220759420031
1146,0.2519386669001752,0.14779481760803326,0.08857423727967906,1.72856952739575
1147,-0.3546627407129328,-0.01842467657109205,0.06737346146018845,1.7167758581738353
1148,-0.10561932514582842,-0.053025555745239095,-0.004444119979829381,0.6928521874426827
1149,0.01444713552179087,-0.027965962199019232,-0.004873768458377447,-0.35031618820649074
1150,0.04759193390817153,0.02987912799117911,-0.005733845245149933,-0.20647580957650613
1151,-0.01229505276784473,-0.005577595400585794,0.002866922622574948,0.10323790478825244
1152,-0.007041925652049332,-0.009305432302904326,-0.008871660372574648,-0.008071488502021306
1153,0.04740480654764432,0.03018958548336482,0.032861883028726654,0.031093972179722096
1154,0.0038583653027975118,0.043130796016431605,0.034705985735570294,0.02759993994482063
1155,-0.19487165756713967,-0.062315935798412034,-0.04122997433160716,-0.031074775901352422
1156,-0.33445445940404217,-0.47569794798283116,-0.45088124846941036,-0.44923557056617947
1157,-0.554712159240386,-0.7858674735772475,-0.8688717058578497,-0.6869544026531427
1158,-0.8374828226555793,-0.7897849317692838,-0.682818735396008,-0.47169825984943275
1159,-1.1107978366218043,-0.4849159362106879,-0.008793950423168884,0.022816376357558732
1160,-1.3417286524138814,-0.06162830333425742,1.5576815627768152,1.0987255036272534
1161,-1.5430757762331644,0.1938787171204904,2.4361502486457605,1.5087072332669675
1162,-1.5421631069892234,0.19186541499462556,1.9046731797383818,0.9258125033422026
1163,-1.2922254671996902,0.06626444840824068,0.0628033999458141,-0.2591836049763981
1164,-1.6979611100055323,0.07839645831067524,-2.033049606919297,-1.7516567254025341
1165,-1.8908905663588738,0.16760139518975603,-2.842953681484701,-2.237196517811002
1166,-1.4290614038998721,0.15868090150184777,-1.7508136046801308,-1.3467540600674366
1167,-0.3983387805138122,-0.004861482776466475,0.9182230345391197,0.9531399031272512
1168,1.177881813168578,-0.27247629341370716,2.333378151878917,2.4120239865221165
1169,2.0206312267789057,-0.47335837086570653,2.296273763913608,2.5803609276581576
1170,1.4374122030972567,-0.8370989546997409,0.9231639806508751,1.2983400901104278
1171,-0.11618250291989535,-0.8259996284320763,-0.608872209388825,-0.621355565106334
1172,-0.9445888251620006,-0.369764659034175,-1.393445570344824,-1.498904454514648
1173,-1.0084171107738578,0.2010949606732933,-1.1795313122405229,-1.5288287981819695
1174,-0.36587029184844394,0.7353873792296939,-0.4775612933624189,-0.7486701666882296
1175,0.45818101772564135,1.3013239520807889,0.27565894907009814,-0.26096412848755307
1176,0.5779058490944649,1.3014531180031326,0.8814631267347738,0.1046412113321709
1177,0.48519062570270066,0.736592927838242,0.8814500381445934,0.2300051994675959
1178,0.3905446733283838,0.20660604002665617,0.3576069485540857,0.11138494333454406
1179,0.3896346618274509,-0.30732100067332724,-0.5163728691307935,0.0500516610075924
1180,0.3180570750033752,-0.9203607321730158,-0.7786847097375728,-0.07917959079344195
1181,0.1876220049661929,-0.9154136121171907,-0.5259420966881831,0.042552313801209635
1182,0.5568444610350477,-0.2611478801522992,0.09329411948099796,0.29419519882100154
1183,1.1175033984510925,0.4176831624084984,0.5034514259844411,0.4686174980725262
1184,1.4590943067114097,1.0845725454069983,0.7718749572587585,0.3668623431950382
1185,0.6296321557946535,1.7746632560587703,0.735467626880645,-0.05260413432898911
1186,-0.8853409261129652,1.7760278782459058,0.5037480893632781,-0.7484957025804829
1187,-1.717787110056827,1.0973090191536023,0.43143152569743026,-1.0302654326252871
1188,-1.1753995645231154,0.47590704239297227,0.49376633368284434,-0.4904452617111176
1189,0.8018315563502443,-0.1683892336025505,0.47961997921080707,0.28843763313191206
1190,2.134065788250846,-0.7784251949901647,0.2993988839584179,0.9051998759961992
1191,1.9543982377970515,-0.7839288625734966,-0.05051764504038009,0.4797024576886634
1192,0.4791964228508177,-0.21975679771365453,-0.35179318580478275,-0.37507342607650207
1193,-0.7685661793741403,0.24108389217078258,-0.6779372457603531,-0.9193645872864872
1194,-1.1765938669342266,0.7763658217404876,-0.6774913037620713,-0.6632031898266869
1195,-0.9206603057199733,1.117214167544517,-0.3476310604874907,-0.00309032231632762
1196,-0.23686259198414938,1.1340428718667654,-0.031490786447045144,0.7165532728679769
1197,-0.0711933332064809,0.9334337287481402,0.30031777062190756,0.7560341622714533
1198,-0.0844189078132349,0.9591086099200499,0.5799864269668412,0.23831099925900073
1199,-0.29574057591479197,0.9672898879644471,0.594693067406035,-0.2974269948524288
1200,-0.6246461973681581,0.8191615542283618,0.3537685427540276,-0.9350277147577293
1201,-0.6259526127281587,0.8307421776123561,0.1759804911035429,-0.9829193651742609
1202,-0.3223505005373845,1.0753757062150604,-0.05229286809046593,0.29381277568016
1203,0.6572259575229675,1.45321520763714,-0.2029468367190022,1.5248060673094674
1204,1.2121260112030559,1.7508633947900156,-0.22712698548155996,1.7583205435255473
1205,1.0994825195340392,2.2360708662003277,-0.16155210063582026,1.0028972463274293
1206,-0.1488928249462314,2.2235940953035604,-0.174168855836452,-0.32669727366802054
1207,-1.2275749870626556,1.634413533086861,-0.13735903365407737,-1.562431493069275
1208,-1.2333160656977316,0.9208729827084332,-0.2573487137335614,-1.5704103822261337
1209,-0.06957566505181191,0.14810815257750912,-0.2453497457256128,-0.7438676761031201
1210,1.2488917854447124,-0.2633995703816881,-0.025368665579892785,0.022165879389387508
1211,1.4710155210758422,-0.2936436252042043,0.25656501436332557,0.8053936735746714
1212,0.9795616785978619,-0.1341696924326432,0.850640135487469,1.1111223938664265
1213,0.11076536434001753,-0.3174681075882728,1.0472106075446168,0.8927886211499383
1214,-0.10976721906834926,-0.6250602703428729,0.646878845837003,0.44048604272663255
1215,-0.08170873235812526,-0.7019465057030638,-0.21340298112581108,0.38813683340823507
1216,0.07700461982063274,-0.420596851196549,-0.909580197839671,0.3808714322309312
1217,-0.004323496628415427,0.04410242657534236,-1.2390510230369507,0.45352544400397055
1218,-0.03533319818295159,0.6591503645078044,-1.0416112122587364,0.3749754396132467
1219,0.1508857157230288,0.9292238695022732,-0.5480195290970972,0.5379714410123791
1220,0.13227403308315341,0.6456082264212963,-0.42824893169663086,0.5216718408724655
1221,0.011923481400352903,-0.0002684216945847001,-0.3556495369495454,0.2228458383073905
1222,-0.05249695930289782,-0.4614884403785524,-0.4406694276423029,-0.2661421658900036
1223,-0.041284863399474056,-0.6898325608266076,-0.4528633540358211,-0.7551301700873964
1224,0.2631250128507785,-0.7132439006112827,-0.36756620237560417,-1.0539561726524687
1225,0.5196244732134333,-0.679994278368856,-0.261000480343292,-1.0702557727923816
1226,0.4884544322937272,-0.9470803370434133,-0.14832757262123777,-0.9072597713932518
1227,-0.13802716623444056,-1.1256448949606626,-0.11437134861227702,-0.9000620222406877
1228,-0.6040057280526805,-1.3579597749901569,-0.11166122515847107,-1.0846512710975096
1229,-0.5865545469832352,-1.3548146645476395,-0.09508657132842298,-1.066192346211827
1230,0.12723374948176686,-1.0962905308305044,-0.02084256384519758,-0.7277787233076546
1231,0.7080054817797289,-0.783305775328787,0.08578157446686031,-0.17401097673719235
1232,0.5111268882724921,-0.5650227187386478,0.19807462396087017,0.37975676983326817
1233,-0.20001157774405579,-0.3685167274434571,0.09491933443330308,0.7181703927374375
1234,-1.0944278296622003,-0.1955748016872584,-0.2096333294869735,0.7366293176231193
1235,-1.5216150985886485,-0.06125354071331244,-0.5185493967011718,0.5520400687663004
1236,-1.4469628306707398,0.29762011563044477,-0.5525452918296943,0.5670313735674194
1237,-1.2509499033824891,0.5421704810532832,-0.17234297987112027,0.7066467080208808
1238,-1.3284091937369926,0.3998844175695384,0.45555889637065844,0.6926851745755344
1239,-1.3304171211900429,-0.1440803905180471,0.8032537915866973,0.43672372807752263
1240,-1.3469468253159955,-0.7092644192873645,0.5549298043139312,0.017877724717141157
1241,-1.360921960804422,-1.217732820075441,-0.0665068308926238,-0.4009682786432391
1242,-0.9605743989941677,-0.9351505957417793,-0.6203641009731337,-0.6569297251412485
1243,-0.2681591548767629,0.14583376031358114,-0.6022798303125583,-0.6708912585865944
1244,0.8853104048489799,1.00158013995657,-0.08850576728609438,-0.5312759241331353
1245,1.5318724939961146,1.0610383590152939,0.6940409102093232,-0.5783748709633298
1246,1.3084751364810367,0.399673243144665,0.9310327097388793,-0.5766933649262046
1247,0.48805822835720747,-0.596649594427939,0.5259468101722516,-0.5768615155299172
1248,-0.8477689352004696,-1.1729931689003041,-0.38342586514213456,-0.5460755150252405
1249,-0.9900612370087578,-0.815984207904127,-1.0519269042596218,-0.6412457731162005
1250,-0.4812099059212631,-0.07123594969938139,-1.1329394979120344,-0.6705712969716581
1251,0.10132440606770576,0.6305879813034514,-0.757965678750085,-0.4839317059680631
1252,-0.05043613828257899,0.9059044875282498,-0.2804211810597919,-0.12761855109326525
1253,-0.458660218032811,0.5587239965847208,-0.13584822034077268,0.18675852159129047
1254,-0.9435866659552355,-0.17825948661002605,-0.12486804794786016,0.9479125945577521
1255,-1.1074373167996336,-0.725655959191414,-0.23466977187698565,0.7054514041286175
1256,-0.561057065421299,-0.6937651237420752,-0.16155028852669,-0.30499302636406017
1257,-0.5701303533577032,-0.024352961582078555,-0.27110701464845194,-1.081026855914558
1258,-0.6301076677154809,0.6724214989950521,-0.26015134203627555,-1.4685675349478635
1259,-0.6907254584724758,0.8158048188602219,-0.05929734414637934,-0.8559029698096899
1260,-0.7629126001413135,0.5095597544411153,0.22887815712953313,0.4352772434763795
1261,-0.7103785131682978,-0.06611994794902583,0.6790323667629297,1.6753763990437611
1262,-0.7898585508034934,-0.49592260792276077,0.8677379615260122,0.8498175464066325
1263,-0.7217904012954441,-0.5211772283221116,0.6559729101466469,-0.4974558503341112
1264,-0.4630282128315433,-0.28730440246173783,0.20269318302119568,-1.5924541552452394
1265,0.14785709723969023,-0.12487854267345912,-0.1874272804778337,-1.6513989360259547
1266,0.5697801631623914,0.0013534740627337769,-0.4039292766291785,-0.36004707474206377
1267,0.479645406987558,0.04980678413624527,-0.3020676693524252,1.3637238951054318
1268,-0.16833115188681116,-0.034234292789884366,-0.0012239394277556853,2.072243464175561
1269,-0.5132934142246007,-0.12636561277030936,0.16644962833652935,1.2450078598525258
1270,-0.278001081185106,-0.18058069759423476,0.2782989977753104,-0.004352515976337446
1271,0.1216469579023664,-0.12067909117416065,0.24490597459449434,-0.8958070100044017
1272,0.42118484789099564,0.11053169836350701,0.11789946724907956,-1.0821050877972582
1273,0.2015742676444581,0.3708205671273605,0.07199522125395097,-0.6319914663906065
1274,-0.11560537975188606,0.4488509400026275,0.037825799789856555,-0.033759323490658244
1275,-0.22814347454260872,0.3458503686816513,0.03512092586938263,0.10311473009583963
1276,0.0025549319861038616,0.15743225163927063,0.0467497313295276,0.09573304678636427
1277,0.006161842987898795,-0.004795270133928768,0.023220606109506377,-0.04741215264443724
1278,0.010727810228725848,-0.03691509327208267,0.006893617438759694,-0.004543707487446152
1279,-0.0014731754442216267,-0.0026030442552861834,-0.0030839867489188067,0.0022718537437230618
1280,0.02041856128887117,0.004503593617878149,-0.007739781069333656,-0.03264221073046872
1281,0.0010316632316697202,0.003828054575196414,0.02750275700884655,-0.027745879120898317
1282,-0.05156185035326655,-0.00855682787396845,0.03289163792025214,0.0620202003878903
1283,-0.05871028662743513,-0.028822999154419986,-0.03680812370758586,0.20891014867499857
1284,-0.04589878255437644,-0.04908917043487145,-0.4158718261958987,0.31460499173348405
1285,0.19913569768935033,-0.06147405288403621,-0.7294508348686721,0.5279563869281387
1286,0.29367927015409256,-0.062149591926717915,-0.5996711338926094,0.520494186969122
1287,0.14512526861697797,-0.055394201499900805,-0.07700151413100906,0.2449577921159979
1288,-0.4406917213411489,-0.06487900865917424,0.8492836551773632,-0.10947704957636628
1289,-0.9044061121973953,-0.04317997760817096,1.3679237634832668,-0.4814756792653868
1290,-0.7914973587814744,-0.04534988071327133,1.1890658158310432,-0.7043207101285358
1291,-0.2671798688875232,-0.08513143764011058,0.5132450123794976,-0.7170520464865493
1292,-0.030510428551647872,-0.10402962008010228,-0.018137106099354355,-0.5954387285195316
1293,-0.4243470752115542,-0.3077234453721649,-0.30971806105757627,-0.6488705152782266
1294,-1.3460717070096966,-0.33364532908509814,-0.3269156333904013,-0.6992030291789021
1295,-1.443206778158156,-0.08172122326860144,-0.15493991006215063,-0.675231901780422
1296,0.08153423168240095,0.29363162087058303,-0.22957268094846436,-0.5573933675032333
1297,1.740482294783033,0.8885979569243327,-0.17765009161777304,-0.3880789170909462
1298,2.3893217772218027,1.1240510508472343,-0.18284235055084228,-0.23297804057451935
1299,1.8287891127493037,0.7961606157517725,-0.27803376432377613,-0.18040310107387184
1300,0.707332636274437,0.09967777319544949,-0.4260758468901866,-0.1885976100307814
1301,-0.06159040086945014,-0.41737478468283606,-0.6050206711592468,-0.18156962154260387
1302,0.12209409362412202,-0.7587224911291471,-0.6978943793044808,-0.08358299766000331
1303,0.19305411239115053,-0.7699860386385454,-0.6605953683964062,-0.0233695397564344
1304,-0.17726865681148862,-0.5715048327600484,-0.5391416102347537,-0.0715244688694118
1305,-0.44508357220459976,-0.6215691601974508,-0.47224799357625685,0.003802428004366837
1306,-0.6618055372205752,-0.6141917927081567,-0.4737666565484087,0.2579372268683391
1307,-0.666723514669322,-0.6137893908451043,-0.4670479576393804,0.7074056212660493
1308,-0.4909846950595714,-0.6178134094756284,-0.4095401370919937,1.5436460004246904
1309,-0.38826355781285465,-0.5349872950706615,-0.262344162260734,1.6645356261965034
1310,-0.25425986297749814,-0.7794416196550381,-0.15263583671799075,0.1691295029434036
1311,-0.1723687161336694,-0.7549961871966,-0.0697188126039036,-1.566276245046007
1312,-0.16790192630582418,-0.30682992545857773,-0.0243951190111504,-2.315342280826818
1313,-0.2125698245842761,0.33768029948630984,-0.00888112409873752,-1.677629763395234
1314,-0.16978024637439515,1.2747507909167297,0.061802457350054504,0.2769976777634091
1315,-0.2534810827255863,1.8848134142545234,0.21526041984251137,2.155867947545421
1316,-0.245110999090467,1.592801467424364,0.14749877425486466,2.131448447501563
1317,-0.09165946577995043,-0.3574437857240901,-0.17628085575128957,0.9772860179781793
1318,0.15944304327362144,-1.6036428863087306,-0.47657422598112154,-0.1487862008739149
1319,0.20713270598786723,-1.6595611231707628,-0.6648711331381325,-1.050753677901554
1320,0.9708227783163585,-0.2547183071935887,-0.30585988657502555,-1.2655490273290597
1321,0.9181690080496787,1.3974926697815406,0.5082998331261415,-0.9438660388347698
1322,-0.28430248316779705,4.491478416795616,1.098526071280095,-0.9772303960042353
1323,-2.0871178214379844,5.1232802134911894,0.9168099498739165,-1.4579077800342182
1324,-3.754564275701153,0.4997238101725529,0.01947840043244281,-2.138290323586119
1325,-5.363142418939655,-5.826385236624524,-0.6804228679353452,-2.735890485194882
1326,-5.375185524004228,-11.879430445612654,-0.7615000593017576,-2.7562840012776464
1327,-3.866966589637183,-11.281808554692663,0.713428916788769,-2.072283880961627
1328,-2.600956970859836,-1.1266323329638928,1.740956563547701,-0.9269194582747421
1329,-0.8758677337117509,11.803474994220272,1.5131163452179117,-0.7770697338662215
1330,-0.7448876544569492,15.516213764448718,-0.7140714341775839,-2.8900880848113912
1331,-0.6192068740102992,10.508155127738036,-2.795155260937694,-4.2011142490512166
1332,-0.05838471413461477,1.995412728703986,-2.8272852145356895,-3.0488470179346323
1333,3.4115513541346854,-6.7972193746193215,-0.7100149766760872,2.3508613716778846
1334,5.788731532776933,-8.300328439557441,1.9032652127935936,8.108845345142349
1335,5.221157939389005,-4.72258717678594,2.2362777207157487,8.584768891519515
1336,1.8237588250687744,-1.7848604411274294,0.6025822265103021,3.1142393319847983
1337,-2.1910266841348625,3.7969420954873403,-2.505782657567385,-4.835066419681438
1338,-6.4712998604154714,5.5401472328843715,-3.3088490804896695,-12.927593629387312
1339,-6.372936571644152,1.2704147194522117,-1.994506595472699,-12.688794178153964
1340,-1.7007177774004856,-8.23199722558475,1.0132856358209357,-4.428458797270991
1341,6.169059131308479,-18.877516059634594,3.2054977585226263,11.032539853572205
1342,14.510123147024672,-20.7055223791222,3.64066283605184,22.913873241301502
1343,14.316298120518729,-11.595599090062402,2.549464079329646,21.319650354196302
1344,5.689524199435599,7.706750277793825,1.118580795113128,6.7307660678382035
1345,-12.904052959467903,19.229131150634288,0.7424781646104673,-18.63673418704566
1346,-22.168762693881703,20.09207338955635,0.7115087853806111,-29.017189623621157
1347,-18.59068325929379,9.994968905626676,0.890040515067897,-22.146591884169325
1348,-4.728215108677437,-2.3323578601759696,1.046729786833177,-0.3568947582593449
1349,12.759724808628532,-8.486759657004914,1.4080781239568876,19.644541924910484
1350,20.149087580428798,-8.669433593688217,0.6466170840041541,25.643619684298613
1351,15.866572302983057,-3.2910814200780893,-1.134886913357974,16.43686172121181
1352,3.740824133372823,1.1085674033177526,-3.2485849086692062,-2.8284334380851615
1353,-4.8555058212607385,4.74886525810044,-7.183579529547521,-12.90316722918748
1354,-9.882001570297211,4.761229198605025,-7.519864306884461,-15.09347272311721
1355,-7.6588177113481235,1.4970081507528668,-0.6320037572618824,-6.793901745726087
1356,-0.2915220774552775,-4.103461837854524,6.9007526682150155,2.4047728531138737
1357,2.249068396561309,-6.6475207839437305,10.397871899272673,5.325098872451748
1358,2.5537976326168,-5.136544023222399,6.590855109457246,4.123553076142975
1359,-0.2566467601918011,0.29024100908834827,-2.9306252769663126,-0.1646817043250208
1360,-3.726453482063275,6.242442926418118,-12.230609160211614,-2.763146441479665
1361,-3.077638483451363,8.796864145109044,-10.90127429213064,-2.4219798071145977
1362,-0.31927949382281196,5.135707153441764,-2.9825816172399464,-0.03699791457515404
1363,2.935356802374736,-0.7747630036819082,5.613035137421596,2.0031871399549583
1364,3.7154843446458194,-2.842112242288783,12.014683745246762,3.2485287331709376
1365,2.598975049089008,-1.1204319384632346,13.218825786529642,2.3853230797238507
1366,0.11362321912024051,2.767309604722681,11.416008622195243,0.05301699749034486
1367,-1.6226281038170935,6.943782381871414,8.900507913042201,-2.0617380536779617
1368,-1.657607873139001,6.708070642779068,9.560171533881864,-2.00416377107609
1369,-0.4917430131958905,3.4860161027731853,9.55644142385775,-0.8168308331895824
1370,0.6946953271562413,-1.3685575332458737,8.326627074199546,-0.09640516514354103
1371,1.1383986676204598,-4.7513207566693545,5.5215259627551365,0.4665541516883105
1372,1.1615949505625218,-5.053106395241853,2.7437442903096247,0.6902075223655235
1373,0.920267933124993,0.21462236064623108,0.9572507498003098,1.014892917507085
1374,0.8387631103743403,4.843226212977521,0.7324884444046822,1.628430472501306
1375,0.8241154381095355,3.8644112267341555,1.5745388178153787,1.9874416102200898
1376,1.1371458283881486,-0.3936798102069219,1.3675653197510942,2.0026817233328744
1377,2.028772284140601,-8.716610433775106,1.546352706555889,1.7706715282206353
1378,2.4006377699956944,-11.067933277230082,0.9337388636525944,1.673202060949425
1379,1.8186485994787218,-6.948082289167944,0.9480012307527131,1.8089411101868158
1380,0.2057423410642581,1.4952552261964525,1.9265975366630248,1.7354262629689494
1381,-1.3874804772233342,10.70844262660248,4.551938617111993,1.3292263658449857
1382,-1.6006522574133966,14.086086649336972,6.265544178192472,0.7313623596477095
1383,-0.45827082541965136,8.843963828646732,5.341112958901191,-0.040491435954859614
1384,1.0219524882421283,-3.6616756741852545,1.9002454965567064,-0.4336420988734225
1385,1.658917022690545,-12.228367581599525,-2.1696475713928547,-0.3020526607768737
1386,1.3472002118689126,-14.119197009582866,-2.9607968274391108,0.298214456725947
1387,0.2612214769906985,-7.8795830041364106,-0.317296298220218,0.6079609268852839
1388,-0.6890572303927502,3.106398185515383,3.552639454813555,0.6067072785909335
1389,-1.2427518634356627,8.526630776319733,4.803512357870281,0.20397179213614278
1390,-1.3990014041033327,8.781023173494829,3.534043348686084,-0.6633643946764423
1391,-1.3909089994727777,3.2279983638748755,0.7032864133304689,-1.0590867015883785
1392,-1.2478338625123784,-2.7739681965113783,-2.081620740865538,-0.9516375115529537
1393,-1.2997648733490477,-4.821361448620258,-1.8365549594681023,-0.295335644477545
1394,-1.3052123504239117,-3.1525539506341183,0.9222363223827558,0.5584438064647951
1395,-1.3417498644242245,3.360427130975083,3.6696453648032796,1.1767555983547195
1396,-1.6224834714798908,6.928782933055413,4.1858797688924705,0.4959219550811796
1397,-1.4991642728494337,6.431985931853005,1.049024644177299,-0.6110863754061376
1398,-0.8500069198133109,1.8590322621941398,-3.1810662294366248,-1.0742371047039831
1399,0.05005926649684447,-5.716466496259773,-5.025408355539788,-0.8025437712508849
1400,1.0364906675820313,-7.692353967943846,-2.4309583389610543,0.24254921524537482
1401,1.4706554594819479,-5.372668163512122,1.2543906758339938,1.4491289765830606
1402,1.1655033021901793,-0.6561788670445772,3.3255678965448676,1.7117640830205314
1403,0.5235194994135464,1.586186817372195,2.684383411835523,1.0470417585588114
1404,0.17924195884870078,2.204909114563505,0.72554152856551,0.6009692976266274
1405,-0.08018719211652395,0.4161940620402853,-0.2569093268071937,0.12196215014259108
1406,-0.09433787307826338,-1.0352366086633649,-0.278954365238549,-0.09969451671444803
1407,0.047168936539131394,0.2705287776062004,0.08351568321733559,-0.07011447765019563
1408,0.007316488689213849,-0.04513198397720343,-0.06276453094695482,-0.03193560933486144
1409,0.08997614657096009,0.152080223257849,0.2921010527770942,0.15432461806647613
1410,-0.019779021926006363,0.2023983005011022,0.158461100983254,0.06978906649885122
1411,-0.29388747801761894,-0.1861522644540462,-0.3857885247652909,-0.20207605933628525
1412,-0.8816572242374242,-2.359654141461938,-3.4656703359474514,-1.7998498968888326
1413,-1.2312819322016892,-4.44882649492356,-5.423191570254742,-2.6099412989513517
1414,-1.1085719684294721,-3.66264758727042,-3.608389276064888,-1.6276578488401332
1415,-0.6822598948488315,-0.3274691212071619,0.5223859651722165,0.4096126464171448
1416,0.1445543864243043,6.3745943594827335,10.154504174325805,4.590570559785492
1417,0.37674843209375414,10.096374409839585,13.871826529815594,6.1139129313808835
1418,-0.1257204383183378,8.480737942408824,8.542732005213125,3.800630005320417
1419,-0.9067758172239666,2.9165471057854315,-1.9792565054695856,-0.7809394738420005
1420,-2.377584591958993,-2.0233588944925995,-15.598178235792858,-5.758863806973834
1421,-2.828321957683874,-4.637574117733418,-21.338841736306293,-8.1584570649076
1422,-1.6205822904795086,-4.791876734118578,-15.258787571100857,-6.419601119303359
1423,0.6056710642144176,-3.2488505702669723,-1.9422257392244742,-1.9691504371321453
1424,2.821044736131121,-3.4706237241322855,9.197031531747191,0.6421804030591531
1425,3.9730653958993516,-4.348330426387946,15.440383539020422,2.5189703368118703
1426,3.5330247806835917,-4.260559756162378,12.550971851623576,2.6213406968347455
1427,2.11842057686736,-2.651430802027006,3.747964305720197,1.5976370966059943
1428,1.6514350157617699,-0.018310695260041254,-0.3859106743712758,1.759656955057398
1429,1.339115309927998,2.332687812376966,-3.6255073042039814,2.2425587683407517
1430,1.4235836047500363,4.788181563902172,-3.8022125749221267,2.353021000626845
1431,1.6059024452572135,4.79131575438875,-2.0351598677406586,1.35091762487951
1432,1.2861321560652954,2.361940256918388,-2.6110832737403924,-0.5630966134955909
1433,1.0915954211475376,0.11541476550074264,-2.647505441847279,-2.6687085924398244
1434,0.8838037843497004,-2.2119157235667974,-2.565421923053886,-3.984748799434669
1435,0.9941198239382922,-4.398876228087434,-2.752754629200993,-4.826556594460915
1436,1.0230953796712812,-4.419983536895823,-2.5931545258092714,-4.256639110185013
1437,0.7421169419192273,-2.4089172724451107,-1.9725148865270488,-3.37886489759294
1438,0.26255793629966107,-0.785163743657259,-1.0941280021029598,-1.9727234228222505
1439,-0.20931491288772502,1.1207113842605296,-0.24714030117314828,-0.4140899496457316
1440,-0.49768165405779347,2.285412851321397,0.05137982346793102,0.18542294268700665
1441,-0.513410749030706,2.3489420222519897,0.09592436968858442,0.26344400161013115
1442,-0.35965470443555037,1.713650312946064,0.09543472648007167,0.31410660030342896
1443,-0.5073993620725228,1.7213775161542073,0.6024852532504019,1.1952317609715788
1444,-0.19070266422517756,2.3334876158357005,1.0227995469194449,2.5578098330818557
1445,-0.1360013029382644,2.27227660586755,1.2796582819394149,3.0471506614845913
1446,-1.0107467963230887,1.1864985295254207,1.2936687583950495,2.2536904172634453
