,TP9,AF7,AF8,TP10
0,-1.0227321491041453e-10,-8.167832118749887e-11,-1.226110203792146e-10,-1.196705457487851e-10
1,-2.1064620223311245e-09,-1.7237501652092889e-09,-2.660980621745897e-09,-2.5236983916210175e-09
2,-2.319324723132287e-08,-1.9232858189737056e-08,-2.936392571150147e-08,-2.7939838130697775e-08
3,-1.6881676947242734e-07,-1.4183168015484196e-07,-2.1422031071280857e-07,-2.0432844640363707e-07
4,-9.218948270916927e-07,-7.836948305618567e-07,-1.1694925936974972e-06,-1.1207320278361021e-06
5,-4.04287467008311e-06,-3.4721133718970563e-06,-5.113457222097091e-06,-4.932485871125004e-06
6,-1.4885920617063394e-05,-1.2892761111736661e-05,-1.8718102788202557e-05,-1.820287406162706e-05
7,-4.7499138469398586e-05,-4.140880504179511e-05,-5.920459789780076e-05,-5.811553128171592e-05
8,-0.00013449985992825583,-0.00011779861191646922,-0.00016570749790639425,-0.00016432524678221166
9,-0.00034425499653174265,-0.0003023808541757299,-0.00041815444988133093,-0.00041911119304983936
10,-0.0008081806724965773,-0.0007109003159286837,-0.0009657604877351626,-0.0009784752589343706
11,-0.0017608746490449276,-0.0015494855961553458,-0.0020667487171994923,-0.0021163556933937646
12,-0.003595245874493772,-0.0031626528732889045,-0.004140193640383136,-0.00428328550203443
13,-0.0069338719828860645,-0.006095732599110734,-0.007830054940916665,-0.008179773276533239
14,-0.012716628666619871,-0.011172233635863019,-0.014080572460418427,-0.014843529637871139
15,-0.022303315012285913,-0.01958552461313347,-0.024221217469667062,-0.025748442837259217
16,-0.03758853272464457,-0.033002784652196894,-0.040058300962339304,-0.04291186078878104
17,-0.06112436246023827,-0.05367745673550957,-0.06396910985098242,-0.06900519106105109
18,-0.09624433498645159,-0.08456446356649368,-0.09899308866036646,-0.10746104957803371
19,-0.14717991413931591,-0.12943034619268223,-0.14891317320411035,-0.16256826661348844
20,-0.2191584659182269,-0.19294849342859752,-0.21831903855058832,-0.23954422241309542
21,-0.3184698318917927,-0.28076805608049804,-0.3126429385214608,-0.3445725664594218
22,-0.45248748198098876,-0.399544294060686,-0.438158241254855,-0.4847937567726036
23,-0.629630052899562,-0.5569181795301368,-0.601930970534383,-0.6682363675031341
24,-0.8592501358651362,-0.7614341214053758,-0.8117158814517241,-0.903678982869049
25,-1.1514396646449696,-1.0223866174152876,-1.0757909531814736,-1.2004357600010553
26,-1.516745276799561,-1.3495894294408453,-1.4027276292478732,-1.5680632546941995
27,-1.9657924694541244,-1.753064542037955,-1.801098424216843,-2.015991518557523
28,-2.508823933393708,-2.242652785154065,-2.279128232365089,-2.553088351569317
29,-3.155164631713117,-2.8275535624835566,-2.8443003375142695,-3.1871714556995734
30,-3.9126333966671423,-3.5158073862479076,-3.502932323334664,-3.9244886654130564
31,-4.78692742180038,-4.313741350217954,-4.259740567474873,-4.7691910910149735
32,-5.781011437435172,-5.225403552592875,-5.117414669522618,-5.722827607464919
33,-6.894547139330679,-6.2520170666723835,-6.076224988416264,-6.783891396076208
34,-8.123400318214848,-7.391486771693188,-7.133687372675515,-7.947449928640831
35,-9.459262967854,-8.63799291299545,-8.28430896919274,-9.204888633141875
36,-10.889425280739331,-9.981703641438104,-9.519437400722992,-10.543795291727545
37,-12.396727696157262,-11.408635150124152,-10.827232337321409,-11.948006906769866
38,-13.959715895491653,-12.900682582340961,-12.192773429026518,-13.397833381071083
39,-15.553011910705667,-14.435837813403142,-13.598311858414924,-14.870463166864075
40,-17.14790270161973,-15.988601676239076,-15.023664826816828,-16.34054553833123
41,-18.71313438378978,-17.530588445729713,-16.446743743816675,-17.78093306121354
42,-20.21588671529872,-19.031309793598854,-17.844198478883133,-19.163557051242787
43,-21.622889581637452,-20.459114531386888,-19.192152452666605,-20.460399255412646
44,-22.90163219122183,-21.782249983839304,-20.46699715398815,-21.644515503222678
45,-24.021607517954067,-22.970001578592118,-21.646210236008113,-22.691062277982216
46,-24.955529950983077,-23.993860005619474,-22.709158887608,-23.578275393889424
47,-25.68046349802284,-24.828660784063988,-23.63784979824027,-24.28835125964816
48,-26.178801242961676,-25.453639773786996,-24.417588784447272,-24.808185368014477
49,-26.439043780086415,-25.85335029797377,-25.037516990973504,-25.129929317775957
50,-26.456334534973752,-26.01839302017513,-25.49099637868507,-25.251336449199616
51,-26.232722547422302,-25.94591817350596,-25.775824666847935,-25.175876606173045
52,-25.777137618818745,-25.639870602218416,-25.89426856776313,-24.912612141505402
53,-25.10507781926201,-25.110960650006337,-25.852913481823762,-24.475839471470646
54,-24.2380243356034,-24.37635747882109,-25.66233721285112,-23.88451258027723
55,-23.202612715283518,-23.459115168032515,-25.336624141352992,-23.161476122556355
56,-22.029601957116046,-22.387355174463412,-24.892744143947017,-22.332545408946064
57,-20.752692888517128,-21.19324072144276,-24.349826951839685,-21.425477934083936
58,-19.407254169615765,-19.911788817637692,-23.728367265826407,-20.468885739755393
59,-18.0290175816092,-18.579573418841136,-23.04939855970827,-19.49113958056228
60,-16.652803769010124,-17.233378402925343,-22.333673993596648,-18.519314615238343
61,-15.31133541831164,-15.90886128667032,-21.600891251130427,-17.57822345922253
62,-14.034187382374334,-14.63928779047211,-20.86899458517576,-16.689576345921594
63,-12.846913189970717,-13.454393354574188,-20.15358220453464,-15.871300387905839
64,-7.532143888649734e-11,-8.430550059966862e-11,-2.918749102383669e-10,-1.0077856046671012e-10
65,-1.603308672593265e-09,-1.455876356837246e-09,-1.4317695588975825e-09,-1.737012217436509e-09
66,-1.847729369488904e-08,-1.6585687102401962e-08,-2.014483670939843e-08,-1.9809238908467935e-08
67,-1.3997945792382025e-07,-1.2315141492643647e-07,-1.4906383506686963e-07,-1.4707301885912582e-07
68,-7.935399159181585e-07,-6.868400493192888e-07,-8.376473140977648e-07,-8.20505105673507e-07
69,-3.599699834242733e-06,-3.0744770760658532e-06,-3.773720283281712e-06,-3.6754755580159317e-06
70,-1.3651883981654242e-05,-1.1540602419189162e-05,-1.42324965866539e-05,-1.3811645677581514e-05
71,-4.465806058786251e-05,-3.7477546633799085e-05,-4.638787763902699e-05,-4.491228083729123e-05
72,-0.00012900587291751034,-0.00010778076743754204,-0.00013373911194888597,-0.00012934211068578954
73,-0.0003352468969007903,-0.0002795523294297641,-0.00034738807568848246,-0.00033590608753624146
74,-0.0007955640448825782,-0.0006635732391221342,-0.0008250056555131187,-0.0007981580704991658
75,-0.0017454613972727444,-0.0014588375616687128,-0.0018130790557301878,-0.0017559219556097648
76,-0.0035772730314812843,-0.002999912516498822,-0.0037242266935792463,-0.003612037980832605
77,-0.006908238490107725,-0.005818027754435658,-0.007210371044746389,-0.007005424497672109
78,-0.01266287538701342,-0.010715658254415433,-0.013251256804671822,-0.012900439930387725
79,-0.02216819387776271,-0.018853048229414852,-0.02325648374818829,-0.02269128500480301
80,-0.03725892018958366,-0.03184367201507177,-0.0391776061914474,-0.0383186951504263
81,-0.060388330086747086,-0.05185408420349638,-0.0636250973688371,-0.06239434455770041
82,-0.09473852095279206,-0.08170199288884955,-0.09998287067675433,-0.09832614314030988
83,-0.14432198180568978,-0.12494473576850189,-0.15251083497867332,-0.15043506262887554
84,-0.21406426491797584,-0.18594877993424982,-0.22642387986080081,-0.22405155272006816
85,-0.3098557283588277,-0.2699295817276339,-0.3279340132983272,-0.3255774240775293
86,-0.4385591997805451,-0.38295042296329834,-0.4642417207900558,-0.46249779835319704
87,-0.6079604985640781,-0.5318689691553093,-0.6434631072349666,-0.6433277628388587
88,-0.8266503540534891,-0.72422157586936,-0.8744814763821701,-0.877479985440629
89,-1.1038293557375267,-0.9680379651164457,-1.1667154755566342,-1.17504272054338
90,-1.4490319001378569,-1.271582838547204,-1.5298008656888886,-1.5464621980150315
91,-1.8717702467877144,-1.6430260687027984,-1.9731888424763946,-2.0021290363285296
92,-2.3811053713628687,-2.0900489319254585,-2.5056704650059087,-2.551874819477336
93,-2.9851569961992115,-2.6193998870004256,-3.134843597104086,-3.2043920921300773
94,-3.690570786006893,-3.236419133225074,-3.866545412908384,-3.9665985072109864
95,-4.5019660691231564,-3.944556149282824,-4.704279602888755,-4.8429733275540405
96,-5.421392350253484,-4.744908235324554,-5.648672261065272,-5.834901337071309
97,-6.447826912238599,-5.635810466520565,-6.6969937658975995,-6.940064737431999
98,-7.5767483361665775,-6.612508116360369,-7.8427850372060215,-8.151926986210986
99,-8.799821129311592,-7.6669412889419535,-9.075625142073976,-9.459353132137888
100,-10.104724318653297,-8.787668006462901,-10.381072766247497,-10.846408579373744
101,-11.475151682082103,-9.959946294833312,-11.740806712150976,-12.292372270435765
102,-12.89100344218222,-11.165988002671995,-13.13298030277156,-13.771991154829724
103,-14.328779229072605,-12.385387533483005,-14.532792153908233,-15.25599092799033
104,-15.762170583982954,-13.59571789467901,-15.913261873578929,-16.71184394674457
105,-17.16283900691894,-14.773275195801135,-17.246185018949607,-18.104779714393178
106,-18.501353397348726,-15.893941786988808,-18.50322814221729,-19.399007277132956
107,-19.7482495308097,-16.934128478488095,-19.657112888854982,-20.559103296168953
108,-20.875164695857002,-17.871748577951113,-20.682828942787634,-21.551505567306897
109,-21.855993361865636,-18.687171538689746,-21.558809636909775,-22.34604041091152
110,-22.66800523758882,-19.364102399100886,-22.268002079935123,-22.917404666528114
111,-23.292865712481696,-19.89033518593296,-22.7987658472949,-23.24651979432269
112,-23.717500784555458,-20.2583340629084,-23.145541046453914,-23.32167739732066
113,-23.93475432668002,-20.465604893713873,-23.309237503944424,-23.1394025316614
114,-23.943794847533958,-20.514831488772668,-23.29731166827304,-22.70497331378204
115,-23.75024137679617,-20.413764313650155,-23.123515474385634,-22.032551948702228
116,-23.365993082558994,-20.174863960131468,-22.80732090113618,-21.144902445478074
117,-22.808763756968705,-19.814716242571333,-22.373043776812267,-20.072692681447403
118,-22.101339203280453,-19.3532494225964,-21.848709137153428,-18.853401696734547
119,-21.270591555317573,-18.81279588864138,-21.264716849798145,-17.5298756878361
120,-20.3462984961164,-18.217049805456323,-20.65237889906383,-16.14859671502072
121,-19.359826349313696,-17.589978173348893,-20.04240798027682,-14.757745420684332
122,-18.342743534208736,-16.954744948978473,-19.463440117829023,-13.405151983023558
123,-17.32543461606994,-16.33270623892439,-18.940671858997465,-12.136237252794857
124,-16.33578506038824,-15.742529247414584,-18.494685352903165,-10.992047955838025
125,-15.398002926130422,-15.199479113172332,-18.140522846473093,-10.007485789052232
126,-14.531636406234382,-14.714906713609276,-17.887056685193727,-9.209820422170942
127,-13.750835767491925,-14.295957785281912,-17.736682921546915,-8.617561472276442
128,-6.598111458339205e-11,-1.0498929490489318e-10,-9.292301223095873e-11,-7.602139221236455e-11
129,-8.45481634248328e-10,-2.249227122643203e-09,-2.0128495914847228e-09,-1.5578511112500338e-09
130,-9.620352433287167e-09,-2.4931628123815936e-08,-2.2471874874671487e-08,-1.7477460009054193e-08
131,-7.002058102595524e-08,-1.8273187732244813e-07,-1.6580664429409683e-07,-1.2880931485454012e-07
132,-3.860524545586392e-07,-1.0041658311512747e-06,-9.163600263432956e-07,-7.111713033459794e-07
133,-1.7203540011526667e-06,-4.42754550858835e-06,-4.059339543683275e-06,-3.1467552783937838e-06
134,-6.481301737459339e-06,-1.6371445812373318e-05,-1.5064913734825345e-05,-1.1663477761150711e-05
135,-2.128891456914595e-05,-5.238580211794242e-05,-4.8333967461091524e-05,-3.7372033566281936e-05
136,-6.234804179058487e-05,-0.00014851800668566064,-0.000137272430504099,-0.00010599696001712467
137,-0.0001655643064276002,-0.0003799888920936837,-0.0003515548168139673,-0.0002710794476240886
138,-0.000403835477801894,-0.0008903999850870891,-0.0008240088226406004,-0.000634443247335132
139,-0.0009141211548505452,-0.0019339213739311802,-0.001789262164009066,-0.0013754319567157438
140,-0.001936553290570953,-0.003932264154245055,-0.0036356926933758015,-0.0027898868082482592
141,-0.0038670266029268516,-0.007547315579121641,-0.006971420453360107,-0.0053391432923560085
142,-0.007323537021996775,-0.013769185630329398,-0.012704151162691673,-0.009708555080285777
143,-0.013225251059208317,-0.024018118761751674,-0.02213364332130723,-0.016874236167199505
144,-0.022881982233395815,-0.04025723680650149,-0.03705437410703948,-0.02817580529699033
145,-0.038090430603992004,-0.06511136569778371,-0.05986456537883922,-0.045391879353823605
146,-0.06123209348454734,-0.10198526267121347,-0.0936760825962993,-0.07081389490026095
147,-0.09536612886943632,-0.15517251056643175,-0.1424179140851663,-0.10731261589219145
148,-0.14430868717752227,-0.2299443990637129,-0.2109241447014044,-0.15839056762355147
149,-0.21268849899633904,-0.3326065636966673,-0.3049957919808046,-0.22821280112097284
150,-0.3059671848970894,-0.47051031977400287,-0.43142484631892,-0.3216080440289181
151,-0.43041227256542686,-0.6520057745400417,-0.5979686080301142,-0.4440326097886961
152,-0.5930117288501271,-0.8863251275714907,-0.8132631658983045,-0.6014905691029759
153,-0.801321147834123,-1.1833871834630036,-1.086666740039373,-0.8004056860317402
154,-1.0632385367131647,-1.5535180241037392,-1.4280266286334866,-1.0474434280576141
155,-1.3867065638807967,-2.0070879007912676,-1.8473675290698615,-1.3492847696568167
156,-1.7793477867683913,-2.5540704342195117,-2.354503835552448,-1.712357243024612
157,-2.2480443606696885,-3.2035367118708855,-2.9585838714895685,-2.1425324333754583
158,-2.798479684136692,-3.963103313365548,-3.6675795917669443,-2.6448025900061514
159,-3.434664955394134,-4.838359137007328,-4.487740760039562,-3.2229519913217715
160,-4.158478170207553,-5.832300667059341,-5.423037623443169,-3.8792409334209927
161,-4.969246182522263,-6.944808632651656,-6.474620343858772,-4.614121494549957
162,-5.863401612427509,-8.172200549415399,-7.640326585804674,-5.426004346569158
163,-6.834245365956571,-9.506893150319303,-8.91427039338333,-6.311094703520258
164,-7.8718421728860095,-10.937205999482046,-10.28654544566854,-7.263312971538908
165,-8.963070890567554,-12.447332555925506,-11.743073581548371,-8.274311889261519
166,-10.091843512850133,-14.017497677688896,-13.26562484606769,-9.333597102855325
167,-11.239497250878365,-15.624311299047205,-14.832028226294572,-10.428752470776647
168,-12.385353221228547,-17.24131722497821,-16.4165830604636,-11.545765242129956
169,-13.50742383805191,-18.839724292730125,-17.99067045818137,-12.669439966350032
170,-14.583239693480863,-20.389295310057506,-19.523552687734472,-13.783883991869102
171,-15.59075638340429,-21.85935805273735,-20.98333702028387,-14.873042161208362
172,-16.509293411002474,-23.219893098223153,-22.33806948890317,-15.921254283306899
173,-17.320451940084393,-24.442646234193095,-23.55691390396603,-16.9138065499946
174,-18.008956555943467,-25.50220930162133,-24.6113628586029,-17.837447539431754
175,-18.56336864435229,-26.377013027168974,-25.476421117985655,-18.680840913555304
176,-18.976625443662115,-27.05017877694381,-26.131698577068228,-19.43493031322028
177,-19.24636874972478,-27.51018300500197,-26.56235064688875,-20.093197033301713
178,-19.375039900155205,-27.751298002292373,-26.75980892783103,-20.651797412680896
179,-19.3697320304977,-27.773784696189182,-26.72225429160836,-21.10957394726181
180,-19.24180559398013,-27.583826910801783,-26.454797449401507,-21.467941333291662
181,-19.006287722702385,-27.193210795335894,-25.969347740412555,-21.730655442681467
182,-18.68108922428955,-26.618767158951513,-25.284168064568036,-21.90347921646278
183,-18.28608406944304,-25.881607342192698,-24.423131467183882,-21.99376439282221
184,-17.842104393921765,-25.006194216264483,-23.414711871769228,-22.009971710101826
185,-17.36990876135309,-24.019298292105404,-22.290756984071255,-21.9611546845945
186,-16.889182364414612,-22.94889426230498,-21.085104637427296,-21.85643325380639
187,-16.41762501095064,-21.823055301526892,-19.832114020122773,-21.704483565517766
188,-15.970176461166918,-20.668901015589217,-18.565189563178222,-21.513069063648647
189,-15.55841946077519,-19.511650171218765,-17.31537712791226,-21.288635844172898
190,-15.19018928919754,-18.373821610054726,-16.110109075777917,-21.035992100704803
191,-14.869405617392339,-17.274616644704007,-14.972166688193285,-20.75808749023876
192,-2.9401791994367523e-10,-1.6080522515197636e-10,-1.2558680315414017e-12,-2.2356375569765476e-10
193,-6.450595927600401e-09,-3.4298788475128236e-09,-4.59360071555957e-11,-4.864894832742638e-09
194,-7.268137748006465e-08,-3.846454426845343e-08,-1.0793496333428592e-09,-5.4441909083967984e-08
195,-5.416172787193164e-07,-2.8575531341174936e-07,-1.1825737041258905e-08,-4.03258362522245e-07
196,-3.023345749746214e-06,-1.5931396278689138e-06,-8.598701925641861e-08,-2.2396391195791235e-06
197,-1.3525302458214707e-05,-7.131331414367098e-06,-4.6707705972717127e-07,-9.978517612248326e-06
198,-5.06727865573174e-05,-2.6780926995320204e-05,-2.0268817640751284e-06,-3.726829035425899e-05
199,-0.00016403746041985064,-8.704197686629248e-05,-7.338364613010219e-06,-0.00012037455354412206
200,-0.0004697450795884559,-0.00025060861685107275,-2.2856040258374182e-05,-0.00034419831711461656
201,-0.0012120735986018462,-0.0006508915326992553,-6.266652242795391e-05,-0.0008873492659940761
202,-0.002860085652870543,-0.0015473105758688822,-0.00015401949429588564,-0.0020929651766438194
203,-0.006247285031937112,-0.003406893070840868,-0.00034437743267082466,-0.004571181167368414
204,-0.01276005096549091,-0.007016593566918416,-0.000709198228042563,-0.009337450873868263
205,-0.024577607509988136,-0.013629002365305579,-0.0013592938553447277,-0.01798865240467812
206,-0.04496283305260695,-0.025141976108464012,-0.0024464624189897374,-0.03291635267247697
207,-0.07859938174566752,-0.044310360860369095,-0.004166018618362186,-0.05755383248893537
208,-0.13196617230078267,-0.0749853329914135,-0.006754584405643829,-0.09665031322194419
209,-0.21373500943140775,-0.12237375858136516,-0.010480907307844501,-0.15656200705833026
210,-0.33517073668219444,-0.1933061477448948,-0.015626717975522775,-0.24554495412705524
211,-0.510506052952472,-0.2964972404065441,-0.02245417290190621,-0.3740292431106154
212,-0.7572556575277327,-0.4427783200666744,-0.031156762445288175,-0.5548486681419098
213,-1.096427903275648,-0.6452756690303737,-0.041791978197330854,-0.8033950317674745
214,-1.5525880434924766,-0.9195060321927729,-0.05419641472287319,-1.1376631994613826
215,-2.1537266683341434,-1.2833584172430101,-0.06788684266873678,-1.578152550591721
216,-2.9308908254066246,-1.7569327197086266,-0.08195348385056543,-2.1475932583934307
217,-3.9175438281967168,-2.3622098651174555,-0.09495373134476329,-2.87047205708215
218,-5.148632648530016,-3.1225353804960747,-0.10481574968598018,-3.7723416633422917
219,-6.659358427386761,-4.061908145497016,-0.10876201672029316,-4.878910343382455
220,-8.483665092998407,-5.204077900984671,-0.103263317225398,-6.2149225682389675
221,-10.652482172300587,-6.5714681657790575,-0.0840341397740551,-7.802857398991125
222,-13.191779347680743,-8.18395480025669,-0.046080612159217056,-9.661487216980317
223,-16.120510868436753,-10.05754387708017,0.016188529121271337,-11.804354684326091
224,-19.44854629011824,-12.203005086853441,0.10877949749760708,-14.238239438994727
225,-23.174698870169383,-14.62452786952656,0.23785490941270512,-16.96169708149139
226,-27.284972869624188,-17.31847591422281,0.4093999781255328,-19.963760515445706
227,-31.751154592190225,-20.27232059529799,0.628820989420016,-23.222896639479558
228,-36.52986798232478,-23.463834271424,0.9004907763116244,-26.70630875081552
229,-41.56220316737948,-26.860619335311963,1.227262713434516,-30.369666072360392
230,-46.77400518021699,-30.42003801805343,1.6099803726881425,-34.157326266979794
231,-52.07688071014103,-34.089591349923516,2.0470138124308495,-38.003095020921165
232,-57.36994439434907,-37.807774074192125,2.5338552023694363,-41.83153977875846
233,-62.542285020805465,-41.50540698315694,3.0628060995064974,-45.559844097451276
234,-67.4760888306081,-45.107420766927035,3.6227863315203663,-49.100156848694155
235,-72.05031493170671,-48.53503792669372,4.199290259110347,-52.362358817672785
236,-76.14477967716189,-51.70827350202299,4.774510231073721,-55.25714032656564
237,-79.64447542689061,-54.54865304376676,5.327639335425095,-57.699259402270464
238,-82.44392671986598,-56.982028946538605,5.835356230671609,-59.6108325145621
239,-84.45137528910239,-58.94136514758739,6.272484350155944,-60.92450043138358
240,-85.59258564717554,-60.36935620086602,6.6128068678832195,-61.5863111860756
241,-85.81407542502767,-61.22075034749157,6.830008428107326,-61.55817083120422
242,-85.0855987615352,-61.46425749701394,6.8987056382119984,-60.81973026701548
243,-83.40174559161278,-61.083941558821714,6.795521326329083,-59.36960206771846
244,-80.78256286189753,-60.080021372148465,6.500152946314446,-57.2258334748582
245,-77.27315312074626,-58.46903414263059,5.996383498544128,-54.42559874001749
246,-72.94225869927537,-56.283348013006346,5.272984106158573,-51.02411366175988
247,-67.8798925692821,-53.57004413883211,4.324461070629629,-47.092815180277626
248,-62.194126606780316,-50.38922129564987,3.151606808511853,-42.71688693485234
249,-56.00719129180848,-46.81180557685441,1.7618232389745916,-37.992245487288095
250,-49.45107513351326,-42.916972320167176,0.16919730138863898,-33.02212937106303
251,-42.6628352253614,-38.78930553444909,-1.6056796077473583,-27.913452478587676
252,-35.77984095429249,-34.515830725081265,-3.5361444229864314,-22.773093277745502
253,-28.93517057058036,-30.183059599533546,-5.590132447802889,-17.704291359684802
254,-22.25336560771961,-25.874179725061744,-7.73106004745981,-12.803313049250296
255,-15.846722431659797,-21.666509444381596,-9.918887442834597,-8.156529204383991
256,-4.039481976168313e-11,-9.476753470689926e-11,-1.7589602823541745e-10,-1.0751836133531703e-10
257,-7.817629207054579e-10,-1.9709651927392274e-09,-3.814206208242921e-09,-2.232121752816002e-09
258,-8.678858304415173e-09,-2.209354885226415e-08,-4.216160728810293e-08,-2.4698824250748006e-08
259,-6.367554434595542e-08,-1.6328227145783618e-07,-3.085871639336859e-07,-1.8028772963276e-07
260,-3.525776601266894e-07,-9.056583375768957e-07,-1.6894042455615383e-06,-9.875371041552868e-07
261,-1.5765819323929093e-06,-4.032685166227371e-06,-7.404652288338203e-06,-4.342836001036299e-06
262,-5.949105789620499e-06,-1.5063194045062832e-05,-2.715157348983502e-05,-1.6024052196037583e-05
263,-1.9532740618363972e-05,-4.869167264084275e-05,-8.593890089749354e-05,-5.118259532615426e-05
264,-5.7063656522360414e-05,-0.00013941833677141998,-0.0002403930765638494,-0.0001448709932013264
265,-0.00015087224758260137,-0.0003600679758501412,-0.0006053691655566508,-0.00037005260513469187
266,-0.00036583904677555247,-0.0008510328807866671,-0.0013930479446955012,-0.0008655785451577137
267,-0.0008223890964022969,-0.0018627282737853994,-0.002965499437899538,-0.0018762626296549491
268,-0.0017292703713738234,-0.003812947417357544,-0.0059003178787997105,-0.003806522851223748
269,-0.0034273551120539854,-0.0073597067881338175,-0.01106775227389781,-0.0072882436378582625
270,-0.006445054008355869,-0.013488932652864698,-0.0197169185497278,-0.013262614866271609
271,-0.011565187891557199,-0.023615050219816122,-0.033568029708685235,-0.023074669529009655
272,-0.01990224289495803,-0.039691160151543274,-0.054906780438908294,-0.03857791229446211
273,-0.032987751490086634,-0.0643239515457307,-0.0866757639370387,-0.06224471247424007
274,-0.05286009726221267,-0.10088675211987524,-0.13255601338159131,-0.09727608521078811
275,-0.0821534894199048,-0.15362222718585358,-0.19702973933655302,-0.14770235416395192
276,-0.12417940705829222,-0.2277244112412735,-0.2854136424213473,-0.2184643057812674
277,-0.18299265219219743,-0.32938829524547125,-0.40385142851104994,-0.3154631059196439
278,-0.26343341203044796,-0.4658144634763735,-0.5592547544616532,-0.4455666876710902
279,-0.37113653985160044,-0.6451566044999518,-0.759183849925602,-0.6165607003185821
280,-0.5124997735767649,-0.8764013699882495,-1.0116622547126857,-0.8370335961880192
281,-0.6946039453600388,-1.169173114780094,-1.324924048243197,-1.1161881311925335
282,-0.9250804510723967,-1.5334604411741688,-1.7070961920930507,-1.4635754890270973
283,-1.2119242828324874,-1.979266893697432,-2.165822851553203,-1.8887532428235156
284,-1.5632546159102403,-2.5161941699771044,-2.7078427078538807,-2.4008741017485176
285,-1.9870290067651606,-3.152972300916766,-3.3385343620778065,-3.0082183606390953
286,-2.49072134044862,-3.8969568987824936,-4.061448960810034,-3.7176886568619603
287,-3.080977364949232,-4.753618340714863,-4.877852920094616,-4.534290594829238
288,-3.7632646066610955,-5.726051288909413,-5.786306580929328,-5.460626690158206
289,-4.541535436257661,-6.8145349714044325,-6.782306174367042,-6.496433683465394
290,-5.417922909784289,-8.016174906372886,-7.858016111723286,-7.638194344250797
291,-6.39248866019441,-9.324655048491689,-9.0021162134871,-8.878854175515803
292,-7.463040447098513,-10.730125508677526,-10.199784301089588,-10.20767065556896
293,-8.625033896184412,-12.219245016739556,-11.432829091759075,-11.61021763369103
294,-9.871568488060205,-13.775389285833326,-12.67998200048271,-13.068560239676515
295,-11.193482211841436,-15.379026769795564,-13.917349487735194,-14.56160649690558
296,-12.57954288535859,-17.008252573652765,-15.11902001344099,-16.065631347936314
297,-14.016727492701309,-18.639460288314105,-16.257811511809432,-17.5549578377648
298,-15.490574596249111,-20.24812118751275,-17.30613687981288,-19.002769658597046
299,-16.98558957873418,-21.809631474509466,-18.23695689163149,-20.382020010287604
300,-18.48567877477572,-23.30018194475271,-19.02478305149672,-21.666394527292216
301,-19.974586897760844,-24.6976011840316,-19.646687981384524,-22.83128141067792
302,-21.436312706529286,-25.982123654461493,-20.083278541004947,-23.854700214125224
303,-22.855480417649638,-27.13703781510723,-20.319587098267654,-24.718142049086037
304,-24.21764860134384,-28.149176566285497,-20.345838947497892,-25.40727819697472
305,-25.509543783806375,-29.009222281414104,-20.158058348086453,-25.91250095771331
306,-26.719212307098914,-29.71181078183235,-19.75848159298151,-26.229269602476762
307,-27.836090731576153,-30.25543194755349,-19.15575261501568,-26.35824495124729
308,-28.851001714113856,-30.642138290035298,-18.364884769712134,-26.30520767600589
309,-29.756088317628652,-30.877085747925207,-17.40698151421442,-26.08076716303558
310,-30.54470453696739,-30.96794220031975,-16.30871856162081,-25.699878866791114
311,-31.211282930566966,-30.924207822785757,-15.101600342056072,-25.18119780930067
312,-31.751201181141813,-30.756496711812172,-13.821013685391895,-24.546303559742583
313,-32.160667951024124,-30.47583074902685,-12.505110956250233,-23.818837176040482
314,-32.43664464439863,-30.092994354756936,-11.193562901388757,-23.023592918244503
315,-32.57681408872086,-29.617992807366893,-9.926227820042657,-22.185607045429798
316,-32.579600386937415,-29.059647659141294,-8.7417880288338,-21.32928292474024
317,-32.4442370402269,-28.42535116397366,-7.676406720742897,-20.4775864550412
318,-32.170873645182816,-27.720988435162386,-6.762458062111789,-19.651339017148377
319,-31.760705731075046,-26.951022314283517,-6.027380727587715,-18.868627475800235
320,-1.5330061409272042e-10,-9.460258503226697e-11,-1.2007522580439674e-10,-9.38841891884121e-11
321,-3.2247907069531762e-09,-1.9273643152125827e-09,-2.5303661359284206e-09,-2.0030664114990772e-09
322,-3.5743214050157215e-08,-2.1360354478512898e-08,-2.8053268576808075e-08,-2.2235925020694342e-08
323,-2.6119936931250256e-07,-1.562460408683066e-07,-2.0511630110804435e-07,-1.6343758126689926e-07
324,-1.4292320982861332e-06,-8.569157482146558e-07,-1.123554044728615e-06,-9.007410861998316e-07
325,-6.265137946651203e-06,-3.7704435508101787e-06,-4.9344470571810055e-06,-3.983293186656323e-06
326,-2.2995977069919187e-05,-1.391295177606648e-05,-1.8164369020832894e-05,-1.4772828054056992e-05
327,-7.29390051782287e-05,-4.4434113733984445e-05,-5.7844276484056025e-05,-4.741085440227255e-05
328,-0.00020473896979205077,-0.0001257711023200661,-0.00016317486631071208,-0.0001348030744529058
329,-0.0005182220890023815,-0.0003214089048388976,-0.0004153465243961563,-0.0003458594985420075
330,-0.0012008320737031922,-0.0007526499663953979,-0.0009680950836236196,-0.000812574982284672
331,-0.0025792832462622406,-0.001634706789232247,-0.002091012583660512,-0.0017693168926957554
332,-0.005188473209105544,-0.0033260664633160395,-0.004226593305826756,-0.0036061308698446862
333,-0.009858845494244201,-0.006392471967489613,-0.008060692337327983,-0.006937063604066046
334,-0.017822178559136412,-0.011686023031488099,-0.014604747829988173,-0.012683489719911331
335,-0.030834138904075204,-0.020438800416059624,-0.02528692017138585,-0.022171229360294135
336,-0.05130988205568115,-0.03436900427439607,-0.042048170844269664,-0.03723880666409233
337,-0.08246661805994912,-0.05579584818755613,-0.06743806441729643,-0.06035247591680477
338,-0.12846447305274508,-0.08775740149950864,-0.10470358298551052,-0.09472162139180187
339,-0.19453430428923685,-0.1341233730693053,-0.15786257048136454,-0.1444059239446848
340,-0.28707857894234745,-0.19969271633424107,-0.2317518918291246,-0.21440352638161653
341,-0.4137293656200276,-0.2902641900921937,-0.3320394428712018,-0.3107076807886722
342,-0.5833463830394926,-0.4126669159542194,-0.4651891800349521,-0.4403184281063931
343,-0.8059383315384854,-0.5747377571000467,-0.6383695418030658,-0.611196073716209
344,-1.0924927134305396,-0.785233185233063,-0.8592979951025663,-0.8321447703728408
345,-1.4547031205139986,-1.0536653111905683,-1.136017798287943,-1.1126173993831674
346,-1.9045884321883224,-1.390054993555186,-1.4766072608652892,-1.4624370070820716
347,-2.454005207421037,-1.8045993808616079,-1.8888266264684923,-1.8914350679169443
348,-3.1140623319820966,-2.307256765909307,-2.379713011595118,-2.409012552464756
349,-3.894455205972264,-2.907257968362159,-2.955139268480732,-3.0236359103645243
350,-4.802744973578727,-3.612560209166354,-3.619357736634063,-3.7422863297696627
351,-5.843616078802598,-4.429266078718558,-4.374554037981142,-4.569886617420634
352,-7.018152260438059,-5.3610361454346345,-5.220438772374876,-5.5087352629845405
353,-8.323176329469472,-6.408528446979248,-6.153905729218231,-6.557981161166883
354,-9.75070193187292,-7.56890105520155,-7.168783815069833,-7.713174528347043
355,-11.287545303827594,-8.835414731445852,-8.255706404704467,-8.965929344046883
356,-12.9151412982872,-10.197171117594168,-9.402116610093438,-10.303729917701084
357,-14.609600557490648,-11.639017805442757,-10.59242052359434,-11.70990889671259
358,-16.342033768792607,-13.141644978527278,-11.808293248891884,-13.163816361745576
359,-18.079154943268744,-14.681889295487862,-13.029134765325265,-14.64118995486213
360,-19.78415937452119,-16.233249649269688,-14.232664514111542,-16.114724759472804
361,-21.417854464544142,-17.76660700496033,-15.395635201338656,-17.554829566979055
362,-22.94000422165505,-19.25112750363867,-16.494638001284255,-18.930544049666125
363,-24.310832231042486,-20.655315348402688,-17.506963717790107,-20.21058015026505
364,-25.49261445733092,-21.948170613016583,-18.411478404826216,-21.364441640613716
365,-26.451283368209005,-23.100397903226025,-19.18946841223896,-22.363569098754514
366,-27.157959424594498,-24.08560552423885,-19.82540956770873,-23.182454074646554
367,-27.590325560329653,-24.881432057422025,-20.30761850234113,-23.799666226015773
368,-27.733765149142705,-25.470538412271267,-20.62875069072392,-24.198740692701154
369,-27.582194002353646,-25.841408582744485,-20.78611881687507,-24.36887967272327
370,-27.138531726863604,-25.98891128590592,-20.781815540955456,-24.305431628860415
371,-26.414776584050102,-25.914586873508647,-20.622635533127042,-24.010123224409842
372,-25.43166985570182,-25.6266386477143,-20.31980187458168,-23.491032305215807
373,-24.217959329032116,-25.139624066567055,-19.88851108084935,-22.762304250675626
374,-22.809295257318375,-24.473858250337354,-19.34731892724553,-21.84362795788655
375,-21.24681432698017,-23.654558552695015,-18.717396033431157,-20.759500702838313
376,-19.57548617593154,-22.71077355687823,-18.02168781278986,-19.538322262350444
377,-17.84231157802847,-21.67415162982559,-17.284017700003663,-18.211367206623216
378,-16.094470544228813,-20.577612296053463,-16.528175068807382,-16.81168957164056
379,-14.377521621971654,-19.453987737504715,-15.77702946266382,-15.373015827026437
380,-12.733750272449607,-18.334701617689497,-15.051710452604029,-13.928680105472553
381,-11.200754501024917,-17.24854839762742,-14.370887787113448,-12.51065034819499
382,-9.810340602115218,-16.22062877625282,-13.750180033560255,-11.148686035517898
383,-8.587782262227371,-15.271486400776439,-13.201712274522446,-9.86965858139457
384,-1.2655820705780396e-09,2.7217284735523597e-10,-5.172657414104276e-11,-1.2277995792795609e-09
385,-2.68714904066582e-08,5.908192886632172e-09,-1.0875738287171216e-09,-2.5420354798627978e-08
386,-2.9628411345599097e-07,6.260619001034979e-08,-1.2382340206782933e-08,-2.7936274825246547e-07
387,-2.155214101051119e-06,4.366191513518744e-07,-9.24115975180506e-08,-2.026405032803157e-06
388,-1.1686984692894365e-05,2.257690460149552e-06,-5.111822988019763e-07,-1.0973644233960456e-05
389,-5.0565402628562565e-05,9.25180730614336e-06,-2.2446128119081282e-06,-4.7505295355441425e-05
390,-0.00018241318636277144,3.1361121330424494e-05,-8.181002610217e-06,-0.00017183006557600628
391,-0.0005662594512473601,9.062137773364232e-05,-2.5559621667177545e-05,-0.0005360285589495586
392,-0.0015494126019482532,0.00022826341425271336,-7.018204662126695e-05,-0.0014772608742730177
393,-0.0038089496783182287,0.0005098105857068688,-0.00017286012609883674,-0.0036658055924078657
394,-0.00854490261467425,0.001022875447142772,-0.00038863302372558507,-0.008318174243660484
395,-0.01772170150861798,0.0018616094623319789,-0.0008098563448422576,-0.017480642769682125
396,-0.03434975213625854,0.003092981187460827,-0.001585505572861502,-0.03438325355995841
397,-0.06279640256031921,0.00470282268724479,-0.0029506004060487396,-0.06385878296362268
398,-0.10911315003903173,0.006522570381236429,-0.005270746513536488,-0.1128142256077974
399,-0.18136140965878475,0.008139416929718642,-0.00910662740320103,-0.1907330240151627
400,-0.28991138760110885,0.008792544687250789,-0.01530165863984737,-0.31017439812477504
401,-0.4476787213195431,0.007256783651325857,-0.02509349478923647,-0.48722300554214387
402,-0.6702543156558396,0.0017138810528696334,-0.04024759754105798,-0.7418299757844934
403,-0.97587702379181,-0.010387893815490587,-0.06320934288427503,-1.0979772870203202
404,-1.3851980871084417,-0.03248216773128495,-0.09727018616367805,-1.5835929922737946
405,-1.9207905958658416,-0.06903255442917994,-0.14674251449946435,-2.2301454686722777
406,-2.6063663721668973,-0.12566715421553729,-0.21713599023828625,-3.071851233770303
407,-3.4656767593300195,-0.20928281801980678,-0.31532480700837856,-4.144443979561159
408,-4.521093712037951,-0.3281017253261251,-0.4496906269381288,-5.4834740580710335
409,-5.791893691516488,-0.49166459185745887,-0.6302212092338643,-7.12213880008831
410,-7.292298060999863,-0.7107484338198895,-0.8685413485439879,-9.088684240111437
411,-9.029356680469169,-0.9972013872219941,-1.1778518016828243,-11.403464973211985
412,-11.000791702692089,-1.3636919536486658,-1.572753792923095,-14.075795935236158
413,-13.192942011500763,-1.8233748046903842,-2.068941255501109,-17.100772268871832
414,-15.578962808457451,-2.3894796625882404,-2.6827496906044974,-20.456266499489047
415,-18.117439202079254,-3.074833648526416,-3.430558819207345,-24.100333530151513
416,-20.75156805105299,-3.8913308950299386,-4.328055557636974,-27.969262379014822
417,-23.40904958055698,-4.849366380603397,-5.389373876135271,-31.97650844711051
418,-26.002809117987344,-5.957254098624347,-6.6261385212431625,-36.01271992118304
419,-28.43263847643114,-7.2206527939811025,-8.046450115231906,-39.94703494122725
420,-30.587804541956224,-8.642025137444982,-9.65385937554441,-43.629771057173784
421,-32.35061906637588,-10.220157649639846,-11.44638744542692,-46.89655563475202
422,-33.6008998143401,-11.949768341646543,-13.415656581447239,-49.57385759486668
423,-34.22118270015873,-13.821226717903151,-15.54619944855788,-51.48578206428959
424,-34.1024732505284,-15.820406682629388,-17.81501474030934,-52.46188730412486
425,-33.150261170843564,-17.928687407681647,-20.191430802516297,-52.3456863356628
426,-31.290471900084455,-20.12311080620589,-22.63732709222305,-51.003413096915786
427,-28.475000230835192,-22.37669734526475,-25.107746245466696,-48.33257269676674
428,-24.68646721561392,-24.658914929358936,-27.551908581407005,-44.2697636596193
429,-19.941863426328215,-26.93628890701679,-29.914617610673268,-38.79726092660869
430,-14.294787528673137,-29.173135344668083,-32.138020894402565,-31.947883800910795
431,-7.836055511761603,-31.33239502494978,-34.16366649707575,-23.807742606511056
432,-0.6925382326929556,-33.376542471616624,-35.934772430367026,-14.516558787799834
433,6.9758219801945485,-35.26854268267891,-37.39860639274265,-4.265379711444347
434,14.980766124628856,-36.97282786158765,-38.5088576157649,6.708346609563802
435,23.112095433451092,-38.45626682161048,-39.227873581356675,18.1282199037606
436,31.145424675879386,-39.68910048668972,-39.52863323408153,29.688592133045017
437,38.850977156320624,-40.645817699824704,-39.39633583496832,41.06612119205123
438,46.00301000325858,-41.30594619194222,-38.82950072820233,51.93264481288396
439,52.38939974036956,-41.65473412159182,-37.84049712907929,61.96874859245667
440,57.82088451377139,-41.683698488122545,-36.45545298669725,70.87733755053566
441,62.1394570192514,-41.39101861547148,-34.71352590489145,78.39649563037187
442,65.22543524207076,-40.78175637678803,-32.665554712717466,84.31093737061421
443,67.00280665406333,-39.867889960774406,-30.372145408230324,88.46142235301915
444,67.44254100788572,-38.66815420013215,-27.901278023386517,90.75161334269718
445,66.56368842216209,-37.207686822983156,-25.325549836165447,91.15200572780232
446,64.4322115211812,-35.51748564124213,-22.71919357709507,89.70072736834702
447,61.15763129427367,-33.63368648066487,-20.15502496544119,86.50119031458522
448,-2.844378055731807e-10,-1.4646618024272473e-10,1.3737317760573566e-11,-4.001617781515252e-10
449,-5.753509909399856e-09,-3.065381256989856e-09,1.6547180564022035e-10,-8.522544263220266e-09
450,-5.675853518279632e-08,-3.3635636003711176e-08,2.07718053039526e-10,-9.140620064863139e-08
451,-3.6695291479628807e-07,-2.4381530126283387e-07,-9.536589281915348e-09,-6.497342600416109e-07
452,-1.7525946034933717e-06,-1.326101747858434e-06,-1.0843289107233786e-07,-3.4588693952429283e-06
453,-6.610346744897153e-06,-5.7921699191404466e-06,-7.026158322928112e-07,-1.4764874555811045e-05
454,-2.0545053607917805e-05,-2.1238736099329476e-05,-3.345050487902708e-06,-5.281355148169876e-05
455,-5.416694455404445e-05,-6.747314087683744e-05,-1.284248762674357e-05,-0.00016327473538003896
456,-0.00012360196727777856,-0.00019015384396727926,-4.1826984169534614e-05,-0.000446386234414652
457,-0.00024729048777737703,-0.00048419425180652633,-0.00011941304980928883,-0.0010985224483596326
458,-0.0004363113708796985,-0.0011303404654401364,-0.000305840574838393,-0.0024680357944779244
459,-0.0006762227421131645,-0.0024478936344802453,-0.0007149512299646307,-0.005121358593592068
460,-0.0009002046523300146,-0.00496542492187952,-0.0015458385804231294,-0.009912020419716288
461,-0.0009554693828880619,-0.009509622402676129,-0.0031240529138512802,-0.018043848986971582
462,-0.0005665267560727133,-0.017310349834671328,-0.0059515085898190385,-0.03112049289955657
463,0.0007007467818789347,-0.03011790331943026,-0.010763044631921787,-0.051175467551951626
464,0.003471232970362365,-0.050326558258907465,-0.01858673217552416,-0.08067847039649467
465,0.008587525527109115,-0.08109685595027467,-0.03080463237718183,-0.12251350749079215
466,0.017131761905976185,-0.12646758193185692,-0.04921065072404976,-0.17992239821305556
467,0.030442831656208875,-0.19144688890357114,-0.07606208745720679,-0.2564046437610364
468,0.05012869966985279,-0.2820705384802647,-0.11412115667009876,-0.3555631792246001
469,0.07807193566194502,-0.4054140232712728,-0.16668208465631396,-0.48088673134906723
470,0.11642474707593721,-0.5695448436785366,-0.23757865310533302,-0.6354642225593162
471,0.16758872864928123,-0.7834019541229361,-0.33116666883121343,-0.8216347095631958
472,0.23417478647115558,-1.0565917996541445,-0.45227623958563956,-1.0405865012919109
473,0.3189403532525202,-1.3990946482791833,-0.6061301142706188,-1.291929421951421
474,0.42470358170532474,-1.8208810078549575,-0.7982266022470376,-1.5732726423894925
475,0.5542368164474598,-2.331445341016291,-1.0341883619172771,-1.8798456314870098
476,0.7101434563954617,-2.9392722805190137,-1.3195811610649828,-2.2042010486678207
477,0.8947228256242067,-3.6512581643262596,-1.6597090996983463,-2.5360362356630057
478,1.1098268399821885,-4.47211707722732,-2.059394432375818,-2.8621653914053273
479,1.3567105072161874,-5.403805111504068,-2.52275094075982,-3.166668635626914
480,1.6358763700754693,-6.444998964869252,-3.0529599390846855,-3.4312376098536537
481,1.9469117445808213,-7.590665269781453,-3.652057752909278,-3.635729909199333
482,2.288317699423737,-8.83175525174318,-4.320743181734679,-3.7589357109612824
483,2.6573304244500484,-10.155055478565501,-5.058213137745155,-3.779548554066647
484,3.049738698083151,-11.543219530869035,-5.862034213285146,-3.6773178530946975
485,3.4597049439564813,-12.974997367178478,-6.728057125230305,-3.434343836020559
486,3.8796010753231487,-14.425669069562673,-7.650379637693073,-3.036457625001135
487,4.299873267094493,-15.86767790927926,-8.62136167195191,-2.4746123767283494
488,4.708951539309488,-17.27144495043349,-9.631694038481749,-1.7461983235678897
489,5.093220489595117,-18.606334674733738,-10.670519852301243,-0.8561874664983455
490,5.437066870020925,-19.84172949446134,-11.725605560905777,0.1819859737831471
491,5.723018292269531,-20.948161635182473,-12.783556938992858,1.3458950806889864
492,5.931985391741707,-21.89844468701384,-13.83007454512346,2.6040101723309523
493,6.043617239590657,-22.668744819121898,-14.850242889770225,3.916058535055469
494,6.036776317279209,-23.239533562752595,-15.828847595462564,5.233878289376217
495,5.890134492805788,-23.596370103359174,-16.750714742623114,6.502763294815676
496,5.582884825277794,-23.73047070533668,-17.60106614750375,7.6632676827657535
497,5.095555687778323,-23.639035388373358,-18.365883532701158,8.653410662310348
498,4.410904069203242,-23.325316260782202,-19.03227364972381,9.411195890395046
499,3.514854799468017,-22.79842691241246,-19.588825649520718,9.877336225158091
500,2.3974428992620522,-22.072906982824684,-20.025951489986692,9.99805555082797
501,1.053708452903044,-21.168069585509652,-20.3361998587724,9.72782612614678
502,-0.515511552661218,-20.107170923142437,-20.51453382642557,9.03189406901299
503,-2.302951218729516,-18.916450510319226,-20.55856213283704,7.8884483348517245
504,-4.2944973626486584,-17.624096337186884,-20.46871370701497,6.2903005319293115
505,-6.469031273049217,-16.259191635802612,-20.248344946398614,4.245964051349331
506,-8.798565740633311,-14.85069844769728,-19.903769755987586,1.7800503638064922
507,-11.248697824676654,-13.426528061039267,-19.444203675444015,-1.067063793495774
508,-13.779380773084865,-12.01274004542209,-18.88161578328897,-4.2403046664365025
509,-16.346000288854643,-10.632900817547274,-18.230485433674,-7.671670333540109
510,-18.900722090475266,-9.307620377110005,-17.50746501803555,-11.282625887792749
511,-21.394060467428574,-8.054273090551142,-16.730954487109774,-14.987015649865008
512,-1.8414789140290942e-10,-7.594356388480348e-11,-1.8473873275617268e-10,-1.6079800780216512e-10
513,-3.780260956759913e-09,-1.5183402372108853e-09,-4.013642532048543e-09,-3.2317312099496385e-09
514,-4.180310608230247e-08,-1.7323235330109698e-08,-4.40457135232116e-08,-3.6038170626372364e-08
515,-3.059299639545971e-07,-1.30269983631331e-07,-3.198079875504673e-07,-2.652167607922146e-07
516,-1.6818687997556643e-06,-7.353216238868796e-07,-1.7356251641889825e-06,-1.465188538610379e-06
517,-7.4310105138173995e-06,-3.3310068954574517e-06,-7.537416100376742e-06,-6.500560750821896e-06
518,-2.7573063883775655e-05,-1.2650410235084244e-05,-2.7381244973047294e-05,-2.4207208291201683e-05
519,-8.863466106964612e-05,-4.1542567901359134e-05,-8.58846085625061e-05,-7.806945525859695e-05
520,-0.00025262986622966117,-0.000120724210013084,-0.000238250343934688,-0.0002232296916634232
521,-0.0006500788568747155,-0.0003161241052068147,-0.000595688199422532,-0.0005763644049885792
522,-0.0015322044848184182,-0.0007568187262463867,-0.001363041594712491,-0.0013635286536626762
523,-0.003347038519470195,-0.0016763968090972548,-0.002890414127320742,-0.002991047603899898
524,-0.006843101510222468,-0.0034700005131295,-0.005739890316992486,-0.006143854395671045
525,-0.01320282956022784,-0.006768396663572516,-0.01076776286659718,-0.011914390796049366
526,-0.02420614575556321,-0.012529336939642062,-0.01922191807502208,-0.021963331396012756
527,-0.042422476637947425,-0.022145211015440338,-0.03285296406948269,-0.038710987003914114
528,-0.07142687003419798,-0.03756451159444841,-0.05403607738743578,-0.06555524708094243
529,-0.11603248968819391,-0.061422830854876195,-0.0858983110083015,-0.10710834312526321
530,-0.18252760951481403,-0.09717694090946578,-0.13244340677797184,-0.16944061137355604
531,-0.27890055540947706,-0.1492330436467812,-0.19866337301141795,-0.2603150007455549
532,-0.4150313497151694,-0.22305770329291913,-0.29062373487658555,-0.38939163717435527
533,-0.6028248018139929,-0.3252576248584032,-0.41550789996583715,-0.5683777869563587
534,-0.8562572532271789,-0.4636127569062524,-0.5816058109039905,-0.8110956778378494
535,-1.1913088057425696,-0.6470466391019456,-0.798233114315769,-1.1334394903080147
536,-1.6257550803872267,-0.8855188870917902,-1.075569498473773,-1.5531940495640946
537,-2.1787974584623235,-1.1898274062140128,-1.4244085807700306,-2.08969172934505
538,-2.8705181893326723,-1.5713123192044631,-1.8558165735342798,-2.763290964877673
539,-3.7211563955851448,-2.041459403797492,-2.380702579349527,-3.5946693767505122
540,-4.750212507908116,-2.611407662636474,-3.0093093814910756,-4.6039364247028765
541,-5.975401554922558,-3.2913730403035153,-3.750639701624821,-5.809584116962397
542,-7.41148940253757,-4.09000784625776,-4.611838924409552,-7.227308810414451
543,-9.069059679526234,-5.01372275198478,-5.597561087425388,-8.868751602894722
544,-10.95327174367574,-6.066004876265753,-6.709350207717463,-10.740218142693504
545,-13.0626805287272,-7.246770954589328,-7.945073231062149,-12.841449732778337
546,-15.388196263714963,-8.551798301225803,-9.298443293868992,-15.16452525938262
547,-17.912264745036712,-9.9722776034396,-10.75867179826949,-17.692976743898242
548,-20.60834613521214,-11.494529986107292,-12.31028445955909,-20.401199378249217
549,-23.440761660039147,-13.099925908423662,-13.93312991468633,-23.25422923573039
550,-26.364963065113738,-14.76503521746562,-15.602600137092285,-26.207948259012685
551,-29.328259809261834,-16.462026348362944,-17.290070645860617,-29.209756888336564
552,-32.27101468705111,-18.15931880516392,-18.963556309147236,-32.19973052251186
553,-35.12829126130924,-19.82247755715174,-20.588566321512086,-35.11224811800495
554,-37.831907838075864,-21.4153219207848,-22.12913038475472,-37.87805128683971
555,-40.31282464222037,-22.901206052368817,-23.548957764636807,-40.42666229331205
556,-42.50376535821735,-24.24441454742941,-24.81268216853763,-42.689061662160476
557,-44.341953171647454,-25.41160589818501,-25.887138733346493,-44.60050293544636
558,-45.77182655701562,-26.373229583801344,-26.742615335830337,-46.103325425515095
559,-46.74759263254069,-27.10483996618716,-27.354019430724186,-47.1496170533549
560,-47.23547689720833,-27.588232287598405,-27.70190402721457,-47.70357944183805
561,-47.21553800034522,-27.81233297232912,-27.773302257470647,-47.74345666881787
562,-46.68293470480913,-27.773787918302848,-27.562328935652864,-47.26290730004949
563,-45.648558548963145,-27.47720799854956,-27.07051889782333,-46.271725774750905
564,-44.13897846510493,-26.93504973762632,-26.306884932149327,-44.795852615651874
565,-42.195680812858534,-26.167129908484114,-25.287691889377015,-42.876651371839245
566,-39.87362757063853,-25.199794192365356,-24.035957281066263,-40.569471263333206
567,-37.23919416518403,-24.06478053428806,-22.580701566722304,-37.94155545019869
568,-34.367583908364765,-22.797835932637312,-20.955982710604932,-35.069392877595476
569,-31.339845806607077,-21.437159864531345,-19.199758877688588,-32.03564414779272
570,-28.239644629796526,-20.021757391459143,-17.35262989026874,-28.925796607937446
571,-25.14994523974232,-18.58978959721108,-15.456511998782602,-25.824719167594147
572,-22.149776590911152,-17.177008131841585,-13.553301515959973,-22.81329228380201
573,-19.311234465411676,-15.815354397071681,-11.683581011578442,-19.965282827021618
574,-16.696866433988305,-14.53179279334294,-9.885417399153976,-17.34461766072681
575,-14.357558864690883,-13.347432259686709,-8.19329492379892,-15.003184891065827
576,-1.725298340746862e-10,-1.2504316018921325e-10,-5.896057992102914e-11,-1.5583168155136018e-10
577,-3.734376167529571e-09,-2.705090368220203e-09,-1.0845440069101077e-09,-3.2536330736757225e-09
578,-4.074696978103571e-08,-3.0047409830958623e-08,-1.2758189393252256e-08,-3.6121472015802506e-08
579,-2.940857133814286e-07,-2.205259877564279e-07,-9.819921243893154e-08,-2.6429512879859734e-07
580,-1.5883099829471134e-06,-1.2116168524302041e-06,-5.672752087012748e-07,-1.449409312031679e-06
581,-6.872823086103408e-06,-5.332994854903886e-06,-2.6268368252239513e-06,-6.374555359623966e-06
582,-2.4916064063147104e-05,-1.9656169551711768e-05,-1.0181047886053229e-05,-2.350122720564717e-05
583,-7.813287170546479e-05,-6.260843110626037e-05,-3.405373412096781e-05,-7.495382697217735e-05
584,-0.00021710755455499637,-0.00017647484499348415,-0.00010057740846694187,-0.00021175869334911793
585,-0.0005447689809467685,-0.00044846351982684646,-0.000267048353706758,-0.0005398400408135488
586,-0.0012532178474051851,-0.0010429494616280123,-0.0006467226991644259,-0.001260377040444659
587,-0.002675888926056664,-0.002247048274874741,-0.0014456892119424321,-0.0027276919680082902
588,-0.00535707328523625,-0.004530910407848652,-0.003013147472903697,-0.005526911714614072
589,-0.010139866669977873,-0.008623199820115918,-0.00590560810080772,-0.010572359787868189
590,-0.018272387330181605,-0.015601170679761649,-0.01096458727662182,-0.019226086878031706
591,-0.03153064407769561,-0.026993540333818875,-0.019406610426243604,-0.03343417923284744
592,-0.052354688228791,-0.04489288145743384,-0.032923574546033965,-0.05587642774290614
593,-0.0839925654269225,-0.07207247648516328,-0.0537903880043895,-0.09012252446961269
594,-0.13064406822212424,-0.11210054051982134,-0.0849750090371155,-0.14078515850702333
595,-0.19759356444741225,-0.16944260108420497,-0.13024357201103448,-0.21365739569649062
596,-0.29131866078764723,-0.24954089906214372,-0.19425061535312343,-0.3158189493090169
597,-0.41955966948037376,-0.35885827411522264,-0.28260211561205933,-0.45569392726688623
598,-0.5913341835830304,-0.5048734505189728,-0.40187770846926785,-0.643041925308455
599,-0.8168817023980017,-0.6960151974015536,-0.5595985431946199,-0.8888652808894479
600,-1.1075251708145035,-0.9415246461565309,-0.7641288099991161,-1.2052180481568517
601,-1.4754394079931523,-1.251238109410409,-1.0245019412163132,-1.6049067000073793
602,-1.9333206146975268,-1.635286954127017,-1.3501665329546695,-2.101078509805452
603,-2.4939563749236258,-2.1037162231829214,-1.7506518663750934,-2.7067007299282895
604,-3.1697016953065864,-2.6660294958204136,-2.2351583605582768,-3.4339417594203105
605,-3.9718734773119535,-3.33067358270518,-2.8120842397155092,-4.293474075328045
606,-4.910083110592705,-4.104482683653085,-3.488505932806748,-5.293727290808784
607,-5.991534156260142,-4.992107189439864,-4.269635805268346,-6.440127687686685
608,-7.220318684565794,-5.995456955831427,-5.158286101239765,-7.7343672242398895
609,-8.59675094014724,-7.113192196524097,-6.1543718130437295,-9.1737495759439
610,-10.116779871566871,-8.340296714954457,-7.254487114158006,-10.75066246081531
611,-11.771522179657829,-9.667767663886902,-8.45158978514394,-12.45222373943697
612,-13.546954743190682,-11.082453116095564,-9.734825654264364,-14.260143227877348
613,-15.423799719692491,-12.567063361662226,-11.08952042139442,-16.150832897552625
614,-17.37762766006756,-14.100374155615665,-12.49735918564429,-18.095785624208332
615,-19.379194127099034,-15.657630523450234,-13.936764433275307,-20.062227718580218
616,-21.39501410803272,-17.211148771780028,-15.383471278267292,-22.0140341166048
617,-23.388166440703756,-18.731102724638784,-16.811285050001178,-23.91287836509846
618,-25.319307924404573,-20.18646860082825,-18.19299216115987,-25.71957338347398
619,-27.14786418701926,-21.54609204947695,-19.50138220029741,-27.39554434786212
620,-28.83335238729443,-22.77983138237063,-20.71032894106301,-28.90436291646938
621,-30.336780414089603,-23.859723708471865,-21.79587148020075,-30.213263415078654
622,-31.622059552681556,-24.761116190675953,-22.737234410257667,-31.294557548497068
623,-32.65736361941539,-25.463703555595476,-23.517727651428395,-32.126865477288696
624,-33.41636789020191,-25.952415593382163,-24.125471929181927,-32.69608808724393
625,-33.87930579075953,-26.218104640942844,-24.55390444116023,-32.99605779959754
626,-34.03378985732302,-26.257992576618353,-24.802030618010363,-33.028822624314344
627,-33.87535518861118,-26.075849010306513,-24.874401638931708,-32.80453917456789
628,-33.40769760676815,-25.681886313947953,-24.780813053625423,-32.340973567452956
629,-32.642594085013876,-25.092372026167954,-24.53573682569141,-31.662632850818603
630,-31.59950880613715,-24.328974141808075,-24.15751638459427,-30.7995720950729
631,-30.30490373909712,-23.417869089586546,-23.6673705246098,-29.785941980130247
632,-28.791287187882453,-22.38865507590639,-23.088265605466916,-28.658357279518082
633,-27.096046678764168,-21.273124220119843,-22.443724922717045,-27.454177198486985
634,-25.26012301868812,-20.103954823156716,-21.756648158569377,-26.20979352102525
635,-23.326589601416728,-18.91338957739211,-21.048212095356043,-24.959021743371192
636,-21.339204464519092,-17.73196609768338,-20.336916705746933,-23.73168382840023
637,-19.341001930688122,-16.58736268290282,-19.63782941071245,-22.552459163689907
638,-17.372985959732375,-15.503414919775985,-18.962066078646906,-21.440063319408754
639,-15.472978957840736,-14.4993481911133,-18.31653150634478,-20.406793246440454
640,-5.393237012260683e-11,-8.690377925958946e-11,-1.0940707542059967e-10,-5.178410551645268e-11
641,-9.087502021437757e-10,-1.6376584910960855e-09,-2.438008489900068e-09,-1.0972419955730096e-09
642,-1.1122517079273001e-08,-1.871259588197924e-08,-2.808185239361132e-08,-1.2428883295295651e-08
643,-8.815552396560148e-08,-1.4018111207616172e-07,-2.1362695380120404e-07,-9.329213662891741e-08
644,-5.237542936016929e-07,-7.880396333142393e-07,-1.215642627658851e-06,-5.259776735073344e-07
645,-2.4886848570252543e-06,-3.553848011314994e-06,-5.5330616130629625e-06,-2.3817901426585146e-06
646,-9.872046294271171e-06,-1.3433646512714281e-05,-2.1039920167822492e-05,-9.047930930891974e-06
647,-3.370468843552398e-05,-4.3910432384274935e-05,-6.893986520397109e-05,-2.973460461859848e-05
648,-0.00010134302714992113,-0.0001270470156832004,-0.0001992370874080158,-8.6505973548476e-05
649,-0.00027327574699456377,-0.0003313667944872998,-0.0005172684291711024,-0.00022683858460604517
650,-0.0006707167940508986,-0.0007906015971511991,-0.001224553831914277,-0.000543957241967984
651,-0.0015169330788461304,-0.0017462555636664685,-0.0026762132089094563,-0.0012071548881628013
652,-0.0031945562199728298,-0.0036063288998369664,-0.005455790767163735,-0.0025039896089686375
653,-0.006320118614213359,-0.0070215388765238465,-0.010466947690176262,-0.0048957633079743604
654,-0.011835832338061352,-0.012979046411681393,-0.019040340612545933,-0.009087097040254538
655,-0.021117207406632296,-0.022912137103357093,-0.0330529826393839,-0.016109722340892692
656,-0.03609340077020771,-0.038822530753610494,-0.05505614662059821,-0.027419698093215466
657,-0.059375185377163624,-0.0634100096378393,-0.08840612838306304,-0.04500600166105414
658,-0.0943831727465895,-0.10020185187345225,-0.13738987719652088,-0.07150674595048574
659,-0.145466559441277,-0.15367221874037737,-0.2073348509963387,-0.11032719045598141
660,-0.21800040458115613,-0.22933937190663603,-0.30468992085092356,-0.16575143688412167
661,-0.3184475604182859,-0.3338266949241881,-0.43706232276021884,-0.24303752321921185
662,-0.45437024176900626,-0.4748723499285914,-0.6131951365644623,-0.3484838877647134
663,-0.6343762024040998,-0.6612723712342448,-0.8428709794389012,-0.48945417005606184
664,-0.8679859440995661,-0.9027434084304773,-1.136730625209836,-0.6743472978115986
665,-1.1654105207239653,-1.2096943695659588,-1.5059998031717565,-0.9125009372126904
666,-1.5372343613216861,-1.592900935384854,-1.9621229732220014,-1.21401871901346
667,-1.99400388220495,-2.063083133660333,-2.516308899777911,-1.5895151301565922
668,-2.545730009537412,-2.630393499995554,-3.178999035841441,-2.0497764111535672
669,-3.2013204138126,-3.303831240330205,-3.9592759439581178,-2.6053409792874476
670,-3.9679646088972533,-4.090605623817816,-4.864235120158106,-3.2660085529902134
671,-4.850501606107699,-4.995478975176001,-5.898349381318215,-4.040293035853867
672,-5.850805199475989,-6.020125550036772,-7.062859886935965,-4.934840070309009
673,-6.967225890788421,-7.162546785655775,-8.355231186938424,-5.953835658418371
674,-8.19413045789574,-8.416585434160476,-9.768708744221836,-7.098436912011528
675,-9.521579636696108,-9.77158048615119,-11.292015773204783,-8.366259278012532
676,-10.935180765391493,-11.212201238636691,-12.90922190231079,-9.750955903598086
677,-12.416145302673993,-12.718492241950322,-14.599809344221168,-11.241923688392117
678,-13.941571036047874,-14.266151289086885,-16.338953307882466,-12.8241667590487
679,-15.48495611722751,-15.827050493431125,-18.098022707928042,-14.478341640109223
680,-17.01693764420349,-17.369996453450813,-19.84529520365687,-16.18099963736796
681,-18.506232445754325,-18.86171036815633,-21.546867701337877,-17.905031518621353
682,-19.920743220451044,-20.267993744715685,-23.167730372584252,-19.62030823247263
683,-21.228780407118396,-21.555031134229722,-24.672959996053912,-21.294499923675726
684,-22.400340102022135,-22.690769291739965,-26.028978307490778,-22.89404457443204
685,-23.40837165970387,-23.64630331673874,-27.204814307220754,-24.385227820307907
686,-24.229965784283085,-24.397195548718514,-28.173306998975573,-25.73532740965653
687,-24.847395224903305,-24.92465279731917,-28.91218699887926,-26.913769948756308
688,-25.248945825286487,-25.216492096330366,-29.40498136079948,-27.893244560883293
689,-25.429485580298177,-25.26783443224676,-29.6416949078146,-28.650718353663795
690,-25.3907331550912,-25.081479363418346,-29.619232461498587,-29.168302388433553
691,-25.14120424684982,-24.667930329909943,-29.341539031004743,-29.433924084283642
692,-24.69583313297083,-24.045059726642343,-28.819448972370882,-29.441772200048717
693,-24.07528639745369,-23.23742321836248,-28.0702500947998,-29.192492922589665
694,-23.30500466374149,-22.275252966522647,-27.116984156481344,-28.6931291696863
695,-22.414024689256824,-21.193178085827235,-25.987520223373835,-27.956808972267734
696,-21.43364706939829,-20.028736524587547,-24.71345066166224,-27.002201807049826
697,-20.396023156183194,-18.8207546702754,-23.328869692421385,-25.852773239175466
698,-19.332738186047216,-17.60767855329836,-21.869100249891726,-24.535877607800014
699,-18.273466073913056,-16.42594310679276,-20.369435670742202,-23.08173531366791
700,-17.244765223688027,-15.308463396224479,-18.863958506134214,-21.522345259217964
701,-16.269074622417296,-14.28332425644547,-17.38449017242791,-19.89038401141738
702,-15.363956213367526,-13.37273288331279,-15.959713402170365,-18.218141334991323
703,-14.5416140259756,-12.592283412103015,-14.614495884340048,-16.536537094408708
704,-8.473819419174588e-11,-9.708891453785579e-11,-1.2860853363961238e-10,-8.820817158215783e-11
705,-1.8481586563630864e-09,-2.0667853809754504e-09,-2.6244121850969912e-09,-1.9344254695065535e-09
706,-2.0511137096641107e-08,-2.2946968120528504e-08,-2.9761923588740332e-08,-2.172171537379391e-08
707,-1.5093058540594855e-07,-1.6864302270087636e-07,-2.215774512710823e-07,-1.6151613756250015e-07
708,-8.327459218216778e-07,-9.291360920063789e-07,-1.2371605086243328e-06,-8.994657714086917e-07
709,-3.687612260926544e-06,-4.106632378188516e-06,-5.540969942715423e-06,-4.014425502692451e-06
710,-1.3700227569435951e-05,-1.521843740493632e-05,-2.0804911079804515e-05,-1.5006904094727607e-05
711,-4.406800886584898e-05,-4.879239778487828e-05,-6.757340635764787e-05,-4.848367634581482e-05
712,-0.00012565213866551277,-0.00013856746346647424,-0.00019435670974207278,-0.00013860115311224372
713,-0.0003234596823118696,-0.0003550486317600798,-0.000504144892530256,-0.0003571112520549626
714,-0.0007627902471080678,-0.000832995972617009,-0.0011966159882413042,-0.0008416479072779241
715,-0.0016674655576403778,-0.0018112121659644037,-0.002629807466747358,-0.0018365793654034868
716,-0.0034119099981417276,-0.0036864860369453254,-0.00540365011349664,-0.0037481127916227253
717,-0.006587881978346792,-0.007082853310029218,-0.010465711260512541,-0.007214540385652963
718,-0.012085549684386996,-0.012936501706874722,-0.019237076633851415,-0.013191689239105176
719,-0.02118748396246458,-0.022595648281032735,-0.03375387434952298,-0.023052781099893064
720,-0.035672969747450156,-0.03793344692737203,-0.05681773012894812,-0.03870086522627525
721,-0.057928662443986825,-0.06147034758155406,-0.0921464645442324,-0.06269054521248574
722,-0.09105991575671359,-0.09650030427127862,-0.14451450683576408,-0.0983537627351388
723,-0.1389951496705351,-0.1472129332393389,-0.2198706586463367,-0.14992203736020104
724,-0.2065736812923653,-0.21880139783688074,-0.3254189895782822,-0.22263511953503703
725,-0.2996058701542688,-0.31754377009883794,-0.46964695513249616,-0.3228239220838599
726,-0.4248935670692519,-0.450844243034944,-0.6622837598430724,-0.4579542453164027
727,-0.5901989453834007,-0.6272201466455319,-0.9141721898255475,-0.6366174663937489
728,-0.8041509922855418,-0.8562214747491391,-1.2370393460767484,-0.8684551612042084
729,-1.0760812865782154,-1.1482716474932242,-1.6431564266799663,-1.1640065881254509
730,-1.4157840799857142,-1.514421489029671,-2.1448850128386816,-1.5344710285705934
731,-1.833199878314627,-1.9660127574631445,-2.7541166740100658,-1.9913810215139534
732,-2.3380263947879842,-2.514252840801581,-3.481623067745502,-2.546187392215699
733,-2.939265695934246,-3.169708204472436,-4.336343750126039,-3.2097624925673705
734,-3.644721436721169,-3.9417305974510732,-5.324647358360514,-3.991834074600265
735,-4.460465115464355,-4.837836587888199,-6.449607790348418,-4.900368486438457
736,-5.390294955791648,-5.863067309312969,-7.71034006965623,-5.940928065775927
737,-6.43521488579208,-7.019360850123387,-9.101440840171994,-7.116033206782842
738,-7.592963633834179,-8.30497391606001,-10.612576217139825,-8.424563979358311
739,-8.857624784565138,-9.71399164314982,-12.228255392187123,-9.861238792630335
740,-10.21934747280815,-11.235964242983934,-13.92782204019001,-11.416207960647231
741,-11.664204155638435,-12.855706251097807,-15.68568704859884,-13.074797902831412
742,-13.17420671054409,-14.55328850065526,-17.471815078235405,-14.81743705288126
743,-14.727495281073583,-16.304244778149588,-19.252463885050254,-16.61978748995139
744,-16.298706272222812,-18.08000481700672,-20.99115956511314,-18.45309710267185
745,-17.85951713232088,-19.848553356671477,-22.64987400014504,-20.284776135641476
746,-19.37935643110764,-21.57530204197361,-24.190354446063417,-22.079189786202683
747,-20.826258635596457,-23.224147684210408,-25.575541396041196,-23.798645845409286
748,-22.16783437490479,-24.758677688989025,-26.77100142357074,-25.404544092308473
749,-23.37231945294496,-26.143472190981537,-27.746297936360644,-26.858643162074124
750,-24.409659989901893,-27.345443539504668,-28.47622512216044,-28.124391695286658
751,-25.252587278984684,-28.335148052382273,-28.941838423149495,-29.16826429487498
752,-25.87763448117492,-29.08800300097472,-29.131227566702826,-29.961039544911394
753,-26.26604825734758,-29.58534392348345,-29.03999402242801,-30.47895735899527
754,-26.404551887914124,-29.815263609179013,-28.671412243368263,-30.70469646340999
755,-26.285922284821805,-29.773184171305513,-28.03627185134889,-30.628120009424386
756,-25.90935132767119,-29.462126990911756,-27.152415023037022,-30.246748034851976
757,-25.28057172865496,-28.89266118851287,-26.043998985832662,-29.56592925919886
758,-24.411738586717462,-28.082528707733328,-24.74052715500998,-28.598700607789855
759,-23.32106929702613,-27.05596197901847,-23.27570352940077,-27.36533973843525
760,-22.032255878713347,-25.842727314159188,-21.686172918717975,-25.892632419600943
761,-20.57367440848359,-24.476942523031585,-20.010213762263202,-24.21289170849371
762,-18.97742549159802,-22.99572970228683,-18.28645006539162,-22.362778547467826
763,-17.278247114150517,-21.437772878396196,-16.55264394174897,-20.381982960003306
764,-15.512346554818004,-19.841854608801217,-14.844620524469882,-18.31183106004865
765,-13.716201191273242,-18.245445471249084,-13.195363437513718,-16.193885367959783
766,-11.92537895155224,-16.683415630738065,-11.63430314187436,-14.068604376682988
767,-10.173427756388948,-15.186928698342024,-10.186804256867545,-11.97412200061182
768,-3.6041978936344934e-11,-7.796542046653913e-11,-8.230899118869302e-11,-7.642152850946192e-11
769,-8.464126951332868e-10,-1.6529368385563058e-09,-1.2053448378024193e-09,-1.6936586191080464e-09
770,-9.930653891944899e-09,-1.8434817894134875e-08,-1.3817464044470288e-08,-1.9264952037450555e-08
771,-7.692884930648898e-08,-1.3568610096403137e-07,-1.016835961913455e-07,-1.4494712678295548e-07
772,-4.442990590757357e-07,-7.484560215234903e-07,-5.634645679709557e-07,-8.166261957246279e-07
773,-2.046546114798346e-06,-3.3100550053031645e-06,-2.5106577732967703e-06,-3.6850159354683162e-06
774,-7.855744647314674e-06,-1.2264967693019227e-05,-9.401017634237215e-06,-1.3913801332765458e-05
775,-2.5927942719947296e-05,-3.928737202618311e-05,-3.0528328376757145e-05,-4.53421150299405e-05
776,-7.534904514743105e-05,-0.00011138294666886203,-8.801790982451924e-05,-0.00013053257958495036
777,-0.00019646482135333347,-0.00028469014950912984,-0.00022946204155645288,-0.0003380769616667266
778,-0.0004667140745328046,-0.00066582794918864,-0.0005488105214015835,-0.000799420603713376
779,-0.001023091931897236,-0.0014423798474861255,-0.00121840023208818,-0.0017468424353382392
780,-0.0020918685886283867,-0.002923653931210332,-0.0025348955369309065,-0.003563221369767392
781,-0.004025794733881961,-0.005592318662495304,-0.004981346962404284,-0.006843081968869826
782,-0.007348681112903636,-0.010166920924294354,-0.009306515618619938,-0.012463364858444377
783,-0.012806917464784231,-0.01767461185259732,-0.016621171347269925,-0.02166149511580367
784,-0.021427134710000503,-0.029532536095777075,-0.02850936113787409,-0.03611754118645927
785,-0.03457874505491523,-0.047635194425771146,-0.047150786670558616,-0.05803638700446746
786,-0.054039438774597666,-0.07444363404923472,-0.07544840138976265,-0.09022473036085266
787,-0.08206081159922106,-0.11307063382907309,-0.11715309879314313,-0.13615638733782115
788,-0.1214301658684316,-0.16735432406903633,-0.17697493513260673,-0.20001805703504455
789,-0.1755233359152884,-0.24191119068015277,-0.26066792825174767,-0.28672677202380453
790,-0.2483424062373905,-0.34215847214393225,-0.37507356882031584,-0.40191013665779995
791,-0.34453168320367333,-0.47429581518558245,-0.5281072721438631,-0.5518414035441642
792,-0.4693653936030947,-0.6452368658729889,-0.728672547755218,-0.7433235099914245
793,-0.6287013227504575,-0.8624832564849907,-0.9864898542283437,-0.9835192317979924
794,-0.828895892108601,-1.1339361308470426,-1.3118309599517812,-1.2797283301153837
795,-1.0766778945791762,-1.4676437766032295,-1.7151549541869864,-1.639116630748917
796,-1.3789801121347132,-1.871487919589321,-2.206648608294063,-2.068406034989627
797,-1.7427301767171102,-2.3528155813630844,-2.795681219143694,-2.5735381738045264
798,-2.1746041829029354,-2.9180279095495174,-3.4901919623175366,-3.1593274721370848
799,-2.680748700517411,-3.572141862199425,-4.2960356625040355,-3.8291215621510424
800,-3.266479029631446,-4.318344822423425,-5.2163201615367765,-4.584488145157053
801,-3.9359638174431537,-5.1575658446438295,-6.2507745180125625,-5.424947507551854
802,-4.691908391751109,-6.088089912380529,-7.395191388735285,-6.347768916476125
803,-5.535251076243378,-7.10524291300653,-8.640988491053834,-7.3478470046581394
804,-6.464888007098539,-8.201174614422072,-9.97493248238444,-8.417670915669074
805,-7.4774423169885775,-9.364764485066592,-11.379063684726427,-9.547394379511822
806,-8.567092869347276,-10.581670618580558,-12.830851832429433,-10.72500912575128
807,-9.725476000277471,-11.834535422891182,-14.303601769348212,-11.936617461312803
808,-10.941671024395536,-13.103353442914798,-15.767114277612245,-13.166793024024889
809,-12.20227672901526,-14.365997246802495,-17.188591735045488,-14.39901239030477
810,-13.49158193474347,-15.598887389238849,-18.533762011558338,-15.616135074513084
811,-14.79182869364688,-16.77778278272009,-19.768178055705693,-16.800906049908175
812,-16.083562078995378,-17.878659028470388,-20.85863627257965,-17.93645353280158
813,-17.34605604231522,-18.87863494199003,-21.77464524525286,-19.006755393783
814,-18.557800757097315,-19.756902119281783,-22.489868657122884,-19.997049966131947
815,-19.697033548056986,-20.495609299533058,-22.983463126856964,-20.894170890096554
816,-20.74229319305867,-21.08065280556104,-23.24123348711492,-21.686790689917977
817,-21.672976220830154,-21.50232671969366,-23.256534842758743,-22.365563830188048
818,-22.46987380278347,-21.755791816162205,-23.03086229021165,-22.923166842832465
819,-23.115668867632177,-21.84133056702549,-22.574084852584754,-23.35424040968795
820,-23.595375076187462,-21.76436646643974,-21.90429910971423,-23.655245458275715
821,-23.89670221106859,-21.53523886511594,-21.047298962243474,-23.82425164105242
822,-24.01033623642701,-21.168738602141232,-20.03567954152766,-23.86068128059093
823,-23.93012654244557,-20.68342393323299,-18.907613973290896,-23.765034439141804
824,-23.65317743039973,-20.10074955687504,-17.705360090312585,-23.53862100069132
825,-23.17984546147404,-19.444053040711204,-16.473569107443506,-23.18332368867528
826,-22.51364867898129,-18.737451944286573,-15.25747879860018,-22.701412200979902
827,-21.6610977058754,-18.00471090558632,-14.101079293273951,-22.095423663011914
828,-20.63146204487547,-17.26814054106119,-13.045340003025583,-21.36811886995383
829,-19.436487263131234,-16.547588981059096,-12.12658150382675,-20.522517678864546
830,-18.0900798910497,-15.85958217792321,-11.37506684750007,-19.562010697365505
831,-16.60797672284127,-15.216660952502892,-10.813873433395697,-18.49053837811538
832,-9.4439761116349e-11,-1.011106863884412e-10,-2.9906162421667e-11,-9.778570925879618e-11
833,-1.3154325753413732e-09,-2.0755663864891286e-09,-2.7271066854366857e-10,-1.4967561336977732e-09
834,-1.5002432554894145e-08,-2.3448214444287357e-08,-3.3828251639266156e-09,-1.745063774932199e-08
835,-1.0953584589921018e-07,-1.7420356682547768e-07,-2.5741681865149057e-08,-1.2988912084498648e-07
836,-6.028092804086167e-07,-9.707721350732335e-07,-1.4907384397036858e-07,-7.269058336256456e-07
837,-2.669605361190647e-06,-4.339347633229923e-06,-6.984105227529568e-07,-3.2643543987462424e-06
838,-9.941926262651867e-06,-1.6256187694491366e-05,-2.7695843568936114e-06,-1.2287161418915655e-05
839,-3.21211112472695e-05,-5.265088165146248e-05,-9.585819323959083e-06,-3.998567870927441e-05
840,-9.212618403132804e-05,-0.00015090615371719402,-2.9607025132631236e-05,-0.00011513027972391511
841,-0.00023873941026895238,-0.0003897897979390695,-8.295112948768234e-05,-0.0002986348115535555
842,-0.0005668609743278795,-0.0009207268631236245,-0.00021342441388032062,-0.0007080181571002238
843,-0.0012472516635051304,-0.002012898866493209,-0.000509073882674122,-0.0015526183676024719
844,-0.0025670054541186193,-0.004113820331585814,-0.001134339981028644,-0.0031806148215162244
845,-0.004981164171482737,-0.007925986598125458,-0.0023763743916650755,-0.006137967439405371
846,-0.009175047780067658,-0.01449904954532605,-0.0047068714271660895,-0.011238430353699973
847,-0.016136152100640906,-0.02533580220367196,-0.00885912084268449,-0.019642918724073193
848,-0.0272336983173701,-0.04250893287057181,-0.015918342240227347,-0.03294554425570517
849,-0.0443028932671554,-0.06878391286834809,-0.027422038377380813,-0.05326243920007024
850,-0.06972949467879898,-0.10774141609629803,-0.045466186357649464,-0.0833179262142326
851,-0.10652849438249323,-0.16389040998537208,-0.07281232717892935,-0.1265207700231593
852,-0.15840896895916612,-0.24276076685545916,-0.11298962261199083,-0.18702145376719015
853,-0.22981579678214145,-0.35096233216460326,-0.1703844118302906,-0.26974006132889794
854,-0.325938364878104,-0.4961963268531023,-0.2503077200028727,-0.38035387321794845
855,-0.4526767491271728,-0.6872051282161923,-0.35902893935337166,-0.5252344708804784
856,-0.6165572400855276,-0.9336480871434957,-0.5037622432182938,-0.7113261377202258
857,-0.8245913947002632,-1.245894091443066,-0.6925919747344547,-0.9459604981194132
858,-1.0840758769429037,-1.6347259301945758,-0.9343248763395359,-1.2366064172640507
859,-1.4023339581495966,-2.1109568858013796,-1.2382607393317684,-1.590558822100025
860,-1.7864035482477163,-2.6849660831496687,-1.6138785333968748,-2.0145750033180527
861,-2.2426809109602868,-3.3661656140495824,-2.070441598927341,-2.514471822469399
862,-2.7765336686548228,-4.162418960728194,-2.6165322122420807,-3.0947018417957093
863,-3.391901076429761,-5.0794363664638,-3.2595320832939776,-3.7579304886792366
864,-4.090903359656021,-6.120178101708359,-4.00507072598065,-4.504639629831941
865,-4.873484662282181,-7.284300607379289,-4.8564681014443725,-5.332785016667993
866,-5.73711534681351,-8.56768278981495,-5.814201553010862,-6.237535504570888
867,-6.676578768181193,-9.96206987004629,-6.875429885109925,-7.21112039298846
868,-7.683865068268412,-11.454869787288823,-8.03360925931015,-8.242807413595603
869,-8.748190084381852,-13.02913204035877,-9.278235873409688,-9.319027875291724
870,-9.856151284389014,-14.663731044740114,-10.594748406371902,-10.42365754345984
871,-10.99202510501435,-16.333765901282312,-11.964618321208789,-11.538452559847725
872,-12.138201614064712,-18.011176455483533,-13.365648023207097,-12.643629778330993
873,-13.27574360869158,-19.66556242053174,-14.772485823201494,-13.718570994043425
874,-14.385048679409406,-21.26517899716037,-16.157353350850986,-14.742621383293905
875,-15.446584987772429,-22.778069750280892,-17.490966564484285,-15.695944634691081
876,-16.441665125170314,-24.173286415512422,-18.743617063120507,-16.56039134619444
877,-17.35321792359665,-25.422136668267477,-19.886367307337743,-17.320333764392657
878,-18.16651593454152,-26.499395490740056,-20.89230274489749,-17.963419309326312
879,-18.86981675048465,-27.384414228176343,-21.737776479503232,-18.48119778451936
880,-19.454879632385623,-28.062064111845604,-22.403578398976205,-18.869582781427084
881,-19.917325005702427,-28.523457949746692,-22.875960646234244,-19.12911625062478
882,-20.256813088387737,-28.766404499588987,-23.147454999048918,-19.265016002582826
883,-20.477028592310205,-28.795564030426963,-23.21742521248878,-19.28699819990519
884,-20.585470222498692,-28.622289823101656,-23.09230884259499,-19.20887978167303
885,-20.59305554025427,-28.264157797920646,-22.78551844085687,-19.047978306980962
886,-20.51356274316455,-27.74420402639847,-22.316990739187716,-18.82433808232947
887,-20.362940383275188,-27.08990656217205,-21.71239331392307,-18.559821049656268
888,-20.158523485048843,-26.331962832458274,-21.0020195076371,-18.27710824296307
889,-19.918199587407415,-25.502925857881475,-20.219422257705034,-17.99866234413894
890,-19.659570568053578,-24.63577096104104,-19.399854354965402,-17.745703682832456
891,-19.399155533705677,-23.762468689849154,-18.57859549351513,-17.537250840757796
892,-19.15167656862704,-22.912638970812967,-17.789254695870284,-17.38927286525931
893,-18.929462956409374,-22.112355939594945,-17.06214000020274,-17.31399326765528
894,-18.742001078018127,-21.383162828686594,-16.422785450111764,-17.31937696034253
895,-18.59564719343147,-20.74134251211369,-15.890718257491356,-17.408820742908723
896,-8.998416026627115e-11,-1.1223096360521321e-10,-2.055597610898051e-10,-8.3390193612346e-11
897,-1.942137174339748e-09,-2.3200086005556434e-09,-4.554838595192544e-09,-1.663681415372022e-09
898,-2.1935526223068744e-08,-2.586388229164298e-08,-5.030052401515488e-08,-1.8768146425937373e-08
899,-1.6370850548435147e-07,-1.9066417705128358e-07,-3.676025505670621e-07,-1.3947014083366917e-07
900,-9.143364027481079e-07,-1.0549666565975165e-06,-2.0067353639963346e-06,-7.775539300066986e-07
901,-4.088744646512913e-06,-4.687595403582705e-06,-8.756545292360323e-06,-3.478512525763753e-06
902,-1.5299104322260124e-05,-1.7480398563288268e-05,-3.191669577124967e-05,-1.3049850430168842e-05
903,-4.942693647903306e-05,-5.644395234738236e-05,-0.00010026539825274448,-4.235969948592898e-05
904,-0.00014117828509579232,-0.00016155239348846935,-0.00027798037914353134,-0.00012179230453114402
905,-0.0003632139027489394,-0.0004174014164096729,-0.0006929574540118273,-0.0003159010952070938
906,-0.0008544294407220396,-0.000987791157117446,-0.001576871099624782,-0.0007500807188367281
907,-0.0018607141213228685,-0.0021667108771915695,-0.0033167837245149188,-0.0016499896644854054
908,-0.0037900315769710405,-0.004448555653414818,-0.006516690542157417,-0.003395970567642825
909,-0.007283056120372939,-0.008619332912611617,-0.01206650235037801,-0.006593909155240197
910,-0.0132999027002079,-0.015869222041600167,-0.021215653367842296,-0.012162927880418712
911,-0.02322267458805245,-0.027925214300673157,-0.035648427551009,-0.021439100052783162
912,-0.038972505994466805,-0.0472006674315566,-0.05755772508098558,-0.03629298205366961
913,-0.06313835676183527,-0.07695640223889326,-0.08971299135335424,-0.059257141905134876
914,-0.09911290333063634,-0.12146539267768208,-0.13551642340087594,-0.09365793569585659
915,-0.15122848323442384,-0.1861702272293316,-0.19903978014233695,-0.14374356122108578
916,-0.22488342467732297,-0.2778195890623266,-0.285032842148207,-0.21479804994212498
917,-0.3266466614018702,-0.40456742436949705,-0.3988944697440133,-0.3132286495044817
918,-0.46432678506358266,-0.576016753349939,-0.5465986837088727,-0.4466124224863935
919,-0.6469909717725578,-0.8031896952150797,-0.734571164129476,-0.6236872504378553
920,-0.884919679711462,-1.0984065755305361,-0.969515515946828,-0.8542731114168002
921,-1.1894846235144567,-1.475060098106097,-1.2581928364308386,-1.149111636188533
922,-1.5729402104048467,-1.9472754559071612,-1.6071618574949231,-1.5196155229996837
923,-2.0481222742512766,-2.529453711969049,-2.0224898393638204,-1.9775241975556093
924,-2.6280524493275674,-3.235703474614304,-2.5094464302306476,-2.5344678289012954
925,-3.3254517176916534,-4.079174371801471,-3.0721940831791303,-3.2014480624884993
926,-4.152172370730771,-5.0713145602313965,-3.713489560700738,-3.988250233481743
927,-5.118563686772299,-6.221082888495783,-4.434411640714644,-4.902808064152977
928,-6.232792869919472,-7.534153735068508,-5.234130250226262,-5.9505476658527385
929,-7.500148937884163,-9.012158347570262,-6.10973164800079,-7.133742820790098
930,-8.922362818541318,-10.652010127313396,-7.056112688879511,-8.450917681966247
931,-10.496981306311977,-12.445362231169588,-8.065954461386063,-9.896335758170926
932,-12.216835101234102,-14.378243698760498,-9.129781706950789,-11.459614763878081
933,-14.06964139308836,-16.430914832765957,-10.236109641405301,-13.125505041365598
934,-16.03777903973432,-18.57797373487593,-11.371674561683346,-14.873864387264852
935,-18.098269247383755,-20.78873398140348,-12.521739531776515,-16.679854191462276
936,-20.222986955245656,-23.027878949292667,-13.670462115494113,-18.514371200391313
937,-22.379118261118585,-25.256382127209534,-14.801308023981779,-20.344716743079196
938,-24.529867743689238,-27.432665964141407,-15.89749287558449,-22.135491900611047
939,-26.635407028297802,-29.513955660822276,-16.942433941919813,-23.84969384665847
940,-28.654042954842765,-31.457770062677433,-17.920194510942412,-25.449976221621437
941,-30.543570778246522,-33.223480592954076,-18.815905026364806,-26.90002546264793
942,-32.262765570741244,-34.773861877771765,-19.616147231035324,-28.165995891928794
943,-33.77295408021776,-36.07655494970697,-20.309290011486308,-29.217939429012535
944,-35.03960042950697,-37.10536596082164,-20.885768408163713,-30.03116149229502
945,-36.033832838072385,-37.84133015579208,-21.338300149673433,-30.587433484506793
946,-36.733835554256835,-38.27348214618117,-21.662036809552205,-30.875994702750553
947,-37.12603088459188,-38.399288683530536,-21.854648945364715,-30.894282888617045
948,-37.20598101197153,-38.224718280537644,-21.916346138704963,-30.648342991350482
949,-36.978948408972435,-37.76394203643802,-21.849833723670397,-30.152877715767364
950,-36.46006692736877,-37.038680565589615,-21.660208421286644,-29.430920343224376
951,-35.674092507425485,-36.07723161958806,-21.354795455800105,-28.513129086876766
952,-34.65472200869504,-34.91323049119782,-20.942930324751995,-27.436721651709597
953,-33.44348983810358,-33.58420943852818,-20.435689360858042,-26.244087516326168
954,-32.088273697856074,-32.13003226834049,-19.84557449462431,-24.981132679041277
955,-30.64146175415069,-30.59128531033495,-19.186158993371496,-23.69542636732376
956,-29.157852764149844,-29.007706094767425,-18.471702187745638,-22.434230819013425
957,-27.692377237800557,-27.41672625916945,-17.71674219192489,-21.24250316402087
958,-26.29774070590829,-25.852196013755584,-16.935676477307318,-20.160962232146915
959,-25.022098808191434,-24.343344612392617,-16.142341129907166,-19.224312464079993
960,-6.230311180347674e-11,-1.2690792927455434e-10,-3.2401618269835314e-11,-1.2533288415972424e-10
961,-1.3447223173329797e-09,-2.5409873390738155e-09,-7.272737391110152e-10,-2.573982178726011e-09
962,-1.5062813187552488e-08,-2.8420247555703147e-08,-8.370291305033407e-09,-2.880959729595684e-08
963,-1.1207679821012799e-07,-2.0959026085028442e-07,-6.344348800417007e-08,-2.122464508252634e-07
964,-6.272621172298028e-07,-1.1597856500934003e-06,-3.585873346107003e-07,-1.1719129680182857e-06
965,-2.8260426246162124e-06,-5.151414962450932e-06,-1.6166174158349683e-06,-5.188273787605599e-06
966,-1.071012195429522e-05,-1.9194385620285574e-05,-6.07448199540949e-06,-1.9249223405868368e-05
967,-3.521258966061538e-05,-6.190306024109033e-05,-1.963065052051587e-05,-6.176028348192356e-05
968,-0.00010275401391991525,-0.0001768942401223648,-5.587775974498058e-05,-0.0001754490500803012
969,-0.0002708354285989491,-0.000456139798437027,-0.00014277208482503214,-0.0004495024016237619
970,-0.0006537841561349641,-0.0010769396325825745,-0.0003325688616469893,-0.0010540361016793949
971,-0.0014617286984533347,-0.0023558474706107508,-0.0007154729979211874,-0.0022895393704085733
972,-0.0030552932439354024,-0.004821969970420155,-0.0014373779601269782,-0.004653017750648852
973,-0.0060175068420163305,-0.009310727666059424,-0.0027222006248304484,-0.008921355988196983
974,-0.011243244489846947,-0.01707758749417479,-0.0048996156593768886,-0.01625108970213698
975,-0.020045306162628052,-0.029929575089366705,-0.00843922557260625,-0.028292384825123296
976,-0.03427494782413585,-0.05037050899950076,-0.013992076684371376,-0.04731348987288296
977,-0.0564531265217971,-0.08175375446751672,-0.022439742779756435,-0.07633011133465731
978,-0.08990675051131387,-0.12843376343691595,-0.034949939677659074,-0.11923196395025662
979,-0.13890183783185098,-0.19590483123475272,-0.05303600796634862,-0.18089625758072442
980,-0.20876287901281268,-0.2909126671509692,-0.07861593804931061,-0.2672754032208591
981,-0.3059652295094281,-0.4215220401903261,-0.11406524757624313,-0.38544421772815934
982,-0.43818549668152557,-0.5971225016425393,-0.1622571840039634,-0.5435909223416695
983,-0.6142941341915538,-0.8283544832691054,-0.226583466803153,-0.7509367204472406
984,-0.8442752194723553,-1.1269402427997683,-0.31094901366926203,-1.017571001183625
985,-1.1390608254505685,-1.5054082267484858,-0.4197346759223926,-1.3541932454890526
986,-1.5102713659403697,-1.976705289305448,-0.5577228774429756,-1.771758250121861
987,-1.9698584260871181,-2.553698486682449,-0.729982265358885,-2.2810278468567318
988,-2.529652457691383,-3.248576409144809,-0.9417091795725622,-2.892039354497493
989,-3.200823960170352,-4.072168677158551,-1.1980260559301432,-3.61350808989086
990,-3.9932731172099167,-5.033210731110682,-1.503739823938742,-4.452188042771155
991,-4.914969102838108,-6.137588776537372,-1.8630668399960868,-5.412221029651195
992,-5.971266161350777,-7.387606077157515,-2.2793346814361026,-6.494509968688049
993,-7.164228759968078,-8.78131613531946,-2.754674878138018,-7.696155923945979
994,-8.492002133709704,-10.311970119391132,-3.2897239489159396,-9.01000063958802
995,-9.948266824158852,-11.967624776662413,-3.8833524652749523,-10.424315787014281
996,-11.521815803958804,-13.730952716144175,-4.532442845337639,-11.922676554690863
997,-13.196290090295532,-15.579289282500573,-5.2317358960958265,-13.48405032981256
998,-14.950103285604566,-17.48493939446163,-5.973763699417697,-15.083121242551057
999,-16.756577519535867,-19.415754102205277,-6.748882414133777,-16.690858877212353
1000,-18.584303444541437,-21.33597091028303,-7.545413210207318,-18.275325383110793
1001,-20.397726183246302,-23.20729511392547,-8.349893190962788,-19.802700601880126
1002,-22.157948460217774,-24.990182748874794,-9.147431167841988,-21.23849075045571
1003,-23.823732445894095,-26.645270630030943,-9.922155991899961,-22.548873658042453
1004,-25.352673603077054,-28.13488669477905,-10.657738398086957,-23.702123391188728
1005,-26.702513120652377,-29.424565555607995,-11.337961619822455,-24.670049901262193
1006,-27.83255012262103,-30.484490544850544,-11.947311925241294,-25.42938547559271
1007,-28.705110526691826,-31.290784908300395,-12.471558015285341,-25.963049445914717
1008,-29.287026219338188,-31.826581125440647,-12.898287960980563,-26.26122589162925
1009,-29.551076394450995,-32.082808189773694,-13.217373959190324,-26.322195932253464
1010,-29.477342795705024,-32.0586513907341,-13.421338575835913,-26.152876466982253
1011,-29.054432277691422,-31.761656737069192,-13.50560128230046,-25.7690304421614
1012,-28.280523236997254,-31.207471530040127,-13.468590884708917,-25.19512915085621
1013,-27.164196429796032,-30.41923250240331,-13.311717613334922,-24.463863606572005
1014,-25.725014780523505,-29.426632155231058,-13.039207620537807,-23.615318441012413
1015,-23.993820452711876,-28.26471127203219,-12.657811627920907,-22.69583685272497
1016,-22.012720484003143,-26.97243996475151,-12.176407575651401,-21.756617890239934
1017,-19.834734903660085,-25.591160075483963,-11.605523599139149,-20.85209717022485
1018,-17.523084120412992,-24.162967594217633,-10.95681202502522,-20.038168751735192
1019,-15.150096494620529,-22.729114573473545,-10.242507203775196,-19.370309433017116
1020,-12.795723485255454,-21.328505835340927,-9.474899958655868,-18.90166756293311
1021,-10.545659472352868,-19.996357031000308,-8.665859367136152,-18.681177070302873
1022,-8.489076767250152,-18.763068201481016,-7.826428619573494,-18.751754330544777
1023,-6.716003416629389,-17.653352087782725,-6.966515986478153,-19.148631192728892
1024,-2.0823250492475273e-10,-8.618845954938287e-11,-9.570288908712455e-11,-1.3573344394134928e-10
1025,-3.8525701690953215e-09,-1.7900332083632349e-09,-1.9379754504739085e-09,-2.497369227878906e-09
1026,-4.3103869482820335e-08,-2.0178998924435388e-08,-2.1784042134594996e-08,-2.7929677108350544e-08
1027,-3.143501558966008e-07,-1.4962569898712291e-07,-1.608834774539311e-07,-2.0366265807060564e-07
1028,-1.7168251784924394e-06,-8.313726242953301e-07,-8.907803779734388e-07,-1.1138133090705305e-06
1029,-7.508479883237195e-06,-3.7024741349597714e-06,-3.954438175775499e-06,-4.884891554774499e-06
1030,-2.748629049890727e-05,-1.3810613121033607e-05,-1.4708321935403402e-05,-1.7956759008400465e-05
1031,-8.692806812591399e-05,-4.451922265325892e-05,-4.7292729877555666e-05,-5.709410715517109e-05
1032,-0.00024324426846305261,-0.00012697029109105557,-0.00013458013532205592,-0.00016075936620299554
1033,-0.0006136269651376496,-0.0003263315810826691,-0.0003452200952062593,-0.00040828754137902875
1034,-0.0014167833997228807,-0.000767064970925663,-0.0008100916314240467,-0.0009491879038054389
1035,-0.0030311862751339893,-0.0016690741892396374,-0.0017600328116327624,-0.002044344044440716
1036,-0.006071244342143835,-0.0033958876749313176,-0.0035758951280722324,-0.004119982837326102
1037,-0.011481508211342776,-0.00651515101396885,-0.00685094667836435,-0.00783424448377217
1038,-0.02064743077483842,-0.011870748689291492,-0.012464601606176486,-0.014155113550183016
1039,-0.035519314342423364,-0.02066489472610599,-0.02166550652420559,-0.024447395762465133
1040,-0.05874389085707154,-0.03454748137746172,-0.036161114620221174,-0.040565216920451334
1041,-0.09379559661460345,-0.05570879827933445,-0.058209857095786674,-0.06494508713353689
1042,-0.14509712015198478,-0.0869703862260506,-0.09071066281203659,-0.10069286058376212
1043,-0.21811635914795433,-0.1318673090049452,-0.1372828159615289,-0.15165605488479827
1044,-0.3194248188249463,-0.19471364022464066,-0.20232717566135905,-0.22247123481633022
1045,-0.45670107940144095,-0.28064168485611923,-0.29105809262265364,-0.31857487168348064
1046,-0.6386627407496979,-0.395604680639576,-0.4094945859632611,-0.4461656819965026
1047,-0.8749115538513951,-0.546332748687319,-0.5643999750452686,-0.6121072315628926
1048,-1.1756795384649963,-0.7402329525100771,-0.7631613228153473,-0.8237617757269843
1049,-1.5514687954314876,-0.9852266083712431,-1.0136034003528676,-1.0887498737723977
1050,-2.0125843985020393,-1.2895204347728266,-1.3237358800713084,-1.4146351286585392
1051,-2.568567861049474,-1.6613124872533023,-1.7014366388418904,-1.8085391272868367
1052,-3.2275477232374574,-2.108438711044724,-2.154078274973147,-2.2766978969508855
1053,-3.9955330599303056,-2.637970903008493,-2.688109330419099,-2.8239774601931678
1054,-4.8756843905059375,-3.255781510156268,-3.308606364537694,-3.4533718873205554
1055,-5.8676038590863095,-3.9660947363069274,-4.0188177574379065,-4.16551218940634
1056,-6.966691970253132,-4.771046716060389,-4.819724361727438,-4.958218065899501
1057,-8.163621089862188,-5.670279936991377,-5.709645145900625,-5.826126613281927
1058,-9.44397584006111,-6.6605984689921955,-6.683917138796639,-6.7604322758727795
1059,-10.788107118733032,-7.735710642103158,-7.734677977415883,-7.7487703121393
1060,-12.171239524478807,-8.886084274229772,-8.850776161706076,-8.775271596763924
1061,-13.56386149476519,-10.098936122753392,-10.017828947425619,-9.820809585414032
1062,-14.932413605817823,-11.358371794707493,-11.218440940019248,-10.863450759698232
1063,-16.240273710409685,-12.645685035364037,-12.432588204124007,-11.879108153242116
1064,-17.449018657050186,-13.939816505229393,-13.638163389328952,-12.842384183998892
1065,-18.519922446623987,-15.21796245238493,-14.811667411995378,-13.727574878993549
1066,-19.41563132763563,-16.456313800057373,-15.929023199164723,-14.509793808453292
1067,-20.101939092054277,-17.630896824354352,-16.96647763438958,-15.166161876246113
1068,-20.549572257225908,-18.718478490968973,-17.901549978985678,-15.676999729501405
1069,-20.735886169729444,-19.69749325774775,-18.713979414847774,-16.026953870797577
1070,-20.646370380396856,-20.548944248379232,-19.386621542736794,-16.205986253507938
1071,-20.27586545643747,-21.257230511255873,-19.9062439991661,-16.210160499277272
1072,-19.629403825887138,-21.810853785333098,-20.264174943133,-16.04216588941375
1073,-18.72260380467662,-22.202962780502595,-20.45676484304143,-15.71153255465853
1074,-17.581567806957967,-22.431700256986446,-20.48563132967425,-15.234507188191266
1075,-16.24226166555721,-22.50032778198373,-20.35766817296779,-14.633577219998648
1076,-14.749380600833172,-22.417114448043858,-20.084811921527397,-13.936651685038449
1077,-13.154737015711962,-22.194988431249392,-19.683572709617497,-13.175927804791598
1078,-11.51523417569524,-21.850963365920627,-19.174348620830653,-12.386492325784143
1079,-9.890516138477084,-21.40536440525435,-18.580555270356545,-11.604724631865762
1080,-8.340406245149198,-20.880890777090517,-17.927613259774837,-10.866583276830475
1081,-6.922262540562307,-20.301561878936205,-17.241845037295253,-10.205867744398969
1082,-5.688387299951644,-19.69160173014747,-16.549338539745825,-9.652551969108934
1083,-4.68362850147811,-19.07432125431395,-15.87483707238961,-9.231284844248366
1084,-3.9433031776412504,-18.471058918004115,-15.240712890118392,-8.960145363650616
1085,-3.4915564306825972,-17.900237487515994,-14.666076122098216,-8.849726487216396
1086,-3.340246503849511,-17.37658818286391,-14.166061750621411,-8.902603083761901
1087,-3.4884172237005133,-16.910583726659375,-13.751326282539374,-9.113216670294635
1088,-9.040805931845895e-11,-1.0400389021716822e-10,-9.681442823679079e-11,-9.181694946434313e-11
1089,-1.8427449173827027e-09,-2.1976242749648082e-09,-1.8366306236760431e-09,-2.1399076777564417e-09
1090,-2.0989016896912446e-08,-2.4151755263114812e-08,-2.018010691662103e-08,-2.5507731445162106e-08
1091,-1.5762133892707503e-07,-1.7532823901823796e-07,-1.4554599287520886e-07,-2.0248171328750148e-07
1092,-8.868350352783448e-07,-9.541803927548926e-07,-7.872705367628303e-07,-1.2056235736954126e-06
1093,-3.995878428095703e-06,-4.1667649813273244e-06,-3.419263350355763e-06,-5.7448959290399255e-06
1094,-1.5060505173217604e-05,-1.5262441186335756e-05,-1.2474139169157899e-05,-2.284118224114861e-05
1095,-4.897683815560066e-05,-4.839287991421057e-05,-3.9474851218091214e-05,-7.805396825203125e-05
1096,-0.00014068244698095674,-0.00013599315328804648,-0.00011099242045740542,-0.0002344797298493771
1097,-0.00036359031757872813,-0.00034498587363002094,-0.00028247465286004365,-0.000630482037240598
1098,-0.0008583188460956429,-0.0008016628143773054,-0.0006602495685959843,-0.0015401451119321176
1099,-0.0018742171446503308,-0.0017268293913238304,-0.0014339204852762653,-0.0034612828221773015
1100,-0.0038264612927592346,-0.0034819054657000865,-0.0029207971304171586,-0.007234110128692229
1101,-0.007372642959803184,-0.006625442884334211,-0.005622940820976502,-0.014192311915948138
1102,-0.013514848370010726,-0.011978059298116524,-0.0102959544494743,-0.026347745934409767
1103,-0.02373556943779983,-0.02069222753757496,-0.01802705402295764,-0.046610091285868516
1104,-0.04017721376169384,-0.03432180754784867,-0.030318431639111344,-0.07904240283209621
1105,-0.06587440992692821,-0.05488476212391834,-0.04917052849125296,-0.12915156637205885
1106,-0.10504531675618363,-0.08491127991383603,-0.07715848188659873,-0.20420831729114736
1107,-0.16344319366885468,-0.12746864659930163,-0.1174935106576073,-0.31358498675753727
1108,-0.24876357321880532,-0.18615372145484643,-0.17405939188374292,-0.46909171237502895
1109,-0.3710964910806786,-0.2650437953297163,-0.2514128294452084,-0.6852852351939036
1110,-0.5434077184466235,-0.3685970274234449,-0.35473610973089725,-0.97971991827322
1111,-0.7820272255752454,-0.5014949186004385,-0.4897316392539652,-1.3731084446801507
1112,-1.1071159494763738,-0.6684219617554201,-0.6624511115580215,-1.8893589199635652
1113,-1.5430724487347272,-0.8737822202528398,-0.8790569450417725,-2.555454784699924
1114,-2.118829634921366,-1.1213591555506939,-1.1455195803424036,-3.401143899574305
1115,-2.8679804747705226,-1.4139328785008811,-1.4672603043711014,-4.458404515327026
1116,-3.8286632257853603,-1.7528769345585338,-1.8487547759558371,-5.760660302156885
1117,-5.043133943304601,-2.1377634859225227,-2.2931171668440413,-7.341725299142584
1118,-6.556958063982694,-2.566010448452387,-2.8016889935608735,-9.234472269855804
1119,-8.417763896786118,-3.0326064837998157,-3.373660501348334,-11.469233112709246
1120,-10.673518282513953,-3.529949784111049,-4.005755622769971,-14.071956285773393
1121,-13.370308187183532,-4.047834333808994,-4.692013335645704,-17.062163210823606
1122,-16.54964176579339,-4.573612547145767,-5.42369764621614,-20.450763664711847
1123,-20.245318411648146,-5.092555536576309,-6.189364482394289,-24.23780939735528
1124,-24.479958171784315,-5.588421636300302,-6.9751059406836795,-28.410284779578365
1125,-29.261323763948308,-6.044230418053201,-7.764980768425451,-32.940051323559416
1126,-34.57860955502248,-6.443223807839914,-8.541625724794219,-37.78207708448278
1127,-40.39890770879197,-6.76997884080787,-9.28702733496049,-42.87308986531346
1128,-46.66408937218796,-7.011619255638447,-9.98341944181243,-48.130792755340266
1129,-53.28835584775047,-7.159057151878219,-10.614260211653102,-53.45377062337217
1130,-60.15671885888111,-7.208183188278495,-11.165233375845837,-58.72219684438771
1131,-67.12465771864274,-7.160915985724235,-11.625212438228187,-63.79942211785568
1132,-74.01917183712244,-7.026019710634253,-11.987123361594183,-68.53449366512368
1133,-80.6413975730106,-6.8196038368636245,-12.248641259049096,-72.76561493190903
1134,-86.77088861963544,-6.5652309218658464,-12.412660633434555,-76.32451371892357
1135,-92.17157110483477,-6.293576592169172,-12.4874874814446,-79.04164015738827
1136,-96.59928320530898,-6.041610134045867,-12.48671546500168,-80.75206519782317
1137,-99.81070110175585,-5.851292974237556,-12.428766962449602,-81.30189710150634
1138,-101.57334602208724,-5.767824290676935,-12.33610200209499,-80.55498188623532
1139,-101.67626821071153,-5.83749597521631,-12.23412207953987,-78.3996091487204
1140,-99.94091976539389,-6.10525088247877,-12.149819583034963,-74.75491214500272
1141,-96.2316659651394,-6.612066345629167,-12.11024486300335,-69.57663396718043
1142,-90.46535023368648,-7.392306943657621,-12.140879892415947,-62.86193219844971
1143,-82.61932652925574,-8.471204269624204,-12.264018389416627,-54.652913706852196
1144,-72.73740810552768,-9.86262521183675,-12.497256232092369,-45.03862949428634
1145,-60.933253899588685,-11.567283086709208,-12.85219281526059,-34.15531560091688
1146,-47.3908210067708,-13.571527957780923,-13.333434155108014,-22.184737227408167
1147,-32.361649011703946,-15.846824683498985,-13.937972858678021,-9.350575755178987
1148,-16.158902723719443,-18.349991243278655,-14.654999314954747,4.087111424147359
1149,0.8517241281970066,-21.0242275854068,-15.466173369092818,17.839233536172884
1150,18.263960411162408,-23.80091886010003,-16.346357279815297,31.596590567948496
1151,35.645305483609924,-26.60214923499995,-17.264780489047983,45.040064733823996
1152,1.5557785012222103e-10,-1.2673729277596276e-10,-1.1715626932557749e-10,1.7279448207917832e-10
1153,3.025083076544871e-09,-2.7680271666874026e-09,-2.419164893746524e-09,3.345125723488809e-09
1154,3.6458285988614276e-08,-3.1141139132829777e-08,-2.6431307061121675e-08,3.861524071601233e-08
1155,2.8413292231252377e-07,-2.3172622822520526e-07,-1.9095826735575153e-07,2.918990831298834e-07
1156,1.6503912040105815e-06,-1.292269072255772e-06,-1.0310592489929093e-06,1.65630186629684e-06
1157,7.636024944857453e-06,-5.779209181828273e-06,-4.4556134637710714e-06,7.53049146400431e-06
1158,2.9415266694658455e-05,-2.1661077341681116e-05,-1.6109048502165166e-05,2.8628540023040036e-05
1159,9.739415705255612e-05,-7.020849162009522e-05,-5.0298143579665435e-05,9.380583220186601e-05
1160,0.0002839593785083777,-0.00020146783038035087,-0.0001389333330504924,0.0002710634511506026
1161,0.0007431172114177695,-0.0005213004444737282,-0.0003460264283631563,0.0007034472680344474
1162,0.0017728425839484369,-0.001234246951729217,-0.0007892640463574651,0.0016641367804991556
1163,0.0039051082156464495,-0.0027060010749060865,-0.0016702930856275023,0.003633722072194189
1164,0.008026812431152965,-0.005547981821408577,-0.003315872877651668,0.007400845795025488
1165,0.0155324006817357,-0.010724484798768162,-0.006232943241680504,0.014185476373481708
1166,0.028505988005122173,-0.019680450319526508,-0.011181462397602008,0.025782213771316228
1167,0.049927373063319465,-0.034485417819962595,-0.019268813640380116,0.04471908225592672
1168,0.08389258481089763,-0.05798710790035492,-0.032068012428285345,0.07442482811782498
1169,0.13583569375648746,-0.09396638880222606,-0.05175880100921468,0.11939454095613869
1170,0.21273463771786463,-0.14728388791078376,-0.08128660402331224,0.1853395830576872
1171,0.3232797643301906,-0.22400675990942698,-0.12453020430316954,0.27930392185416597
1172,0.477979867601751,-0.3315018713375347,-0.18646567709654566,0.4097257845232603
1173,0.6891772146636879,-0.47847916584273315,-0.2733118884874639,0.5864216305591928
1174,0.9709414708229006,-0.6749670534719582,-0.39264156216725155,0.8204692011191417
1175,1.3388136908660966,-0.9322013884484549,-0.5534411850351527,1.1239682727280016
1176,1.8093766009551089,-1.2624118312740755,-0.766102610300944,1.5096623116194925
1177,2.3996364672252084,-1.678494385355811,-1.0423291720951195,1.9904118457696125
1178,3.1262144820555093,-2.193566216511229,-1.3949398869956735,2.578520884398459
1179,4.004360716179277,-2.820407588713661,-1.8375576076462696,3.284930227476871
1180,5.046820036182712,-3.5708048853707894,-2.3841715902497893,4.118304746957982
1181,6.2625956924424715,-4.454817447316802,-3.048572282960728,5.0840544582643465
1182,7.655671401875513,-5.479998825240045,-3.8436660678408057,6.183340459222215
1183,9.22376565115593,-6.650609665635003,-4.78068933832012,7.4121259583564605
1184,10.957201601142263,-7.966864501554619,-5.8683533612991905,8.76033907566592
1185,12.837981442271273,-9.424257889986098,-7.1119624621151125,10.211217355234949
1186,14.839154333889951,-11.013016330007355,-8.512556972097837,11.740903288036636
1187,16.924561289727396,-12.717720967747324,-10.06613820269377,13.318354871154398
1188,19.04902781120921,-14.51714201291324,-11.763034848192166,14.90562455417273
1189,21.159055514715547,-16.38431885197094,-13.587468337364053,16.458543447175686
1190,23.194037858709457,-18.286909913266786,-15.51736864730809,17.92782556390604
1191,25.08799362920729,-20.18782352542683,-17.5244820786415,19.26058024387924
1192,26.77177702118245,-22.046125775858886,-19.5747987408788,20.40219160154107
1193,28.175687486740586,-23.81820462273362,-21.629310470894325,21.29849435741447
1194,29.232368819328837,-25.459152510362305,-23.645090312995958,21.898148341315004
1195,29.879858040186573,-26.92431395473608,-25.576663593915573,22.155091756428863
1196,30.064623167690108,-28.170931454640062,-27.377619442258986,22.030938002136658
1197,29.744416915998276,-29.159813827807,-29.00239196479543,21.497173900736108
1198,28.890772227571517,-29.856946434077425,-30.408123881834975,20.537019447093904
1199,27.490975956504766,-30.23496297855521,-31.556513772937976,19.14682092295494
1200,25.549379005329314,-30.274403500150353,-32.41554247887173,17.336870086696152
1201,23.087933938436098,-29.964692242108878,-32.9609755544244,15.131571207765884
1202,20.14589290725263,-29.30478174401246,-33.177547404378146,12.568913482091679
1203,16.778647071023546,-28.30342502745143,-33.05974866680335,9.69924677874177
1204,13.055740384412026,-26.97905551259377,-32.61216066889021,6.5834012512177695
1205,9.058142115608106,-25.359273563504477,-31.849307851664744,3.2902333285834153
1206,4.874910142219955,-23.479958422941706,-30.79502895410772,-0.10628098075156349
1207,0.5994176096685578,-21.38404366679543,-29.481398218797104,-3.5302525562494766
1208,-3.67465406499079,-19.12001192531904,-27.94725668027412,-6.907209590212649
1209,-7.857334891624337,-16.740179220776017,-26.236438651682214,-10.167364365049655
1210,-11.866173755272667,-14.298849767374003,-24.395798031610468,-13.248629342328954
1211,-15.62961919405385,-11.850427741107668,-22.473151545878444,-16.099208685383555
1212,-19.089783786080908,-9.447573071894281,-20.515260449096214,-18.679616379166514
1213,-22.204439919452334,-7.139483900990218,-18.56596799554471,-20.96400738410223
1214,-24.9481426013951,-4.970379504517273,-16.664597272295243,-22.940751299089573
1215,-27.3124298484599,-2.9782449707347594,-14.844693658402587,-24.612225696270865
1216,-1.2441794913192196e-10,-1.2770397177189365e-10,-3.335218218355776e-11,-1.5183598595112574e-10
1217,-2.66311025130433e-09,-2.6616070471370176e-09,3.4828245143435343e-10,-3.2752556939283007e-09
1218,-2.9935721114127536e-08,-2.9662629869708826e-08,3.3559990574593436e-09,-3.640368706653928e-08
1219,-2.2330517624647299e-07,-2.1781105179315966e-07,2.6038991582384265e-08,-2.675198084094609e-07
1220,-1.2517926728929234e-06,-1.1987528040257949e-06,1.435153039820274e-07,-1.473064249256901e-06
1221,-5.640041612621343e-06,-5.290368412082856e-06,6.11048623167734e-07,-6.503560047197928e-06
1222,-2.133244498312787e-05,-1.9567288955796252e-05,2.082811657610142e-06,-2.4061302507586393e-05
1223,-6.984068940223119e-05,-6.259032871535678e-05,5.805924957038937e-06,-7.697538234473026e-05
1224,-0.00020248908006598353,-0.00017728345809537734,1.3285101944174987e-05,-0.0002180177791803194
1225,-0.0005292160202000604,-0.00045292721741748115,2.431638207112835e-05,-0.0005568595556380325
1226,-0.001264717086275959,-0.0010592959808011448,3.166253827308846e-05,-0.001301782424063372
1227,-0.0027962230261374035,-0.002295553571145902,1.0277051339436276e-05,-0.0028191824031871503
1228,-0.0057759684021571455,-0.00465568510094478,-0.0001008455967093522,-0.0057128291158569395
1229,-0.011239707067298549,-0.008911105385041852,-0.00042545651690420206,-0.010923470165407284
1230,-0.020750717245984283,-0.016209719508957488,-0.001185805610721758,-0.019847833066508242
1231,-0.036566678569425935,-0.028189146830024412,-0.0027468376035811757,-0.034474411356749494
1232,-0.06182446305449788,-0.047100009037044234,-0.005667713662791799,-0.057531537272725634
1233,-0.10073510540811738,-0.0759330997506183,-0.010759154543124943,-0.09264104473901975
1234,-0.15877796857118023,-0.11854194221168589,-0.019144659604308174,-0.14446829971624908
1235,-0.24287958270739268,-0.17974987286753685,-0.03232288773429781,-0.218856689570481
1236,-0.36155919659983454,-0.26542867844828366,-0.052227228840665725,-0.3229321575169525
1237,-0.5250202775708525,-0.38253434139620596,-0.0812770280576661,-0.46516148331839907
1238,-0.7451656450768002,-0.5390850138513232,-0.1224134747622216,-0.6553472068634342
1239,-1.0355141730901245,-0.7440672355953689,-0.17911235109782195,-0.9045427384194645
1240,-1.4109994119895304,-1.0072588048430127,-0.2553660983244766,-1.2248735429921795
1241,-1.8876351401474902,-1.3389605818039083,-0.35562906809878136,-1.629254372664877
1242,-2.4820396097812436,-1.7496347084814703,-0.484722196432511,-2.130998216302584
1243,-3.210818792979704,-2.2494529928920235,-0.6476962147022105,-2.7433196270468203
1244,-4.0898188638424,-2.8477662146068377,-0.849655455322331,-3.478742954112648
1245,-5.1332689298738226,-3.5525124657141554,-1.0955470617661915,-4.348434226513497
1246,-6.352845941288619,-4.369589869203534,-1.3899228977189828,-5.361483415772613
1247,-7.7567039217661025,-5.302225535257648,-1.73668385024958,-6.524170886265222
1248,-9.348518299868317,-6.35037775989746,-2.1388186231928197,-7.83925736178792
1249,-11.126602363520954,-7.5102116148265585,-2.5981514899681772,-9.305340142605248
1250,-13.083155978637409,-8.77368870182384,-3.115115383611953,-10.916319210387833
1251,-15.203706106306218,-10.128309653338631,-3.688567575932842,-12.66101507779231
1252,-17.466793879740713,-11.557042855884262,-4.315664408452803,-14.52297572116853
1253,-19.843953888334493,-13.038464984417132,-4.991808885217497,-16.48050272137093
1254,-22.300018017042895,-14.547128554799826,-5.7106806254454545,-18.506916935574488
1255,-24.793759273186243,-16.054159323078725,-6.464352352520957,-20.57107190476767
1256,-27.278871454780813,-17.52807265202121,-7.243491472332588,-22.63810928114407
1257,-29.705259555799973,-18.935783792955917,-8.037639866448398,-24.670435673648015
1258,-32.02059492378133,-20.243773380701864,-8.835560077659105,-26.628885568374955
1259,-34.172069884422186,-21.419357326764313,-9.625631663572582,-28.474021638882267
1260,-36.10827027390184,-22.432000683635952,-10.396277859486176,-30.16751304711882
1261,-37.781072381372205,-23.254608741124493,-11.136400093063113,-31.673525243150983
1262,-39.147464336122816,-23.864726234877192,-11.835796735610389,-32.96005195710097
1263,-40.171191837384896,-24.24557747162644,-12.485542945135592,-34.000121770753275
1264,-40.824134827427976,-24.386886518331732,-13.07831060938697,-34.772817703752196
1265,-41.087335253989366,-24.28542712177431,-13.608610989560667,-35.26405813653081
1266,-40.951615865615935,-23.945266147819133,-14.072947443021656,-35.46710035973616
1267,-40.41775478640006,-23.377681133618054,-14.469871196844394,-35.38274315345615
1268,-39.49620863765229,-22.60075089097063,-14.799939261592542,-35.019221076370954
1269,-38.20640607066858,-21.638636711957407,-15.065579814602357,-34.39179960862171
1270,-36.57566149890317,-20.520589349414145,-15.27087627967063,-33.52209601997886
1271,-34.63778342395279,-19.27973242837798,-15.421286351793514,-32.437164952047844
1272,-32.43147116118544,-17.951685316706754,-15.523315774242635,-31.168399368385593
1273,-29.99860654505547,-16.573097029704588,-15.58416842233758,-29.75030598809465
1274,-27.382552390365287,-15.180166995468705,-15.61139404775451,-28.21921897046088
1275,-24.62656669693384,-13.807228275511363,-15.6125531420832,-26.612016121367837
1276,-21.7724308976499,-12.485464173560384,-15.59491522726451,-24.964898242943317
1277,-18.859372446861652,-11.241820377377554,-15.56520298586961,-23.312284826931652
1278,-15.92333783982044,-10.098162413523742,-15.52939046241212,-21.685868843865073
1279,-12.996643397967379,-9.070713044149043,-15.492559455799661,-20.113860922841173
1280,-1.8767170611465574e-10,-9.17238036283547e-11,-9.238541800723112e-11,-1.4827296697319284e-10
1281,-4.047268582184971e-09,-2.0098530115038743e-09,-1.6389590023313879e-09,-3.2309616907458577e-09
1282,-4.418266656053797e-08,-2.234125926809678e-08,-1.897473513303798e-08,-3.5620807616232794e-08
1283,-3.1884458577374816e-07,-1.6436761135509556e-07,-1.4372523937477403e-07,-2.5976843868096245e-07
1284,-1.7212548451282015e-06,-9.055436199578868e-07,-8.193971651775064e-07,-1.4175955606167732e-06
1285,-7.4408096246167486e-06,-3.997847142552244e-06,-3.755247908496887e-06,-6.1958041104916305e-06
1286,-2.6930487611845684e-05,-1.4782329109650788e-05,-1.4444239898143793e-05,-2.2670689889872048e-05
1287,-8.424360070187565e-05,-4.723830218663123e-05,-4.8068011167615655e-05,-7.167377061686768e-05
1288,-0.00023332064805478816,-0.0001335821817000482,-0.00014155276604231517,-0.00020050352486426022
1289,-0.0005830537773232684,-0.0003405279575388736,-0.00037539586800574876,-0.0005056580964977752
1290,-0.0013348005500095042,-0.0007943065393798668,-0.0009092123163475425,-0.0011670550872394064
1291,-0.0028345303587197146,-0.0017162290980970735,-0.002034487482915301,-0.002495598843410101
1292,-0.005641068927659485,-0.0034700787144299333,-0.004246737742747535,-0.0049951299146229556
1293,-0.01061103536898527,-0.00662204365899748,-0.008337476528571709,-0.009438920860395317
1294,-0.019000045001331733,-0.012013286388487641,-0.01550448896211889,-0.016960002139330677
1295,-0.032578525668055414,-0.020844483583861904,-0.027477253575520853,-0.029153588264699166
1296,-0.0537589413362922,-0.03477062134560491,-0.046652924085830876,-0.04818852135076486
1297,-0.085729218079641,-0.05600288864584004,-0.07623681505671641,-0.07692284283194946
1298,-0.13258472111608796,-0.08741271097945318,-0.12037942580817483,-0.11901644638886645
1299,-0.19944847422864304,-0.13263098176863397,-0.1842995308919675,-0.1790315794627579
1300,-0.2925668924095191,-0.1961336513206815,-0.27438003274684103,-0.26251017461277093
1301,-0.4193666143203117,-0.28330331652604246,-0.3982208034791972,-0.3760159627285189
1302,-0.5884574507030362,-0.40045558956761895,-0.5646315163759198,-0.5271292536771549
1303,-0.8095671804711408,-0.5548190203107985,-0.7835481049419926,-0.7243832159205714
1304,-1.093395970783028,-0.7544583419873,-1.0658591724772695,-0.9771324263816924
1305,-1.4513815409998356,-1.0081328351344774,-1.4231330950856385,-1.2953473554425783
1306,-1.895370758271983,-1.325084586424854,-1.8672422426236523,-1.6893322613186827
1307,-2.4371989602503525,-1.7147551873287357,-2.409887243503787,-2.1693686007668163
1308,-3.088184655811524,-2.1864337648570933,-3.062031314482214,-2.7452913337931464
1309,-3.858553982073519,-2.7488439530219693,-3.8332621962642826,-3.426011090657093
1310,-4.756815999402143,-3.4096823025869982,-4.731106929577789,-4.219000653904473
1311,-5.78911617675397,-4.175125478500518,-5.760332111244923,-5.129769106476814
1312,-6.958600800219417,-5.049328140261415,-6.9222686788505285,-6.1613508393526235
1313,-8.264829030365417,-6.033937288735437,-8.214204901709463,-7.3138390116870955
1314,-9.703271427260015,-7.127651653749223,-9.628893299865883,-8.583993733377195
1315,-11.264933518890684,-8.325855925502733,-11.154216061941325,-9.964954045798974
1316,-12.936140074477645,-9.620358891559087,-12.773048826411186,-11.446079655844256
1317,-14.698509984388108,-10.999261586947382,-14.463354521009538,-13.012943353045411
1318,-16.529143077991055,-12.446976378800361,-16.198527796525926,-14.647488194385303
1319,-18.40102919326494,-13.944410727045383,-17.94799724961476,-16.328355094427696
1320,-20.283677061950797,-15.469320648691232,-19.67807793938848,-18.031376817446198
1321,-22.143947081768733,-16.996829287665008,-21.353051441111752,-19.730224162756333
1322,-23.947058872325005,-18.500096141089063,-22.93643553009473,-21.397180145341846
1323,-25.657732609265434,-19.9511130753284,-24.392391273756928,-23.004009021580153
1324,-27.241413301022394,-21.32159486473077,-25.68720274455518,-24.52287985430273
1325,-28.66552006943344,-22.58392510565546,-26.790754786219093,-25.927299568875185
1326,-29.900658667261553,-23.71211345814189,-27.677928367872063,-27.193008560708964
1327,-30.921735285417913,-24.682717656946384,-28.32983193861341,-28.29879307528288
1328,-31.708913320242615,-25.47568393578072,-28.734791473212393,-29.227172739236583
1329,-32.248362064013456,-26.075062579073165,-28.88903174671986,-29.96492845489848
1330,-32.53275689297555,-26.469561202027172,-28.79699651583111,-30.503444872348595
1331,-32.56150386432531,-26.652906782656647,-28.47127487045883,-30.838852208342285
1332,-32.340676895876484,-26.623997955341913,-27.9321237433456,-30.971963663533632
1333,-31.88267189658873,-26.38684097988815,-27.206600732728162,-30.908016467729375
1334,-31.205598253805004,-25.950275340382902,-26.32734518429853,-30.65623599983247
1335,-30.332442882550453,-25.327507217645255,-25.33106718658054,-30.22925277053829
1336,-29.290054591905783,-24.53548018820208,-24.256822303575436,-29.642410566707994
1337,-28.108005937340113,-23.59412156983379,-23.144163436970764,-28.913010032174753
1338,-26.817395297261598,-22.525509171434965,-22.031269437825163,-28.059534840174408
1339,-25.4496532405327,-21.35300639183065,-20.95315260207915,-27.100907088471672
1340,-24.03541434645979,-20.10041351042949,-19.940043893452998,-26.055814614141987
1341,-22.603508914373936,-18.791179742977782,-19.01604578724851,-24.942145902493202
1342,-21.180119163795013,-17.44771453060026,-18.19812834136781,-23.776558773494063
1343,-19.788132435864988,-16.090828090941493,-17.495524985168213,-22.574197908818174
1344,-2.396902252088731e-13,-1.164854217175493e-10,-8.41118374740927e-11,-8.804901358320192e-11
1345,-1.5180267110656915e-13,-1.786029433944812e-09,-1.8510768506812693e-09,-1.8078086291134362e-09
1346,2.3514603295290133e-13,-2.04222919320945e-08,-2.1021326333900568e-08,-2.053629443490934e-08
1347,1.0183261877820867e-12,-1.4933468573028838e-07,-1.5785528789527334e-07,-1.540738484903869e-07
1348,-2.8722752116361633e-12,-8.202678183101513e-07,-8.879918265008375e-07,-8.677368352594193e-07
1349,3.2230380140634392e-12,-3.6145027501192816e-06,-4.002694676581688e-06,-3.92353908416415e-06
1350,-2.8683298770728743e-12,-1.3353783465191112e-05,-1.5104323001585763e-05,-1.4880441793568867e-05
1351,2.7801655603587983e-12,-4.268925181732508e-05,-4.921950683312964e-05,-4.882588097735519e-05
1352,-2.9443611367616177e-12,-0.0001209000834741477,-0.000141772777114114,-0.00014184951269963355
1353,2.7443413028167345e-12,-0.0003089706934039384,-0.0003676264070236999,-0.00037150605126235636
1354,-3.0486608426800455e-12,-0.0007230630522669056,-0.0008709254569071406,-0.0008898538035498036
1355,3.02688819611982e-12,-0.0015682193987068133,-0.0019080328699079927,-0.0019724113670236175
1356,-1.6690351947364293e-10,-0.0031835168772422744,-0.003905001433678203,-0.00408550296314034
1357,-3.667342327866137e-09,-0.006099094726385946,-0.00753000622495499,-0.007973093221260177
1358,-4.0639074033801036e-08,-0.011104545572193706,-0.013780112468748048,-0.014762535748453837
1359,-2.9825797374795977e-07,-0.019327179601341463,-0.024080734262464185,-0.026086860235420724
1360,-1.6382859318570963e-06,-0.032317539320869414,-0.04039506261498364,-0.04421937374703499
1361,-7.208274696013534e-06,-0.05213821678731089,-0.06533943718792883,-0.07221444380859326
1362,-2.655448703375707e-05,-0.0814504354712016,-0.10229894409995631,-0.11404629415165186
1363,-8.452622063183982e-05,-0.12359111449675048,-0.15553544951851006,-0.17473546711161378
1364,-0.0002380728535213706,-0.18263144708945087,-0.2302780951115197,-0.2604504056706964
1365,-0.0006044855722651679,-0.2634066842711329,-0.33278447746786793,-0.3785696689341999
1366,-0.0014045497185379199,-0.3715061833920693,-0.4703598259976254,-0.5376890591142919
1367,-0.003023479498817797,-0.5132131165768082,-0.6513217702704269,-0.7475578874433941
1368,-0.0060915656260955115,-0.695384787753212,-0.8848997151005227,-1.0189301706119722
1369,-0.011585345670375315,-0.9252673031271722,-1.1810601662680627,-1.3633199566494827
1370,-0.020948863740547257,-1.2102423106869806,-1.55025236087961,-1.7926552161522684
1371,-0.03623316301619675,-1.5575083566224153,-2.0030722440515416,-2.318831495241643
1372,-0.06025041422598557,-1.9737047617981887,-2.5498473614145607,-2.953174286613544
1373,-0.09673689111914333,-2.464491381923771,-3.200150699152335,-3.7058271591190954
1374,-0.15051630676908462,-3.0341028221766764,-3.96225770992996,-4.58509040308649
1375,-0.22765195806324157,-3.6849003263778632,-4.842567169126985,-5.596741691218451
1376,-0.33557306374003204,-4.41694830780839,-5.845012368175711,-6.743375538422478
1377,-0.48315817866937283,-5.227645041098807,-6.970493765348011,-8.023801816873542
1378,-0.6807572019062369,-6.111437988058061,-8.2163670780086,-9.43254494036182
1379,-0.9401336915204371,-7.0596532618350425,-9.576021670651242,-10.959484304392676
1380,-1.2743111550787543,-8.060465494525236,-11.03858291399365,-12.589672891462936
1381,-1.6973106834350717,-9.099028733769302,-12.588769031151651,-14.303364464400605
1382,-2.2237725654026734,-10.157780956881751,-14.206927926500763,-16.076270477075827
1383,-2.868461065752273,-11.216924721304474,-15.869272752230872,-17.880056010479496
1384,-3.645659005453675,-12.255074952124888,-17.54832660917299,-19.68307025656017
1385,-4.568466774376876,-13.250052785669052,-19.213576867643496,-21.451292184896456
1386,-5.648028585183939,-14.179792728379326,-20.832328222986906,-23.14945711820719
1387,-6.892716779169982,-15.02332011067279,-22.370731085817575,-24.742316199736333
1388,-8.30731233298727,-15.76174779896102,-23.794948972042974,-26.195969329102123
1389,-9.892225732399776,-16.37923600037502,-25.072416373533127,-27.4792040705821
1390,-11.64280631523444,-16.863857270500493,-26.173128586047024,-28.564769062240657
1391,-13.54878936150424,-17.20831076519085,-27.07089845901818,-29.430511016168268
