,TP9,AF7,AF8,TP10
0,-5.181484403468565,-12.263864429186874,-11.65226614631827,-8.017074064896383
1,-5.468233617312166,-12.485725406758169,-12.181354352682298,-8.702093172171027
2,-5.308467491609975,-12.873166113331708,-12.727931120360601,-9.085118306296668
3,-4.577110864398316,-13.43650017398872,-13.3645438728187,-9.014799086765734
4,-3.3273851862964166,-14.153183453864862,-14.088158842079041,-8.599578239467233
5,-1.5894878272802102,-15.047495707936584,-14.807546773710408,-8.026819194074127
6,0.24033273248065923,-15.942325090992325,-15.44127676165336,-7.4734218135934585
7,1.4496662653451797,-16.456305293806995,-15.916688941895792,-7.259971977025028
8,1.7601446025193956,-16.451125995361423,-16.159666625995495,-7.8252681178530095
9,1.4263213003970066,-16.06760597129825,-16.221259472800295,-9.07585418878329
10,0.5458462144688743,-15.54663222940346,-16.268147477319484,-10.375929057061478
11,-1.1137392567008533,-14.995425888904627,-16.350165095481408,-11.429361926711096
12,-3.505277277201987,-14.442091358004335,-16.345791056393796,-12.457082093165397
13,-6.20553718191346,-13.943386875722544,-16.175185387634436,-13.654112629911934
14,-8.862328302967848,-13.604248574326002,-15.86972241854352,-15.016099376100918
15,-11.399560411917506,-13.464245489425354,-15.468709332992784,-16.479405417947632
16,-14.07043792057428,-13.37784843916473,-15.01590063189662,-17.97384339505188
17,-17.208503903733327,-13.128135697261381,-14.66931086617813,-19.406928587485762
18,-20.737667415185495,-12.651543172158894,-14.662200552282604,-20.691231382846826
19,-24.230810499168992,-12.04738211486071,-14.938861134945945,-21.907376805030296
20,-27.378392283543974,-11.441431980677002,-15.142827857879162,-23.362541489989024
21,-30.101756158504845,-10.93438760970045,-15.074313369737757,-25.290487219141628
22,-32.25221416570878,-10.578184830134362,-14.80348874370388,-27.61355982237264
23,-33.56332273472465,-10.377923070503199,-14.55356524184901,-29.95056744895863
24,-34.258764959125315,-10.279067865231282,-14.572629502494689,-31.82414213637734
25,-35.05460376444153,-10.23670096873736,-14.860224048732677,-33.153889595918905
26,-36.36645213405313,-10.191911253807517,-15.157740258183033,-34.27571428860224
27,-38.098442578309665,-10.072738530864209,-15.25415518298497,-35.41918492046971
28,-39.810172084097836,-9.903944665980793,-15.123386232246203,-36.459944783455946
29,-41.003592601162886,-9.806551114437493,-14.84172613009183,-37.11175182529619
30,-41.579094059016754,-9.76498126417105,-14.462592597796379,-37.43987683290373
31,-41.79932972810611,-9.601405513835955,-13.981141150362562,-37.88365141130961
32,-41.87333266138563,-9.29158086048719,-13.471488166424976,-38.468865592957734
33,-41.830997266358104,-9.013670216949945,-13.109356359012962,-38.6989481756457
34,-41.632508972171074,-8.893330350022168,-13.039437952903935,-38.396085729298015
35,-41.21962328294495,-8.933708878277425,-13.18984324328188,-37.86925991459866
36,-40.57335316812923,-9.08252680653712,-13.424249157517048,-37.43333310492926
37,-39.872463689674724,-9.217728680492861,-13.571410318489923,-37.30893643185168
38,-39.4354823609043,-9.180627904414314,-13.558506583220364,-37.60896258278127
39,-39.28925705606348,-8.972638008791888,-13.389146580579718,-38.107759261128805
40,-39.12163943636672,-8.805156023066482,-13.132178782875261,-38.35144191754891
41,-38.73064911352565,-8.874957604238366,-12.81390336900106,-38.09843946310346
42,-37.997559956719684,-9.147858578853514,-12.469563777832983,-37.373523890984195
43,-36.83553493638099,-9.421867433199411,-12.225561478268505,-36.25633656643651
44,-35.435506232383524,-9.583125602290655,-12.157044785409656,-34.86867487467206
45,-34.24181175502736,-9.677321511942141,-12.2358134117933,-33.27295778836554
46,-33.46978341770232,-9.784673659144339,-12.338927102342819,-31.44533225035847
47,-33.02171149633011,-9.846440115770424,-12.37823892012767,-29.420305424182025
48,-32.7063375856328,-9.679329989515814,-12.338349528930738,-27.376065328377493
49,-32.24800574256136,-9.26693836584512,-12.232755264543915,-25.51602793278953
50,-31.341714109547997,-8.84843587589314,-12.076073541953038,-23.890035005366364
51,-29.90594584206452,-8.665947677886088,-11.881521293738233,-22.294150562805882
52,-27.897142347524365,-8.751706972719129,-11.758766045222693,-20.27187601462145
53,-25.130588884279465,-8.896540728958067,-11.902557326891412,-17.45228535594856
54,-21.993065469712395,-8.814984650905988,-12.226665231195652,-14.098107194324104
55,-19.453497442468137,-8.513432167069157,-12.351022054436521,-10.930023048639036
56,-17.736462848676023,-8.318930725188444,-12.07988307307743,-8.352956392706906
57,-16.069981552225183,-8.458160227069307,-11.565465611681375,-6.3331441914449815
58,-13.781961640713234,-8.789524055096969,-11.0271876484156,-4.715969734781584
59,-10.919077133036694,-8.965053605121733,-10.550002243805801,-3.2124691324144905
60,-7.993836194445221,-8.827176783388307,-10.102826258987708,-1.4943690087939991
61,-5.36401970614764,-8.587608839834857,-9.788980007405762,0.5244149329542012
62,-3.0668816672090866,-8.541223116885192,-9.759022015857017,2.6864963816101586
63,-0.9928435779910653,-8.819386122054208,-9.801133494724132,4.773469849964167
64,0.614211034515917,-9.29762725646403,-9.454767063793037,6.608186307296182
65,1.1519377299190594,-9.711363382544878,-8.699228299220046,8.09493587102556
66,0.7642010217642802,-9.878967554620669,-8.022445588557902,9.21362270991123
67,0.41444931754107683,-9.844288225817587,-7.749226052122433,10.153709435320003
68,1.929056009017287,-9.726325961580763,-7.521062676708103,11.773360233364137
69,3.4248415584703595,-9.612848124479655,-7.3955892378437635,13.394713552667202
70,4.897596609007463,-9.542098250076574,-7.30360526210418,15.021636026491782
71,6.344664937116612,-9.506632440076572,-7.161957970694373,16.599949227758227
72,7.778119296963207,-9.476821240861192,-6.909479879214543,18.0717223876433
73,9.251576797635666,-9.435959514347374,-6.578679784538307,19.45189624440965
74,10.814974008365533,-9.375029142194274,-6.242339203020098,20.783588522145077
75,12.450361275652357,-9.297554973135153,-5.943414190427997,22.099255747284214
76,14.114265193800648,-9.218630341206971,-5.7040601300706095,23.42318864155415
77,15.786787405165045,-9.150068232490078,-5.498775256650217,24.74665977782109
78,17.45601729374185,-9.101649111037803,-5.290292836656046,26.043437700881313
79,19.111449921443047,-9.089949284484087,-5.1112041124917384,27.312740208838992
80,20.75319498268101,-9.121697592623784,-4.990980336971967,28.558320429781894
81,22.38888657507456,-9.172626298690183,-4.946371938385647,29.74948337506549
82,24.01791767867164,-9.210603250960196,-4.926233630199918,30.87163949212719
83,25.634924263402752,-9.219970344853715,-4.86292090135331,31.931093706834744
84,27.21418643647502,-9.198692628362402,-4.697377336538654,32.96798480753494
85,28.661289387098005,-9.161093679713368,-4.479796705704479,34.000257290268905
86,29.895331406408733,-9.129199364576179,-4.275530942597867,34.990730895164745
87,30.95685310059451,-9.11955670748503,-4.124567068865472,35.93055640070982
88,31.936949682153127,-9.138292473831775,-3.982303969477001,36.818241276251854
89,32.919639196321555,-9.170042856487504,-3.8190067923944846,37.710521990098286
90,33.96172615283387,-9.194120285098265,-3.601208720718469,38.66416398891385
91,35.02229397844831,-9.207725922275458,-3.3288174200234724,39.63110442701109
92,36.02263580582274,-9.216445546103095,-3.0353027903746566,40.54705493207697
93,36.94048684779325,-9.231398625007431,-2.767501057018222,41.35957242624638
94,37.78080935259746,-9.260703000916418,-2.5740210873805287,42.08319286451335
95,38.56399031498588,-9.286263791583137,-2.5084934894569524,42.726417759343946
96,39.31802644908328,-9.285437119493697,-2.586749642155636,43.308407522974356
97,40.03300301096093,-9.259371511433855,-2.7231704682586577,43.80385097839872
98,40.6871741390888,-9.2212004514536,-2.806955008646711,44.17988975704366
99,41.290159567246384,-9.18854335106371,-2.7902780176873656,44.47920226275891
100,41.8573864895872,-9.176186023448555,-2.6710507391883938,44.73486277652161
101,42.39249183248059,-9.189587041409027,-2.4990565846110515,44.951289253852906
102,42.8962064440994,-9.221080066411721,-2.342142024984057,45.080551920582074
103,43.35493055500832,-9.2254631435451,-2.224021435612959,45.10044651831249
104,43.75826126010174,-9.179443696442783,-2.1446889391247583,45.068512390500096
105,44.136275416332865,-9.08517069704975,-2.076444914216213,45.03432379766624
106,44.52539113092076,-9.003635887195268,-2.0169967480159814,45.0446936505518
107,44.92512011731481,-8.96797773869691,-1.9992311470297093,45.05972884107384
108,45.319883339692645,-8.938746101473484,-2.1000102916903556,45.0290311902531
109,45.687222948660406,-8.907577595032803,-2.3178156120058344,44.93797334243183
110,45.998866648787335,-8.854597753588163,-2.5340101862332913,44.83179507739025
111,46.25648957612569,-8.780948926585802,-2.6448964694960573,44.71093142785467
112,46.434283692132084,-8.68547278268912,-2.6325906169106528,44.546712304808665
113,46.499237515006854,-8.49619290285393,-2.5692400479297106,44.26946910302265
114,46.374425636660064,-8.178085934391518,-2.542366125301446,43.77428403427937
115,45.95138335499295,-7.677242491015739,-2.575711801124496,42.95716193997178
116,45.251766787574375,-7.065124252606337,-2.5975494407039115,41.77400028410115
117,44.44130098780502,-6.5520827637784835,-2.5385022079500708,40.34279630104556
118,43.65570004962325,-6.232375324535023,-2.388736932472354,38.93865568122947
119,42.945217820254,-6.023329752611577,-2.182083011421599,37.75053436478038
120,42.29858275701897,-5.832997771407884,-1.9714552709366915,36.80966077201833
121,41.488910639688214,-5.556872970335173,-1.7364475211247503,35.89295039392781
122,40.093336307078644,-5.080496792681278,-1.441202515941382,34.60528033920773
123,37.89090080122451,-4.3603932225688595,-0.9988631206850453,32.72915276821062
124,34.824693865625164,-3.384190829016123,-0.3909210449648026,30.29756470605029
125,30.812950474902344,-2.0896253943905756,0.30653102090964063,27.441877317250643
126,26.16794457246352,-0.625978515077966,1.013400376051279,24.310152968961987
127,21.607951102118616,0.6068783860166229,1.6449797560873467,21.235287242437593
128,6.407846040419237,-14.191051460984005,-11.856228798244741,-0.6375124938462247
129,5.869576712077384,-14.536095933302132,-11.971027866797478,-1.1962569263672092
130,5.351157933127616,-14.845779940175435,-12.0522483461526,-1.7386939362672582
131,4.85429477069589,-15.135023668995046,-12.120778262597925,-2.23984340966437
132,4.349554013640906,-15.41078760243184,-12.191679555746877,-2.721513924295733
133,3.788770819093497,-15.681281769771367,-12.27022739263712,-3.2248305240096267
134,3.157991263066553,-15.958207515217316,-12.348997232379597,-3.755499953824672
135,2.4864643256499357,-16.240022351196778,-12.389108030791588,-4.293931845899067
136,1.8085525537707652,-16.508809906676188,-12.340388829027008,-4.820121657229871
137,1.125362584531719,-16.75482642463957,-12.234319101190131,-5.3880559332494435
138,0.41041256791996983,-16.971828505998612,-12.192123715169553,-6.044464955571397
139,-0.35183874229248047,-17.166817122969107,-12.298209155568204,-6.79548944268662
140,-1.155657327256269,-17.352475268610544,-12.538679622225805,-7.591561444525303
141,-1.9821911266929022,-17.532443816714274,-12.846395039293535,-8.363364693548776
142,-2.7830520896730606,-17.71329214275897,-13.14101110339422,-9.06632185513417
143,-3.49925509687601,-17.897140400144774,-13.36298953620995,-9.698123037293406
144,-4.133868523386464,-18.09522337721001,-13.492370499848395,-10.27088030558397
145,-4.748445742803265,-18.310284351841123,-13.567134675420832,-10.787501762389901
146,-5.382672833521351,-18.53271590622169,-13.630432760058952,-11.231641059960028
147,-6.02379546555723,-18.733419241273545,-13.699805821266885,-11.603527878505469
148,-6.637868637060772,-18.87881956424757,-13.750143423272583,-11.922414179996847
149,-7.197619805384996,-18.950865791279313,-13.765412234632098,-12.188730050254367
150,-7.6987450605865,-18.95998391384414,-13.741612090723345,-12.3858139247525
151,-8.151585800261666,-18.932042492506294,-13.705643116642207,-12.524774267391402
152,-8.580907750634541,-18.875601521444313,-13.700136181096227,-12.65812224885183
153,-9.017112306165853,-18.777246406935316,-13.738804489646286,-12.822851267071158
154,-9.487366427214534,-18.63572773750194,-13.796337734520671,-13.054228261098544
155,-10.029234877382704,-18.480708765028552,-13.81650660862203,-13.35306787565195
156,-10.68029202009546,-18.34122474427888,-13.762349055129237,-13.711839506860667
157,-11.438108259126297,-18.23035389867485,-13.64330520498347,-14.17069938528823
158,-12.265777937172041,-18.136258925824436,-13.511136283544527,-14.747859417155492
159,-13.130346931849882,-18.03604263727255,-13.386591516398216,-15.416109972385772
160,-14.033077388633075,-17.917810415101666,-13.221432982659993,-16.106550306883403
161,-15.00056876209568,-17.788885096926094,-12.9516628585919,-16.77047226473254
162,-16.02874374562186,-17.651484509333887,-12.57966406171934,-17.409329771590567
163,-17.07297502583614,-17.487726280222862,-12.193080184316955,-18.05317745089428
164,-18.09402583722252,-17.265082662985154,-11.886021108459428,-18.71079069033581
165,-19.076390510968857,-16.974259188108295,-11.682351266227977,-19.3572463486677
166,-20.02878872274315,-16.640498140191763,-11.534252493620889,-19.97991531437206
167,-20.96146011562885,-16.296518209658206,-11.377976660033083,-20.60271301779222
168,-21.90236119943691,-15.952331552039812,-11.172988696477708,-21.285715543549667
169,-22.894322710679692,-15.595440922588145,-10.899208094858752,-22.070046865720364
170,-23.951100298310774,-15.22069026121481,-10.550660034370546,-22.93016469898019
171,-25.053453338908884,-14.841087093420906,-10.148477083556969,-23.802824931075353
172,-26.168132708717202,-14.462699008289174,-9.742921512717166,-24.650357829891437
173,-27.261177159406877,-14.06845525387464,-9.387958915151074,-25.460738323951723
174,-28.317335506195132,-13.627283223500369,-9.098757519099548,-26.239932308705637
175,-29.340547444185134,-13.134167236108151,-8.850055443850415,-26.956548703054363
176,-30.340419292311665,-12.616322138971729,-8.591778928635081,-27.600695172922233
177,-31.332182908602093,-12.09725037528821,-8.274265820880808,-28.191258964381138
178,-32.32886340109193,-11.580772973875726,-7.868885172067585,-28.778214241649046
179,-33.323602251837016,-11.056995734864252,-7.378791787750837,-29.379930585932897
180,-34.290671479734115,-10.50683975164995,-6.834370466990481,-29.955631239112687
181,-35.20246093113873,-9.922905135022747,-6.276584899661473,-30.446264152784835
182,-36.032916135721315,-9.303341506268689,-5.71965703335825,-30.83905430951606
183,-36.77030212202391,-8.650371605845713,-5.148056720521703,-31.182843085918915
184,-37.40904904483722,-7.963730046991158,-4.554708879376183,-31.53436247650766
185,-37.94115680734834,-7.2283001047630995,-3.9505793815980503,-31.86533273373723
186,-38.35533676880003,-6.423122867606628,-3.3533570038872473,-32.07332116952949
187,-38.66797939465213,-5.549506819167581,-2.773610735572088,-32.12082411315912
188,-38.8613765209022,-4.636413639900057,-2.3212617139704754,-32.086614162322185
189,-38.8377991781721,-3.7309334753646537,-2.2230024123721335,-32.08852680565868
190,-38.88390095351096,-2.8822970154227456,-2.3791210982954336,-32.33939519859928
191,-39.744525439035634,-2.1725413985710094,-2.315578193472259,-33.138573796936946
192,-41.31631080081238,-1.696367776221324,-1.8582107556578624,-34.23911271676059
193,-42.40158506990353,-1.4072512366710548,-1.327479534508176,-34.801503161855884
194,-42.23040301591392,-1.1301531038619277,-1.035799001212192,-34.360181784053296
195,-40.99078246248212,-0.743766317504925,-1.0818914199891758,-33.17628463755525
196,-39.35436473283115,-0.20106676349452143,-1.550186046455371,-31.823531321242918
197,-37.91082271514561,0.32762847585662164,-2.054917110850307,-30.744084418470337
198,-36.927258579644146,0.7779599568952485,-2.4348358827218686,-30.076953619918445
199,-36.324857264539304,1.1343891648060533,-2.6054563904000707,-29.732212469218414
200,-35.85948347501862,1.4163135154202506,-2.5893461699555154,-29.563888849732987
201,-35.331134203089455,1.663560731790434,-2.489760585961817,-29.38899095046255
202,-34.587707319604014,1.9044615005662344,-2.45010416463471,-28.98214005965115
203,-33.47111437919381,2.151194664610046,-2.521052119732914,-28.182387764380476
204,-31.94369967507121,2.3992731331387804,-2.6386241927930283,-26.986668902046407
205,-30.120311619417674,2.6342173752586895,-2.7378082508313604,-25.535310171170085
206,-28.223598159670892,2.8447878124358077,-2.803662220480742,-23.98347875004504
207,-26.516510295651166,3.0362704015682995,-2.8447306432474133,-22.44978608029472
208,-25.155392107230828,3.2202440129301673,-2.886630040550071,-21.09204341756579
209,-24.121638351330002,3.386474160597248,-2.9468066082761974,-20.046447155653244
210,-23.31113384924238,3.505564043459174,-3.0091270179875185,-19.30562553460816
211,-22.701590620621108,3.563026503594399,-3.023513659864735,-18.77350830215526
212,-22.379558411923313,3.6106994501908782,-2.9811029449090563,-18.373249753123215
213,-22.366226153572246,3.7723027979995467,-2.930499995235049,-18.102427541579463
214,-22.5744585703841,4.138817798902978,-2.8829590500267774,-18.018703928788085
215,-22.759071883554935,4.637020802316519,-2.787285107661722,-18.120924782624456
216,-22.55982366585075,5.059041290756035,-2.6309191409248887,-18.253111026658786
217,-21.854756548092798,5.259693360293111,-2.4663947519200256,-18.188479745402624
218,-20.811960544353433,5.253055523251476,-2.3440428877129706,-17.796873995220537
219,-19.623726720043567,5.1419303248832735,-2.262526045829834,-17.116440962999793
220,-18.418593600495857,5.021439555383121,-2.1935495673291037,-16.27224371612345
221,-17.278634213388994,4.936739447788349,-2.1062497421452395,-15.404775509039835
222,-16.23284820375647,4.881616989574554,-1.9769473636211257,-14.57413467114545
223,-15.271945359229585,4.825831770123206,-1.8089039607565514,-13.777373320984605
224,-14.37101284062729,4.745721032197703,-1.6275815838753669,-12.997685490212593
225,-13.498342724227006,4.648497362413838,-1.4930291060190175,-12.236769129671954
226,-12.63380036829439,4.555733083221089,-1.4437828258578729,-11.512734994436688
227,-11.76195450201865,4.48956921390012,-1.4574008506797256,-10.834804013605273
228,-10.892362235304923,4.4504798076971985,-1.467860598522196,-10.210041801158212
229,-10.064784503924288,4.42340308658626,-1.4533585876306225,-9.650093690803454
230,-9.315177460520367,4.386473087058847,-1.4563408814945542,-9.153287693482941
231,-8.637014969569616,4.340190802135019,-1.5023083586554535,-8.673990139952254
232,-7.997769483905022,4.29598857688469,-1.5589867617336384,-8.172274669583452
233,-7.375021263825385,4.260320670657844,-1.57495159297388,-7.641395011696133
234,-6.766427224949193,4.241811904754501,-1.5440360554544728,-7.11959242430368
235,-6.175666533152759,4.2399872862332,-1.508182817354768,-6.627859150663597
236,-5.6051845218951195,4.252121007764584,-1.4894311731629892,-6.183822682776017
237,-5.065010849723405,4.267456261905857,-1.4478595087923316,-5.77307901926487
238,-4.583088048118854,4.257012810835984,-1.3197521419835625,-5.380494134268487
239,-4.183764832629721,4.200020955275836,-1.1075771967609778,-5.009945641702628
240,-3.8705707883103937,4.08868420948746,-0.9031587388360841,-4.684871602182243
241,-3.613894428642765,3.952743489886846,-0.7994689859817292,-4.393718414103711
242,-3.3554824360033226,3.8300096085000463,-0.8103705993417781,-4.080499558658061
243,-3.0440102210400384,3.748967420188929,-0.870399899355683,-3.715774036409502
244,-2.669334602893173,3.7101983733328394,-0.8906312755176653,-3.331316185749314
245,-2.2515549725618507,3.6987862854989557,-0.8211712934373787,-2.9834897079019336
246,-1.8068308024492383,3.6972537281763365,-0.6887104587282922,-2.6715947310876436
247,-1.335077729023186,3.6835440349661335,-0.5689222491935286,-2.328924403049187
248,-0.8481183091798653,3.6340856550232172,-0.508422608835926,-1.9163695447309692
249,-0.38200207364696664,3.5431310347685367,-0.5046206932297224,-1.4724158684665232
250,0.03557187539570383,3.422851573457015,-0.5373495321138045,-1.0532247435847912
251,0.3966538725170734,3.2857672969621006,-0.5890339532100903,-0.6892222514056207
252,0.7263957795429157,3.1381485033463234,-0.6450532678656058,-0.36472728323891523
253,1.0751558135758914,2.9887914046247315,-0.6988087715577981,-0.03972834819565519
254,1.4647701537222488,2.851782055794946,-0.7564396997596241,0.2944195273720317
255,1.8733152963582829,2.7290664029294787,-0.8594232101857755,0.6201865985668805
256,-14.6366971638018,-10.633932205851778,-12.524805282951965,-16.860010562417887
257,-15.127823421947515,-11.030242338058343,-12.959557042015147,-17.349022377766758
258,-15.567696232883963,-11.461625284054328,-13.34499705087435,-17.746283455374932
259,-15.97540751216793,-11.915768024922833,-13.662645537026535,-18.111277659111153
260,-16.375124451564524,-12.368975204484567,-13.906763676013455,-18.508209564663026
261,-16.78053025379557,-12.803694398377914,-14.115773614973207,-18.912742950317895
262,-17.200299732162744,-13.203335820808034,-14.314272990158779,-19.28048558312483
263,-17.626538672526095,-13.55294813574293,-14.534065392972337,-19.58142358568074
264,-18.053841857253428,-13.849205610335249,-14.75590965217903,-19.800323173724355
265,-18.47829712026468,-14.10565736838993,-14.925416446439352,-19.983130664308185
266,-18.883849480068875,-14.341652572076063,-15.062671550557573,-20.182443845019478
267,-19.259869432536973,-14.576944909968164,-15.222485425634499,-20.372592104124717
268,-19.600836403499457,-14.822215073279011,-15.458411460515277,-20.518573411053364
269,-19.909844433568704,-15.060390954167854,-15.727509090626317,-20.642808361500407
270,-20.201109106943754,-15.270483526277287,-15.964990460616683,-20.775350093255387
271,-20.48729996109164,-15.45726389117639,-16.149250314249294,-20.93249786805689
272,-20.784764571615632,-15.630750467913746,-16.28459446120466,-21.119741962634134
273,-21.090894821022232,-15.79239482303989,-16.417761635242133,-21.299545290441586
274,-21.380188768327073,-15.940246893403199,-16.596311298741348,-21.434145465463587
275,-21.637860130570743,-16.059322778534064,-16.808160418700478,-21.55341671379337
276,-21.853363826848337,-16.13774882931694,-17.012066651468555,-21.69580377044436
277,-22.02674029756434,-16.192124276403323,-17.15919111555099,-21.84293557763568
278,-22.166378453179174,-16.24197670933686,-17.213785687800556,-21.96922125995036
279,-22.285064685375502,-16.288544673982344,-17.18644745638004,-22.08103940193268
280,-22.39175954414232,-16.321722296743182,-17.118834230989464,-22.18496653032853
281,-22.478534976943394,-16.315277720225545,-17.070949986820988,-22.277339721768236
282,-22.534437009313756,-16.245925757819283,-17.09155276631579,-22.353157197119895
283,-22.55985482576325,-16.119901989417784,-17.177519352452823,-22.384444583320466
284,-22.557736211575804,-15.959085719244094,-17.297239368314717,-22.35179392182892
285,-22.536751947098374,-15.788212899884666,-17.41321237734828,-22.312544459787343
286,-22.49523223556868,-15.631327527951358,-17.4902399909132,-22.317773916384056
287,-22.42340013348906,-15.501986259447541,-17.520906484400207,-22.30240227094993
288,-22.301385046055575,-15.402325796807899,-17.509255061990814,-22.196190903862554
289,-22.132081849777038,-15.32407585667228,-17.443723605151003,-22.028724460817756
290,-21.955052089064996,-15.252482574218774,-17.319054242032465,-21.851920675187266
291,-21.807831659844094,-15.175269847655919,-17.14823155662725,-21.707810907653
292,-21.68292264327926,-15.078946323738641,-16.954014203852548,-21.61950001141169
293,-21.540235450572403,-14.943707531507302,-16.7754819519173,-21.51681778718063
294,-21.350650683311418,-14.754319256436823,-16.639099974067634,-21.325208355969387
295,-21.11229040365851,-14.506799769391039,-16.5291735409606,-21.10666123204924
296,-20.833766396695548,-14.2094551965201,-16.40959080801403,-20.931133623375807
297,-20.52297059633179,-13.884722999566888,-16.227473947006114,-20.737067698615917
298,-20.181094461746035,-13.557836175979006,-15.94976539673403,-20.450572390681078
299,-19.812386533934383,-13.250688907659503,-15.623322908584166,-20.070303384802862
300,-19.43745966037094,-12.969555103622646,-15.311997804443868,-19.615676859191762
301,-19.079010130592987,-12.684058442086704,-15.024848823940536,-19.136144485539063
302,-18.721680248969786,-12.357706958085487,-14.748410893684404,-18.670395559613723
303,-18.29161665920841,-11.984896343653825,-14.465649034023848,-18.149379252040788
304,-17.727660075635256,-11.571953362016012,-14.14541396752065,-17.49627662439892
305,-17.037521454788415,-11.122196327103893,-13.761328465123952,-16.749949820637177
306,-16.28407691951365,-10.644167804576563,-13.291517428134874,-15.97266696808446
307,-15.518700838468833,-10.146672099534348,-12.69075776664459,-15.171211293087795
308,-14.76042537874464,-9.638350163627107,-11.94755337647688,-14.34652699257788
309,-14.010639715768914,-9.139930142182857,-11.146988497828174,-13.504929704530047
310,-13.263841810242612,-8.663832232391005,-10.396062648752483,-12.646544692905756
311,-12.517207395228187,-8.18668893494368,-9.76597246122201,-11.801716122822151
312,-11.768365171438681,-7.680151032637212,-9.28095774519205,-10.984935298978465
313,-11.006226299330839,-7.140476574679324,-8.879818825729416,-10.110580700761528
314,-10.218833833720225,-6.572442041923855,-8.469912369636702,-9.100123858914342
315,-9.393378912015631,-5.985095242241842,-7.997935438350627,-8.002587116662129
316,-8.578822368311494,-5.417177766855054,-7.475230882747779,-6.99141984059777
317,-7.885870529586654,-4.90107262241735,-6.979014415032239,-6.163842988600838
318,-7.368917278059163,-4.478868614545418,-6.555296203117347,-5.636541406590349
319,-6.994734464263845,-4.146396474052659,-6.23535018764327,-5.334023258922419
320,-6.704730684958722,-3.8788005078292733,-5.999025264923066,-5.099541140839808
321,-6.451195421035045,-3.6952664825334716,-5.782368299133496,-4.912362035057251
322,-6.189411553839344,-3.613151119296806,-5.542181088253174,-4.797466205806508
323,-5.869944210745731,-3.5937484143791045,-5.251036334512097,-4.722208935973482
324,-5.218079500551771,-3.522285665383239,-4.9371569762466185,-4.23214452535075
325,-4.581781418733344,-3.4521636660573938,-4.635869595323005,-3.7899698077477275
326,-3.991962861486508,-3.3701986540390116,-4.366412849159234,-3.3940821425472416
327,-3.4559866277401428,-3.2745107207718642,-4.1264590210728445,-3.036831727101126
328,-2.9482539280371403,-3.1634940525712807,-3.9009765519733564,-2.7031620569828387
329,-2.4505683351949266,-3.009530900631769,-3.6833204787504723,-2.327594987126891
330,-1.9420952546307235,-2.7858095456903347,-3.460756909634472,-1.8514657094969986
331,-1.4108671975275358,-2.4998852043669095,-3.1962765828632342,-1.32112619691997
332,-0.8551343196021389,-2.175724074171738,-2.8579641532523974,-0.8055420547881998
333,-0.2765023670876654,-1.841598325822275,-2.444762242243852,-0.29344866732591723
334,0.32031271798382505,-1.5265369626786587,-1.981738295042658,0.248179774279185
335,0.9270214135238167,-1.2392457924801998,-1.5216097501892973,0.8311247298165642
336,1.5409452733629385,-0.9792673206376459,-1.122584923689828,1.4588832790545716
337,2.156131675505861,-0.7650303406661287,-0.8206187596715462,2.1037437095958498
338,2.7781556920062873,-0.6069622862992938,-0.6207260875641423,2.726736969135754
339,3.4105092336685443,-0.47833557883951416,-0.4848405412993316,3.3301018432902634
340,4.049676842444095,-0.34122819383377134,-0.35393854976927003,3.927333233749949
341,4.656422584598623,-0.16153703369341918,-0.17859968372312504,4.49194637991955
342,5.199331873506943,0.07539275615811213,0.0717212621259852,5.002626890487897
343,5.673500039612036,0.33892935268533403,0.392960280955918,5.4984791015849375
344,6.108049007506936,0.5813729620790544,0.7557597928905367,6.024268330929587
345,6.544149253450304,0.7532792600983004,1.1304636343130725,6.581811113783226
346,6.986109914980806,0.834918359208629,1.4848786516168153,7.150250738933192
347,7.395995919359679,0.9089558163753486,1.7768684787305173,7.674810313602725
348,7.75246238628837,1.074450101777186,1.9776830212340657,8.102339948175821
349,8.080810849749204,1.3257230310533272,2.0936994481950553,8.467017199176928
350,8.414140318607917,1.612394816367816,2.147007925113438,8.822256269402564
351,8.75935565634448,1.8916803305107937,2.170393682985143,9.133272979914834
352,9.093689873131162,2.1236051248089365,2.189715669691694,9.354962139855823
353,9.404534541096744,2.3047125508632633,2.1704724143155825,9.515249616749745
354,9.702065008392353,2.4525569068987956,2.0974465216420595,9.657132696322082
355,9.971920020565994,2.5656280986355693,1.9764814555394026,9.808774607259831
356,10.163890528717479,2.640795963752072,1.88601968660942,9.985805401183958
357,10.254818483798932,2.684947012889004,1.910929375141452,10.140468873001403
358,10.275083683960016,2.7071165076973047,2.0469798222856106,10.216722106566102
359,10.278585875829163,2.727888832923207,2.218557214289735,10.266348068854736
360,10.305426228151452,2.76277008006874,2.323343651911477,10.35316236811763
361,10.349589339809913,2.7929256266128406,2.3401642116040744,10.419004419644747
362,10.38493285886909,2.789066994534001,2.3002303877764145,10.388704180118664
363,10.382920628582545,2.7381872138801833,2.2714984865691017,10.269888370857572
364,10.33942008420229,2.638548534966746,2.32164440997821,10.102525795930138
365,10.269751080616684,2.5018967799250342,2.447454848443336,9.952760870766811
366,10.185875901533255,2.3481357776731184,2.6013693538623097,9.884089880347007
367,10.089372657269474,2.192465026888765,2.718171655899983,9.870018077325524
368,9.97650530212376,2.043935485697168,2.7434661668694074,9.855735441317632
369,9.851009369671516,1.9025344462065608,2.692222966584955,9.856777790673508
370,9.721992861420734,1.763957552272434,2.6164990506442307,9.900379661589039
371,9.60811481645447,1.627877443308486,2.5588256938927927,9.96606488470092
372,9.526753999045477,1.4961534095113866,2.552044392238189,10.028095343455485
373,9.479952958109351,1.3767427571700188,2.602592334862754,10.077158293315033
374,9.455877927817077,1.2774378361206176,2.695685317337871,10.107670379919908
375,9.427883478742235,1.1854941129099792,2.8170376001658974,10.137655764448036
376,9.366299858913369,1.0890836050838988,2.948673794346277,10.18473022938016
377,9.254533189054255,1.0122329628015012,3.069475056246145,10.199609168381624
378,9.090063879284825,0.9833631875883456,3.1613455890570648,10.131808075143288
379,8.88736594079034,0.9980026528441003,3.1989817618509204,10.03353169743978
380,8.669378263285656,1.037842450145534,3.1671285088876053,9.971843863812046
381,8.451771630614283,1.0875850721348845,3.096724962971467,9.928997510997778
382,8.247354383679411,1.1301062711753294,3.0097433453787787,9.861795026603653
383,8.052816835659254,1.147115278820091,2.940070175093927,9.735058504294262
384,-8.306649262449488,-11.567486216850606,-14.125142402490233,-10.186189701557122
385,-8.606544636070216,-11.846710186242904,-14.631168641173888,-10.575346479695288
386,-8.905754956720077,-12.107305445340003,-15.075849719027794,-10.873862682034236
387,-9.205729268940637,-12.348346130836973,-15.42210499816235,-11.131826421240865
388,-9.51008341295601,-12.5841331440554,-15.659772769475898,-11.406466445028423
389,-9.816893270112823,-12.841789894595763,-15.802142276591072,-11.679576633532271
390,-10.121013757118407,-13.125272255400814,-15.876654268928847,-11.92132785574928
391,-10.419644494907574,-13.41641928426606,-15.87582092961947,-12.156885981048072
392,-10.702889403010929,-13.686588975707927,-15.822025823264271,-12.406644496172765
393,-10.941230113699103,-13.920366560205593,-15.751620023143587,-12.643936029239914
394,-11.112639089204983,-14.112910500321258,-15.756852152151666,-12.838849643379692
395,-11.223329583786786,-14.261545263393053,-15.911622931417114,-12.966317530102396
396,-11.301474474510274,-14.381809678903021,-16.19356406859853,-13.023631314232283
397,-11.403543892001254,-14.499301930917737,-16.53257272787678,-13.091690715213986
398,-11.58028540767466,-14.645054156453888,-16.830091454666448,-13.247810835205165
399,-11.832147390478392,-14.820439644144681,-17.05008500638258,-13.448498644427113
400,-12.133732111426154,-14.987534688585141,-17.166674819310632,-13.630532366705083
401,-12.4570643501625,-15.10803930571336,-17.166488912666534,-13.800828151607647
402,-12.769423300148008,-15.185169746068139,-17.0277211925276,-13.979964942704452
403,-13.04655508257309,-15.254926803019973,-16.789552703403555,-14.201447125003558
404,-13.27139722378707,-15.334134633888008,-16.56570143619711,-14.480954521856367
405,-13.420817091922249,-15.411075065209506,-16.404955044769885,-14.72041476311411
406,-13.484077227167253,-15.461767411626132,-16.327177771856434,-14.824537780267184
407,-13.482125036138592,-15.479321731371435,-16.300055233719398,-14.853894595834065
408,-13.448675388494378,-15.467109082015337,-16.266359757262947,-14.897807638780188
409,-13.41017623359192,-15.443444566224414,-16.19098784430838,-14.953563480568826
410,-13.389181667515153,-15.425579381592602,-16.061965846541405,-15.003557586800024
411,-13.409823134422336,-15.419941934285342,-15.895521477766664,-15.050244105127558
412,-13.479192024746968,-15.4132952183926,-15.723109696816893,-15.092405468498775
413,-13.570303778326572,-15.394124747714205,-15.568309019299294,-15.155588872171828
414,-13.64819036859615,-15.3506987149369,-15.442234032420888,-15.255858537065908
415,-13.688990970245559,-15.285588483558325,-15.337542047115544,-15.321643808753208
416,-13.68334975274954,-15.202338969722572,-15.233946770271945,-15.284411902885056
417,-13.654829249819253,-15.099420184281122,-15.110369370639537,-15.188186227572515
418,-13.630415581900122,-14.970437278875588,-14.949228833796878,-15.096016321544402
419,-13.598099517032587,-14.823286299941559,-14.739817732223125,-15.005434644715518
420,-13.537817790634888,-14.680567090016176,-14.486678661587582,-14.902772076971983
421,-13.449255043766176,-14.548905218012205,-14.20845540548985,-14.783759556581193
422,-13.336691223689863,-14.4110245343027,-13.931214150227131,-14.645069932948415
423,-13.210157762132324,-14.253838608522353,-13.698456830265073,-14.51694117549466
424,-13.078450483808657,-14.061356563523784,-13.529051866593155,-14.426320114450798
425,-12.926555521705412,-13.827269598784055,-13.363516326295029,-14.3283873706764
426,-12.740381058150694,-13.553319854353441,-13.126327371889962,-14.177064701149755
427,-12.53563210838399,-13.237178044416549,-12.784332070950056,-14.007172189792207
428,-12.334623539733935,-12.887942525074456,-12.337039933089928,-13.85878214460002
429,-12.149687857621117,-12.523413652325717,-11.821523746193055,-13.717917200571152
430,-11.984611719325036,-12.170914844360013,-11.291643397966965,-13.553969578332524
431,-11.8255585396386,-11.83805858485615,-10.790148174963672,-13.317931520859116
432,-11.650110878146691,-11.506263712673249,-10.333233520634062,-12.97203921201574
433,-11.447436885445809,-11.156451716240532,-9.889129784088405,-12.563687933311531
434,-11.2093989126049,-10.769824000478856,-9.413390983133583,-12.150463979944494
435,-10.913865422304848,-10.346064828963202,-8.8805774812675,-11.698203523867155
436,-10.55170904005051,-9.896191269832677,-8.288385329325802,-11.168946615265332
437,-10.155131088919141,-9.428499475161102,-7.686115085938767,-10.602989432132475
438,-9.76540731895913,-8.9528417474824,-7.118873521116791,-10.05181193247083
439,-9.404211512784395,-8.486251941061768,-6.55456283840414,-9.541853877058136
440,-9.080150462332751,-8.03789021905597,-5.9386899179880315,-9.0837125830395
441,-8.785816133309751,-7.5938250724686185,-5.240993779111121,-8.641087933422932
442,-8.502131256577556,-7.13393255221367,-4.454129446490186,-8.168207948697905
443,-8.217236380654288,-6.6468480825305924,-3.606505085641642,-7.688242050170933
444,-7.926506321638048,-6.152811688396779,-2.7991757105536137,-7.2696094914250065
445,-7.624042002970671,-5.7161046061168275,-2.196324598410245,-6.861845440464243
446,-7.318454119337598,-5.369962304002471,-1.8716688369620256,-6.443863462969628
447,-7.04824643521979,-5.091702983391537,-1.7763836270509168,-6.020283456631755
448,-6.849281657924755,-4.851152086611925,-1.774212503409236,-5.594960553969117
449,-6.732998773643923,-4.647934323510004,-1.7513997878506107,-5.218529530399341
450,-6.687730217099387,-4.507944406087277,-1.6446714326111591,-4.935106104815066
451,-6.673033020743364,-4.44741695564173,-1.4849662704923983,-4.688735177566993
452,-6.410026986733094,-4.368097274878937,-1.2819180597632107,-4.2666650353757785
453,-6.148876193567086,-4.313154765767506,-1.1033811632101176,-3.8598711627014803
454,-5.8929545509282155,-4.258187555919906,-0.9377204325234896,-3.512734944847038
455,-5.625070252399046,-4.179436938108786,-0.7721385162560093,-3.205628676805409
456,-5.329137781907386,-4.075245209594126,-0.5922182110188869,-2.9021117154540694
457,-5.018405552887773,-3.9493165319002417,-0.38992420443096854,-2.594609047396561
458,-4.715302615616768,-3.815295521662328,-0.16448329074225976,-2.285273933596933
459,-4.43819219020394,-3.6818425205493335,0.08486907624362988,-1.9922711466737628
460,-4.197492334958927,-3.5552471462611845,0.35415531933875,-1.736338442122076
461,-3.9724087681827926,-3.4450657648206295,0.6201385950439315,-1.4872260816763796
462,-3.7364855517468145,-3.355610128759237,0.859932644964607,-1.2139670723039089
463,-3.5026799597068967,-3.294232583393879,1.0873425755253787,-0.9661004478592985
464,-3.2934394633209627,-3.256817297546811,1.3183434733582138,-0.8029798303349045
465,-3.1054841184783184,-3.2280985740599815,1.5222191068546904,-0.7213159177666525
466,-2.931286737017938,-3.199903201793092,1.6603693095603713,-0.6925748838055986
467,-2.7686527071771345,-3.161236716913235,1.7288652323179052,-0.6612506064960595
468,-2.6180855756812313,-3.1052958083380786,1.7409334486826087,-0.5761602081321154
469,-2.5017948568671304,-3.0291912800130403,1.7105836366378409,-0.493065844100886
470,-2.4402676294933046,-2.935706432922781,1.662856014882678,-0.47985515859193056
471,-2.4062291346130413,-2.835080905543618,1.6434476498472794,-0.4578466079659625
472,-2.3626041075856072,-2.7405529206840376,1.6869807961499532,-0.3305406788551735
473,-2.3157088002503015,-2.665840634140042,1.7851436755388834,-0.12931422022980446
474,-2.2795248662763976,-2.6187318510276136,1.9026615413052612,0.07537412581017833
475,-2.240985973779838,-2.590854329005388,1.9907011463712552,0.22503527917220423
476,-2.1842731899232084,-2.567356808287334,2.007075274473794,0.27609240654745093
477,-2.098194943622054,-2.539006613840763,1.9389404710509985,0.27264093223297936
478,-1.9810583078423232,-2.5007459631318945,1.80622427074269,0.28283865228131977
479,-1.8668496718418863,-2.454586087389559,1.6753139359569724,0.2759932513981401
480,-1.794336297081183,-2.4059039509746225,1.612305335393281,0.20156313540568088
481,-1.7624100076174494,-2.353491778829226,1.619995544526898,0.09029069263673839
482,-1.7514099139787245,-2.298998011663551,1.663570000761661,-0.015327129526354483
483,-1.7426167333391311,-2.237167364983352,1.690417926973522,-0.12368087556077437
484,-1.7159027516721608,-2.174436298337592,1.6496659405016962,-0.24678718060608912
485,-1.662393666622105,-2.124135345372009,1.5418406312739745,-0.37748196505090764
486,-1.581936900803672,-2.0916668810192602,1.3949016456656869,-0.5016478962585259
487,-1.4672184319644916,-2.0493237054478066,1.2169855531571978,-0.574435697132166
488,-1.3184025717072536,-1.96509654443482,1.0197708787088442,-0.5600009988166359
489,-1.1597221752203035,-1.83926571081672,0.8447003652401974,-0.5053199654316538
490,-1.0203874514740654,-1.71020263845633,0.7283484800439537,-0.478649012120051
491,-0.9239913016496839,-1.6202311321050173,0.6725348126017598,-0.4939687774356839
492,-0.8795623488388442,-1.578608240079165,0.6637294619499994,-0.5434636615277848
493,-0.8552720463794843,-1.5638782859919826,0.679394028758004,-0.6129371564793487
494,-0.8103597536039373,-1.5486996749509103,0.7005771717359568,-0.6811161680030131
495,-0.7444976902834797,-1.5218076294472758,0.7467312662476262,-0.7534716280150017
496,-0.6732441910290488,-1.4842705307217485,0.8399380859745873,-0.8389334021114021
497,-0.5993489927759141,-1.440761814423565,0.9633605918293815,-0.8992387388430629
498,-0.5267724404052792,-1.398568354850602,1.0817918877551052,-0.8929677505944503
499,-0.4682022340437935,-1.3582387012763288,1.1390950956456347,-0.8345606159898316
500,-0.43181886017128546,-1.3162805262319899,1.0983398604264496,-0.7526288799828691
501,-0.41329290515052886,-1.270632769970655,1.0091109011708952,-0.6450323201202636
502,-0.40284150108318983,-1.2210061838527326,0.953904444838013,-0.5092240787426413
503,-0.38866041968711734,-1.1700066554705488,0.9945200285859579,-0.35836127431290804
504,-0.3610762524464599,-1.1227799505909963,1.1588328590852746,-0.21053989013518185
505,-0.3230686787607821,-1.0877944859043467,1.395733246354875,-0.1064366924027014
506,-0.2814408783598599,-1.0655888378403024,1.620487454487409,-0.07835762354712389
507,-0.23334086667887277,-1.0587499918351746,1.7878572822163377,-0.08524491915681381
508,-0.17317209387510735,-1.0535975934846955,1.8746719550815787,-0.07034076780332282
509,-0.10054604079831919,-1.0200588532560455,1.8803353946754535,-0.0489542062447095
510,-0.018699212522718556,-0.9482517472576668,1.820739081485023,-0.05192767620170205
511,0.07095848187716591,-0.8511202018540267,1.677595844638754,-0.05558759312357339
512,-7.258472973663764,-12.776844316251799,-10.726557580858039,-9.182400495704963
513,-7.689725254554076,-13.24600432453356,-10.9105225008999,-9.617465489805646
514,-8.0937970716757,-13.703095491583111,-11.123999149988018,-10.008316654583831
515,-8.466932651100334,-14.149432327897307,-11.3809152771041,-10.380618235932886
516,-8.815745005491916,-14.592506620211129,-11.664021474442842,-10.762490874366142
517,-9.135990123216004,-15.032781044241636,-11.94544049841178,-11.092749379108241
518,-9.426939651739104,-15.470250230586117,-12.193194904573726,-11.316562138469855
519,-9.710985106356468,-15.903047782474433,-12.411727442979819,-11.495509044584582
520,-10.012948304086999,-16.33000903843305,-12.61540317901135,-11.709132142040556
521,-10.349672927607685,-16.766471160671962,-12.774467095526091,-11.975603802691062
522,-10.724394204480623,-17.220034633979047,-12.884022878991034,-12.287222218396284
523,-11.105652866649859,-17.66029973832268,-12.953277925029338,-12.610323200038794
524,-11.464506376886428,-18.052671365809502,-13.038503393861461,-12.900292517777576
525,-11.789814632667593,-18.384597696959624,-13.183732232176478,-13.150700336012868
526,-12.09892617599714,-18.661183373277797,-13.360333255298174,-13.368660825856566
527,-12.40377287794309,-18.91473771931226,-13.49122556441699,-13.528862449213197
528,-12.697622338036595,-19.1788140992503,-13.554023808930747,-13.61948945171856
529,-12.975843384632617,-19.45536911910209,-13.573144915265134,-13.697930185239063
530,-13.228802456647568,-19.726299461248978,-13.597805426645795,-13.818489655826586
531,-13.44815387980052,-19.960753595032674,-13.636857960304209,-13.961712573907715
532,-13.632624679764053,-20.127958169552063,-13.685195885166525,-14.090383208579413
533,-13.795997828702921,-20.218015457519883,-13.742393098426081,-14.183121714184882
534,-13.95183673097407,-20.24023018351654,-13.801123937710338,-14.230736127659535
535,-14.096724120150792,-20.21668330009592,-13.84872056589887,-14.271915749628931
536,-14.219870489926377,-20.177056530815214,-13.869655399332231,-14.345642452516483
537,-14.308532576231629,-20.15540011017603,-13.854930407405229,-14.412194478156875
538,-14.352573312941763,-20.170520043248676,-13.794227896698175,-14.425237554782667
539,-14.357873304022442,-20.20415224037917,-13.643620814422066,-14.407667054045204
540,-14.33689326958049,-20.225050163902413,-13.397060871493272,-14.39401248254844
541,-14.2917672624332,-20.210396451942714,-13.092856369095838,-14.398208933447902
542,-14.234851999211923,-20.147790505873022,-12.828130544175538,-14.427412693675961
543,-14.174130070293542,-20.04935109161645,-12.665577891452257,-14.449780811246299
544,-14.133715481780733,-19.932880662856842,-12.586122683069716,-14.439000414248882
545,-14.149392967496315,-19.794079388108514,-12.564486319653094,-14.46601147744616
546,-14.215496664499957,-19.624118938299166,-12.55305905833998,-14.59364344904044
547,-14.293921272272486,-19.42261145585206,-12.532592174546712,-14.747951888157425
548,-14.336239275558302,-19.194782664583364,-12.494800556186263,-14.836518685719497
549,-14.32810709584265,-18.956928434915557,-12.39698589205338,-14.853126728026345
550,-14.271960273542998,-18.726858207207748,-12.22529100767858,-14.814482729691122
551,-14.170314908120575,-18.512098901640794,-12.002962789927077,-14.74478881137323
552,-14.03623395497088,-18.309287022096463,-11.795143026596337,-14.66745478031754
553,-13.892960079987867,-18.103001336172202,-11.647338918083083,-14.537205140096905
554,-13.763516736883593,-17.87362181057242,-11.540385186274701,-14.312830126183497
555,-13.669600084477812,-17.60246141547196,-11.449568897865825,-14.068589299773391
556,-13.620478547920417,-17.281895583864248,-11.332945129776945,-13.883782694412906
557,-13.598096351042994,-16.93236644425244,-11.162513176265687,-13.729320640959456
558,-13.57564531673603,-16.57838880274239,-10.925851094925155,-13.553690086709656
559,-13.535967630469951,-16.220282940575107,-10.618626343090536,-13.340927613247088
560,-13.469748756849661,-15.849207681448691,-10.252601661544896,-13.083764320281245
561,-13.379062925544904,-15.45808074637611,-9.856113645131913,-12.801658936436205
562,-13.270742936359337,-15.039439282101354,-9.458313240445731,-12.517558667181365
563,-13.145078387205748,-14.590802918389823,-9.092798961791273,-12.192809318119389
564,-12.997655074505795,-14.113844082824725,-8.77176510987982,-11.789226751911764
565,-12.821180789871251,-13.610949981768583,-8.434010372508457,-11.35708486507609
566,-12.607519561024379,-13.085221238209739,-8.034156780673323,-10.947490586984154
567,-12.351010064137869,-12.536989509901522,-7.565727345539787,-10.521364916885636
568,-12.053688427028556,-11.966433807098928,-7.084210327499073,-10.032846233942264
569,-11.728149001383724,-11.380647112764992,-6.648110357952457,-9.488862446122095
570,-11.392774172652766,-10.782848424484273,-6.250909819225161,-8.916561430513665
571,-11.074051133099388,-10.162760915276394,-5.834815670191174,-8.372154029284598
572,-10.808957624705544,-9.533317358305698,-5.413058762105452,-7.916506023913104
573,-10.614510408954676,-8.934493648416037,-5.0824357607339845,-7.509104039884641
574,-10.48969738195533,-8.396436221513353,-4.883825925267437,-7.110535175876266
575,-10.427746020341349,-7.963993680712843,-4.7494166902402135,-6.799092278679302
576,-10.443964893293957,-7.64180672621892,-4.5484732825869845,-6.6493221236426
577,-10.514567966493775,-7.400843913032273,-4.249470492865092,-6.598358069599975
578,-10.550272750933434,-7.179353513258283,-3.9137104073670694,-6.550482310160598
579,-10.469310958874543,-6.919124957754195,-3.617129905639353,-6.424821665668907
580,-10.276691109573335,-6.488615181276814,-3.3049383250721074,-6.26472914275396
581,-10.091854870859152,-6.040181567729071,-3.066540245527392,-6.086848197897997
582,-9.942092147525315,-5.607178284582581,-2.915244110757755,-6.0353138222515055
583,-9.798861159160785,-5.207831226189544,-2.8300476632475298,-6.072239495459611
584,-9.62271976969932,-4.849173130711085,-2.7687927287069476,-6.102569747874305
585,-9.387747979463558,-4.524645290413439,-2.673381915269989,-6.09619361188626
586,-9.107004042284386,-4.219971958662998,-2.4997138388028795,-6.04102285173543
587,-8.816112437408524,-3.929091712128289,-2.265496612857521,-5.951361493029906
588,-8.542544813917495,-3.6496902270412996,-2.016175860811567,-5.862261348210637
589,-8.295689731867895,-3.378607050800457,-1.7796996984217244,-5.768525707742555
590,-8.073624551838105,-3.110916090503426,-1.5741730256758837,-5.65452363208026
591,-7.856836750382834,-2.8375611036868724,-1.4047290639085774,-5.560103428472168
592,-7.600081009599712,-2.5480680410466734,-1.261458343941249,-5.52059427287274
593,-7.26734694060423,-2.226083443323944,-1.1340010154822469,-5.478807215444985
594,-6.843177298896565,-1.8665420165704159,-1.0087524916211286,-5.371972160142737
595,-6.367439608556638,-1.5021834646772587,-0.859887832597882,-5.234969560302777
596,-5.899288862418104,-1.1749971546243878,-0.6665359578633142,-5.1295993330937835
597,-5.492098762443437,-0.9070163389637677,-0.4334538038994447,-5.086174945604846
598,-5.169381178473908,-0.6996115872621611,-0.17962150835327217,-5.116425187991199
599,-4.9337621115240875,-0.5226930260751532,0.07943557994929532,-5.185990118108968
600,-4.772278186505877,-0.33465892415711646,0.32341751856996515,-5.242376748096972
601,-4.664903436954591,-0.1104378942220009,0.517157552796661,-5.287951254038563
602,-4.5667253948548625,0.1553521536562486,0.6331264873635473,-5.33451064136846
603,-4.404544548232165,0.43868896016262043,0.6703045194482262,-5.334342638233217
604,-4.136430936561687,0.704566829011679,0.6471638813529239,-5.243010266994593
605,-3.7753527331483636,0.93430131457795,0.6050128637075837,-5.078806452790598
606,-3.3698380586552825,1.1234912014124399,0.5858258459094056,-4.885215066503315
607,-2.970486966433643,1.2872765006630194,0.5934230648995231,-4.718334227311579
608,-2.623197590125683,1.4456550185863075,0.6174277132894069,-4.6262336073459585
609,-2.351153907179784,1.5942428993166136,0.6607849437596243,-4.585886342216562
610,-2.155008721541426,1.7192606814173126,0.7287705992222295,-4.552169266798387
611,-2.0230352065475534,1.8166211773634675,0.8363167229349746,-4.544137021557103
612,-1.9320246519284092,1.8859087948143856,0.9914368222446978,-4.5856868038638625
613,-1.856537507254478,1.9292045930737478,1.156905679268115,-4.640817310318523
614,-1.7727432186395928,1.9538619571988913,1.2858247061843882,-4.666296838040331
615,-1.6482460182126522,1.9723171641975945,1.36721603023758,-4.63452734536968
616,-1.4657668542119708,1.9969474037694963,1.4085797588813818,-4.539177891405653
617,-1.2587075856541594,2.031061041568392,1.420270998956864,-4.458384773563173
618,-1.0699223535000704,2.0740104928006238,1.4186537586941348,-4.47530535505783
619,-0.9409029014842858,2.133415894347298,1.425512468326546,-4.531897869114118
620,-0.8796575683073351,2.2129254906913323,1.4491579514244644,-4.54205308343196
621,-0.8763449157027726,2.2937154352639393,1.4676603494630505,-4.543440160813028
622,-0.922678785986911,2.3527203990772723,1.4508790212166336,-4.593481950965446
623,-1.0013588802780318,2.38556778368152,1.3695560558400481,-4.680236446339072
624,-1.0727260406683394,2.393299192260909,1.2207814903279173,-4.774395099050105
625,-1.0964389375056764,2.3709915732849165,1.0775169817550172,-4.818720607699186
626,-1.0769778707481243,2.315924138659474,1.027797106546288,-4.765744847618918
627,-1.059332353905252,2.2253051953614422,1.1002543651555958,-4.700477592201463
628,-1.064353982369231,2.102613215190125,1.2782284766593663,-4.722536210954956
629,-1.0558690390535002,1.9756321769022027,1.5049739252214516,-4.758576721993046
630,-0.9898974432141026,1.8742424560536253,1.7062593417625325,-4.701327985834299
631,-0.8656217912809464,1.8020852906283924,1.8225875379072618,-4.568951087075581
632,-0.7215017576247518,1.7498476720696619,1.8321008707464894,-4.411982317003169
633,-0.5889191729441428,1.7045785915672158,1.7908378914864513,-4.254555576166237
634,-0.4717872031458295,1.6533236823143223,1.7772413812017966,-4.118108833163563
635,-0.37683836375120416,1.5978946783202779,1.8126938449508974,-3.9796303149819265
636,-0.30043154562816266,1.5471099548849652,1.8877721106349161,-3.809205281963137
637,-0.24981553713062682,1.503584266546023,1.9791839641909676,-3.668943205150933
638,-0.22939294728536994,1.4697068026455615,2.054727278670348,-3.6247633995445905
639,-0.21885373850145004,1.4460633722381901,2.1162018938228746,-3.626533843827726
640,-10.116689502888809,-12.621642484848842,-7.123759304960959,-11.153600870604103
641,-10.52873024168409,-13.024346193815099,-7.2984107330091845,-11.562774383447273
642,-10.927272175618308,-13.425892663618745,-7.476319481192846,-11.990681388320331
643,-11.298429258335569,-13.828037793575165,-7.677474031951428,-12.422344502340161
644,-11.631154482649995,-14.22797319872291,-7.911780307974593,-12.840323343351049
645,-11.932544096955587,-14.617516678564975,-8.145103333072012,-13.226744720672269
646,-12.214299830376753,-14.983149131416148,-8.339635666378056,-13.569528557270026
647,-12.494678542615452,-15.32913156436678,-8.496202359917676,-13.904238038647698
648,-12.787591695219621,-15.678644493481482,-8.630791845189535,-14.259492745423737
649,-13.073829016074605,-16.036814095709186,-8.76449878090583,-14.569849849078285
650,-13.335603342847996,-16.38470053565652,-8.914391972286063,-14.77469172035533
651,-13.602075368676823,-16.70752373309731,-9.069866339992704,-14.92101349294345
652,-13.90552939836419,-17.004118518316815,-9.211817961446663,-15.077059503797656
653,-14.24194681484127,-17.279263620657005,-9.333120147415421,-15.285164965773873
654,-14.594105911933678,-17.537179674528943,-9.437411389177697,-15.561047920964244
655,-14.937547982206112,-17.77296004391784,-9.54079311530346,-15.824838242020418
656,-15.247575284173235,-17.9745316987644,-9.661056057536745,-15.998798139003503
657,-15.528894306745075,-18.149585745651528,-9.818980431031738,-16.162264722858374
658,-15.790700901677075,-18.326588308239224,-10.01325216413312,-16.40917040169257
659,-16.004367539604356,-18.51473062084377,-10.17341044045871,-16.695731773277554
660,-16.14737591014294,-18.689727723511666,-10.234860750751922,-16.955682947563915
661,-16.24986728286372,-18.81959083484307,-10.22171572609874,-17.176924141641415
662,-16.348267479814947,-18.898012740982384,-10.191291215389196,-17.361331482940884
663,-16.450771945221135,-18.929731135795762,-10.194120360239149,-17.543128710101033
664,-16.550029272090374,-18.932833712005,-10.267115735655107,-17.7550021089515
665,-16.61810858951635,-18.922500199716936,-10.403379469068426,-17.947319603531085
666,-16.62551232182069,-18.907636815891532,-10.56894614601113,-18.061184219190306
667,-16.573143066302016,-18.886175005854277,-10.72628863573659,-18.123564949772984
668,-16.47827606617411,-18.848730845491794,-10.842732317326806,-18.171235140981853
669,-16.358376996328992,-18.784292102030008,-10.911697768595499,-18.176490050595692
670,-16.23629290495672,-18.683760989504478,-10.935184511543165,-18.11653728377449
671,-16.13718494591629,-18.545742988447167,-10.903576246391758,-18.016247636317157
672,-16.077792069642058,-18.373646170084776,-10.80940088107107,-17.91048039281884
673,-16.067952645146843,-18.16959423543836,-10.638421281157003,-17.851510750213954
674,-16.101053035831022,-17.937497956283803,-10.397547579575374,-17.864189017372507
675,-16.131929654118448,-17.686754654642755,-10.166918558804102,-17.85867994275144
676,-16.115508210616568,-17.424803042495263,-10.02660788250831,-17.733569992166164
677,-16.055459437091905,-17.15121200016666,-9.976801946653918,-17.49739321935246
678,-15.965576196329023,-16.86285141505311,-9.981432306842345,-17.19179861626023
679,-15.836671146355844,-16.554411037890723,-10.001038724358185,-16.82949935869044
680,-15.655988012553673,-16.223735429054592,-9.989601423329772,-16.42806226139882
681,-15.404965820725891,-15.883360626415028,-9.91176314940048,-16.006776948838688
682,-15.075294619298756,-15.544846949795822,-9.752111316080617,-15.577996386349648
683,-14.703863044552234,-15.202122584340204,-9.510638035075022,-15.174478916923855
684,-14.335346789851837,-14.843208173949343,-9.205044211800534,-14.812977293634235
685,-13.978119523309001,-14.454811307948138,-8.876218098536581,-14.433067185293996
686,-13.626875420543268,-14.028699220348338,-8.561888398066591,-13.972383290482684
687,-13.284012808952376,-13.579870670512571,-8.267544790583571,-13.456224707017682
688,-12.944851919976763,-13.127077300868802,-7.9821665764890986,-12.928899237024181
689,-12.584733805806605,-12.664000050418714,-7.695457425397026,-12.386237868891747
690,-12.187930197941125,-12.186685228739025,-7.394056740171595,-11.826529350043474
691,-11.772366496567836,-11.696011588075205,-7.065414610669943,-11.278179053697
692,-11.362158334295943,-11.206953641789797,-6.710242447197934,-10.766151746572131
693,-10.977356709428504,-10.72617913828089,-6.335292403176058,-10.317730169774451
694,-10.618212974482685,-10.240531444619709,-5.96484203227393,-9.933992328970122
695,-10.221755484970677,-9.735189828822918,-5.672640783672286,-9.522837003192533
696,-9.724514508664482,-9.191716440857274,-5.508916176065082,-8.994344740884616
697,-9.146008133189943,-8.599618988620616,-5.425055327506292,-8.374951796042332
698,-8.526378273845388,-7.961037822367061,-5.329216397789018,-7.722305225324475
699,-7.864504796759692,-7.2638368284401915,-5.127858747236286,-7.056571094778056
700,-7.2198850057110056,-6.55941211994225,-4.777887644430606,-6.408387065765013
701,-6.684244426591555,-5.968869658120149,-4.311221673128812,-5.81360496212519
702,-6.36007483236109,-5.544515593698967,-3.8192296437036495,-5.3053406912465455
703,-6.193750434339881,-5.245133484869799,-3.411401253257169,-4.941973299569944
704,-6.06718775672497,-5.004840824705961,-3.158492231572604,-4.744171900191176
705,-5.93104393615295,-4.77909559955232,-2.9934628767254337,-4.608666949403668
706,-5.7667188255858255,-4.545817246417927,-2.84956676881611,-4.424756546628572
707,-5.5733815483713744,-4.2885275297773555,-2.693006905393262,-4.195955041565751
708,-5.404853695872289,-3.9852893903228535,-2.579705943142792,-3.9228542532504256
709,-5.237542636156071,-3.661396457825528,-2.4967026584597867,-3.671395366488753
710,-5.0723154431177555,-3.3263930301612348,-2.4085778120118673,-3.4590630929076913
711,-4.927049134442743,-3.003977371466252,-2.2711706145777733,-3.238302445004852
712,-4.8143154674518005,-2.716730852819409,-2.0473838855417226,-2.9515100529523712
713,-4.733494808544054,-2.466445161408435,-1.7371417314296782,-2.625516974990964
714,-4.672353956783849,-2.2430481562949294,-1.3725651101501246,-2.3049841378775398
715,-4.591711763577941,-2.036384057575715,-1.006142660564084,-1.9747136701943433
716,-4.454873045820748,-1.8348589770635586,-0.694809177036684,-1.6120426848094838
717,-4.26578859609765,-1.6226522961053063,-0.48685275139264933,-1.2172384325969738
718,-4.051551964935148,-1.3908883867385178,-0.4006732283216178,-0.8043075153349186
719,-3.8501796380467255,-1.1541398431091998,-0.38789011281867175,-0.43205337613718486
720,-3.6949090460818597,-0.9263210737295716,-0.380468929278029,-0.15946089024512572
721,-3.5826286485732286,-0.7158652959723988,-0.3607875851534832,0.038761409868159916
722,-3.486401646825488,-0.5070532939686266,-0.3309536860849724,0.2143254307722357
723,-3.3789656671428605,-0.2923141025700769,-0.2815557324355657,0.36625943921232096
724,-3.2319193801430557,-0.0654000405328666,-0.210214522325878,0.4897477303431521
725,-3.0150546994570555,0.16779767054127198,-0.11700730846900816,0.6139199288600082
726,-2.7155955172828565,0.39640572729088275,-0.005874012807643201,0.7690128640654426
727,-2.356682526794336,0.6177931625424491,0.08513426235268648,0.9906139742455263
728,-1.9778859054697986,0.8342906255120083,0.11984833077064479,1.2941231276094296
729,-1.6170299265281818,1.0514455340402844,0.13661447478463823,1.5999714442562591
730,-1.3025178386426441,1.2752284009190469,0.1870013295264266,1.8159603572259935
731,-1.0323470564084887,1.5061928511310643,0.2314376504344539,1.9658112834412158
732,-0.7916293433034242,1.7389116047094604,0.24212670028758046,2.105687087063277
733,-0.5853722331068995,1.9616080003739675,0.24212700320429134,2.2230126782601554
734,-0.420597589895173,2.1612725362879806,0.3074947307688567,2.3007208298866955
735,-0.2883389240853521,2.3287160034561416,0.473829547416182,2.3617894349818425
736,-0.17710823925477553,2.4613928783954306,0.6824086054592936,2.435747568518664
737,-0.07577711338485327,2.5699569339364925,0.8836378151478633,2.5627911551112996
738,0.020841279408205612,2.6680699004101243,1.022428326944067,2.7710935112663364
739,0.09552464870920221,2.7576281782091905,1.1013910633499089,3.0133966462976534
740,0.1248283096655676,2.8349194931972597,1.153383139514997,3.2227750650864273
741,0.10347427986407064,2.8959336951648207,1.1911366468703208,3.403323225065866
742,0.037226692550702774,2.9369025274085745,1.2217976186929704,3.572180885850316
743,-0.06984851680378501,2.9589795299246866,1.2489874909663083,3.6902965622469632
744,-0.2042861638603139,2.9657359403604238,1.2722131220072723,3.72018589578861
745,-0.3263202539864559,2.960980795030444,1.3047212900876293,3.6671328522960143
746,-0.39909799409389496,2.9459218839183596,1.36034777976888,3.5589364582409524
747,-0.4266329181988803,2.912575282457698,1.4349937480848858,3.4567471206510985
748,-0.43074309749902523,2.8576252155848794,1.5154578414456947,3.4175866855251376
749,-0.42390634073342,2.7683871624857623,1.5872273238372434,3.426157487588047
750,-0.41969144208352843,2.6533069518511194,1.6363225491776916,3.436723927592729
751,-0.4343805471089273,2.546561723822235,1.6495923904779772,3.425411727795402
752,-0.4788288484291397,2.4659400637764026,1.6237673207489607,3.376698945493682
753,-0.5637968202950543,2.413577844144503,1.5843996697506424,3.2867721121349844
754,-0.6886967394089993,2.376230613522457,1.5603839238671948,3.165598880796954
755,-0.8220233748683551,2.3329958007197926,1.5426908519949012,3.0147215853760057
756,-0.9259222380589414,2.2650205638541427,1.5121233598407458,2.83905782463979
757,-0.9812544044101545,2.1714253044226193,1.4780799571614474,2.677060385413216
758,-0.9854908192243526,2.062652777287128,1.452561663418925,2.564786196830261
759,-0.9629982764222287,1.9527306775745354,1.422724127402198,2.482064839709816
760,-0.9462138552405561,1.8550163678731946,1.3758890576841047,2.3963121274615213
761,-0.937211771713678,1.7693581830299254,1.317306873915652,2.319684486728688
762,-0.9292227548359917,1.688876407869783,1.2586647086238394,2.270642434469162
763,-0.937255542238932,1.6177204533032652,1.2229645970221805,2.238735487461616
764,-0.975732073104422,1.555605931952843,1.2260024015628888,2.2086308257238736
765,-1.041550390147349,1.4961490051689137,1.2379466099379988,2.161678444466698
766,-1.1256931707696072,1.4259066589453846,1.2194154556088392,2.0823534061868196
767,-1.2101902687818933,1.3484254535871065,1.16631194729031,2.0045236987413353
768,-9.539860319513533,-9.584547117886666,-8.165429320608254,-10.652713845966781
769,-10.002284547424349,-10.01700714816494,-8.494660170365128,-10.907828656366046
770,-10.498396225919286,-10.438406575989585,-8.799712369013458,-11.231962834903083
771,-10.971851795799045,-10.838635526231801,-9.097396455101919,-11.60007865881862
772,-11.368500952468498,-11.211094844281181,-9.39754162926569,-11.900494994695428
773,-11.681912751643047,-11.550801108432314,-9.698472993236443,-12.09151371788691
774,-11.943326194378294,-11.858978261460834,-9.993343751196145,-12.247671948114565
775,-12.19031569623059,-12.152461432614826,-10.274882763645495,-12.462561808717515
776,-12.441107179115175,-12.445145057429645,-10.524425272899894,-12.747209673337146
777,-12.694187221277788,-12.74044402842417,-10.713737951335972,-13.03344305740726
778,-12.93988247947085,-13.02810110826953,-10.853285590001397,-13.249193460037652
779,-13.183716836560484,-13.300503232168536,-11.00410945976607,-13.40307618737674
780,-13.437148427651447,-13.55791425574243,-11.2171103391213,-13.57194876126121
781,-13.730171531235031,-13.790822308822907,-11.496926551416369,-13.816866599849448
782,-14.062820080274994,-13.977707720614077,-11.819567895666898,-14.121663440250302
783,-14.386303892340134,-14.124687292196436,-12.157822685627504,-14.416684685594287
784,-14.612079151783343,-14.270933571974789,-12.477512784072806,-14.65542566450775
785,-14.681040994644015,-14.449992720579063,-12.739236088542276,-14.82166277935573
786,-14.596186609942794,-14.674228920699633,-12.924959995312776,-14.908973471471585
787,-14.409161417623825,-14.922630299566704,-13.039854626544843,-14.832258727849483
788,-14.18618670527189,-15.157016628720543,-13.116532203740844,-14.5567954734539
789,-13.98697928398076,-15.343577248397507,-13.19397456405616,-14.130958207538088
790,-13.877386120725934,-15.467509410773912,-13.293947166289168,-13.696351605380993
791,-13.921804754427143,-15.559149855655667,-13.380431043297285,-13.424493005692476
792,-14.118389210746301,-15.667078021926196,-13.407929547057902,-13.360510166249627
793,-14.359481648423085,-15.821007294166582,-13.358336501640393,-13.415325388794129
794,-14.34627452685417,-16.05126871839172,-13.2563927064664,-13.440624291529701
795,-13.733073675571156,-16.36309007941367,-13.165661506188307,-13.140342191230081
796,-12.45987051045954,-16.76827600199719,-13.17595029051826,-12.286485353937264
797,-10.731540337931381,-17.280482803518613,-13.311463127837893,-10.94003334867339
798,-8.830842954396285,-17.86073272063495,-13.526014120407257,-9.330391343273348
799,-7.094269574911533,-18.4251512304106,-13.766179915588005,-7.67606237584816
800,-5.940500982190823,-18.843938664714894,-13.98610324802968,-6.234206413152723
801,-5.668266517918102,-18.94839701412565,-14.145518030142714,-5.423173182124457
802,-6.290028710495731,-18.637545025989926,-14.221457046595058,-5.452566752876798
803,-7.648819828973208,-17.969481272932573,-14.274621908678059,-6.116544435768581
804,-9.419802184611635,-17.166753391847635,-14.432981782810028,-6.987136085962825
805,-11.193945537727211,-16.504019405953223,-14.587253047918903,-7.822664186744308
806,-12.890615128710941,-16.064033306490703,-14.382142700405502,-8.688542059845906
807,-14.826236842008978,-15.706889580688737,-13.70142176436601,-9.741912414585004
808,-17.21343301178803,-15.280409340482088,-12.800125323908944,-11.031126905006682
809,-19.921243858843454,-14.736188875185903,-11.998564976282003,-12.5569290184531
810,-22.551484064052904,-14.089974610100956,-11.434513213097944,-14.35346259276366
811,-24.628092367742575,-13.377579079690001,-11.046190268661032,-16.293076204323032
812,-25.947078976668074,-12.657993695322316,-10.669123267617431,-18.08581021090628
813,-26.638339518977165,-11.980941224728596,-10.160622322299242,-19.610834476525607
814,-27.137387635504517,-11.30887506540673,-9.49639853437609,-21.092087309751435
815,-27.973931749625976,-10.544459380425762,-8.755116536974777,-22.862048160836906
816,-29.267559227317633,-9.647573239810939,-8.095123369903636,-24.89820387611156
817,-30.699892698217802,-8.746052129776366,-7.672108050551541,-26.736995474843688
818,-31.913982889407254,-8.046677009498593,-7.424632085996528,-27.917842444908462
819,-32.70765283981553,-7.613044190278871,-7.105277510178884,-28.559372226493473
820,-32.9945067113159,-7.356251287549444,-6.603057184208175,-29.24766207221981
821,-32.81613055826995,-7.147485523096989,-6.077497377224152,-30.188892774033725
822,-32.381823954050475,-6.867938110963921,-5.767365756209862,-30.990876043150557
823,-31.957793402474984,-6.4461237476080475,-5.728835236963011,-31.25438383865423
824,-31.654087627068044,-5.8478892364148525,-5.786516279955102,-30.928820891516356
825,-31.39707731606937,-5.086664849844118,-5.6807711662657665,-30.44395367188928
826,-31.071069156170523,-4.293463354228672,-5.263782680870517,-30.48859299131015
827,-30.592527718772956,-3.6676114193499947,-4.657848511969333,-31.0630901352552
828,-30.00051948099528,-3.2288380713410376,-4.173873011195396,-31.384753600921623
829,-29.396840392992274,-2.8060804755178417,-3.9882758584514413,-30.92716721980645
830,-28.73727838652723,-2.349332008397257,-3.987698254634649,-29.751673222745044
831,-27.832433375416105,-1.996462238289321,-3.943461911558078,-28.24021381068601
832,-26.764145563347945,-1.8224855206422377,-3.7698205767263513,-26.856389747690606
833,-25.913385242947307,-1.749730698734608,-3.5473228635860203,-25.859518784406653
834,-25.451707517901447,-1.6711714778341666,-3.391792858537848,-25.101263434329255
835,-25.200478256520192,-1.5680359880540284,-3.3740098872643034,-24.17748541513782
836,-23.987243306210612,-1.499785792080142,-3.2843671588933154,-22.612397037827243
837,-22.803571215196378,-1.4067566913565874,-3.2167049575692785,-21.137012833368708
838,-21.6453476153953,-1.3002872784123183,-3.1150216249092395,-19.755859175578042
839,-20.50392966113361,-1.1803193170427178,-2.9405138584237283,-18.404543290168792
840,-19.376080208182433,-1.0367811411168442,-2.700948863324937,-17.065356867314545
841,-18.250521223144375,-0.8731735280115578,-2.43220904962448,-15.772048269036304
842,-17.11822492685529,-0.7096670442108197,-2.1654836406591267,-14.573572857660086
843,-15.961279743217263,-0.5606335044363535,-1.9160347295640796,-13.419170555362623
844,-14.774695455559533,-0.4228455933669301,-1.68944397173074,-12.254203486445636
845,-13.572274232761846,-0.2906257209178029,-1.5026708324379692,-11.039929161297746
846,-12.388085377433686,-0.1533732962446498,-1.3672359378489913,-9.801265514201589
847,-11.243415016306162,-0.009639364179763271,-1.2704005999439476,-8.600496999336004
848,-10.132301670046317,0.13776900160274086,-1.17156821632403,-7.459234403025226
849,-9.038130619105527,0.2899421979141268,-1.0254262919585568,-6.339652000255902
850,-7.969774717184575,0.44712896207955705,-0.8379866782867733,-5.250560312051395
851,-6.965619709254123,0.6085128030397319,-0.6661958173214253,-4.232102918090459
852,-6.038787396967859,0.7711894868064588,-0.5383560182348247,-3.324952420337615
853,-5.139132557164621,0.9229427375262416,-0.4325575596735985,-2.4690637360093537
854,-4.208067190282659,1.0533464738504883,-0.3256628749954073,-1.5809307000453254
855,-3.2250766114244165,1.1664143883274942,-0.20464047967830964,-0.6534986749925569
856,-2.2132081248037423,1.273072648238633,-0.07543074197990886,0.31052859419675855
857,-1.1973186890572176,1.3906132271566778,0.04872856379436594,1.2862624322124465
858,-0.18663746995241992,1.530606424644076,0.13805001816234116,2.2854164750437045
859,0.8153668016892147,1.6747639671778431,0.17496806990129732,3.3136984552936575
860,1.7920429530902005,1.8001277334077248,0.16154320915995185,4.37040853242263
861,2.7156564229475793,1.8887078718594872,0.14932692172069134,5.369000725036912
862,3.583977241346169,1.9426573092594672,0.1936136984410352,6.244075486033228
863,4.438094226898233,1.979081032868538,0.312675313102612,7.011324321371001
864,5.329984616116718,2.0085752188641384,0.482974736273909,7.765215441864369
865,6.27178680727321,2.0290510934583113,0.6799171793669804,8.600584498906764
866,7.249729697055697,2.0401257239753443,0.871155561077702,9.511793565757644
867,8.235486989919186,2.0481348178148724,1.0428212808967205,10.453535996564474
868,9.189818843506645,2.0502879063877675,1.1823644352750098,11.348242372568555
869,10.077030447014407,2.0313298330771454,1.2716698860930251,12.193985160871335
870,10.881722395523669,1.9864377175204253,1.2825109720207726,13.00697078211751
871,11.594084964742775,1.925548008193044,1.2159313437762007,13.794056256860998
872,12.2358770837113,1.8589535424578918,1.1046228916418455,14.54399818015182
873,12.856420130524468,1.7852639346216606,0.9773331900508943,15.2848231764749
874,13.488343962099663,1.6916989860972158,0.8490626013990175,16.092521951195316
875,14.135365280725825,1.5661695248193765,0.7310915233358461,16.991666464182735
876,14.781401362969465,1.410603643752215,0.6226451952613411,17.917240417651946
877,15.412933115866874,1.2376305913560168,0.5166144451739433,18.789264119520254
878,16.017570729100104,1.0481517997969794,0.4051251429260194,19.58133745250903
879,16.590672726751237,0.8357538867946466,0.28502883642029475,20.304247358423957
880,17.1348367570835,0.5935646445819219,0.15798851571869627,20.99533711030018
881,17.6474254315151,0.34023977167486363,0.029962935589976425,21.630615572349456
882,18.12899045692439,0.09806105796043031,-0.09343735890566807,22.19912740890224
883,18.60152034252667,-0.12190056622076079,-0.1980096434117915,22.673203192617454
884,19.08261856378139,-0.3206899604600714,-0.27929484231632495,23.09147010918397
885,19.578843126059272,-0.5007233173925162,-0.3402920128355716,23.554804321958503
886,20.081222646789865,-0.6589133804002665,-0.3807306717642168,24.07858652220828
887,20.58224622436547,-0.7918465233350901,-0.407147407410555,24.6051293817249
888,21.09763521068326,-0.9053967528319191,-0.4378632965261178,25.066803263681642
889,21.65888552915634,-1.0053943327203354,-0.488280284378886,25.507304043019246
890,22.264090414295445,-1.1013557666067237,-0.5560276015178566,26.005714480269102
891,22.860895061667367,-1.203373834433286,-0.6252264246343275,26.548267886692134
892,23.389876090755013,-1.319479376612112,-0.6847327653472107,27.023657298871377
893,23.833608604060025,-1.4572145490124064,-0.7340736033756057,27.37726611351887
894,24.21355737716619,-1.6184554726018452,-0.7784948385350408,27.672469511467135
895,24.562687394509286,-1.7881545314809628,-0.8247500206915306,28.005382319487527
896,14.278568404472077,-14.31335549934169,-12.992100505692326,10.019623921792341
897,14.27824964009533,-14.586869088117218,-13.31578360658503,9.927685561233574
898,14.231156544835025,-14.81856109024154,-13.716366933342085,9.802048460891116
899,14.133919421826452,-15.011344762945859,-14.205552806135577,9.655253488961886
900,13.985422547595387,-15.178336253715798,-14.746701055093373,9.493794594153183
901,13.791129924160204,-15.332677374311249,-15.25933770566165,9.292129073217207
902,13.557821976382753,-15.484049858647403,-15.660090410216917,9.020382568574929
903,13.284966364033341,-15.634184318367504,-15.932134707868773,8.652756446937923
904,12.97073095459772,-15.776937765671612,-16.09327594358991,8.179377584329426
905,12.616348738376795,-15.896065401928043,-16.17028846850722,7.646743028496619
906,12.223968517133619,-15.978199574998818,-16.19536235371664,7.106932569466583
907,11.797906214944094,-16.030181927906412,-16.161099118730384,6.537463961740289
908,11.338962782370439,-16.06566797615222,-16.06220570710836,5.928904800840696
909,10.84255402769369,-16.09066055442814,-15.982613782415166,5.287843602694682
910,10.29968347710603,-16.109398820814445,-15.997496830275724,4.6690673142815236
911,9.686260072024975,-16.12587424106655,-16.04102817370374,4.114465628600557
912,8.996660382927487,-16.140430546105037,-16.037825819103656,3.5904587450777634
913,8.24984726439486,-16.15200068420545,-16.046735432026512,3.0149935652269924
914,7.488130841794169,-16.156005511304723,-16.130749601144906,2.3712127695374647
915,6.762725016597134,-16.139993672159843,-16.253654716195125,1.6960098355990936
916,6.071894370628371,-16.092264392988657,-16.353760818568727,1.0426774548075897
917,5.355150661898266,-16.009277034932673,-16.367001639967867,0.37142874808634496
918,4.561335822833023,-15.893332869871463,-16.251149282716604,-0.3528165738132153
919,3.6890123462064475,-15.754816956262122,-16.04771477097324,-1.1331456389960297
920,2.76324360636435,-15.604567358286019,-15.828922755715174,-1.9217227244060509
921,1.8069519067781457,-15.438070017055313,-15.641768742470648,-2.691980327579763
922,0.8429652130212058,-15.251417675204188,-15.510252851135041,-3.4715017940608837
923,-0.11666549307014687,-15.045223008814235,-15.410543958639762,-4.254658447096972
924,-1.068422935616791,-14.824561551427827,-15.303686040115169,-5.034328436450776
925,-2.0168497588437075,-14.583559028364558,-15.195981537657158,-5.762721266512119
926,-2.960802228001042,-14.299036272399405,-15.10174792304566,-6.401906349253948
927,-3.8808753477232356,-13.954732893753492,-14.99958501641644,-7.0012130566275586
928,-4.7592275464664535,-13.561261184298823,-14.87278111045431,-7.628072179624321
929,-5.612728331800653,-13.1546681138078,-14.738678736492954,-8.301887074912349
930,-6.48761556585332,-12.767845615341669,-14.617121773765419,-9.023554532858071
931,-7.417112800745142,-12.405104610658222,-14.517284869436175,-9.780422573763735
932,-8.403013244403377,-12.043376437565085,-14.431885866376591,-10.554191546464388
933,-9.43307602541925,-11.660927185752213,-14.314448867048817,-11.353422158702784
934,-10.496391045625218,-11.253891650169914,-14.113200786084771,-12.194937834777663
935,-11.582294728287504,-10.83097203520304,-13.819557468390869,-13.070248541636165
936,-12.684218683388947,-10.397674115932984,-13.447165915641065,-13.970142319323976
937,-13.820606483331414,-9.960193375077548,-12.997567271840698,-14.921705309506667
938,-15.023748108460913,-9.522166991118995,-12.497122074205953,-15.92812278220338
939,-16.283537113523018,-9.096489900270578,-12.034661624133076,-16.97417325825284
940,-17.548795776426083,-8.68494462056514,-11.690435596665171,-18.002481432488867
941,-18.786832992512085,-8.27151728460941,-11.476864052785736,-18.98377373115906
942,-19.99750693224312,-7.828212196508162,-11.352301864125293,-19.953813152330277
943,-21.172764366096402,-7.326177415926515,-11.229922386288028,-20.93124045406861
944,-22.28636753025634,-6.764367029690556,-11.010370503025925,-21.929756081677883
945,-23.335326261470346,-6.166903951833679,-10.602789928326084,-22.902532147848685
946,-24.345250197631557,-5.555166907382457,-9.981056377984203,-23.796623834052713
947,-25.33943711014559,-4.9358230811411605,-9.259305542008487,-24.634142277685992
948,-26.329738774475775,-4.306976005642161,-8.581002228396448,-25.451564095151905
949,-27.316646906817343,-3.6657272932023757,-8.009186860469125,-26.242113177796437
950,-28.299941843202664,-3.011195136767242,-7.548335627840771,-26.997296660966192
951,-29.285548913014907,-2.3560255875934804,-7.124358660873345,-27.722206324206695
952,-30.289225893285952,-1.7120924526120522,-6.647711039963126,-28.427599641123898
953,-31.3137782411627,-1.0756612073576817,-6.123473327026187,-29.15406884016974
954,-32.34075685777777,-0.4344728411665247,-5.584723848804027,-29.93462214904154
955,-33.32997948136848,0.23360575676209377,-5.023698851303335,-30.73134705720259
956,-34.25784944800505,0.9451183940833844,-4.504020918019139,-31.393388597416745
957,-35.010705354380754,1.6429469787414288,-4.076891344820275,-31.71610227661736
958,-35.352077427862405,2.1870290469260416,-3.8217819329808487,-31.693206512152134
959,-35.15924308464061,2.49992922613316,-3.7715754216907875,-31.619630365634993
960,-34.661192589681534,2.652580440182386,-3.88217244977941,-31.675328323923885
961,-34.39346990394168,2.797389033740009,-3.982763681358654,-31.957567524333445
962,-34.77589940482167,3.0228003096162275,-3.9085445183796694,-32.56196569011168
963,-35.7348118713089,3.2895422471745346,-3.6468682967322152,-33.44692582238875
964,-36.806055071137685,3.554197795756629,-3.1968001254587985,-34.403679100249605
965,-37.217423274387315,3.733902860218075,-2.7395008352592716,-35.216979977034455
966,-36.77749560437789,3.8202266191976353,-2.380427561984987,-35.83512638358736
967,-35.8720518651331,3.8742214775201815,-2.0669889099287295,-36.25301257316718
968,-35.13211545335569,3.9550671087725644,-1.7095655379547203,-36.47424799254927
969,-35.00640690677611,4.076401372448513,-1.3376452778223835,-36.46559145050084
970,-35.48622411035901,4.190963065149077,-1.0166398029894452,-36.24062572750242
971,-36.260882564952034,4.1975334423542,-0.8180826813723681,-35.90658678504217
972,-37.062113293973475,4.041800507772119,-0.7827383278165504,-35.64610261473364
973,-37.64545480813335,3.7657640369688323,-0.8010819666478172,-35.465796036142876
974,-37.678157491136915,3.4478323904473576,-0.7322285052384163,-35.152422999108936
975,-36.9672745858039,3.1348709061843203,-0.5473690138249245,-34.56495036583786
976,-35.57754412446055,2.865896106050735,-0.2867995724715261,-33.735809873156896
977,-33.82567335972944,2.6988723718555425,-0.08442437074029181,-32.71660602839036
978,-32.21886502206692,2.6498740129165084,-0.07087021266116722,-31.653185355853648
979,-31.143410571150586,2.7350775845075126,-0.16934823663909762,-30.767855328573155
980,-30.680726466289585,3.0207459395014733,-0.23585301919959512,-30.212546426454576
981,-30.688240993828288,3.4575723175531747,-0.2624195013735891,-29.928329849368087
982,-30.933193467865628,3.8192783059020976,-0.27499429444574597,-29.718323328034554
983,-31.033377625106883,3.9153901294151203,-0.23058114409618094,-29.31313548729556
984,-30.517856215855296,3.721866078594539,-0.10007319466758596,-28.52954480931318
985,-29.34846004099831,3.324255160926852,0.05784210292399536,-27.297569194068384
986,-27.96825643577435,2.8786407877636035,0.1783631735142507,-25.824712682781495
987,-26.773881927985016,2.5871373918328406,0.2846441760750203,-24.635092446893257
988,-25.921797667839275,2.523534000017936,0.41355299485048747,-24.177307938405328
989,-25.391674329670252,2.6062784580109515,0.5321833278549175,-24.346295895727117
990,-24.995364596269503,2.731599646226754,0.5958907379248167,-24.53387946404146
991,-24.467312793204318,2.828507171076927,0.5966921589540615,-24.195855915221703
992,-23.670768201419452,2.844961361677758,0.5426933085777694,-23.27433748708535
993,-22.646057118687473,2.755884545524353,0.45034020556923604,-22.083801563742224
994,-21.54077724376393,2.5889842409400043,0.34866771271442903,-20.958950599588384
995,-20.526683334981268,2.4101082652682937,0.28137356960621807,-20.012627237840753
996,-19.633926188109285,2.280291126432428,0.27772744836785934,-19.212705729943277
997,-18.744536011442875,2.2087569818072335,0.3189507857693863,-18.39636815575854
998,-17.775831570008044,2.1635852070929165,0.3671093739097683,-17.489518696415317
999,-16.745322504582912,2.1082068198731108,0.3854918181620862,-16.56000692355431
1000,-15.71814636203732,2.026661552014106,0.35699516955011923,-15.686622024529415
1001,-14.767890302297147,1.9206858837471128,0.32805738086685166,-14.872578203048409
1002,-13.932801688003421,1.794005943603787,0.35852820689169435,-14.111289702677263
1003,-13.201351322661866,1.651411672458091,0.45554307461117355,-13.384978745899836
1004,-12.538836551915534,1.497680530608887,0.5898080279171299,-12.719994934243541
1005,-11.90340003808347,1.3463355176971514,0.7069901674566748,-12.170531985210706
1006,-11.267942281713315,1.2121174198040552,0.7457342506082654,-11.721527226154626
1007,-10.629877338831736,1.1037125608227027,0.6590847449520472,-11.282607485447823
1008,-10.012296818959753,1.024591399151517,0.44297516037630624,-10.815843110555251
1009,-9.431051550305511,0.9767770583980312,0.1802545467114013,-10.336307564374357
1010,-8.882635038353113,0.9561791434817304,-0.022611161826676815,-9.886321691002125
1011,-8.3593497674912,0.9418968005021353,-0.11619906130376434,-9.454040418666844
1012,-7.84735244612422,0.9173871139593305,-0.09761073257196215,-9.013388319155807
1013,-7.33980846863191,0.8793824390606614,-0.00313907165101511,-8.55700487750778
1014,-6.83727290020252,0.8399331005246891,0.10789671651536704,-8.08546663288595
1015,-6.3490747646715695,0.8163713747601514,0.1714607182242165,-7.621938799797551
1016,-5.885917474039728,0.8070819777579532,0.16003771561453273,-7.196436743850126
1017,-5.446695158570678,0.7895104806269794,0.14716531817368755,-6.80566628308938
1018,-5.025179339714694,0.7510105757545105,0.23112922723121174,-6.436687642427116
1019,-4.617115136034514,0.6907981849339272,0.44127036789250307,-6.103548084497464
1020,-4.2199025830409145,0.6193578938641396,0.7579228296521665,-5.815905672692714
1021,-3.8376402801050356,0.5492512270423854,1.1088283714336897,-5.549868866256124
1022,-3.476560718266837,0.49151152558511635,1.4052367699739028,-5.272406535041378
1023,-3.1359517449561007,0.4503270155830894,1.6157106659628035,-4.94931976645055
1024,-9.33995881055294,-10.694217798589989,-11.625581547634246,-15.464069431800795
1025,-9.570288491672237,-11.01047870298243,-12.112384980565585,-15.785897855587509
1026,-9.82271232356341,-11.303984932161335,-12.63669485661994,-16.13319099932843
1027,-10.092914533958346,-11.556011551023525,-13.13546656372569,-16.453708850105798
1028,-10.36480057595539,-11.766138561392118,-13.55632995919299,-16.700239526700056
1029,-10.656506300794312,-11.941995234901619,-13.900072790479797,-16.960056645242595
1030,-10.97896279901218,-12.099393196274749,-14.192875494910552,-17.318865633272356
1031,-11.297653674179012,-12.250024319581275,-14.457537839752332,-17.72399644914654
1032,-11.576558531032475,-12.402618200294814,-14.707488597899884,-18.094183581284543
1033,-11.808015863656323,-12.564915332520352,-14.924685931722,-18.390001287056045
1034,-12.0024472854881,-12.739708735636277,-15.088127397385382,-18.59554875783144
1035,-12.196149203180267,-12.924341388233909,-15.203382329587928,-18.759082624325732
1036,-12.42778326275962,-13.112009425228203,-15.295636282704894,-18.939542184848502
1037,-12.699795593913947,-13.29078301804692,-15.421982863233563,-19.10705512262907
1038,-13.000824527494272,-13.45045508262921,-15.630199038080264,-19.220355014073345
1039,-13.331886223633317,-13.589766990956551,-15.898981023718237,-19.318462108077224
1040,-13.69086894409816,-13.712252638726973,-16.181451953786063,-19.44472165400254
1041,-14.061102071075988,-13.824612601304942,-16.45760794172049,-19.58059073246435
1042,-14.427584396862693,-13.932892595060672,-16.71352624648028,-19.706091336893806
1043,-14.792176620745792,-14.033251492625238,-16.915168233204177,-19.83410768991613
1044,-15.156808559640723,-14.121440597032791,-17.05353027835541,-19.98259993135876
1045,-15.50678025689863,-14.205356518380157,-17.19688580059785,-20.185667225340826
1046,-15.82721878229686,-14.293984082801167,-17.414120179704714,-20.456812749729146
1047,-16.11436039460993,-14.388106294096222,-17.69772846695222,-20.718566270152706
1048,-16.371561602118373,-14.485050433604984,-18.011542719041284,-20.886700829144445
1049,-16.613945566321416,-14.579654596323827,-18.318595082647285,-20.966374621808345
1050,-16.858119684016717,-14.666454087132255,-18.58550308508672,-20.994037129418228
1051,-17.102343317939983,-14.741938012943015,-18.817726985131813,-20.990135035629855
1052,-17.341351292321246,-14.804052803914685,-19.029958540993697,-20.98039375423037
1053,-17.585050930701797,-14.859736411720858,-19.19970046927759,-20.99101593136374
1054,-17.837504437860318,-14.906764763047558,-19.298401302666726,-21.03107563964865
1055,-18.08404422470335,-14.92904130569782,-19.324034934326644,-21.105146623891926
1056,-18.300202280424923,-14.90142107181128,-19.278120447812235,-21.19375715866796
1057,-18.445574111708684,-14.82394836903402,-19.146732127073523,-21.20908673846227
1058,-18.489860707132344,-14.724216590942977,-18.93147509196236,-21.0754801422562
1059,-18.451069623398787,-14.620876864401477,-18.66539340781386,-20.819307850910153
1060,-18.35975784741163,-14.513218968726653,-18.397082196197207,-20.499200864235984
1061,-18.225027206574293,-14.391606303984737,-18.19820334217163,-20.157626686883507
1062,-18.04842175305584,-14.237316737637574,-18.114967418833967,-19.82093608368087
1063,-17.817775222031177,-14.035329377909342,-18.100970081800053,-19.44925390372866
1064,-17.522988815226935,-13.779563196378952,-18.079545620784483,-18.9955248793911
1065,-17.19910010099646,-13.480653954369393,-18.008950447574897,-18.512255953004388
1066,-16.8810055043956,-13.15540908779129,-17.862905237308112,-18.05565531449583
1067,-16.54136220413384,-12.81315363230418,-17.628166836521274,-17.572654082838724
1068,-16.160710800877567,-12.463422571379638,-17.30752680453503,-17.006951387474437
1069,-15.730915890577673,-12.10028559631191,-16.908570173772095,-16.385406414326503
1070,-15.298622398919495,-11.728762838427645,-16.44179682909261,-15.752768237894275
1071,-14.873934815099252,-11.360792689565551,-15.912456302248078,-15.154957288142091
1072,-14.462786117862247,-11.004840010493485,-15.333316171207514,-14.619205470223918
1073,-14.050130831136887,-10.63804002310407,-14.745096738978221,-14.075687272792521
1074,-13.615275438827126,-10.242073758457353,-14.186203286444094,-13.448406091147405
1075,-13.173936219036165,-9.81597301145561,-13.667606623111489,-12.787192668035562
1076,-12.742237704363971,-9.38130467208476,-13.17737926772811,-12.154427711865763
1077,-12.284532915154767,-8.941541229246248,-12.680101054412184,-11.508642770044892
1078,-11.767257860108279,-8.48855335961285,-12.139871643131375,-10.79775371449454
1079,-11.216812646098074,-7.992629855129738,-11.531435327230803,-10.02342645538881
1080,-10.667708630297463,-7.426030498226117,-10.86103165037428,-9.201176670608719
1081,-10.115968659335968,-6.806408557636942,-10.212649871084743,-8.36060971089341
1082,-9.552673788061515,-6.188508467756428,-9.661427875421161,-7.535011620563523
1083,-8.981988292103791,-5.605368640351282,-9.173527612938852,-6.70773008064792
1084,-8.450635330040653,-5.085162052547405,-8.713798300705417,-5.881243203478544
1085,-8.060174491195772,-4.681740756514962,-8.24968136093481,-5.2055616658655275
1086,-7.842707620897541,-4.411132889670607,-7.779812780061662,-4.799663094936795
1087,-7.7459394943479465,-4.250986758580054,-7.261813781910205,-4.52827580911927
1088,-7.671668582082611,-4.161551588875948,-6.671420433351635,-4.196979056082059
1089,-7.625174486698643,-4.097199492316317,-6.0804219403504645,-3.7677845905398435
1090,-7.611983231755774,-4.017917123294875,-5.579387331739282,-3.26530401329537
1091,-7.61332221598979,-3.8931052970456754,-5.220326766622903,-2.746086767515071
1092,-7.601949687779552,-3.6064217086656583,-5.010295018156813,-2.336555862167141
1093,-7.444907113573035,-3.2866411694396693,-4.9291252353577795,-1.9530991746563986
1094,-7.122157127137627,-2.950892941233622,-4.896227057853842,-1.5374818594223327
1095,-6.666816747402685,-2.6157415866300746,-4.82482454680352,-1.0998396532817813
1096,-6.14444840296843,-2.294930865875312,-4.643019091167937,-0.6651512543870789
1097,-5.588856578943777,-2.0102859484328057,-4.357154240171152,-0.23870149698941065
1098,-5.015882074983496,-1.7787909070611416,-4.012832061347031,0.17704351249920355
1099,-4.436926508790691,-1.6034926907501443,-3.617381593895656,0.6049819843986304
1100,-3.850897090133738,-1.4742990958435165,-3.177101303114803,1.0659672272977823
1101,-3.248472624779358,-1.3595138118509333,-2.7422566860891986,1.509187628510891
1102,-2.627317935519269,-1.2267213771642227,-2.3558276516777235,1.8760289021997851
1103,-1.9948053222303077,-1.0738252417389833,-2.0110679804458647,2.192742273224494
1104,-1.3750473473578748,-0.9142905881594855,-1.6794801016042356,2.5042448906568158
1105,-0.8321146724096137,-0.7597164986816421,-1.324163359373784,2.8066117831618085
1106,-0.4242495225842031,-0.6221987472155633,-0.9166182886442183,3.0845232161554472
1107,-0.1411884019364101,-0.5105171577178562,-0.4718012850760999,3.3194759794677395
1108,0.06132746190894193,-0.4258757506213608,-0.026302478895666788,3.4974681282564615
1109,0.224135504783824,-0.36073285143639294,0.3855616083791504,3.6612809483433146
1110,0.3846974844535027,-0.3025618930589892,0.7388138808410131,3.8599166663016273
1111,0.5646408565175517,-0.2419334972733767,1.0477977751054302,4.058555968837228
1112,0.7637511805603071,-0.16946262165762915,1.3364336332954363,4.206744933083965
1113,0.9612419650115092,-0.06938746026428372,1.5859265881974203,4.325994049328651
1114,1.1307901503384246,0.06958011917066534,1.7690791483817763,4.449792599073719
1115,1.259068470785788,0.24418822255326167,1.8876463626519013,4.572187982903298
1116,1.3461444827622908,0.4411846880452699,1.9590116539062463,4.680697462282775
1117,1.4077027817565078,0.6388880769568046,2.0056816722805944,4.755516820906639
1118,1.464770051119023,0.8153968434090064,2.0586329663564396,4.78561644908329
1119,1.5274292887979808,0.9604017609816528,2.169320653631251,4.828581279656275
1120,1.5968466424715717,1.072131111138514,2.3712307805227635,4.947184922581453
1121,1.6645921849135157,1.156850544765437,2.62200397814988,5.111563754272279
1122,1.7203947846391496,1.2216419964153507,2.8595712073310295,5.2633605034951945
1123,1.7668358310584653,1.259652427477658,3.0655875253385187,5.391135390302397
1124,1.8118988484042553,1.2625271148726116,3.2440377448347824,5.491987772539937
1125,1.8619201799195153,1.2342928674945357,3.424513802604072,5.545046220033021
1126,1.9193031585641545,1.188447200514675,3.6358241514517133,5.538753333448428
1127,1.9739391439432987,1.1502018993305816,3.8461654624842327,5.477782626657067
1128,2.011198343514074,1.146486778455013,4.006745041705284,5.376374901546102
1129,2.0258823822262704,1.189885150630174,4.101941697883319,5.273790702694249
1130,2.0200284790113288,1.2790577135287033,4.141046581057688,5.206654110356244
1131,1.994037866289581,1.403356414698265,4.165887829829392,5.154115322010534
1132,1.9552605337155773,1.542445123655993,4.22745509460844,5.086254576605569
1133,1.93921718906732,1.6622434407053874,4.355333171207739,5.03007764060533
1134,1.977044950849186,1.737814758813474,4.547078056853608,5.02214124397021
1135,2.04551726716216,1.7673760204083635,4.739510088450443,5.072463265738343
1136,2.1088529520372945,1.7710166668430103,4.857295998160478,5.174015009895206
1137,2.1672750302605293,1.7682728141735584,4.885143452823608,5.274535504931075
1138,2.2315397470857166,1.7650545582628783,4.837844351288045,5.31900776716949
1139,2.311927938050259,1.7657175897243271,4.738895896059342,5.336176911669974
1140,2.4115731949300523,1.769165796541344,4.618171680840537,5.372405782152739
1141,2.499480143108256,1.7755337148325805,4.467217571201904,5.402564106394696
1142,2.535734002620989,1.7908079395098588,4.278244702088874,5.387960833643007
1143,2.5014929966189414,1.8162327198638344,4.120426637942132,5.321866182863403
1144,2.3966008782348753,1.8580495835246176,4.06688915018749,5.207845585776766
1145,2.2536277268799654,1.9118001808054121,4.1136327576784675,5.080928375160827
1146,2.113783243394467,1.9548055322492675,4.2194091137026595,4.97859353022996
1147,1.9760053595844933,1.9651031166479205,4.3259362242430495,4.850575611737771
1148,1.8260105815227383,1.9370992755270666,4.37597660753553,4.643188331819376
1149,1.684126611970626,1.873443433925114,4.360538969916902,4.440183271709253
1150,1.5662361489551506,1.7865960758077675,4.29752776973183,4.338510918187194
1151,1.4411903943160005,1.6870261762346974,4.205025747451086,4.300616904823764
1152,-11.312288211150404,-10.715027675208807,-12.615612923848841,-11.487003186925197
1153,-11.737518654844832,-11.057115927435401,-13.165574799949614,-12.02207595071552
1154,-12.067231446342625,-11.390290039825015,-13.719252182731454,-12.511708905246797
1155,-12.315182689768752,-11.715483279121184,-14.229320257010896,-12.891501481331762
1156,-12.517245763529957,-12.033826137799892,-14.655338973582776,-13.134200826042873
1157,-12.716075827601493,-12.34714647107647,-14.984639586095277,-13.34648276270405
1158,-12.950532044528103,-12.655470352451726,-15.23180978128508,-13.6534673148874
1159,-13.229576827314212,-12.956248710601031,-15.42932365526678,-14.055774040059356
1160,-13.542018651805954,-13.236531607568935,-15.62505616996783,-14.512199758856479
1161,-13.875851484525612,-13.493891289877102,-15.886057444474138,-15.006873849589685
1162,-14.210616835406697,-13.715046636747035,-16.258274778339693,-15.512368736851661
1163,-14.51397901643842,-13.874774629015203,-16.723456756490645,-15.995815857107365
1164,-14.7627383648266,-13.984721807319284,-17.23294682528704,-16.431908180248293
1165,-14.950606166144665,-14.09526668505034,-17.738994657127556,-16.77495287095916
1166,-15.09366494624044,-14.234991309036573,-18.20020806736007,-17.00308126158653
1167,-15.248238594079602,-14.40261995684599,-18.598153982438504,-17.190575714070732
1168,-15.466948738731938,-14.578975325262258,-18.93278882251889,-17.41808626795375
1169,-15.74952234219911,-14.747257904513488,-19.211831274320744,-17.668266610167453
1170,-16.068057269680377,-14.896172553364213,-19.442367052453452,-17.902476159693798
1171,-16.386038538720538,-15.032948726904547,-19.625515888451016,-18.12556803034643
1172,-16.667360196493483,-15.169881960682554,-19.759235091033393,-18.342212750346
1173,-16.899310369863873,-15.308976556783685,-19.819072844305456,-18.55160074716389
1174,-17.089381506950488,-15.443752993079439,-19.799649321755265,-18.74510507969204
1175,-17.251122110695967,-15.552953109285964,-19.789060241721142,-18.863067169650954
1176,-17.406057008495832,-15.616837929002399,-19.868855718810426,-18.854854102517447
1177,-17.591197881848824,-15.639724021773297,-20.000119006759896,-18.767273984396663
1178,-17.828488148105883,-15.635451738011035,-20.112055297343552,-18.665434371980915
1179,-18.089195913505172,-15.615549021644506,-20.173110813832945,-18.54187679961849
1180,-18.330316051807475,-15.588481565996771,-20.169493263817646,-18.38734439356912
1181,-18.532181956876006,-15.55071960854191,-20.115130937905263,-18.24458807743626
1182,-18.685061263162858,-15.4937044898175,-20.03863060195111,-18.151959264382338
1183,-18.78293738825999,-15.416684849875116,-19.954728383282934,-18.13146255716612
1184,-18.828454366751618,-15.319561562401253,-19.860860116690084,-18.171832963727844
1185,-18.827060694547473,-15.196503799131687,-19.73079351768335,-18.162043599014126
1186,-18.779057655319402,-15.044244603061255,-19.533981778548867,-17.994390871045486
1187,-18.68533912993469,-14.8646412250614,-19.251521629699756,-17.700898673687547
1188,-18.53455103694875,-14.664612332055533,-18.88407105818498,-17.349361886577082
1189,-18.27562205387323,-14.462240029046992,-18.48377835271836,-16.941702002516013
1190,-17.871439358808768,-14.272425983561234,-18.102618364423815,-16.477022897109105
1191,-17.352232064873956,-14.088992350936639,-17.706597330913933,-15.97499680933431
1192,-16.774339983964232,-13.897329235232485,-17.2554933440655,-15.455560169274834
1193,-16.2043386123319,-13.68761901346241,-16.80331836755332,-14.966841805940058
1194,-15.685657020371767,-13.451602049708464,-16.403472677875115,-14.542101051059051
1195,-15.170170216451805,-13.180609213421135,-16.01969331607853,-14.123755423019283
1196,-14.593670076420118,-12.873444763425848,-15.601524017887412,-13.645611251190411
1197,-13.965504650413868,-12.542781241363524,-15.133039903807454,-13.127266432729673
1198,-13.320469358460509,-12.202841428800395,-14.612364691106924,-12.606899478202385
1199,-12.68370979206845,-11.860019212458047,-14.065552865422864,-12.08455531549918
1200,-12.079121166746946,-11.512984555000893,-13.522655335147553,-11.560754702600077
1201,-11.520313953498347,-11.1462649731423,-12.97045225247456,-11.044074673032156
1202,-10.997358496285667,-10.743929971475794,-12.388415486436404,-10.538754114621506
1203,-10.473037746873215,-10.309776902872045,-11.783978531090542,-10.07411173811212
1204,-9.90417446671006,-9.852952079458657,-11.17261465869936,-9.658255613377827
1205,-9.25490565900132,-9.373579891743878,-10.57210489879309,-9.19622216890065
1206,-8.512857814991962,-8.871632874364451,-9.994603173574964,-8.596574043882867
1207,-7.719950789936831,-8.347578820911007,-9.43118114357901,-7.889858898904748
1208,-6.929892863443049,-7.802543233658358,-8.86021241273764,-7.140892544121366
1209,-6.149681433813988,-7.249496136440651,-8.249104280066334,-6.382464918832614
1210,-5.374978865219268,-6.692617072326531,-7.572656288342397,-5.63624755733579
1211,-4.625784539277799,-6.124484544041216,-6.846686049227386,-4.888887455408206
1212,-3.9452627180898596,-5.549100098355206,-6.1268892124958505,-4.16676507466411
1213,-3.3460800133718753,-5.0114036436205005,-5.461559777366059,-3.5654375655312602
1214,-2.8421038749241427,-4.551250293448251,-4.901329690319512,-3.187364920848408
1215,-2.38347829341042,-4.15884423476388,-4.457641965288758,-2.915141232597813
1216,-1.9023861967011466,-3.8171563570312905,-4.1030050888455785,-2.581954338996352
1217,-1.386579726810842,-3.492280635292114,-3.781556432114389,-2.206287711352374
1218,-0.8530220778927378,-3.1604076623534736,-3.4379752150282163,-1.858213105568038
1219,-0.31992553107291366,-2.823181032077883,-3.076466581786889,-1.5459021849411032
1220,0.040332280438865345,-2.5123261010272286,-2.6574789467725157,-1.2936002886135574
1221,0.3826140206297326,-2.2176993628718904,-2.225259123472828,-1.0434182102323748
1222,0.7043301059729588,-1.9455376323719136,-1.7466561973683943,-0.7545548418664411
1223,0.9934983308175587,-1.678263629313411,-1.2384145905265083,-0.4706368152305142
1224,1.2454036164794733,-1.3934166924108733,-0.7249029078334441,-0.2449560964853769
1225,1.486940593591016,-1.0872700958258548,-0.20440856598256435,-0.031077445368198182
1226,1.7550886729285213,-0.7666005045635609,0.32247239350657475,0.23460840313238104
1227,2.0787294924942445,-0.4415509180241287,0.8377789701367487,0.5567921524365479
1228,2.47029709729411,-0.13063968103723428,1.3161708954020201,0.9158352884725683
1229,2.9023236966744625,0.1590640417988614,1.720772828235991,1.2593098346007545
1230,3.3331690729722045,0.41796725205715823,2.0219496313002163,1.538134566077839
1231,3.746242965410412,0.6460732018655085,2.227189704024451,1.795105472633383
1232,4.138994107205916,0.863702230241951,2.3686455081294775,2.0983224232892423
1233,4.513110563476052,1.097011561084229,2.482806681588009,2.4443525089259923
1234,4.877679142222556,1.352661264231311,2.610688476501753,2.8082420779736896
1235,5.243642237044224,1.6295430773411577,2.803206516835433,3.190765557466404
1236,5.616940808471202,1.914494276796245,3.0944043297208292,3.5839992368178857
1237,5.995322814536533,2.1924121119682494,3.4581890806708078,3.9641434513979514
1238,6.368881892221824,2.449907651674723,3.8471315636223253,4.305347370583432
1239,6.718486569568363,2.675996218946941,4.259839507487061,4.553037827911761
1240,7.0246522853614595,2.868515569209141,4.693335401467572,4.673961510450473
1241,7.28404043517979,3.041757360030488,5.080928033314078,4.751749609972706
1242,7.500114037808392,3.213664677096429,5.3549864112695245,4.891057666782736
1243,7.66565769900952,3.3939653339907645,5.502807955073405,5.0887778029713315
1244,7.778157468166469,3.5825746004404238,5.547294833448211,5.3030067151367914
1245,7.857926750624377,3.758859965841776,5.547048187153031,5.518414144884728
1246,7.931163743657934,3.8987770486031033,5.571810722806687,5.716218290245171
1247,8.013747169182082,4.004717938783658,5.651677868800288,5.881936899368611
1248,8.115034052267093,4.083911679105832,5.785354241119642,6.010304802601883
1249,8.234387842895783,4.1473580226598425,5.967270425807689,6.062108136170499
1250,8.362379960213719,4.189280232408598,6.1698338590841795,6.011180475779583
1251,8.495940916095018,4.216280848191517,6.314936325377772,5.937247387471167
1252,8.623999309125777,4.233486782410185,6.332350878402453,5.9262513506382835
1253,8.704269362240263,4.246866786579642,6.234138197333335,5.940734309300564
1254,8.693388868782998,4.259148836545123,6.0693168096146,5.906368817957746
1255,8.575791973213576,4.2603905644936075,5.86900035819998,5.788733454947219
1256,8.360156152354868,4.236709409674208,5.662737787901197,5.5754682463533465
1257,8.087697504698113,4.178874601753693,5.484698089131093,5.308051301788995
1258,7.811709221971693,4.085557340420217,5.352393568832168,5.048048963265808
1259,7.556290389232891,3.9705905674458353,5.258358611525597,4.7862152397623925
1260,7.329707419574559,3.8544341982295833,5.181547846164246,4.49929952460589
1261,7.1547934886049855,3.7541038328711545,5.092243274200618,4.242135328500193
1262,7.039773186058956,3.6799773099699555,4.969179184723886,4.067768517798116
1263,6.939729959455057,3.6261128260168185,4.81965766219402,3.937891894214928
1264,6.805342818379522,3.580659944229455,4.664818670112431,3.7939900428667017
1265,6.634975677393752,3.544838064193737,4.5398966635153535,3.6135651673631064
1266,6.450085598201503,3.52207428797419,4.465614332213205,3.39285885978343
1267,6.2838741274846655,3.506407285636884,4.3832138865038495,3.1737148378534537
1268,6.167614039002701,3.4896900721287674,4.225208186722004,3.005625923972733
1269,6.086899824405034,3.4629909402578143,4.014851001685329,2.8478870113222827
1270,6.008721721616847,3.419599928532685,3.8081679149379473,2.646760078965133
1271,5.93618323259563,3.364719274841587,3.636766033970965,2.455797541901751
1272,5.870894192402025,3.3075331271010175,3.51987171980114,2.3352980262874845
1273,5.764006684885459,3.249368472442927,3.4572125315225652,2.2524987320891587
1274,5.567052363489096,3.189560251151833,3.4222689874390286,2.145863421420129
1275,5.280888869066863,3.1298619169413024,3.3684990240019497,1.9413965778482405
1276,4.931711141101588,3.07248225474903,3.2486718950776448,1.5934538206225546
1277,4.55852169531012,3.0206841463766247,3.038118533120486,1.19565466278742
1278,4.203341411024812,2.9762183593725418,2.738564190666672,0.8791247365451038
1279,3.8827679636813315,2.938192426078553,2.372625874543046,0.6619809886641729
1280,-12.502569204382736,-12.274410496923593,-12.543313015013448,-12.733026340058672
1281,-12.940982027125854,-12.640122484480557,-12.794340437820296,-13.070613025482391
1282,-13.35125220293082,-13.00511319924984,-12.993518978182635,-13.361850610889235
1283,-13.721207605554138,-13.350154399307357,-13.121951251916443,-13.617077982601682
1284,-14.052574747829988,-13.66017180494321,-13.19015496751054,-13.856722031873591
1285,-14.360843911750107,-13.927342353897226,-13.289896515333256,-14.11149099829028
1286,-14.6626331765326,-14.153026404359832,-13.497460271393262,-14.40066685555695
1287,-14.948430121980639,-14.346307089790333,-13.82652330997721,-14.650980783498692
1288,-15.2024983188741,-14.52128306994309,-14.219146781604437,-14.796940226771767
1289,-15.42688770755493,-14.69523132264916,-14.594848252777394,-14.921619256731883
1290,-15.627340350266367,-14.879703661915956,-14.910288848665717,-15.11872860529749
1291,-15.803365101638615,-15.072597125511345,-15.167468915224127,-15.358181959334422
1292,-15.955756540690576,-15.260744682012003,-15.373427836499136,-15.579652893247914
1293,-16.09062294793733,-15.423534055332901,-15.54510837423783,-15.741305206890818
1294,-16.21208528552369,-15.540055055220481,-15.687185468351498,-15.815485690179287
1295,-16.316309840507717,-15.594281493486305,-15.8228644755947,-15.841880099211071
1296,-16.400064258586582,-15.583463350104457,-15.946430998937016,-15.872565437153003
1297,-16.46588918501286,-15.530166603800367,-16.020671911531018,-15.881188930611165
1298,-16.52139931249829,-15.465122792636617,-16.0386295670368,-15.833744201692323
1299,-16.584056784943062,-15.40322154954951,-16.033337811511178,-15.759357907823032
1300,-16.668723610054304,-15.353653864167727,-16.026987168284595,-15.694390398766929
1301,-16.77077689716532,-15.33324360304567,-16.030372948268873,-15.649166187148525
1302,-16.87747839823784,-15.346610852926096,-16.042544754131267,-15.625479036321048
1303,-16.978787414669487,-15.371383438544107,-16.064821706201588,-15.604420529251104
1304,-17.06191676937608,-15.377129997289588,-16.09115980960348,-15.563254170538533
1305,-17.116373056812574,-15.335539974078062,-16.095318287090233,-15.521535450955122
1306,-17.13162248118814,-15.231363244864822,-16.057727997012964,-15.495629689083623
1307,-17.078069606900034,-15.081899154705118,-15.990720628936103,-15.436684486348392
1308,-16.938501416177818,-14.915513169027427,-15.915671414033701,-15.298529914283316
1309,-16.752306923115707,-14.74716860891578,-15.854402882339983,-15.100807046846226
1310,-16.564731601379236,-14.582912805138527,-15.813995901913438,-14.883787003408669
1311,-16.37635815718794,-14.418105327846012,-15.751291659751187,-14.683870965712337
1312,-16.174308806967872,-14.242062689520603,-15.625636976078306,-14.52849388353197
1313,-15.945590602802662,-14.050281377609057,-15.42292886293308,-14.403678047053704
1314,-15.68206241391193,-13.841400426538675,-15.165782494317819,-14.277950428084706
1315,-15.41061198097293,-13.613072134845746,-14.890836849075306,-14.151458941661577
1316,-15.16137884277792,-13.366107488274132,-14.609564005373457,-14.020361985021742
1317,-14.918952650169182,-13.106258394265675,-14.292040131344539,-13.82646905846042
1318,-14.660932129375693,-12.840287187205126,-13.911785398344335,-13.525760549490041
1319,-14.398850738778787,-12.571932158274121,-13.483930397995426,-13.156179087150646
1320,-14.141770793051231,-12.30184522206041,-13.0571835143256,-12.772299809851402
1321,-13.871397606313138,-12.030751911406327,-12.672235469165448,-12.402736548237513
1322,-13.56236672028599,-11.753366468358037,-12.336094958865994,-12.054257827508835
1323,-13.18719691656367,-11.449859647143501,-12.042278895102495,-11.674011916523426
1324,-12.72856916565721,-11.101689611215964,-11.76822628030874,-11.208908820736953
1325,-12.202680268901927,-10.706868906129278,-11.5077507157837,-10.70317502471813
1326,-11.643120024244404,-10.273647258153005,-11.250521644858363,-10.217683172497397
1327,-11.072754673912597,-9.817204754751353,-10.957546357601547,-9.735746654727487
1328,-10.511466082509425,-9.354250608586417,-10.59677413171792,-9.2371048655525
1329,-10.001575810634572,-8.893685848910447,-10.155844313074022,-8.754758121961112
1330,-9.559408275853475,-8.436439833478364,-9.656983939767684,-8.318809295147563
1331,-9.108925568274245,-7.978363449599221,-9.163786153353126,-7.942813457290795
1332,-8.57178415751774,-7.511474675427014,-8.745976061104736,-7.6157859615041215
1333,-7.959508421694722,-7.0213087947522315,-8.394693432486031,-7.242445929090068
1334,-7.314168542427793,-6.500223134433814,-8.03089774740338,-6.737751661592991
1335,-6.675632801827224,-5.965370665633262,-7.613871622435877,-6.160428870316176
1336,-6.073162098480459,-5.435741232013697,-7.164291386773754,-5.5940698781032445
1337,-5.478665765488301,-4.911167468766833,-6.6933120243049515,-5.024950682805962
1338,-4.852317238285178,-4.381425404456482,-6.180123397540676,-4.42333381133919
1339,-4.203572121794571,-3.8241048778637348,-5.610235461625355,-3.7857245789967644
1340,-3.5948056356166567,-3.256795697020361,-5.020820921879338,-3.1552076505123825
1341,-3.073983332549001,-2.7604016268092173,-4.474735066778475,-2.6109853118734527
1342,-2.697496574678243,-2.4285610923667695,-3.9919674051135847,-2.2400749162059315
1343,-2.405892366062986,-2.257631506315881,-3.592143095515585,-1.9197334233334664
1344,-2.108611322223608,-2.1895108546869135,-3.344473648019366,-1.5012067297383809
1345,-1.8264208962220725,-2.159160805467481,-3.2786337813554525,-1.0744593326470817
1346,-1.6054713354958576,-2.1079056789815542,-3.3525832969237324,-0.7673196007779866
1347,-1.4279005162044154,-2.027979948899364,-3.5157156183014244,-0.5519135988008506
1348,-1.1819840155011703,-1.882394262858192,-3.399661516441767,-0.4334805695060012
1349,-0.9280893400746798,-1.7222215388452287,-3.265200619694346,-0.29285811938390144
1350,-0.6426256735108054,-1.5369153380875957,-3.0920334959172573,-0.0873949353717489
1351,-0.34293469202775645,-1.3300120239080508,-2.8922510177102176,0.12571753168591931
1352,-0.061785099527869404,-1.109956461279976,-2.687839665058091,0.2702806068343336
1353,0.2038626937486589,-0.8946262248593309,-2.4850328768427596,0.39364698912773505
1354,0.4633175718042647,-0.7026471180433063,-2.287811412018945,0.5613354961267536
1355,0.6915855543205803,-0.5381639935441068,-2.1037064327325514,0.7259731645991645
1356,0.866602322646652,-0.3962131075111706,-1.9399284831589985,0.8238727624496929
1357,1.0054173190847828,-0.2655705722360182,-1.8180365342240745,0.8505961805254048
1358,1.1359650677816298,-0.13546920418424443,-1.7525278645928488,0.8248824559916216
1359,1.2793332124457077,-0.009575696489525706,-1.7342299121031812,0.8104712089545697
1360,1.448272663703885,0.10241651365694628,-1.7440316646716685,0.8692216226593626
1361,1.624184653695129,0.19584324870389902,-1.7882554952115288,0.9414826958330672
1362,1.7803419624078176,0.26952635877938685,-1.9035121954243086,0.9433855335820266
1363,1.928616745688872,0.3271066560293576,-2.0979162733435155,0.9199000792107281
1364,2.0869069293686517,0.37450077924042535,-2.30196553482497,0.9368776718981758
1365,2.236088236605123,0.4179412994151097,-2.4116635658844814,0.959040223106627
1366,2.3534858606212987,0.45964389474997847,-2.383710939235627,0.9397241422331858
1367,2.439592811726149,0.4860162331053818,-2.2419359936822847,0.8796440225427321
1368,2.504992094289583,0.4846392529639463,-2.022817869370563,0.8008525997303484
1369,2.575722953153775,0.46779396397503875,-1.776395116795564,0.7831535878939351
1370,2.6749876921479183,0.456705810325382,-1.5445235607078915,0.9015026895933388
1371,2.785115139111268,0.4688554173322977,-1.3531326154810992,1.0932122627655476
1372,2.875442649202414,0.5155863489255554,-1.2102332999578553,1.2629784981834737
1373,2.9386549693725237,0.5859144635283524,-1.1060743402691198,1.4299768324596407
1374,2.9771102839655543,0.6610802140065757,-1.024018593343772,1.6341100836608848
1375,2.9959571736661443,0.7450948585823014,-0.9612653651210141,1.8547634935038455
1376,3.0061113351175646,0.8439699946899891,-0.9174439172153824,2.058008672969895
1377,3.013519791435311,0.9364643280716877,-0.8787360137470144,2.190170609922452
1378,3.0214146498173844,0.9991019096858312,-0.8298416825068089,2.209431669892972
1379,3.044779501879308,1.0323574300281253,-0.7607264914242351,2.1783123624283216
1380,3.0924681267276113,1.0445754766080038,-0.6691841213998528,2.181566515629952
1381,3.1386217982245217,1.0400053563118234,-0.5679202395288082,2.2051287456851103
1382,3.151010622239675,1.0241326442212282,-0.47632454997389334,2.2073406914826013
1383,3.127800047478188,0.9999679549604715,-0.41394263345035665,2.190618557007995
1384,3.0764159606288497,0.9700318319564574,-0.39044763566368046,2.163754226615314
1385,2.996509418785102,0.9474112012332656,-0.3882465263214337,2.1310119723785705
1386,2.8909847070015346,0.9442612979937698,-0.3802062661346519,2.1011629661210245
1387,2.7554083551117876,0.9545372292993749,-0.3511192314582802,2.064978852336064
1388,2.593537489587125,0.967462507712039,-0.295876055309985,2.0114608561545353
1389,2.4595843095460745,0.9809126807667997,-0.22618183900025823,1.9724871719081878
1390,2.4056850607775817,0.9943226422021838,-0.15934865046145924,1.9775278252187547
1391,2.4142720276330776,1.0109056441095108,-0.09536937166810366,1.9875502240648293
1392,2.438570712620902,1.0304784917295373,-0.02942574458801167,1.95357025657425
1393,2.436082869321016,1.0291444677491899,0.0366760525202533,1.8744422723529293
1394,2.3743326924073798,0.9824986104918023,0.0990466038686077,1.7697372902487476
1395,2.262115984697252,0.8972654980504527,0.14136483834331873,1.6863268153767506
1396,2.1318982169064142,0.7946864823084668,0.15137156428358756,1.6668622033617724
1397,1.9995155740702377,0.6930769417022242,0.153603137501237,1.6616534829370937
1398,1.8774789424818252,0.611338938873742,0.17740509310131178,1.6049870643702917
1399,1.796277641127233,0.5675388209418362,0.21839617768124653,1.5420446987185832
1400,1.774716017076312,0.5701778882145692,0.2541824798412222,1.535241253576815
1401,1.786660814726064,0.6123731141570635,0.2609218481398307,1.5488112054678327
1402,1.7947371382651118,0.6780769507086306,0.2167977976831475,1.5325490134937927
1403,1.784650594279761,0.7498353688955773,0.0936694814160135,1.4926148141684172
1404,1.7549024075610986,0.8115057917964459,-0.1086822693894608,1.4475713319841197
1405,1.7189677317292962,0.8521001537284107,-0.3012168528277817,1.4305515822867445
1406,1.6940621381045684,0.8689679230436618,-0.3959479749475803,1.4678210190842687
1407,1.6719363360222024,0.8677372090091447,-0.35861927537053384,1.4890015731871795
1408,-11.101911308651697,-10.669478013868716,-10.850738965708535,-8.937625836278205
1409,-11.393187943810322,-10.950869114110938,-11.446804660229212,-9.331555484263651
1410,-11.661375319044827,-11.234031801034421,-11.953424543408891,-9.689537943411242
1411,-11.925510188500857,-11.523495682429218,-12.322931605315631,-10.050471446832
1412,-12.207580930507046,-11.822726207580887,-12.559242669973274,-10.464616409731972
1413,-12.51019811406392,-12.127178924048314,-12.729668140073564,-10.950489029451822
1414,-12.821990265125152,-12.414722237990574,-12.923897550420591,-11.502185477453517
1415,-13.109014469262505,-12.657111095210208,-13.19789656618358,-12.04617875031967
1416,-13.340437423640514,-12.856692167337744,-13.568734323758067,-12.507243389258829
1417,-13.524237684554262,-13.0406405575,-14.01017867948521,-12.918070227843609
1418,-13.686470583524693,-13.244067923853654,-14.468043723167584,-13.328049144509567
1419,-13.84864527946458,-13.479784512610557,-14.876328864475699,-13.696891022718436
1420,-14.030859034733385,-13.743528058170044,-15.191917395730188,-13.984768975900641
1421,-14.25177940975731,-14.014832529336973,-15.439869131108459,-14.22234921680394
1422,-14.512088280562534,-14.268027373500688,-15.668182441456455,-14.451921534112683
1423,-14.783341391244242,-14.487647674238914,-15.898019603465622,-14.707794605522217
1424,-15.027764931427168,-14.670316586337977,-16.1339345173773,-15.005443738387454
1425,-15.212135758440887,-14.829970920875049,-16.36211187832477,-15.293461105015249
1426,-15.323382960582528,-14.983679507867054,-16.557401876501554,-15.510079111276285
1427,-15.38492871094664,-15.133454810742968,-16.7002902738472,-15.661878844327374
1428,-15.430378223405144,-15.274075976702344,-16.781661236051093,-15.774737770135138
1429,-15.538257996792114,-15.395651105346952,-16.81476905628483,-15.840706923094148
1430,-15.729941085062084,-15.490206452688172,-16.82110203497747,-15.85983742125767
1431,-15.975885134733636,-15.567555563207632,-16.800297218135274,-15.873879768677773
1432,-16.221516383513332,-15.63929568822574,-16.757426673036985,-15.91675408931368
1433,-16.43873484361099,-15.700082161755631,-16.7333315428024,-15.981165000782159
1434,-16.613245623590892,-15.739426398141278,-16.763608015015752,-16.042336694045527
1435,-16.73501857275933,-15.748991093205197,-16.85571233590474,-16.050833663405818
1436,-16.804906686442063,-15.722519081397515,-16.987858834741104,-15.967555764136089
1437,-16.83721707125165,-15.662716630270175,-17.083182918949646,-15.84490181454298
1438,-16.8237128580064,-15.576890428262754,-17.06957043896277,-15.736140154546264
1439,-16.76982566747596,-15.466614041310807,-16.953723642230646,-15.57093021236102
1440,-16.63504574015604,-15.337297590075842,-16.778865592099976,-15.278354321468633
1441,-16.333863636342883,-15.19652228860929,-16.583793908943594,-14.90112773853012
1442,-15.853385938225868,-15.056422410181964,-16.405026981485747,-14.509937708448216
1443,-15.248434414858897,-14.918537784491729,-16.272406879163682,-14.168938130746596
1444,-14.607329602685782,-14.771394751637034,-16.18589425238898,-13.920417980835564
1445,-13.985697504052315,-14.609061074679374,-16.087381973854242,-13.701331813460234
1446,-13.417769144914887,-14.430129298791153,-15.912811630598156,-13.439897243809675
1447,-12.915755444932863,-14.249795153048746,-15.659280035161734,-13.199060812290977
1448,-12.4710067442839,-14.08246211919548,-15.342426664279362,-13.054573178429553
1449,-12.070986199740243,-13.938703647163889,-14.951135598082514,-12.971971842544404
1450,-11.697883854687168,-13.809774791615423,-14.486136832979868,-12.899067714572043
1451,-11.32979410622201,-13.67729829761335,-13.981647181635768,-12.823126353401452
1452,-10.943594890294655,-13.526077234901882,-13.481508366258572,-12.738118652188819
1453,-10.510113301527525,-13.340619174267754,-13.032017369363134,-12.659887742591744
1454,-10.011617068206576,-13.097278901944076,-12.66337961346599,-12.601989833194542
1455,-9.455179566901005,-12.779696666345044,-12.367739922017485,-12.512968998436884
1456,-8.864129056568203,-12.398574734596817,-12.111990470048411,-12.339513664025393
1457,-8.281899533839574,-11.980849830326342,-11.8423535289629,-12.107989803276325
1458,-7.741490870842124,-11.546084474289549,-11.514817640606022,-11.856288477750276
1459,-7.2216183489480175,-11.102415228606484,-11.137939225679144,-11.56788873185657
1460,-6.6846139427480935,-10.649781269286903,-10.739145034236518,-11.22504876325376
1461,-6.118760343168589,-10.197656775344,-10.329294579288431,-10.840088918009
1462,-5.5191097499230946,-9.747252586368223,-9.908634668577315,-10.430418450222549
1463,-4.880773125617555,-9.290761897708743,-9.46467558490154,-10.028431874770117
1464,-4.209064227655126,-8.810042799018959,-8.974812473404842,-9.654124060749638
1465,-3.5055131820820895,-8.296672669405481,-8.413665400077807,-9.254781993443736
1466,-2.7829441081756006,-7.7616956883140364,-7.770335112430208,-8.778193585437297
1467,-2.1032664630024507,-7.218302070142076,-7.063014205718764,-8.256077513240744
1468,-1.5409019208439618,-6.709837640748803,-6.351135144824662,-7.778565207360235
1469,-1.1130602219761454,-6.295771645259184,-5.7630339156158135,-7.380938337070351
1470,-0.7980155614608307,-5.997025336742156,-5.407572484921148,-7.100807642613983
