timestamps,TP9,AF7,AF8,TP10,Right AUX
1728618948.879,-94.238,-41.504,-36.133,-34.180,0.000
1728618948.883,-96.680,-35.645,-30.762,-25.391,0.000
1728618948.886,11.230,-31.738,-26.855,-27.832,0.000
1728618948.890,46.875,-30.273,-29.785,-20.996,0.000
1728618948.894,15.625,-27.344,-34.668,-18.555,0.000
1728618948.898,-64.941,-26.855,-35.156,-14.160,0.000
1728618948.902,-91.797,-26.855,-29.785,-8.301,0.000
1728618948.906,8.301,-29.785,-29.785,-17.090,0.000
1728618948.910,55.176,-25.879,-25.879,-14.160,0.000
1728618948.914,32.715,-20.020,-23.438,-1.953,0.000
1728618948.918,-43.945,-20.996,-21.973,-9.766,0.000
1728618948.922,-89.355,-21.973,-22.949,-18.555,0.000
1728618948.927,11.230,-23.926,-35.156,-15.625,0.000
1728618948.931,61.035,-28.809,-33.691,-18.066,0.000
1728618948.935,25.391,-31.738,-29.785,-22.949,0.000
1728618948.939,-39.551,-24.902,-23.926,-22.949,0.000
1728618948.943,-98.145,-19.531,-22.949,-21.973,0.000
1728618948.947,-27.344,-23.438,-29.785,-28.320,0.000
1728618948.951,43.457,-27.344,-31.738,-23.926,0.000
1728618948.954,28.809,-27.344,-38.574,-24.902,0.000
1728618948.958,-47.363,-20.508,-38.086,-26.855,0.000
1728618948.962,-115.723,-15.137,-29.785,-19.531,0.000
1728618948.966,-37.109,-15.625,-40.527,-14.648,0.000
1728618948.970,39.062,-19.043,-51.270,-5.859,0.000
1728618948.974,25.879,-24.414,-42.969,-8.301,0.000
1728618948.978,-24.902,-24.414,-29.297,-20.996,0.000
1728618948.982,-111.816,-20.020,-20.508,-30.762,0.000
1728618948.985,-59.082,-19.531,-14.160,-30.273,0.000
1728618948.989,29.297,-27.344,-14.160,-29.785,0.000
1728618948.993,23.438,-32.227,-23.438,-20.508,0.000
1728618948.997,-14.160,-30.273,-27.344,-17.090,0.000
1728618949.001,-107.422,-29.785,-28.320,-28.320,0.000
1728618949.005,-77.637,-28.320,-32.715,-30.273,0.000
1728618949.009,32.715,-27.344,-28.809,-28.320,0.000
1728618949.013,37.109,-30.762,-21.484,-22.461,0.000
1728618949.017,-5.859,-33.691,-24.902,-20.020,0.000
1728618949.020,-97.656,-27.832,-32.227,-19.043,0.000
1728618949.024,-77.148,-23.926,-30.273,-28.809,0.000
1728618949.028,25.391,-22.949,-23.926,-29.297,0.000
1728618949.032,27.344,-25.391,-20.996,-23.926,0.000
1728618949.036,-7.812,-28.320,-18.555,-19.043,0.000
1728618949.040,-95.703,-25.879,-16.113,-27.832,0.000
1728618949.044,-96.191,-23.438,-20.508,-35.645,0.000
1728618949.048,30.273,-19.043,-24.414,-17.090,0.000
1728618949.051,58.594,-20.020,-27.832,-13.184,0.000
1728618949.055,12.695,-23.438,-24.902,-23.926,0.000
1728618949.059,-80.566,-22.949,-19.043,-32.227,0.000
1728618949.063,-96.680,-27.832,-21.484,-32.715,0.000
1728618949.067,14.648,-24.902,-28.809,-26.367,0.000
1728618949.070,47.363,-22.949,-29.297,-18.555,0.000
1728618949.074,16.602,-36.133,-18.555,-17.090,0.000
1728618949.078,-73.730,-29.785,-19.531,-25.879,0.000
1728618949.082,-112.793,-21.484,-24.414,-37.598,0.000
1728618949.086,-2.441,-28.320,-25.879,-35.156,0.000
1728618949.090,37.109,-28.809,-30.273,-32.715,0.000
1728618949.094,-1.465,-28.809,-25.879,-26.855,0.000
1728618949.098,-77.637,-31.250,-24.414,-23.926,0.000
1728618949.102,-119.629,-26.855,-29.785,-34.668,0.000
1728618949.106,-20.020,-23.926,-32.227,-33.691,0.000
1728618949.109,38.574,-23.438,-25.879,-24.414,0.000
1728618949.113,10.254,-27.832,-24.414,-34.180,0.000
1728618949.117,-56.641,-32.715,-28.809,-38.086,0.000
1728618949.120,-106.934,-34.180,-25.391,-32.715,0.000
1728618949.124,-20.508,-31.250,-28.320,-33.203,0.000
1728618949.128,39.062,-30.762,-35.645,-33.691,0.000
1728618949.132,15.625,-31.250,-28.320,-29.785,0.000
1728618949.136,-44.434,-25.391,-30.273,-20.020,0.000
1728618949.140,-116.211,-22.461,-31.250,-19.043,0.000
1728618949.144,-38.086,-23.926,-25.879,-27.344,0.000
1728618949.148,41.992,-27.344,-27.832,-23.438,0.000
1728618949.152,23.438,-25.879,-26.367,-17.578,0.000
1728618949.156,-31.738,-26.855,-26.855,-14.648,0.000
1728618949.159,-114.746,-27.832,-38.574,-20.996,0.000
1728618949.163,-49.316,-26.855,-32.227,-19.531,0.000
1728618949.167,42.969,-21.973,-26.367,-26.367,0.000
1728618949.170,31.250,-21.973,-29.785,-27.344,0.000
1728618949.174,-14.648,-25.391,-25.391,-19.531,0.000
1728618949.178,-100.586,-21.484,-25.879,-18.066,0.000
1728618949.182,-73.242,-17.578,-29.297,-25.879,0.000
1728618949.186,19.043,-18.555,-28.320,-29.785,0.000
1728618949.190,33.691,-17.578,-28.320,-26.855,0.000
1728618949.194,-1.465,-20.996,-25.391,-25.879,0.000
1728618949.198,-94.238,-29.785,-24.414,-18.555,0.000
1728618949.202,-79.590,-26.855,-28.320,-20.508,0.000
1728618949.206,27.832,-20.020,-30.273,-19.043,0.000
1728618949.210,42.969,-20.020,-27.832,-9.766,0.000
1728618949.214,0.977,-17.090,-27.344,-17.090,0.000
1728618949.218,-76.660,-11.230,-28.809,-14.160,0.000
1728618949.222,-53.223,-14.648,-23.438,6.348,0.000
1728618949.226,36.621,-27.832,-14.648,-0.977,0.000
1728618949.230,36.621,-25.879,-13.672,-21.973,0.000
1728618949.234,-0.488,-21.973,-13.184,-25.879,0.000
1728618949.237,-93.262,-35.156,-13.184,-31.250,0.000
1728618949.241,-114.258,-37.598,-25.879,-37.109,0.000
1728618949.245,1.953,-38.574,-26.855,-30.273,0.000
1728618949.249,38.574,-36.621,-16.113,-25.391,0.000
1728618949.253,-10.254,-34.668,-14.648,-28.809,0.000
1728618949.257,-95.703,-39.062,-14.648,-29.297,0.000
1728618949.261,-116.699,-40.527,-22.461,-28.809,0.000
1728618949.265,-21.973,-36.133,-28.809,-34.668,0.000
1728618949.269,23.438,-32.715,-22.949,-27.832,0.000
1728618949.273,12.207,-34.180,-22.949,-18.066,0.000
1728618949.277,-64.453,-32.715,-29.297,-18.555,0.000
1728618949.281,-109.375,-28.809,-28.809,-20.508,0.000
1728618949.285,1.465,-24.902,-20.020,-18.066,0.000
1728618949.289,55.664,-23.438,-20.020,-10.254,0.000
1728618949.292,15.137,-29.297,-38.086,-20.020,0.000
1728618949.296,-57.617,-28.809,-34.668,-33.203,0.000
1728618949.300,-117.188,-32.715,-24.414,-28.809,0.000
1728618949.304,-37.109,-37.598,-24.902,-21.484,0.000
1728618949.308,31.738,-36.621,-30.273,-23.438,0.000
1728618949.312,17.090,-31.738,-30.762,-25.391,0.000
1728618949.316,-47.363,-28.809,-25.391,-24.902,0.000
1728618949.320,-113.770,-31.250,-33.203,-27.344,0.000
1728618949.324,-29.785,-34.180,-41.016,-38.086,0.000
1728618949.328,44.434,-40.039,-38.086,-33.203,0.000
1728618949.332,29.297,-38.574,-37.598,-19.531,0.000
1728618949.336,-36.621,-36.133,-36.133,-18.555,0.000
1728618949.339,-121.094,-26.855,-36.133,-22.461,0.000
1728618949.343,-53.223,-31.250,-42.969,-25.879,0.000
1728618949.347,35.156,-38.086,-42.480,-27.832,0.000
1728618949.351,33.203,-30.273,-35.156,-17.578,0.000
1728618949.355,-22.461,-29.785,-31.738,-16.113,0.000
1728618949.359,-120.117,-34.180,-26.367,-34.180,0.000
1728618949.363,-66.895,-31.250,-20.020,-36.621,0.000
1728618949.367,33.691,-30.762,-19.043,-32.715,0.000
1728618949.371,28.320,-31.250,-18.555,-20.020,0.000
1728618949.375,-15.137,-29.297,-21.973,-16.113,0.000
1728618949.378,-101.074,-31.738,-26.367,-19.043,0.000
1728618949.382,-68.848,-31.250,-30.273,-22.461,0.000
1728618949.386,35.156,-27.832,-30.762,-24.414,0.000
1728618949.390,36.133,-28.320,-30.762,-17.090,0.000
1728618949.395,-3.906,-27.832,-31.250,-12.695,0.000
1728618949.399,-92.285,-25.391,-29.785,-12.695,0.000
1728618949.403,-83.008,-26.367,-25.879,-19.531,0.000
1728618949.407,29.785,-22.461,-19.531,-20.020,0.000
1728618949.411,47.852,-19.043,-17.578,-12.695,0.000
1728618949.415,13.672,-20.020,-20.996,-11.719,0.000
1728618949.419,-82.031,-20.020,-20.020,-17.090,0.000
1728618949.423,-106.934,-24.902,-20.508,-23.926,0.000
1728618949.427,9.766,-20.508,-20.996,-21.973,0.000
1728618949.431,32.715,-19.531,-24.902,-26.855,0.000
1728618949.434,-8.301,-24.414,-26.855,-33.203,0.000
1728618949.438,-81.055,-24.414,-23.926,-33.691,0.000
1728618949.442,-109.863,-26.367,-23.438,-41.504,0.000
1728618949.446,-4.395,-26.367,-23.438,-36.621,0.000
1728618949.449,36.621,-29.297,-20.020,-22.461,0.000
1728618949.453,8.789,-33.203,-17.578,-11.230,0.000
1728618949.457,-74.707,-29.297,-31.738,-28.809,0.000
1728618949.461,-113.770,-21.973,-48.340,-40.039,0.000
1728618949.465,1.953,-17.090,-41.992,-12.207,0.000
1728618949.469,58.105,-25.391,-26.855,-8.301,0.000
1728618949.473,11.719,-33.691,-19.531,-34.180,0.000
1728618949.477,-69.336,-33.691,-15.137,-43.457,0.000
1728618949.481,-130.859,-35.156,-5.859,-36.133,0.000
1728618949.485,-49.316,-36.621,-6.836,-37.598,0.000
1728618949.488,19.531,-39.062,-12.207,-39.551,0.000
1728618949.492,-22.461,-41.016,-5.371,-58.594,0.000
1728618949.496,-102.539,-43.457,-11.719,-74.707,0.000
1728618949.499,-164.551,-43.945,-22.949,-67.383,0.000
1728618949.503,-97.168,-45.898,-11.719,-73.730,0.000
1728618949.507,-23.438,-48.340,-5.371,-73.242,0.000
1728618949.511,-32.715,-50.781,1.465,-65.430,0.000
1728618949.515,-97.168,-60.547,3.906,-71.289,0.000
1728618949.519,-184.082,-61.523,0.977,-83.984,0.000
1728618949.523,-121.094,-62.500,6.348,-74.219,0.000
1728618949.527,-26.855,-67.383,8.301,-58.105,0.000
1728618949.531,-33.203,-63.477,4.883,-60.059,0.000
1728618949.535,-86.426,-62.012,2.441,-61.523,0.000
1728618949.539,-161.621,-58.594,-4.883,-59.570,0.000
1728618949.543,-115.234,-55.176,-1.953,-62.012,0.000
1728618949.547,-20.996,-58.105,-2.930,-61.035,0.000
1728618949.551,-16.113,-52.734,-6.348,-54.199,0.000
1728618949.555,-55.664,-51.270,-1.953,-49.805,0.000
1728618949.559,-143.066,-55.176,-12.207,-38.086,0.000
1728618949.563,-118.652,-49.316,-14.648,-47.852,0.000
1728618949.567,-5.371,-43.457,-5.371,-48.340,0.000
1728618949.571,2.930,-44.922,-12.695,-37.109,0.000
1728618949.574,-39.062,-49.805,-19.531,-43.457,0.000
1728618949.578,-129.395,-49.805,-24.414,-49.316,0.000
1728618949.583,-120.117,-45.410,-22.949,-49.805,0.000
1728618949.587,-8.789,-45.898,-15.625,-39.551,0.000
1728618949.590,10.742,-43.457,-17.090,-36.621,0.000
1728618949.594,-20.996,-41.504,-18.555,-31.738,0.000
1728618949.598,-102.539,-42.969,-17.578,-31.738,0.000
1728618949.602,-110.352,-38.574,-27.832,-42.969,0.000
1728618949.606,1.465,-37.598,-35.156,-34.180,0.000
1728618949.610,26.855,-44.922,-29.297,-17.090,0.000
1728618949.614,-6.836,-41.992,-26.367,-15.625,0.000
1728618949.618,-83.984,-39.062,-29.785,-13.184,0.000
1728618949.622,-111.328,-37.598,-48.828,-17.090,0.000
1728618949.626,2.930,-34.180,-42.480,-21.484,0.000
1728618949.630,53.711,-27.832,-26.855,-11.719,0.000
1728618949.634,22.949,-26.855,-19.531,-4.395,0.000
1728618949.638,-51.758,-30.273,-5.859,-12.207,0.000
1728618949.642,-86.914,-29.297,-0.488,-21.973,0.000
1728618949.645,6.836,-30.762,-12.207,-19.043,0.000
1728618949.649,52.734,-31.250,-18.555,-11.230,0.000
1728618949.653,34.668,-28.320,-13.184,-9.766,0.000
1728618949.657,-36.621,-26.367,-14.648,-11.230,0.000
1728618949.661,-104.492,-26.367,-15.137,-17.090,0.000
1728618949.665,-10.742,-23.438,-13.184,-11.230,0.000
1728618949.669,67.871,-21.973,-21.484,-0.977,0.000
1728618949.673,46.387,-22.461,-23.438,-2.930,0.000
1728618949.677,-27.832,-28.809,-21.484,-6.348,0.000
1728618949.680,-106.445,-31.250,-21.973,-6.836,0.000
1728618949.684,-34.668,-25.391,-26.367,-15.625,0.000
1728618949.688,40.527,-28.320,-34.180,-11.230,0.000
1728618949.692,33.691,-31.250,-41.504,-1.953,0.000
1728618949.696,-20.996,-29.297,-46.387,-6.836,0.000
1728618949.700,-100.098,-26.855,-49.316,-15.137,0.000
1728618949.704,-32.227,-26.855,-38.574,-14.648,0.000
1728618949.708,59.082,-33.203,-23.926,-7.324,0.000
1728618949.712,46.387,-34.180,-20.996,-8.789,0.000
1728618949.716,-9.766,-30.762,-19.043,-16.113,0.000
1728618949.720,-92.773,-23.926,-14.160,-13.184,0.000
1728618949.723,-53.223,-16.602,-16.113,-18.555,0.000
1728618949.727,35.645,-18.066,-26.367,-30.762,0.000
1728618949.731,35.645,-20.508,-26.367,-22.461,0.000
1728618949.735,-4.395,-19.531,-23.926,-12.695,0.000
1728618949.739,-92.773,-18.066,-28.320,-18.555,0.000
1728618949.743,-75.684,-24.902,-37.598,-24.414,0.000
1728618949.747,30.273,-19.531,-31.738,-21.484,0.000
1728618949.751,36.621,-16.113,-28.320,-20.996,0.000
1728618949.755,-9.766,-23.438,-32.227,-13.184,0.000
1728618949.758,-93.750,-25.879,-25.391,-18.066,0.000
1728618949.762,-83.496,-24.902,-20.508,-23.438,0.000
1728618949.766,20.020,-28.809,-28.809,-27.344,0.000
1728618949.770,41.504,-25.879,-32.715,-23.438,0.000
1728618949.774,3.418,-21.484,-33.203,-20.996,0.000
1728618949.778,-85.449,-22.949,-30.273,-25.879,0.000
1728618949.782,-86.426,-21.484,-26.855,-21.484,0.000
1728618949.785,21.973,-20.508,-24.414,-22.949,0.000
1728618949.789,44.434,-21.973,-22.461,-17.090,0.000
1728618949.793,11.719,-23.926,-23.438,-6.836,0.000
1728618949.797,-77.148,-28.809,-24.414,-19.531,0.000
1728618949.801,-101.562,-36.621,-26.367,-28.809,0.000
1728618949.805,11.719,-31.250,-25.879,-26.855,0.000
1728618949.809,47.852,-26.855,-35.156,-31.250,0.000
1728618949.813,19.531,-24.902,-35.645,-16.602,0.000
1728618949.818,-61.523,-20.996,-40.527,-18.066,0.000
1728618949.822,-102.539,-15.625,-47.363,-31.738,0.000
1728618949.825,14.648,-13.672,-36.621,-12.695,0.000
1728618949.829,52.734,-22.461,-19.043,-6.836,0.000
1728618949.833,-1.465,-29.297,-15.137,-27.344,0.000
1728618949.837,-75.684,-30.273,-13.184,-40.039,0.000
1728618949.841,-134.277,-37.109,-13.672,-52.246,0.000
1728618949.845,-41.992,-46.875,-16.602,-48.340,0.000
1728618949.849,9.766,-47.363,-14.648,-56.641,0.000
1728618949.853,-27.832,-51.758,-13.672,-61.035,0.000
1728618949.857,-93.262,-63.477,-10.742,-48.828,0.000
1728618949.861,-170.410,-64.453,-9.277,-69.336,0.000
1728618949.864,-93.750,-64.453,-4.883,-79.590,0.000
1728618949.868,-20.020,-67.871,-4.395,-78.125,0.000
1728618949.872,-37.109,-62.012,-13.672,-73.242,0.000
1728618949.876,-83.008,-53.711,-8.789,-64.941,0.000
1728618949.879,-153.809,-55.176,1.953,-66.406,0.000
1728618949.883,-90.820,-56.152,4.883,-61.523,0.000
1728618949.887,1.953,-54.199,2.930,-54.199,0.000
1728618949.891,-12.695,-53.223,-1.953,-49.316,0.000
1728618949.895,-49.805,-49.316,4.395,-37.598,0.000
1728618949.899,-126.465,-43.945,-3.418,-31.250,0.000
1728618949.903,-82.520,-49.316,-11.230,-24.414,0.000
1728618949.907,19.043,-53.711,-6.348,-21.484,0.000
1728618949.910,9.766,-41.016,-5.371,-30.762,0.000
1728618949.914,-39.551,-32.227,-12.695,-33.691,0.000
1728618949.918,-117.188,-25.879,-17.578,-33.691,0.000
1728618949.921,-86.914,-26.855,-18.066,-41.504,0.000
1728618949.925,16.113,-34.668,-17.578,-35.645,0.000
1728618949.929,28.809,-32.715,-14.160,-31.738,0.000
1728618949.933,-11.719,-34.668,-10.742,-25.391,0.000
1728618949.937,-111.816,-43.457,-11.230,-24.414,0.000
1728618949.941,-100.098,-41.016,-12.207,-33.691,0.000
1728618949.945,12.207,-37.109,-20.020,-20.508,0.000
1728618949.949,31.738,-41.504,-22.949,-15.137,0.000
1728618949.953,0.977,-42.480,-15.625,-19.043,0.000
1728618949.956,-89.355,-46.875,-13.184,-13.672,0.000
1728618949.959,-109.375,-45.898,-19.531,-29.785,0.000
1728618949.963,-2.930,-41.016,-28.809,-37.109,0.000
1728618949.967,19.531,-40.527,-29.297,-32.715,0.000
1728618949.971,-14.648,-42.480,-25.391,-37.109,0.000
1728618949.975,-87.891,-47.852,-20.508,-30.273,0.000
1728618949.979,-104.492,-47.852,-27.832,-16.602,0.000
1728618949.983,0.488,-38.574,-41.992,-17.578,0.000
1728618949.987,32.715,-42.480,-39.062,-26.367,0.000
1728618949.991,2.441,-45.410,-39.551,-22.949,0.000
1728618949.995,-85.938,-45.410,-34.180,-34.668,0.000
1728618949.999,-117.188,-41.016,-21.484,-41.504,0.000
1728618950.003,0.000,-33.691,-31.250,-14.160,0.000
1728618950.007,48.828,-31.738,-39.551,-1.953,0.000
1728618950.011,21.973,-48.340,-24.902,-20.508,0.000
1728618950.015,-42.480,-54.688,-26.367,-20.020,0.000
1728618950.018,-87.402,-25.391,-24.414,-11.230,0.000
1728618950.022,-32.227,-46.387,2.930,-39.551,0.000
1728618950.026,1.953,-60.547,-1.953,-64.941,0.000
1728618950.030,24.902,-23.926,-20.020,-19.531,0.000
1728618950.034,-16.113,-6.348,-26.855,10.742,0.000
1728618950.038,-119.141,-13.672,-29.297,-28.809,0.000
1728618950.042,-82.031,-24.902,-30.273,-97.168,0.000
1728618950.046,0.977,-12.207,-29.785,-80.078,0.000
1728618950.051,1.465,-11.719,-14.160,-35.156,0.000
1728618950.055,-36.133,-12.695,-23.926,-38.574,0.000
1728618950.059,-107.422,-26.367,-25.879,-40.527,0.000
1728618950.063,-63.477,-43.457,11.719,-37.109,0.000
1728618950.067,17.090,-33.203,22.461,-36.133,0.000
1728618950.071,21.973,-26.367,-5.371,-22.461,0.000
1728618950.075,-4.395,-15.625,-8.301,2.930,0.000
1728618950.079,-65.430,-6.836,24.902,11.719,0.000
1728618950.083,-45.410,-26.367,40.527,-38.574,0.000
1728618950.087,40.527,-18.555,5.371,-55.664,0.000
1728618950.090,24.902,-1.953,24.414,-37.109,0.000
1728618950.094,-42.480,-28.809,54.688,-45.410,0.000
1728618950.098,-97.168,-31.250,37.598,-42.480,0.000
1728618950.102,-48.340,-8.789,18.555,-41.016,0.000
1728618950.106,31.738,-8.789,33.203,-32.227,0.000
1728618950.110,24.414,-23.438,42.969,-23.438,0.000
1728618950.114,-6.348,-28.809,22.949,-7.812,0.000
1728618950.118,-105.469,-29.785,56.641,-32.715,0.000
1728618950.122,-132.812,-41.504,95.215,-88.867,0.000
1728618950.125,-11.230,-31.738,60.547,-58.105,0.000
1728618950.129,22.949,-26.367,25.391,-36.133,0.000
1728618950.133,-42.480,-48.828,48.828,-82.520,0.000
1728618950.137,-95.703,-50.293,39.551,-40.527,0.000
1728618950.141,-90.820,-60.547,-4.883,-30.273,0.000
1728618950.145,-43.945,-52.734,-12.695,-92.773,0.000
1728618950.149,-22.461,-15.625,-58.105,-64.941,0.000
1728618950.152,-57.129,-20.996,-72.754,-28.320,0.000
1728618950.156,-155.273,-46.875,-64.941,-50.293,0.000
1728618950.160,-170.898,-46.875,-112.305,-73.730,0.000
1728618950.164,-48.828,-44.434,-138.672,-77.637,0.000
1728618950.168,-1.465,-44.434,-177.734,-66.406,0.000
1728618950.172,-17.090,-43.457,-227.051,-48.340,0.000
1728618950.176,-92.285,-50.781,-236.328,-61.035,0.000
1728618950.180,-138.184,-41.504,-250.977,-81.543,0.000
1728618950.184,-37.598,-27.832,-345.215,-71.289,0.000
1728618950.188,9.277,-43.457,-414.062,-46.387,0.000
1728618950.191,-30.273,-71.777,-422.852,-58.105,0.000
1728618950.195,-86.426,-59.570,-454.590,-51.270,0.000
1728618950.199,-134.766,-53.711,-487.305,-42.480,0.000
1728618950.203,-54.688,-90.820,-507.324,-51.270,0.000
1728618950.207,13.184,-77.637,-553.711,-53.223,0.000
1728618950.211,-7.324,-39.062,-604.004,-45.898,0.000
1728618950.214,-73.730,-42.969,-619.141,-32.227,0.000
1728618950.218,-135.742,-43.457,-645.996,-22.949,0.000
1728618950.222,-58.105,-43.945,-679.688,-34.180,0.000
1728618950.226,-7.324,-62.500,-684.570,-64.453,0.000
1728618950.230,-2.441,-60.059,-751.953,-36.133,0.000
1728618950.234,-47.363,-60.059,-783.691,-8.789,0.000
1728618950.237,-113.770,-49.805,-826.660,-9.277,0.000
1728618950.241,-34.668,-33.691,-884.277,-14.160,0.000
1728618950.245,31.250,-47.363,-898.926,-33.691,0.000
1728618950.249,12.695,-58.105,-930.664,-37.109,0.000
1728618950.253,-14.160,-40.527,-988.281,-20.996,0.000
1728618950.257,-100.098,-42.969,-1000.000,-34.668,0.000
1728618950.261,-61.035,-50.293,-998.047,-32.715,0.000
1728618950.265,36.621,-41.016,-1000.000,-10.742,0.000
1728618950.268,11.230,-51.758,-1000.000,-30.762,0.000
1728618950.272,-52.734,-67.383,-1000.000,-42.969,0.000
1728618950.276,-148.926,-73.242,-1000.000,-79.102,0.000
1728618950.280,-111.816,-69.824,-1000.000,-74.219,0.000
1728618950.285,9.766,-55.176,-1000.000,-21.973,0.000
1728618950.289,29.785,-46.387,-1000.000,-2.930,0.000
1728618950.293,-9.277,-52.246,-1000.000,-6.836,0.000
1728618950.297,-116.699,-55.176,-1000.000,-33.203,0.000
1728618950.301,-103.027,-55.176,-1000.000,-41.992,0.000
1728618950.304,11.719,-60.547,-1000.000,-39.062,0.000
1728618950.308,2.441,-72.266,-980.957,-47.852,0.000
1728618950.312,-29.785,-61.523,-979.980,-28.809,0.000
1728618950.316,-88.867,-52.734,-979.492,-14.648,0.000
1728618950.320,-97.656,-58.594,-927.246,-13.184,0.000
1728618950.324,2.930,-54.688,-887.207,-19.043,0.000
1728618950.328,30.273,-46.875,-867.676,-15.137,0.000
1728618950.331,-11.230,-44.922,-824.219,-16.113,0.000
1728618950.335,-81.055,-41.016,-772.461,-16.113,0.000
1728618950.339,-86.914,-38.086,-729.492,-9.766,0.000
1728618950.342,29.785,-31.738,-706.543,-12.695,0.000
1728618950.346,71.777,-30.762,-662.109,-7.324,0.000
1728618950.350,21.484,-39.551,-588.867,-3.906,0.000
1728618950.354,-69.336,-31.250,-531.250,1.953,0.000
1728618950.358,-105.957,-17.090,-486.328,-7.324,0.000
1728618950.362,4.395,-13.672,-432.129,-18.066,0.000
1728618950.366,70.312,-10.742,-339.355,7.812,0.000
1728618950.370,36.133,-20.996,-249.512,10.742,0.000
1728618950.374,-51.270,-31.738,-188.965,-6.836,0.000
1728618950.378,-105.957,-30.762,-97.656,-8.789,0.000
1728618950.382,-9.766,-33.203,89.844,-16.113,0.000
1728618950.386,47.852,-35.645,250.977,-16.602,0.000
1728618950.390,26.855,-33.691,347.168,-6.836,0.000
1728618950.394,-41.016,-36.621,446.777,-4.883,0.000
1728618950.398,-114.258,-45.898,570.801,-12.695,0.000
1728618950.401,-33.203,-42.969,692.871,-19.531,0.000
1728618950.405,47.852,-37.109,785.645,-15.137,0.000
1728618950.409,27.832,-38.574,855.957,-8.789,0.000
1728618950.413,-34.668,-36.133,907.715,-7.324,0.000
1728618950.417,-106.934,-30.762,958.496,-10.254,0.000
1728618950.421,-46.387,-42.480,970.215,-18.066,0.000
1728618950.425,28.320,-50.293,966.309,-19.531,0.000
1728618950.429,24.414,-44.922,968.750,-17.090,0.000
1728618950.433,-20.508,-46.875,968.262,-28.809,0.000
1728618950.437,-109.863,-46.387,968.750,-26.367,0.000
1728618950.441,-60.547,-37.598,965.332,-18.555,0.000
1728618950.445,31.250,-41.504,971.191,-19.043,0.000
1728618950.448,23.438,-39.062,960.938,-15.625,0.000
1728618950.452,-15.625,-30.762,895.508,-13.672,0.000
1728618950.456,-97.656,-32.715,875.488,-16.113,0.000
1728618950.460,-60.547,-36.621,875.488,-15.137,0.000
1728618950.464,39.062,-34.668,833.984,-13.184,0.000
1728618950.468,52.734,-28.320,802.734,-2.930,0.000
1728618950.472,29.785,-17.578,774.902,8.789,0.000
1728618950.476,-58.594,-15.137,725.098,6.348,0.000
1728618950.480,-54.199,-20.020,705.566,7.812,0.000
1728618950.484,56.152,-18.555,680.176,3.418,0.000
1728618950.487,74.219,-21.973,645.508,7.812,0.000
1728618950.491,33.203,-23.926,645.508,12.207,0.000
1728618950.495,-67.871,-23.438,617.676,-0.977,0.000
1728618950.499,-70.312,-20.020,556.152,-4.395,0.000
1728618950.503,41.504,-13.672,572.266,-5.859,0.000
1728618950.507,49.316,-24.414,597.656,-20.996,0.000
1728618950.511,14.160,-26.855,577.637,-7.812,0.000
1728618950.515,-73.242,-29.785,534.180,-14.648,0.000
1728618950.518,-92.773,-28.809,495.605,-25.879,0.000
1728618950.522,33.691,-19.531,478.027,-15.137,0.000
1728618950.526,67.383,-23.438,454.590,-12.695,0.000
1728618950.530,29.785,-28.320,432.617,0.488,0.000
1728618950.534,-39.551,-27.344,420.410,11.719,0.000
1728618950.538,-84.473,-30.762,395.020,-6.836,0.000
1728618950.542,8.301,-37.109,375.977,-11.230,0.000
1728618950.546,60.547,-30.762,361.328,6.836,0.000
1728618950.550,9.277,-28.320,323.242,0.000,0.000
1728618950.554,-62.500,-27.344,291.504,-6.348,0.000
1728618950.558,-98.145,-26.855,274.902,-7.324,0.000
1728618950.561,-1.953,-35.645,259.766,-8.789,0.000
1728618950.565,64.453,-27.832,232.910,-1.465,0.000
1728618950.569,38.086,-23.926,187.988,-16.602,0.000
1728618950.573,-32.227,-36.133,174.805,-19.043,0.000
1728618950.577,-106.445,-28.809,199.219,-12.695,0.000
1728618950.581,-40.039,-28.320,208.496,-29.297,0.000
1728618950.585,26.367,-36.133,186.035,-31.738,0.000
1728618950.588,20.508,-30.762,163.086,-18.066,0.000
1728618950.592,-40.039,-32.227,143.555,-17.090,0.000
1728618950.596,-129.395,-39.551,119.141,-32.227,0.000
1728618950.600,-56.152,-41.992,96.191,-30.762,0.000
1728618950.604,39.062,-36.621,84.473,-25.391,0.000
1728618950.608,24.902,-40.039,82.031,-28.320,0.000
1728618950.611,-30.762,-47.852,78.125,-32.227,0.000
1728618950.615,-112.793,-43.945,68.848,-41.504,0.000
1728618950.619,-70.801,-45.898,60.547,-46.387,0.000
1728618950.623,25.879,-42.969,59.082,-44.434,0.000
1728618950.627,30.762,-42.969,39.551,-41.504,0.000
1728618950.631,-27.344,-42.480,15.625,-36.133,0.000
1728618950.635,-125.977,-40.039,8.789,-31.738,0.000
1728618950.639,-84.473,-41.992,-2.930,-22.461,0.000
1728618950.643,20.508,-41.504,31.738,-32.227,0.000
1728618950.646,17.090,-45.898,60.547,-36.621,0.000
1728618950.650,-29.297,-53.711,50.293,-34.180,0.000
1728618950.654,-120.605,-54.199,29.297,-43.945,0.000
1728618950.658,-103.027,-47.363,13.672,-49.805,0.000
1728618950.661,13.184,-47.363,11.230,-46.875,0.000
1728618950.665,23.438,-49.805,7.324,-37.598,0.000
1728618950.669,-7.812,-49.316,6.348,-20.996,0.000
1728618950.673,-76.172,-45.410,0.000,-20.020,0.000
1728618950.677,-83.496,-38.574,-16.113,-36.621,0.000
1728618950.681,5.859,-35.156,-21.484,-40.039,0.000
1728618950.685,27.832,-36.133,-12.695,-41.016,0.000
1728618950.689,-0.488,-37.109,-6.348,-21.484,0.000
1728618950.693,-83.008,-32.227,-14.648,-14.160,0.000
1728618950.697,-97.168,-30.762,-23.438,-22.949,0.000
1728618950.701,12.695,-28.809,-25.879,-20.020,0.000
1728618950.704,44.434,-26.367,-22.949,-19.531,0.000
1728618950.708,24.902,-22.949,-24.414,-10.742,0.000
1728618950.711,-49.316,-21.484,-20.020,-4.395,0.000
1728618950.715,-98.145,-23.438,-12.207,-11.230,0.000
1728618950.719,2.441,-26.367,-17.578,-12.207,0.000
1728618950.723,51.270,-34.180,-23.438,-7.324,0.000
1728618950.727,29.297,-32.715,-35.156,-2.930,0.000
1728618950.731,-44.434,-33.691,-41.016,-13.672,0.000
1728618950.735,-110.840,-32.227,-39.062,-20.996,0.000
1728618950.739,-21.484,-29.785,-49.805,-16.113,0.000
1728618950.743,43.945,-33.691,-60.059,-8.301,0.000
1728618950.747,24.902,-34.180,-57.129,-9.277,0.000
1728618950.751,-45.410,-32.227,-42.969,-18.555,0.000
1728618950.755,-109.863,-28.809,-57.617,-26.855,0.000
1728618950.759,-25.391,-33.203,-63.965,-26.855,0.000
1728618950.763,37.598,-39.062,-38.086,-18.066,0.000
1728618950.767,21.973,-35.645,-39.551,-20.508,0.000
1728618950.771,-41.504,-40.039,-50.781,-35.156,0.000
1728618950.775,-125.488,-42.969,-57.129,-44.922,0.000
1728618950.778,-49.805,-38.574,-53.223,-46.875,0.000
1728618950.782,40.039,-33.203,-44.922,-41.016,0.000
1728618950.786,29.785,-30.273,-43.457,-30.273,0.000
1728618950.790,-27.832,-34.668,-50.781,-32.715,0.000
1728618950.794,-113.770,-38.574,-70.801,-39.062,0.000
1728618950.799,-66.895,-40.527,-72.266,-26.367,0.000
1728618950.802,18.066,-40.527,-59.570,-21.973,0.000
1728618950.806,19.043,-39.062,-54.199,-27.832,0.000
1728618950.810,-17.578,-35.645,-59.082,-20.508,0.000
1728618950.814,-95.215,-29.785,-56.152,-15.625,0.000
1728618950.818,-41.504,-26.855,-57.617,-13.672,0.000
1728618950.822,65.918,-40.527,-86.914,-5.371,0.000
1728618950.826,65.918,-47.852,-97.168,5.859,0.000
1728618950.830,9.766,-32.227,-80.566,3.418,0.000
1728618950.834,-103.027,-15.137,-78.613,-17.578,0.000
1728618950.838,-92.285,-17.578,-58.105,-32.715,0.000
1728618950.842,22.949,-24.902,-42.969,-26.367,0.000
1728618950.846,34.668,-20.508,-38.086,-24.414,0.000
1728618950.849,-6.348,-17.090,-29.785,-25.879,0.000
1728618950.853,-77.148,-22.461,-36.621,-10.742,0.000
1728618950.857,-73.242,-21.484,-47.363,-12.695,0.000
1728618950.861,40.527,-18.555,-64.941,-8.301,0.000
1728618950.865,65.918,-13.184,-79.590,1.465,0.000
1728618950.869,18.555,-12.695,-67.871,-15.625,0.000
1728618950.873,-69.336,-20.996,-45.898,-14.648,0.000
1728618950.877,-67.871,-20.508,-34.180,6.348,0.000
1728618950.881,29.297,-21.973,-35.645,1.465,0.000
1728618950.885,36.621,-26.367,-41.992,-24.902,0.000
1728618950.889,5.371,-26.367,-34.180,-19.531,0.000
1728618950.892,-85.938,-20.020,-43.945,-25.879,0.000
1728618950.896,-132.324,-20.020,-62.988,-57.617,0.000
1728618950.900,-18.066,-26.855,-64.453,-52.246,0.000
1728618950.904,32.227,-22.461,-67.871,-37.109,0.000
1728618950.908,-4.395,-25.391,-48.828,-39.551,0.000
1728618950.912,-79.590,-31.738,-29.785,-37.109,0.000
1728618950.916,-129.395,-30.762,-41.992,-45.898,0.000
1728618950.920,-41.016,-39.062,-34.668,-44.922,0.000
1728618950.924,21.973,-50.293,-36.133,-32.227,0.000
1728618950.928,1.953,-55.176,-56.641,-29.785,0.000
1728618950.931,-65.430,-44.434,-54.688,-35.156,0.000
1728618950.935,-125.488,-14.648,-38.574,-33.203,0.000
1728618950.939,-50.781,-0.488,-30.762,-39.062,0.000
1728618950.943,16.113,-3.906,-31.738,-45.410,0.000
1728618950.947,11.230,-9.277,-29.785,-37.109,0.000
1728618950.951,-55.664,-12.207,-56.641,-34.668,0.000
1728618950.955,-145.020,-16.113,-68.848,-41.016,0.000
1728618950.959,-56.641,-21.973,-46.875,-33.203,0.000
1728618950.962,38.086,-20.508,-45.898,-18.066,0.000
1728618950.966,35.156,-15.137,-53.223,-11.230,0.000
1728618950.970,-20.508,-23.926,-59.570,-16.113,0.000
1728618950.974,-108.887,-26.367,-43.457,-25.391,0.000
1728618950.978,-62.988,-28.809,-7.812,-43.457,0.000
1728618950.982,30.762,-32.227,2.441,-30.762,0.000
1728618950.985,25.879,-31.738,-13.672,-8.789,0.000
1728618950.989,-15.137,-23.438,-45.898,-14.648,0.000
1728618950.993,-97.168,-17.090,-55.664,-20.508,0.000
1728618950.997,-64.453,-14.648,-17.578,-22.949,0.000
1728618951.001,36.133,-14.160,-4.395,-25.879,0.000
1728618951.005,40.527,-19.531,-20.020,-21.973,0.000
1728618951.009,5.371,-17.578,-19.043,-10.742,0.000
1728618951.013,-93.750,-22.461,-11.230,-16.113,0.000
1728618951.017,-83.008,-22.461,-14.648,-28.320,0.000
1728618951.021,20.020,-19.531,-36.621,-25.391,0.000
1728618951.025,24.414,-22.949,-26.367,-23.926,0.000
1728618951.028,-11.230,-20.020,0.488,-26.855,0.000
1728618951.032,-104.492,-22.949,4.395,-27.832,0.000
1728618951.036,-104.980,-29.785,3.418,-34.180,0.000
1728618951.040,13.672,-24.414,-8.789,-29.297,0.000
1728618951.043,52.734,-20.508,-25.391,-17.090,0.000
1728618951.047,22.949,-29.297,-14.160,-20.996,0.000
1728618951.051,-72.754,-28.809,8.301,-24.902,0.000
1728618951.055,-93.750,-13.672,8.301,-18.066,0.000
1728618951.059,7.812,-11.230,8.789,-30.273,0.000
1728618951.063,36.133,-9.277,8.789,-30.762,0.000
1728618951.067,7.812,-6.836,9.277,-23.926,0.000
1728618951.071,-74.707,-9.766,-2.930,-24.902,0.000
1728618951.075,-107.422,-10.742,-11.719,-31.738,0.000
1728618951.079,2.930,-13.672,-16.113,-33.203,0.000
1728618951.083,59.570,-11.719,-22.949,-17.578,0.000
1728618951.087,36.133,-15.625,-24.414,-10.254,0.000
1728618951.091,-49.805,-22.949,-26.367,-17.090,0.000
1728618951.095,-104.492,-21.973,-47.852,-15.137,0.000
1728618951.099,2.930,-24.902,-64.941,-12.207,0.000
1728618951.103,60.059,-30.762,-33.691,-17.090,0.000
1728618951.107,29.785,-30.762,-2.441,-25.879,0.000
1728618951.111,-58.594,-35.156,4.883,-31.250,0.000
1728618951.115,-126.465,-37.598,-3.418,-21.973,0.000
1728618951.118,-22.949,-21.973,-23.926,-23.926,0.000
1728618951.122,52.246,-6.836,-40.039,-20.996,0.000
1728618951.127,43.945,-10.254,-34.668,-14.160,0.000
1728618951.131,-11.719,-14.160,-25.391,-20.020,0.000
1728618951.135,-100.098,-20.020,-20.508,-26.855,0.000
1728618951.139,-38.574,-21.973,-39.062,-24.902,0.000
1728618951.142,36.621,-17.090,-62.012,-20.508,0.000
1728618951.146,19.043,-20.996,-28.320,-13.184,0.000
1728618951.150,-37.598,-31.738,-9.766,-17.578,0.000
1728618951.154,-131.348,-35.645,-15.625,-16.602,0.000
1728618951.158,-76.660,-37.109,-32.227,-16.113,0.000
1728618951.162,36.133,-37.598,-66.406,-6.836,0.000
1728618951.166,35.156,-41.016,-49.805,-7.324,0.000
1728618951.170,-28.809,-28.809,-20.020,-31.250,0.000
1728618951.174,-121.582,-20.508,-10.742,-38.574,0.000
1728618951.178,-80.566,-19.043,-3.418,-45.410,0.000
1728618951.182,21.973,-16.602,-6.348,-46.875,0.000
1728618951.186,29.785,-15.625,-23.438,-38.086,0.000
1728618951.190,-7.812,-16.113,-45.410,-33.691,0.000
1728618951.194,-93.750,-27.344,-40.039,-34.668,0.000
1728618951.197,-72.754,-33.691,-26.367,-38.574,0.000
1728618951.201,28.809,-25.391,-27.832,-29.785,0.000
1728618951.205,32.715,-17.578,-25.879,-18.555,0.000
1728618951.209,-7.324,-15.137,-28.809,-16.113,0.000
1728618951.213,-94.238,-17.578,-27.344,-19.043,0.000
1728618951.217,-82.520,-24.902,-18.555,-24.902,0.000
1728618951.221,31.738,-24.414,-24.414,-17.090,0.000
1728618951.225,60.547,-16.113,-49.805,-9.277,0.000
1728618951.229,24.902,-16.602,-70.801,-10.742,0.000
1728618951.233,-65.430,-27.344,-54.199,-11.719,0.000
1728618951.237,-76.660,-29.297,-18.555,-9.766,0.000
1728618951.240,36.133,-27.344,0.000,-7.324,0.000
1728618951.244,66.895,-20.996,-3.906,-3.418,0.000
1728618951.248,22.949,-7.812,-13.672,-11.719,0.000
1728618951.252,-72.266,-9.277,-18.555,-21.484,0.000
1728618951.256,-105.957,-21.973,-20.508,-23.438,0.000
1728618951.260,4.395,-18.555,-20.508,-30.762,0.000
1728618951.264,50.293,-15.625,-20.020,-24.414,0.000
1728618951.268,19.043,-18.066,-24.414,-7.324,0.000
1728618951.272,-54.199,-24.902,-37.598,-7.812,0.000
1728618951.276,-99.609,-27.344,-41.992,-20.996,0.000
1728618951.279,-4.395,-27.344,-39.062,-22.461,0.000
1728618951.283,46.875,-23.926,-39.062,-20.020,0.000
1728618951.287,30.762,-15.625,-52.246,-14.160,0.000
1728618951.291,-41.016,-11.230,-41.992,-21.973,0.000
1728618951.295,-113.281,-11.230,-20.508,-23.926,0.000
1728618951.299,-17.578,-12.207,-33.691,-4.395,0.000
1728618951.303,51.270,-16.602,-30.762,-9.766,0.000
1728618951.307,32.227,-22.461,-15.137,-19.043,0.000
1728618951.311,-26.367,-27.344,-19.043,-21.973,0.000
1728618951.314,-108.887,-34.668,-34.668,-33.203,0.000
1728618951.318,-49.316,-40.527,-37.598,-32.715,0.000
1728618951.322,35.156,-31.250,-28.809,-31.738,0.000
1728618951.326,30.273,-17.578,-35.156,-36.133,0.000
1728618951.330,-26.367,-17.578,-39.062,-30.273,0.000
1728618951.334,-108.887,-14.160,-42.480,-26.855,0.000
1728618951.338,-52.246,-17.090,-49.316,-21.973,0.000
1728618951.342,44.434,-18.066,-47.852,-3.418,0.000
1728618951.346,38.574,-16.113,-48.828,-8.789,0.000
1728618951.350,-8.301,-19.043,-28.809,-14.648,0.000
1728618951.353,-97.656,-16.602,-9.277,-8.789,0.000
1728618951.357,-56.641,-13.184,-10.254,-7.812,0.000
1728618951.361,44.434,-10.742,-18.555,-9.277,0.000
1728618951.365,47.852,-13.672,-36.621,-7.812,0.000
1728618951.369,3.418,-22.461,-42.480,-15.625,0.000
1728618951.373,-103.027,-26.855,-25.879,-32.227,0.000
1728618951.376,-84.473,-21.484,-22.949,-38.086,0.000
1728618951.380,26.855,-21.973,-28.320,-30.762,0.000
1728618951.384,38.086,-20.508,-39.062,-21.484,0.000
1728618951.388,-6.348,-21.484,-49.316,-15.137,0.000
1728618951.392,-101.562,-28.809,-45.410,-28.809,0.000
1728618951.396,-93.262,-31.250,-36.621,-35.156,0.000
1728618951.400,20.020,-27.344,-38.086,-21.973,0.000
1728618951.404,42.480,-19.043,-39.062,-21.484,0.000
1728618951.409,-1.953,-19.043,-23.438,-31.738,0.000
1728618951.413,-91.309,-25.879,-10.254,-27.344,0.000
1728618951.416,-101.074,-22.949,-17.578,-28.809,0.000
1728618951.420,6.836,-19.043,-20.996,-29.297,0.000
1728618951.424,39.062,-16.113,-20.996,-25.391,0.000
1728618951.428,12.695,-13.184,-33.691,-26.367,0.000
1728618951.432,-70.312,-18.555,-46.387,-10.254,0.000
1728618951.436,-107.910,-21.973,-55.664,-10.742,0.000
1728618951.440,6.836,-21.973,-44.922,-19.531,0.000
1728618951.444,47.852,-23.438,-38.574,-16.602,0.000
1728618951.448,18.066,-21.484,-40.527,-20.996,0.000
1728618951.452,-58.594,-21.973,-41.992,-26.367,0.000
1728618951.455,-107.910,-24.414,-33.203,-32.715,0.000
1728618951.459,-7.324,-28.809,-22.461,-26.855,0.000
1728618951.462,52.734,-22.461,-40.039,-11.719,0.000
1728618951.466,27.344,-25.391,-34.180,-12.207,0.000
1728618951.470,-49.805,-32.227,-8.301,-20.508,0.000
1728618951.474,-115.723,-21.484,-4.883,-28.809,0.000
1728618951.478,-30.273,-21.484,-10.742,-28.320,0.000
1728618951.482,48.340,-22.949,-17.578,-21.973,0.000
1728618951.486,28.809,-21.484,-26.855,-16.602,0.000
1728618951.490,-45.410,-21.973,-20.508,-8.789,0.000
1728618951.494,-118.652,-18.066,-14.160,-19.531,0.000
1728618951.498,-35.645,-18.066,-31.738,-26.855,0.000
1728618951.502,41.016,-24.902,-41.992,-18.555,0.000
1728618951.506,28.320,-21.973,-36.621,-14.648,0.000
1728618951.510,-19.531,-19.531,-35.645,-8.301,0.000
1728618951.514,-99.609,-22.949,-43.457,-13.672,0.000
1728618951.518,-50.781,-28.320,-32.715,-34.668,0.000
1728618951.522,41.016,-31.738,-16.602,-32.227,0.000
1728618951.525,41.504,-31.738,-11.719,-23.438,0.000
1728618951.529,-7.812,-31.738,-10.742,-27.344,0.000
1728618951.533,-96.191,-31.250,-15.137,-26.367,0.000
1728618951.537,-61.523,-30.273,-30.273,-23.926,0.000
1728618951.541,31.250,-28.809,-45.410,-30.273,0.000
1728618951.545,30.273,-25.879,-28.320,-20.508,0.000
1728618951.549,-9.277,-21.973,-14.648,-21.973,0.000
1728618951.553,-100.586,-23.438,-21.973,-31.738,0.000
1728618951.557,-79.102,-28.809,-17.090,-39.062,0.000
1728618951.561,32.227,-20.508,-21.973,-31.738,0.000
1728618951.565,41.992,-16.113,-42.480,-20.508,0.000
1728618951.569,5.859,-22.461,-44.434,-22.949,0.000
1728618951.573,-85.449,-24.414,-31.250,-27.832,0.000
1728618951.577,-83.984,-23.438,-19.043,-32.227,0.000
1728618951.580,40.527,-20.996,-15.625,-10.254,0.000
1728618951.584,79.590,-20.020,-18.555,10.742,0.000
1728618951.588,33.691,-15.625,-20.996,-1.953,0.000
1728618951.592,-76.172,-22.949,-25.879,-13.184,0.000
1728618951.599,-89.844,-26.855,-49.316,-15.625,0.000
1728618951.603,24.902,-16.602,-46.875,-19.531,0.000
1728618951.607,51.270,-20.996,-16.602,-19.531,0.000
1728618951.611,16.113,-24.902,-8.301,-20.020,0.000
1728618951.615,-62.988,-22.461,-17.578,-17.090,0.000
1728618951.619,-92.285,-23.926,-17.578,-20.020,0.000
1728618951.623,15.137,-26.367,-17.090,-22.461,0.000
1728618951.626,61.035,-22.949,-24.414,-17.090,0.000
1728618951.630,40.039,-15.137,-20.996,-3.906,0.000
1728618951.634,-48.340,-14.160,-23.926,-7.324,0.000
1728618951.638,-98.633,-18.555,-37.109,-17.090,0.000
1728618951.642,7.812,-17.578,-35.645,-9.277,0.000
1728618951.646,54.688,-15.625,-30.273,-17.578,0.000
1728618951.649,24.902,-21.973,-31.250,-24.414,0.000
1728618951.653,-48.828,-22.949,-33.691,-14.160,0.000
1728618951.657,-104.980,-23.926,-20.020,-11.230,0.000
1728618951.661,-10.742,-29.297,-7.812,-15.625,0.000
1728618951.665,55.664,-30.273,-18.555,-7.812,0.000
1728618951.669,42.969,-32.227,-28.809,-5.859,0.000
1728618951.673,-22.461,-26.367,-17.090,-18.555,0.000
1728618951.677,-94.727,-25.391,-13.184,-24.902,0.000
1728618951.681,-27.344,-21.973,-14.648,-22.949,0.000
1728618951.685,47.852,-18.066,-18.555,-21.973,0.000
1728618951.689,43.457,-22.949,-30.762,-10.254,0.000
1728618951.692,-16.113,-18.066,-47.852,-10.742,0.000
1728618951.696,-101.562,-14.160,-51.758,-24.414,0.000
1728618951.700,-40.039,-16.602,-12.207,-16.113,0.000
1728618951.704,48.828,-24.414,11.230,1.953,0.000
1728618951.708,30.273,-27.344,-9.766,-6.348,0.000
1728618951.711,-16.602,-18.066,-42.969,-13.672,0.000
1728618951.715,-95.215,-18.066,-65.430,-23.438,0.000
1728618951.719,-50.781,-32.715,-41.016,-19.043,0.000
1728618951.723,45.410,-37.109,-27.344,-4.395,0.000
1728618951.727,27.832,-33.691,-6.836,-22.461,0.000
1728618951.731,-16.113,-24.414,5.371,-34.668,0.000
1728618951.735,-93.262,-16.113,-34.668,-25.391,0.000
1728618951.740,-67.383,-23.438,-30.762,-33.691,0.000
1728618951.743,39.062,-23.926,0.488,-35.156,0.000
1728618951.747,41.992,-23.926,3.906,-25.879,0.000
1728618951.751,-8.301,-25.391,-15.625,-24.902,0.000
1728618951.755,-104.004,-25.879,-11.230,-16.602,0.000
1728618951.759,-97.168,-30.762,13.672,-20.020,0.000
1728618951.763,16.602,-28.320,-4.395,-26.855,0.000
1728618951.767,36.133,-24.902,-26.367,-20.020,0.000
1728618951.771,-2.930,-25.879,-21.484,-29.297,0.000
1728618951.775,-90.820,-20.020,-9.277,-34.668,0.000
1728618951.779,-94.238,-13.672,0.977,-29.785,0.000
1728618951.782,16.113,-10.742,0.977,-28.809,0.000
1728618951.785,41.504,-14.648,-6.348,-26.367,0.000
1728618951.789,7.324,-20.996,-13.184,-25.879,0.000
1728618951.793,-79.590,-22.949,-20.996,-22.949,0.000
1728618951.797,-96.680,-22.461,-29.785,-20.020,0.000
1728618951.801,11.719,-22.949,-48.828,-25.879,0.000
1728618951.805,38.086,-22.461,-29.297,-25.391,0.000
1728618951.809,3.906,-26.367,-10.254,-21.973,0.000
1728618951.813,-83.008,-31.250,-17.578,-30.762,0.000
1728618951.817,-118.652,-30.762,-23.438,-30.273,0.000
1728618951.821,-4.883,-31.250,-12.695,-18.066,0.000
1728618951.824,41.504,-27.832,-8.301,-15.137,0.000
1728618951.828,11.230,-29.297,-20.508,-16.113,0.000
1728618951.831,-57.129,-34.668,-46.875,-18.066,0.000
1728618951.835,-115.234,-28.809,-44.434,-35.156,0.000
1728618951.839,-20.996,-21.484,-14.648,-31.738,0.000
1728618951.843,41.992,-28.809,-9.277,-25.879,0.000
1728618951.847,14.160,-31.738,-14.648,-33.691,0.000
1728618951.851,-41.016,-32.227,-22.949,-27.344,0.000
1728618951.855,-107.910,-31.250,-25.879,-29.297,0.000
1728618951.859,-32.227,-30.273,-27.344,-30.762,0.000
1728618951.862,54.199,-24.414,-24.902,-17.090,0.000
1728618951.866,50.293,-20.996,-18.555,-6.836,0.000
1728618951.870,-15.137,-22.461,-23.438,-9.277,0.000
1728618951.874,-112.305,-22.949,-32.227,-27.344,0.000
1728618951.878,-45.410,-25.391,-45.898,-21.973,0.000
1728618951.882,48.340,-26.855,-53.223,-6.348,0.000
1728618951.886,47.852,-19.043,-47.852,-3.418,0.000
1728618951.890,0.488,-14.648,-39.062,-13.184,0.000
1728618951.894,-78.125,-17.090,-28.809,-21.484,0.000
1728618951.898,-37.598,-20.996,-12.207,-8.789,0.000
1728618951.902,38.574,-22.461,-10.742,-6.348,0.000
1728618951.906,31.250,-27.832,-10.254,-12.207,0.000
1728618951.910,-7.812,-29.297,-13.672,-12.207,0.000
1728618951.914,-96.680,-27.832,-10.742,-14.648,0.000
1728618951.917,-70.312,-26.855,-7.812,-22.461,0.000
1728618951.921,40.039,-22.461,-14.648,-18.066,0.000
1728618951.925,51.758,-22.461,-18.066,-11.230,0.000
1728618951.929,-2.930,-20.996,-26.367,-17.578,0.000
1728618951.933,-94.727,-19.043,-37.109,-10.254,0.000
1728618951.937,-75.684,-20.508,-27.832,-20.508,0.000
1728618951.941,25.879,-25.879,-21.973,-45.410,0.000
1728618951.945,42.480,-28.320,-25.879,-42.969,0.000
1728618951.949,6.348,-23.926,-37.598,-29.785,0.000
1728618951.953,-85.449,-23.926,-42.480,-24.414,0.000
1728618951.957,-87.402,-31.250,-30.273,-17.090,0.000
1728618951.961,33.203,-26.855,-35.156,-11.230,0.000
1728618951.964,60.547,-19.531,-46.875,-12.695,0.000
1728618951.968,7.812,-20.020,-27.832,-18.066,0.000
1728618951.972,-93.262,-26.855,-18.066,-28.320,0.000
1728618951.976,-114.746,-31.738,-27.344,-36.621,0.000
1728618951.980,-8.301,-31.250,-31.250,-43.945,0.000
1728618951.984,29.785,-33.203,-25.391,-37.598,0.000
1728618951.988,3.906,-34.668,-22.949,-27.832,0.000
1728618951.992,-63.477,-32.715,-31.738,-20.508,0.000
1728618951.996,-91.797,-28.809,-57.129,-24.414,0.000
1728618952.000,2.441,-30.273,-60.547,-39.062,0.000
1728618952.003,47.363,-33.691,-28.809,-31.250,0.000
1728618952.007,16.602,-33.203,-15.137,-35.156,0.000
1728618952.011,-65.918,-36.133,-24.902,-33.203,0.000
1728618952.015,-119.629,-38.574,-29.785,-31.738,0.000
1728618952.019,-13.184,-41.504,-28.320,-30.273,0.000
1728618952.023,46.875,-41.504,-33.691,-28.320,0.000
1728618952.027,21.973,-38.574,-42.480,-28.809,0.000
1728618952.031,-41.992,-40.527,-42.969,-32.227,0.000
1728618952.034,-118.652,-45.898,-40.527,-45.898,0.000
1728618952.038,-40.039,-39.551,-48.340,-36.133,0.000
1728618952.042,34.180,-32.227,-47.852,-26.855,0.000
1728618952.046,16.602,-34.180,-41.016,-26.855,0.000
1728618952.050,-49.316,-34.668,-42.969,-23.926,0.000
1728618952.054,-133.789,-38.574,-44.434,-31.250,0.000
1728618952.058,-56.152,-35.156,-39.551,-36.621,0.000
1728618952.062,39.062,-30.273,-45.410,-37.109,0.000
1728618952.065,26.367,-30.273,-47.363,-31.738,0.000
1728618952.069,-24.902,-32.715,-33.691,-23.926,0.000
1728618952.073,-114.746,-34.180,-31.250,-27.832,0.000
1728618952.077,-69.336,-33.691,-36.621,-36.621,0.000
1728618952.081,26.855,-36.133,-39.062,-24.902,0.000
1728618952.085,20.020,-35.645,-39.551,-32.227,0.000
1728618952.089,-36.133,-37.598,-24.414,-51.270,0.000
1728618952.093,-132.812,-47.852,-14.648,-48.828,0.000
1728618952.097,-81.543,-40.527,-27.832,-35.156,0.000
1728618952.101,23.438,-34.668,-19.043,-41.992,0.000
1728618952.104,7.812,-39.551,6.836,-44.922,0.000
1728618952.108,4.395,-27.832,-20.996,-5.859,0.000
1728618952.112,-101.074,-38.574,-15.137,-36.133,0.000
1728618952.116,-116.699,-38.574,16.113,-68.359,0.000
1728618952.120,42.969,-13.184,-42.480,3.906,0.000
1728618952.123,53.711,-26.367,-56.641,-4.883,0.000
1728618952.127,-16.602,-55.176,9.766,-62.012,0.000
1728618952.131,-117.188,-52.246,65.430,-68.848,0.000
1728618952.135,-80.078,-3.418,-8.301,-17.090,0.000
1728618952.139,55.664,4.883,-47.363,26.367,0.000
1728618952.143,48.340,-20.996,4.883,-7.324,0.000
1728618952.147,1.465,-16.602,-0.977,-21.484,0.000
1728618952.151,-67.383,-14.160,-11.230,-1.465,0.000
1728618952.155,-84.473,-26.855,-0.488,-12.207,0.000
1728618952.161,15.625,-20.508,8.789,-27.832,0.000
1728618952.165,28.809,-16.113,18.066,-36.133,0.000
1728618952.169,10.742,-19.531,13.184,-23.926,0.000
1728618952.173,-68.848,-27.832,2.441,-19.531,0.000
1728618952.177,-115.234,-36.621,4.395,-24.414,0.000
1728618952.180,-23.926,-42.969,50.781,-47.852,0.000
1728618952.184,22.461,-43.945,48.340,-73.242,0.000
1728618952.188,39.062,-28.320,-30.273,-23.438,0.000
1728618952.192,-46.875,-34.668,-23.926,-1.953,0.000
1728618952.196,-137.695,-32.715,6.348,-36.621,0.000
1728618952.200,-24.902,-9.277,-16.113,-45.898,0.000
1728618952.204,34.668,-14.160,-12.695,-61.035,0.000
1728618952.208,6.348,-37.109,-31.250,-49.316,0.000
1728618952.212,-24.902,-39.551,-104.492,19.531,0.000
1728618952.216,-97.656,-29.297,-103.027,2.930,0.000
1728618952.220,-35.156,-9.277,-109.863,-49.316,0.000
1728618952.224,18.066,-26.855,-130.859,-62.012,0.000
1728618952.228,3.906,-36.133,-151.367,-37.598,0.000
1728618952.232,-55.664,-49.805,-183.594,-30.762,0.000
1728618952.236,-136.719,-69.824,-228.516,-49.805,0.000
1728618952.240,-50.781,-27.344,-309.570,-50.781,0.000
1728618952.243,35.645,-18.555,-344.238,-54.199,0.000
1728618952.247,-18.555,-58.594,-325.195,-96.191,0.000
1728618952.251,-96.191,-48.340,-385.742,-99.121,0.000
1728618952.260,-152.832,-35.156,-491.211,-50.781,0.000
1728618952.264,-62.988,-47.363,-514.648,-15.137,0.000
1728618952.267,21.484,-35.645,-517.578,-37.109,0.000
1728618952.271,3.906,-27.344,-527.344,-64.453,0.000
1728618952.275,-18.555,-26.367,-546.387,-34.180,0.000
1728618952.279,-99.121,-23.926,-585.938,-20.020,0.000
1728618952.283,-83.496,-23.438,-627.930,-42.480,0.000
1728618952.287,20.996,-20.996,-649.902,-48.828,0.000
1728618952.291,43.945,-20.508,-665.039,-43.457,0.000
1728618952.295,-7.324,-31.738,-708.008,-43.457,0.000
1728618952.299,-98.633,-22.461,-790.527,-30.273,0.000
1728618952.303,-83.984,-34.668,-831.055,-40.527,0.000
1728618952.306,32.227,-41.016,-888.672,-37.598,0.000
1728618952.310,42.480,-37.109,-938.477,-24.414,0.000
1728618952.314,-15.625,-53.711,-952.148,-45.410,0.000
1728618952.318,-72.266,-31.738,-996.094,-17.090,0.000
1728618952.322,-71.289,-23.926,-1000.000,-17.578,0.000
1728618952.326,15.625,-32.227,-998.535,-45.410,0.000
1728618952.330,28.809,-22.949,-1000.000,-46.387,0.000
1728618952.334,-5.371,-23.438,-1000.000,-49.316,0.000
1728618952.338,-105.957,-30.762,-1000.000,-63.965,0.000
1728618952.341,-119.141,-28.809,-1000.000,-44.922,0.000
1728618952.345,19.531,-25.391,-1000.000,-12.695,0.000
1728618952.349,59.570,-22.949,-1000.000,-0.977,0.000
1728618952.352,8.789,-38.574,-1000.000,-11.719,0.000
1728618952.356,-106.445,-50.781,-1000.000,-41.016,0.000
1728618952.360,-111.328,-38.086,-1000.000,-20.020,0.000
1728618952.364,2.441,-36.621,-1000.000,-27.832,0.000
1728618952.368,23.438,-37.109,-1000.000,-29.785,0.000
1728618952.372,-2.930,-32.715,-1000.000,-15.137,0.000
1728618952.376,-86.426,-43.945,-1000.000,-47.363,0.000
1728618952.380,-127.930,-37.109,-1000.000,-53.711,0.000
1728618952.384,-37.598,-32.227,-1000.000,-39.551,0.000
1728618952.388,-3.418,-49.805,-1000.000,-51.270,0.000
1728618952.392,-37.109,-53.711,-1000.000,-83.496,0.000
1728618952.395,-93.262,-41.992,-1000.000,-67.383,0.000
1728618952.399,-135.742,-41.504,-1000.000,-46.387,0.000
1728618952.402,-61.523,-62.500,-1000.000,-72.266,0.000
1728618952.406,8.301,-66.406,-1000.000,-61.035,0.000
1728618952.410,16.602,-52.246,-1000.000,-23.926,0.000
1728618952.414,-55.664,-45.898,-1000.000,-39.551,0.000
1728618952.418,-141.602,-52.246,-1000.000,-60.547,0.000
1728618952.422,-72.754,-53.223,-1000.000,-58.105,0.000
1728618952.426,-10.254,-57.617,-1000.000,-71.777,0.000
1728618952.430,1.465,-41.504,-1000.000,-43.945,0.000
1728618952.434,-34.180,-31.738,-1000.000,-32.227,0.000
1728618952.438,-132.324,-44.434,-1000.000,-47.852,0.000
1728618952.442,-71.289,-37.109,-1000.000,-26.855,0.000
1728618952.445,30.762,-33.203,-1000.000,-22.461,0.000
1728618952.448,17.578,-43.945,-1000.000,-38.086,0.000
1728618952.452,-44.434,-51.270,-998.535,-41.992,0.000
1728618952.456,-136.230,-50.293,-1000.000,-36.621,0.000
1728618952.460,-82.520,-42.480,-987.305,-28.320,0.000
1728618952.464,36.621,-36.621,-926.270,-23.438,0.000
1728618952.468,30.273,-37.598,-890.137,-20.508,0.000
1728618952.472,-7.812,-42.969,-874.023,-6.348,0.000
1728618952.476,-84.473,-51.270,-808.594,-4.883,0.000
1728618952.480,-79.590,-51.758,-720.703,-20.996,0.000
1728618952.484,14.160,-32.715,-655.273,-36.621,0.000
1728618952.488,24.414,-17.090,-596.191,-36.133,0.000
1728618952.491,-12.695,-17.090,-515.137,-30.762,0.000
1728618952.494,-100.586,-20.996,-452.637,-31.250,0.000
1728618952.498,-90.820,-22.949,-354.492,-29.785,0.000
1728618952.502,18.066,-24.414,-129.395,-26.855,0.000
1728618952.506,43.945,-21.973,126.465,-13.672,0.000
1728618952.510,11.719,-22.461,371.582,-16.602,0.000
1728618952.514,-68.848,-26.367,729.492,-17.578,0.000
1728618952.518,-96.191,-29.297,959.473,-13.184,0.000
1728618952.522,8.789,-27.832,964.844,-22.949,0.000
1728618952.526,43.945,-19.531,963.867,-27.344,0.000
1728618952.530,14.648,-18.066,969.727,-17.578,0.000
1728618952.533,-66.406,-20.508,968.262,-14.160,0.000
1728618952.536,-109.375,-19.531,968.262,-27.832,0.000
1728618952.540,4.883,-19.043,968.262,-18.555,0.000
1728618952.544,53.223,-19.531,968.262,-1.465,0.000
1728618952.548,26.367,-15.137,968.262,5.371,0.000
1728618952.552,-44.922,-10.254,968.262,7.812,0.000
1728618952.556,-85.938,-10.742,967.773,-5.859,0.000
1728618952.560,14.160,-11.230,968.262,-13.672,0.000
1728618952.564,56.641,-20.508,968.262,-16.602,0.000
1728618952.568,23.438,-28.809,968.262,-14.648,0.000
1728618952.571,-52.246,-26.855,968.262,-24.902,0.000
1728618952.575,-105.957,-22.461,968.262,-36.621,0.000
1728618952.579,-18.555,-16.113,968.262,-34.180,0.000
1728618952.582,57.617,-3.418,968.262,-18.066,0.000
1728618952.586,52.734,-5.371,968.262,0.488,0.000
1728618952.590,-18.066,-14.160,968.262,-2.930,0.000
1728618952.594,-104.980,-10.742,968.262,-12.207,0.000
1728618952.598,-39.551,-16.602,968.262,-17.578,0.000
1728618952.602,50.781,-14.160,968.262,-20.020,0.000
1728618952.606,48.828,-8.789,968.262,-5.859,0.000
1728618952.609,-8.301,-2.930,968.262,-3.906,0.000
1728618952.613,-93.750,0.000,968.262,-13.184,0.000
1728618952.617,-43.457,-7.324,967.773,-10.742,0.000
1728618952.621,52.246,3.906,966.797,1.465,0.000
1728618952.625,55.664,9.766,967.773,5.859,0.000
1728618952.629,2.441,-0.488,942.383,-2.441,0.000
1728618952.633,-82.520,0.000,859.863,-7.324,0.000
1728618952.637,-36.621,0.000,797.852,-11.719,0.000
1728618952.641,55.176,-5.859,810.059,-15.137,0.000
1728618952.645,43.457,-10.742,805.176,-22.949,0.000
1728618952.649,-0.488,-14.648,769.531,-19.043,0.000
1728618952.653,-84.473,-20.508,730.957,-19.531,0.000
1728618952.657,-65.918,-19.531,673.828,-25.391,0.000
1728618952.660,51.270,-7.324,613.770,-15.137,0.000
1728618952.664,66.406,-7.812,588.867,-3.418,0.000
1728618952.668,24.902,-13.184,573.242,-9.766,0.000
1728618952.672,-68.848,-4.395,541.016,-11.719,0.000
1728618952.676,-71.777,0.488,498.047,-7.812,0.000
1728618952.680,39.062,-2.441,454.590,9.766,0.000
1728618952.684,57.129,-12.207,432.129,3.418,0.000
1728618952.688,15.137,-22.461,419.922,-18.555,0.000
1728618952.692,-76.660,-13.184,397.949,-20.996,0.000
1728618952.696,-93.262,-6.348,370.117,-25.391,0.000
1728618952.699,20.996,-10.742,337.891,-32.715,0.000
1728618952.703,52.734,-13.184,297.852,-29.785,0.000
1728618952.707,9.766,-18.555,250.000,-22.461,0.000
1728618952.711,-81.543,-25.879,238.770,-10.254,0.000
1728618952.715,-120.605,-28.320,256.836,-22.949,0.000
1728618952.719,-21.973,-27.832,242.676,-39.062,0.000
1728618952.723,22.949,-30.273,212.402,-34.180,0.000
1728618952.727,-4.395,-32.715,187.988,-33.691,0.000
1728618952.731,-77.148,-32.715,172.363,-30.273,0.000
1728618952.734,-115.234,-30.762,152.832,-26.855,0.000
1728618952.738,-10.254,-30.273,131.836,-29.785,0.000
1728618952.742,47.363,-25.391,130.371,-22.949,0.000
1728618952.746,16.602,-21.973,119.629,-20.020,0.000
1728618952.750,-47.852,-23.926,101.074,-9.766,0.000
1728618952.754,-102.051,-25.391,98.633,0.488,0.000
1728618952.758,-17.578,-26.367,101.074,-13.672,0.000
1728618952.762,54.199,-25.391,88.867,-20.020,0.000
1728618952.766,41.504,-24.414,55.176,-11.230,0.000
1728618952.769,-26.855,-24.902,41.016,-8.789,0.000
1728618952.773,-107.422,-29.297,54.688,-10.742,0.000
1728618952.777,-29.785,-33.691,43.457,-22.949,0.000
1728618952.781,57.617,-27.344,25.391,-28.809,0.000
1728618952.785,43.457,-27.344,36.621,-23.438,0.000
1728618952.789,-15.137,-23.438,37.109,-20.508,0.000
1728618952.793,-86.426,-14.160,18.555,-11.230,0.000
1728618952.797,-34.180,-18.555,21.973,-9.766,0.000
1728618952.801,49.316,-21.484,37.598,-3.906,0.000
1728618952.804,52.734,-17.090,36.621,-4.883,0.000
1728618952.808,-2.441,-17.090,21.973,-16.113,0.000
1728618952.812,-92.285,-24.414,9.277,-15.625,0.000
1728618952.817,-51.758,-26.367,3.418,-18.066,0.000
1728618952.821,39.062,-22.461,-14.648,-15.137,0.000
1728618952.825,41.016,-21.484,-28.809,-14.648,0.000
1728618952.829,-6.836,-20.508,-17.578,-20.996,0.000
1728618952.833,-93.750,-22.949,-13.184,-26.367,0.000
1728618952.837,-65.918,-24.902,-7.812,-28.809,0.000
1728618952.841,33.691,-22.461,-4.395,-21.973,0.000
1728618952.845,49.805,-22.949,-9.766,-2.930,0.000
1728618952.848,8.789,-24.902,-18.555,-4.883,0.000
1728618952.852,-105.957,-26.855,-22.949,-30.273,0.000
1728618952.856,-101.074,-30.762,-22.949,-36.621,0.000
1728618952.860,22.949,-27.832,-29.785,-25.391,0.000
1728618952.863,31.250,-27.832,-38.086,-37.109,0.000
1728618952.867,-15.625,-25.879,-44.434,-43.945,0.000
1728618952.871,-106.445,-25.391,-37.109,-36.133,0.000
1728618952.875,-119.141,-26.855,-45.898,-38.574,0.000
1728618952.879,2.930,-26.367,-62.012,-32.715,0.000
1728618952.883,45.410,-34.180,-39.551,-21.484,0.000
1728618952.887,15.137,-35.156,-44.922,-17.578,0.000
1728618952.891,-79.102,-34.180,-63.477,-30.273,0.000
1728618952.895,-114.746,-29.297,-41.504,-38.574,0.000
1728618952.899,-2.930,-16.602,-43.457,-22.461,0.000
1728618952.902,38.574,-13.184,-40.039,-25.391,0.000
1728618952.906,5.859,-17.090,-26.855,-30.762,0.000
1728618952.909,-71.289,-21.973,-39.551,-27.832,0.000
1728618952.913,-116.699,-24.902,-49.805,-37.598,0.000
1728618952.917,0.977,-24.902,-52.734,-35.645,0.000
1728618952.921,58.594,-22.461,-61.035,-30.762,0.000
1728618952.925,24.414,-20.508,-73.242,-34.668,0.000
1728618952.929,-45.898,-22.461,-73.730,-24.902,0.000
1728618952.933,-105.957,-25.879,-50.293,-12.207,0.000
1728618952.937,-13.184,-26.855,-38.574,-16.602,0.000
1728618952.941,49.805,-22.461,-36.621,-21.484,0.000
1728618952.945,24.414,-21.484,-44.434,-23.926,0.000
1728618952.948,-39.551,-23.438,-47.363,-31.738,0.000
1728618952.952,-110.840,-27.832,-48.828,-41.992,0.000
1728618952.957,-27.832,-25.391,-52.734,-33.203,0.000
1728618952.961,55.664,-19.531,-47.852,-13.672,0.000
1728618952.965,38.086,-21.973,-29.297,-17.090,0.000
1728618952.969,-30.273,-25.879,-22.461,-23.926,0.000
1728618952.972,-109.863,-20.020,-33.691,-17.090,0.000
1728618952.976,-44.434,-19.043,-42.480,-10.742,0.000
1728618952.980,53.223,-32.227,-44.922,-8.301,0.000
1728618952.984,40.039,-43.457,-56.152,-11.230,0.000
1728618952.988,-13.672,-33.691,-73.730,-18.066,0.000
1728618952.992,-86.914,-21.973,-56.641,-7.324,0.000
1728618952.996,-58.105,-25.391,-30.762,-7.812,0.000
1728618953.000,22.461,-31.250,-30.762,-17.090,0.000
1728618953.004,30.273,-37.109,-42.969,-19.531,0.000
1728618953.008,-18.066,-39.062,-57.617,-17.090,0.000
1728618953.012,-108.398,-32.227,-74.219,-17.090,0.000
1728618953.016,-68.848,-25.391,-78.613,-26.367,0.000
1728618953.020,37.109,-28.320,-49.805,-24.414,0.000
1728618953.024,36.133,-33.203,-19.531,-16.602,0.000
1728618953.027,-11.719,-34.668,-16.602,-10.742,0.000
1728618953.031,-105.957,-30.273,-22.461,-20.996,0.000
1728618953.035,-83.984,-26.855,-31.738,-23.438,0.000
1728618953.039,41.016,-32.715,-36.621,-0.488,0.000
1728618953.043,51.270,-28.320,-51.758,0.488,0.000
1728618953.047,-0.977,-22.949,-62.988,-17.090,0.000
1728618953.051,-88.867,-26.367,-44.434,-12.207,0.000
1728618953.055,-91.797,-22.949,-26.855,-11.230,0.000
1728618953.059,18.066,-22.949,-35.156,-14.160,0.000
1728618953.063,50.781,-20.508,-65.430,-10.254,0.000
1728618953.067,11.230,-22.949,-66.406,-25.391,0.000
1728618953.071,-79.102,-28.809,-41.016,-28.809,0.000
1728618953.074,-96.680,-24.414,-43.945,-23.438,0.000
1728618953.078,13.672,-19.043,-53.223,-19.043,0.000
1728618953.082,55.664,-19.531,-50.293,-5.859,0.000
1728618953.086,22.949,-25.879,-35.645,-11.230,0.000
1728618953.090,-70.801,-29.297,-23.438,-29.785,0.000
1728618953.094,-113.770,-29.297,-26.367,-34.180,0.000
1728618953.099,-8.789,-24.902,-36.621,-22.461,0.000
1728618953.103,50.293,-27.344,-49.805,-1.465,0.000
1728618953.107,28.320,-27.344,-42.969,0.977,0.000
1728618953.111,-47.852,-27.344,-21.973,-15.137,0.000
1728618953.115,-114.746,-33.203,-20.020,-33.203,0.000
1728618953.119,-41.504,-26.367,-28.320,-44.922,0.000
1728618953.123,21.973,-19.043,-42.480,-40.527,0.000
1728618953.127,-0.977,-21.484,-53.711,-41.504,0.000
1728618953.130,-68.848,-25.391,-43.945,-30.273,0.000
1728618953.134,-152.344,-33.203,-50.781,-52.246,0.000
1728618953.138,-80.078,-30.762,-56.641,-63.965,0.000
1728618953.142,12.207,-20.996,-59.570,-47.852,0.000
1728618953.146,-0.977,-25.879,-62.012,-54.688,0.000
1728618953.150,-63.965,-29.785,-56.641,-44.922,0.000
1728618953.154,-130.371,-27.832,-72.266,-35.645,0.000
1728618953.157,-59.082,-29.785,-47.852,-44.434,0.000
1728618953.161,27.344,-25.879,-25.391,-37.109,0.000
1728618953.165,23.438,-20.020,-31.738,-34.180,0.000
1728618953.169,-24.902,-24.902,-13.672,-38.086,0.000
1728618953.173,-113.281,-26.855,-1.465,-37.109,0.000
1728618953.177,-72.754,-20.996,-31.250,-41.992,0.000
1728618953.181,28.320,-27.344,-60.547,-35.645,0.000
1728618953.185,23.438,-27.832,-39.062,-30.273,0.000
1728618953.189,-28.809,-22.949,-16.602,-32.227,0.000
1728618953.192,-115.723,-30.273,-21.973,-30.762,0.000
1728618953.196,-73.730,-35.156,-32.715,-31.738,0.000
1728618953.200,36.133,-28.320,-25.391,-18.555,0.000
1728618953.204,39.551,-20.020,-36.133,-10.742,0.000
1728618953.208,3.906,-12.695,-64.453,-13.184,0.000
1728618953.212,-89.844,-16.602,-36.621,-20.020,0.000
1728618953.216,-80.078,-23.926,-25.879,-20.508,0.000
1728618953.219,37.598,-25.879,-41.016,-11.230,0.000
1728618953.223,61.035,-21.484,-30.273,-8.301,0.000
1728618953.227,22.461,-17.090,-26.367,-10.742,0.000
1728618953.231,-88.379,-23.926,-24.414,-17.578,0.000
1728618953.235,-96.680,-27.832,-15.625,-20.020,0.000
1728618953.238,35.156,-22.949,-24.902,-16.113,0.000
1728618953.242,62.988,-20.508,-43.457,-16.113,0.000
1728618953.246,20.996,-18.066,-37.109,-6.836,0.000
1728618953.250,-65.430,-25.879,-25.391,-4.883,0.000
1728618953.254,-86.914,-26.855,-20.508,-18.555,0.000
1728618953.258,26.855,-22.949,-22.949,-22.461,0.000
1728618953.262,64.453,-18.066,-36.621,-6.348,0.000
1728618953.266,30.273,-17.578,-46.387,1.465,0.000
1728618953.270,-49.316,-20.508,-58.105,-9.277,0.000
1728618953.274,-86.426,-22.949,-35.645,-14.160,0.000
1728618953.277,4.395,-29.785,-10.254,-16.113,0.000
1728618953.281,41.504,-31.250,-7.812,-14.160,0.000
1728618953.286,12.207,-21.484,-16.113,-16.113,0.000
1728618953.290,-64.941,-20.020,-29.785,-17.578,0.000
1728618953.294,-116.211,-21.484,-21.484,-23.438,0.000
1728618953.298,-12.695,-17.578,-37.598,-21.484,0.000
1728618953.302,59.082,-12.695,-99.609,-6.836,0.000
1728618953.305,33.203,-20.508,-70.312,-16.602,0.000
1728618953.309,-39.062,-27.832,-11.230,-19.043,0.000
1728618953.313,-109.863,-30.762,-5.859,-35.156,0.000
1728618953.317,-32.227,-29.297,-6.348,-33.203,0.000
1728618953.321,45.898,-26.855,-7.324,-20.996,0.000
1728618953.325,41.992,-21.973,-7.324,-19.531,0.000
1728618953.329,-13.184,-22.949,-12.695,-13.184,0.000
1728618953.332,-104.492,-29.785,-23.438,-14.648,0.000
1728618953.336,-34.180,-21.973,-26.855,-10.742,0.000
1728618953.339,52.246,-16.602,-36.621,-6.348,0.000
1728618953.343,41.504,-20.996,-46.875,-10.254,0.000
1728618953.347,-9.277,-21.973,-20.020,-11.230,0.000
1728618953.351,-102.051,-19.531,7.812,-11.230,0.000
1728618953.355,-48.340,-18.066,8.789,-14.648,0.000
1728618953.359,43.945,-19.531,-4.395,-19.531,0.000
1728618953.363,39.551,-19.531,-10.254,-20.996,0.000
1728618953.367,-1.953,-19.531,-13.184,-10.254,0.000
1728618953.371,-85.449,-19.043,-27.832,-6.348,0.000
1728618953.375,-46.875,-17.090,-29.297,-12.695,0.000
1728618953.379,61.523,-21.484,-16.113,-2.930,0.000
1728618953.383,69.336,-22.461,-18.066,15.625,0.000
1728618953.387,16.602,-20.508,-42.480,8.301,0.000
1728618953.391,-80.078,-17.090,-32.227,-17.578,0.000
1728618953.395,-79.590,-20.996,-17.090,-32.715,0.000
1728618953.398,25.879,-19.531,-15.625,-26.855,0.000
1728618953.402,48.340,-17.090,-11.719,-17.578,0.000
1728618953.406,18.066,-17.090,-18.066,1.953,0.000
1728618953.410,-67.871,-15.625,-12.695,7.324,0.000
1728618953.414,-81.055,-14.160,-10.254,-15.137,0.000
1728618953.418,30.273,-12.695,-20.020,-20.020,0.000
1728618953.422,50.781,-17.090,-34.668,-17.090,0.000
1728618953.426,9.277,-19.043,-42.969,-12.695,0.000
1728618953.430,-73.730,-16.602,-40.039,-13.184,0.000
1728618953.434,-87.891,-16.113,-31.738,-24.414,0.000
1728618953.438,25.391,-24.414,-14.160,-25.391,0.000
1728618953.441,49.805,-25.391,-13.184,-23.438,0.000
1728618953.445,-4.395,-23.438,-40.527,-36.133,0.000
1728618953.449,-86.914,-24.414,-46.875,-39.551,0.000
1728618953.453,-110.840,-24.902,-34.668,-43.945,0.000
1728618953.457,0.488,-25.879,-36.133,-39.551,0.000
1728618953.461,43.945,-29.297,-34.668,-26.855,0.000
1728618953.465,15.625,-21.484,-40.039,-31.250,0.000
1728618953.469,-58.594,-18.555,-37.598,-28.320,0.000
1728618953.473,-109.863,-22.949,-24.414,-19.531,0.000
1728618953.477,-11.230,-22.461,-15.137,-27.832,0.000
1728618953.480,50.293,-19.043,-38.086,-21.484,0.000
1728618953.484,26.855,-20.996,-55.664,-12.695,0.000
1728618953.488,-42.969,-24.414,-25.879,-19.531,0.000
1728618953.492,-107.910,-21.484,-6.348,-24.414,0.000
1728618953.496,-28.320,-20.508,-7.812,-30.762,0.000
1728618953.500,41.992,-19.531,-15.137,-27.832,0.000
1728618953.504,17.578,-23.926,-20.996,-20.020,0.000
1728618953.508,-42.969,-30.273,-36.133,-25.391,0.000
1728618953.512,-112.793,-27.832,-61.035,-33.691,0.000
1728618953.516,-44.922,-25.879,-61.035,-33.203,0.000
1728618953.519,35.156,-26.855,-41.016,-30.762,0.000
1728618953.523,19.531,-29.297,-25.879,-28.809,0.000
1728618953.527,-29.297,-33.203,-21.973,-25.879,0.000
1728618953.531,-107.910,-34.668,-19.043,-26.367,0.000
1728618953.535,-59.570,-32.715,-37.109,-30.762,0.000
1728618953.539,36.621,-30.273,-57.129,-13.184,0.000
1728618953.543,35.156,-30.762,-46.387,-10.742,0.000
1728618953.547,-23.438,-35.156,-32.715,-11.719,0.000
1728618953.551,-120.117,-31.250,-22.949,-12.695,0.000
1728618953.554,-80.566,-29.785,-21.973,-28.320,0.000
1728618953.558,26.855,-28.320,-25.391,-24.414,0.000
1728618953.562,34.180,-23.438,-34.180,-16.602,0.000
1728618953.566,-5.859,-24.414,-34.668,-15.625,0.000
1728618953.570,-97.656,-27.344,-25.391,-19.531,0.000
1728618953.574,-73.242,-21.484,-19.043,-20.508,0.000
1728618953.578,38.574,-18.066,-22.949,-12.207,0.000
1728618953.581,50.781,-20.020,-33.203,-2.930,0.000
1728618953.585,11.719,-25.391,-26.367,-12.695,0.000
1728618953.589,-83.496,-26.367,-27.344,-29.297,0.000
1728618953.593,-83.984,-28.320,-24.414,-29.297,0.000
1728618953.597,11.719,-30.273,-26.367,-30.273,0.000
1728618953.601,15.137,-33.203,-31.738,-33.203,0.000
1728618953.605,-19.043,-32.715,-51.270,-31.250,0.000
1728618953.609,-104.004,-26.855,-50.293,-31.250,0.000
1728618953.612,-113.770,-26.855,-15.625,-41.016,0.000
1728618953.616,2.441,-25.391,-10.254,-42.480,0.000
1728618953.620,27.832,-25.391,-23.438,-36.133,0.000
1728618953.624,-5.371,-25.879,-24.414,-25.391,0.000
1728618953.628,-84.961,-22.461,-10.254,-30.762,0.000
1728618953.632,-124.023,-19.531,-10.254,-52.734,0.000
1728618953.636,-14.160,-20.020,-25.391,-38.574,0.000
1728618953.639,31.738,-19.043,-43.457,-17.578,0.000
1728618953.643,-10.254,-20.996,-24.414,-30.273,0.000
1728618953.647,-84.473,-20.996,-8.789,-37.109,0.000
1728618953.651,-122.559,-20.996,-22.461,-51.270,0.000
1728618953.655,-24.414,-26.367,-32.227,-52.734,0.000
1728618953.658,28.809,-25.391,-34.180,-36.621,0.000
1728618953.662,6.348,-24.414,-25.391,-33.203,0.000
1728618953.666,-62.988,-25.879,-25.391,-34.180,0.000
1728618953.670,-122.559,-23.438,-30.273,-30.273,0.000
1728618953.674,-34.180,-21.484,-22.461,-22.949,0.000
1728618953.678,36.621,-21.484,-22.461,-17.090,0.000
1728618953.682,24.414,-18.066,-31.250,-15.137,0.000
1728618953.686,-38.086,-14.648,-33.203,-20.508,0.000
1728618953.690,-103.516,-19.531,-33.203,-29.785,0.000
1728618953.693,-36.133,-22.461,-30.273,-20.020,0.000
1728618953.697,33.691,-26.367,-22.949,-16.113,0.000
1728618953.701,34.180,-26.367,-15.137,-4.883,0.000
1728618953.704,-32.715,-28.809,-11.719,-10.254,0.000
1728618953.708,-130.859,-34.180,-21.973,-30.273,0.000
1728618953.712,-72.754,-31.738,-27.832,-32.715,0.000
1728618953.716,25.879,-28.320,-31.250,-23.926,0.000
1728618953.720,27.344,-27.344,-20.508,-16.602,0.000
1728618953.724,-19.531,-27.832,-12.695,-4.883,0.000
1728618953.728,-109.375,-25.879,-20.508,-6.348,0.000
1728618953.732,-71.289,-24.902,-36.133,-18.066,0.000
1728618953.736,42.969,-26.367,-45.898,-14.160,0.000
1728618953.740,48.340,-24.902,-40.527,-4.883,0.000
1728618953.744,2.441,-24.414,-34.180,-5.859,0.000
1728618953.747,-89.844,-29.297,-21.973,-20.508,0.000
1728618953.752,-65.430,-29.297,-23.438,-13.184,0.000
1728618953.756,44.922,-28.809,-33.203,-1.465,0.000
1728618953.760,55.664,-27.832,-38.574,0.977,0.000
1728618953.764,17.090,-28.809,-36.621,0.488,0.000
1728618953.767,-74.219,-34.668,-29.297,-5.859,0.000
1728618953.771,-70.312,-29.785,-28.809,-6.348,0.000
1728618953.775,35.156,-27.832,-26.855,-20.020,0.000
1728618953.779,42.969,-29.297,-13.672,-27.832,0.000
1728618953.783,4.883,-29.297,-28.320,-18.555,0.000
1728618953.787,-70.801,-27.832,-44.922,-9.277,0.000
1728618953.791,-83.496,-26.367,-25.879,-25.391,0.000
1728618953.795,24.902,-23.926,-13.184,-27.344,0.000
1728618953.799,54.688,-19.531,-38.086,-15.137,0.000
1728618953.803,22.461,-16.113,-56.152,-10.254,0.000
1728618953.807,-51.758,-10.742,-33.203,-3.418,0.000
1728618953.811,-79.102,-13.672,-10.742,-8.789,0.000
1728618953.815,17.090,-19.043,-10.254,-20.996,0.000
1728618953.819,47.852,-19.043,-17.090,-11.230,0.000
1728618953.822,22.461,-20.996,-27.344,-5.859,0.000
1728618953.826,-43.457,-20.020,-26.367,-8.789,0.000
1728618953.830,-88.867,-19.531,-19.043,-11.719,0.000
1728618953.834,-0.488,-24.414,-16.113,-14.160,0.000
1728618953.838,45.898,-24.902,-26.367,-19.043,0.000
1728618953.842,26.367,-21.973,-46.875,-20.508,0.000
1728618953.846,-47.363,-23.926,-27.832,-21.973,0.000
1728618953.850,-104.980,-24.902,-12.207,-22.461,0.000
1728618953.854,-6.836,-23.926,-14.160,-17.090,0.000
1728618953.858,51.758,-22.949,-31.738,-20.508,0.000
1728618953.862,25.391,-22.949,-38.086,-19.531,0.000
1728618953.866,-43.457,-21.484,-26.855,-18.555,0.000
1728618953.869,-110.352,-22.949,-13.184,-23.926,0.000
1728618953.873,-34.668,-27.832,-9.277,-21.484,0.000
1728618953.877,43.945,-22.949,-20.996,-10.742,0.000
1728618953.881,21.973,-24.414,-27.832,-21.484,0.000
1728618953.885,-38.574,-24.902,-21.484,-32.227,0.000
1728618953.889,-113.281,-22.461,-41.992,-32.227,0.000
1728618953.893,-56.152,-23.926,-51.270,-29.785,0.000
1728618953.897,31.250,-23.438,-26.855,-33.203,0.000
1728618953.901,21.973,-24.414,-11.719,-41.016,0.000
1728618953.904,-30.762,-26.367,-7.812,-34.668,0.000
1728618953.908,-113.770,-26.855,-16.602,-29.785,0.000
1728618953.912,-65.430,-23.438,-26.367,-29.785,0.000
1728618953.916,29.785,-25.879,-35.156,-26.367,0.000
1728618953.920,25.391,-24.414,-34.180,-16.602,0.000
1728618953.924,-26.855,-25.879,-26.855,-17.090,0.000
1728618953.928,-101.562,-29.297,-11.230,-22.949,0.000
1728618953.932,-67.871,-25.391,-6.836,-24.414,0.000
1728618953.936,25.391,-26.367,-12.695,-33.691,0.000
1728618953.941,30.762,-29.785,-18.066,-39.062,0.000
1728618953.945,-3.418,-27.344,-19.043,-20.020,0.000
1728618953.949,-101.562,-30.762,-13.184,-18.555,0.000
1728618953.953,-96.191,-35.645,-25.391,-32.227,0.000
1728618953.956,18.555,-32.715,-31.250,-25.879,0.000
1728618953.960,31.250,-28.809,-18.555,-14.648,0.000
1728618953.964,-5.859,-25.391,-13.184,-14.160,0.000
1728618953.968,-91.309,-25.879,-23.926,-26.855,0.000
1728618953.972,-103.516,-28.320,-36.133,-36.133,0.000
1728618953.976,4.395,-28.809,-37.109,-30.273,0.000
1728618953.980,36.621,-28.809,-28.809,-29.785,0.000
1728618953.984,9.766,-21.484,-20.996,-22.461,0.000
1728618953.987,-75.684,-23.438,-16.113,-15.625,0.000
1728618953.991,-98.633,-26.367,-15.137,-23.438,0.000
1728618953.995,19.531,-19.531,-30.273,-20.508,0.000
1728618953.999,58.594,-21.484,-21.484,-15.137,0.000
1728618954.003,22.461,-24.414,-15.625,-16.602,0.000
1728618954.007,-63.477,-21.484,-21.973,-20.508,0.000
1728618954.011,-109.375,-20.996,-8.301,-28.320,0.000
1728618954.014,-9.277,-21.973,-12.695,-23.926,0.000
1728618954.018,41.504,-20.996,-32.715,-14.160,0.000
1728618954.022,9.277,-21.484,-15.625,-13.672,0.000
1728618954.026,-72.266,-24.902,-9.766,-16.602,0.000
1728618954.030,-126.465,-27.344,-28.809,-20.996,0.000
1728618954.033,-20.508,-23.926,-28.320,-25.391,0.000
1728618954.037,41.016,-23.438,-13.672,-16.602,0.000
1728618954.041,16.602,-26.855,-8.789,-16.602,0.000
1728618954.045,-47.363,-28.809,-16.113,-20.020,0.000
1728618954.049,-120.117,-29.785,-20.020,-27.344,0.000
1728618954.053,-33.203,-21.973,-21.973,-26.367,0.000
1728618954.057,42.969,-21.973,-37.598,-12.695,0.000
1728618954.061,25.391,-27.832,-36.133,-26.367,0.000
1728618954.065,-35.156,-28.809,-11.719,-47.363,0.000
1728618954.068,-113.770,-28.320,-13.672,-43.457,0.000
1728618954.072,-41.016,-31.738,-32.227,-41.504,0.000
1728618954.076,35.156,-29.785,-29.785,-37.109,0.000
1728618954.079,27.832,-27.832,-24.414,-19.531,0.000
1728618954.083,-24.414,-30.273,-41.504,-18.066,0.000
1728618954.087,-122.070,-25.391,-45.410,-25.879,0.000
1728618954.091,-64.941,-23.438,-27.344,-25.391,0.000
1728618954.095,34.668,-32.227,-23.926,-22.949,0.000
1728618954.099,28.320,-30.762,-28.320,-24.414,0.000
1728618954.103,-9.277,-25.391,-18.066,-22.461,0.000
1728618954.107,-97.656,-27.832,-0.488,-16.113,0.000
1728618954.111,-64.453,-32.227,0.977,-15.625,0.000
1728618954.115,39.551,-29.785,-5.859,-20.996,0.000
1728618954.118,43.945,-25.391,-14.160,-14.160,0.000
1728618954.122,16.113,-19.531,-36.133,1.465,0.000
1728618954.127,-77.637,-16.602,-36.133,-4.883,0.000
1728618954.131,-73.242,-20.020,-23.926,-20.020,0.000
1728618954.135,36.621,-20.020,-20.996,-20.020,0.000
1728618954.138,46.875,-20.508,-30.762,-25.391,0.000
1728618954.142,4.883,-16.113,-38.574,-20.508,0.000
1728618954.146,-83.496,-21.484,-41.016,-8.301,0.000
1728618954.150,-84.961,-23.438,-35.156,-15.625,0.000
1728618954.154,30.273,-20.996,-23.926,-23.438,0.000
1728618954.158,48.828,-19.043,-15.137,-19.531,0.000
1728618954.162,4.395,-21.973,-9.277,-6.348,0.000
1728618954.166,-79.590,-26.855,-20.508,-0.488,0.000
1728618954.170,-95.215,-23.438,-25.391,-9.277,0.000
1728618954.174,17.090,-21.973,-14.160,-21.973,0.000
1728618954.178,48.340,-20.508,-9.766,-21.973,0.000
1728618954.182,6.836,-19.531,-17.578,-25.391,0.000
1728618954.186,-68.848,-20.508,-27.832,-20.020,0.000
1728618954.190,-92.285,-20.996,-31.250,-17.578,0.000
1728618954.193,6.348,-22.949,-48.340,-23.926,0.000
1728618954.197,44.434,-24.414,-37.109,-15.625,0.000
1728618954.201,17.090,-20.996,-25.879,-11.719,0.000
1728618954.205,-55.176,-20.996,-49.316,-12.695,0.000
1728618954.209,-107.910,-26.367,-40.527,-14.648,0.000
1728618954.213,-17.090,-26.367,-9.766,-25.879,0.000
1728618954.217,34.180,-27.344,0.977,-24.902,0.000
1728618954.221,7.324,-25.391,-8.789,-19.531,0.000
1728618954.225,-58.105,-28.320,-21.484,-19.043,0.000
1728618954.229,-113.770,-35.645,-28.320,-19.531,0.000
1728618954.233,-21.973,-33.203,-32.227,-17.090,0.000
1728618954.237,51.270,-27.344,-49.316,-13.672,0.000
1728618954.240,40.527,-19.043,-64.941,-8.789,0.000
1728618954.244,-25.879,-20.996,-30.762,-15.137,0.000
1728618954.248,-105.469,-33.203,15.137,-25.879,0.000
1728618954.252,-37.598,-34.668,15.625,-24.902,0.000
1728618954.256,40.039,-27.832,-4.883,-22.461,0.000
1728618954.260,33.203,-27.832,-17.090,-20.020,0.000
1728618954.264,-17.578,-26.855,-19.531,-9.766,0.000
1728618954.268,-99.121,-25.391,-24.902,-11.719,0.000
1728618954.272,-43.457,-27.832,-28.320,-19.531,0.000
1728618954.275,47.852,-20.996,-21.484,-15.625,0.000
1728618954.279,31.738,-21.973,-17.578,-12.695,0.000
1728618954.283,-23.438,-25.391,-24.414,-18.066,0.000
1728618954.287,-108.887,-23.438,-27.832,-20.996,0.000
1728618954.291,-69.336,-23.926,-21.973,-24.902,0.000
1728618954.295,30.273,-21.973,-19.531,-20.020,0.000
1728618954.299,35.645,-24.414,-17.090,-14.648,0.000
1728618954.303,-9.766,-24.902,-17.090,-22.461,0.000
1728618954.307,-104.492,-24.414,-21.973,-28.809,0.000
1728618954.311,-78.613,-26.855,-24.902,-28.809,0.000
1728618954.314,32.227,-27.344,-27.832,-26.855,0.000
1728618954.318,37.109,-24.414,-42.480,-33.203,0.000
1728618954.322,-3.418,-26.855,-40.527,-27.832,0.000
1728618954.326,-89.355,-29.297,-25.391,-28.809,0.000
1728618954.330,-91.309,-30.273,-32.715,-42.969,0.000
1728618954.334,19.043,-25.391,-31.738,-36.133,0.000
1728618954.338,37.109,-24.902,-23.926,-22.461,0.000
1728618954.342,-0.977,-29.297,-23.438,-17.090,0.000
1728618954.346,-86.914,-31.250,-28.320,-27.832,0.000
1728618954.349,-102.539,-33.203,-35.156,-36.133,0.000
1728618954.353,8.301,-28.809,-37.109,-23.926,0.000
1728618954.357,41.992,-24.902,-37.598,-20.508,0.000
1728618954.361,-1.465,-29.785,-38.086,-34.668,0.000
1728618954.365,-96.680,-31.738,-42.480,-41.016,0.000
1728618954.369,-111.816,-28.320,-40.527,-36.621,0.000
1728618954.372,-1.953,-28.809,-39.062,-32.227,0.000
1728618954.376,26.855,-27.832,-37.109,-27.344,0.000
1728618954.380,9.766,-20.996,-30.762,-25.879,0.000
1728618954.384,-55.176,-21.484,-29.785,-30.762,0.000
1728618954.388,-115.234,-29.785,-32.715,-34.180,0.000
1728618954.392,-23.926,-29.297,-32.227,-39.062,0.000
1728618954.396,31.738,-25.391,-31.738,-28.809,0.000
1728618954.400,4.395,-28.320,-34.180,-24.414,0.000
1728618954.404,-64.941,-29.785,-32.227,-32.227,0.000
1728618954.407,-124.023,-27.344,-37.109,-28.320,0.000
1728618954.411,-32.715,-27.832,-39.551,-27.344,0.000
1728618954.415,37.109,-22.949,-40.527,-24.902,0.000
1728618954.419,23.438,-20.996,-47.852,-23.926,0.000
1728618954.423,-39.062,-21.973,-46.875,-27.344,0.000
1728618954.427,-112.305,-20.996,-34.668,-28.320,0.000
1728618954.431,-32.715,-25.391,-20.508,-17.090,0.000
1728618954.434,46.875,-23.438,-22.461,-19.531,0.000
1728618954.438,33.691,-21.973,-31.250,-36.621,0.000
1728618954.442,-23.438,-29.297,-31.738,-32.227,0.000
1728618954.446,-111.328,-34.180,-38.574,-39.062,0.000
1728618954.450,-56.641,-33.203,-36.133,-43.457,0.000
1728618954.453,31.250,-30.762,-33.203,-36.621,0.000
1728618954.457,27.832,-31.250,-34.180,-31.738,0.000
1728618954.461,-20.020,-33.203,-37.109,-22.461,0.000
1728618954.465,-113.770,-32.227,-38.574,-21.484,0.000
1728618954.469,-75.195,-30.273,-35.645,-28.809,0.000
1728618954.473,36.133,-21.973,-31.738,-22.949,0.000
1728618954.477,45.410,-21.973,-26.367,-15.137,0.000
1728618954.481,-5.859,-23.926,-20.996,-20.508,0.000
1728618954.485,-99.609,-25.391,-20.020,-29.297,0.000
1728618954.488,-72.266,-23.926,-20.020,-31.250,0.000
1728618954.492,39.062,-21.973,-16.113,-15.625,0.000
1728618954.496,47.363,-20.020,-14.160,-8.301,0.000
1728618954.501,2.441,-18.066,-17.578,-17.090,0.000
1728618954.505,-80.078,-21.973,-22.949,-16.602,0.000
1728618954.509,-83.008,-21.973,-33.691,-21.973,0.000
1728618954.512,22.461,-20.508,-39.062,-20.508,0.000
1728618954.516,41.016,-20.996,-37.598,-15.137,0.000
1728618954.520,4.395,-19.043,-41.016,-18.066,0.000
1728618954.524,-83.008,-18.555,-32.227,-22.949,0.000
1728618954.528,-98.633,-20.020,-16.602,-28.320,0.000
1728618954.532,13.184,-21.484,-15.137,-30.273,0.000
1728618954.536,39.551,-26.855,-17.578,-16.602,0.000
1728618954.540,5.859,-27.832,-12.207,-20.508,0.000
1728618954.544,-67.383,-20.996,-13.184,-25.879,0.000
1728618954.548,-85.449,-18.066,-18.555,-16.113,0.000
1728618954.552,19.531,-19.043,-21.484,-17.090,0.000
1728618954.556,48.340,-16.602,-25.391,-19.043,0.000
1728618954.560,14.648,-17.578,-22.949,-20.996,0.000
1728618954.564,-64.453,-27.344,-26.367,-25.391,0.000
1728618954.568,-112.305,-29.297,-26.855,-22.949,0.000
1728618954.571,-9.766,-22.949,-28.320,-21.973,0.000
1728618954.575,46.875,-17.090,-28.320,-21.973,0.000
1728618954.579,23.926,-20.020,-21.973,-24.414,0.000
1728618954.583,-57.129,-24.414,-26.855,-25.391,0.000
1728618954.587,-120.605,-24.902,-33.203,-41.504,0.000
1728618954.591,-17.578,-19.043,-26.855,-42.480,0.000
1728618954.595,48.828,-21.973,-27.344,-16.602,0.000
1728618954.599,19.043,-24.902,-29.785,-20.508,0.000
1728618954.603,-41.992,-21.973,-36.133,-23.926,0.000
1728618954.607,-102.539,-22.949,-38.086,-18.555,0.000
1728618954.611,-24.414,-19.043,-27.832,-21.484,0.000
1728618954.615,52.734,-18.555,-24.414,-15.625,0.000
1728618954.619,40.039,-20.508,-24.902,-11.230,0.000
1728618954.622,-18.066,-16.602,-20.996,-6.836,0.000
1728618954.626,-89.844,-14.160,-18.066,-1.953,0.000
1728618954.630,-26.367,-17.090,-20.508,-15.625,0.000
1728618954.634,56.641,-17.090,-15.625,-24.902,0.000
1728618954.638,46.387,-14.648,-12.695,-30.273,0.000
1728618954.642,-8.789,-18.555,-21.484,-25.879,0.000
1728618954.646,-97.656,-18.066,-21.973,-23.438,0.000
1728618954.650,-53.711,-17.090,-25.879,-28.809,0.000
1728618954.654,47.852,-18.555,-29.297,-17.090,0.000
1728618954.658,42.969,-14.648,-18.066,-11.230,0.000
1728618954.662,-5.859,-13.184,-10.254,-16.602,0.000
1728618954.665,-85.449,-15.625,-6.836,-16.113,0.000
1728618954.669,-60.059,-17.090,-13.184,-15.625,0.000
1728618954.673,37.109,-16.602,-12.207,-7.324,0.000
1728618954.677,43.457,-17.090,-7.324,-19.531,0.000
1728618954.681,2.930,-16.113,-13.184,-17.090,0.000
1728618954.685,-85.449,-14.160,-15.137,-3.906,0.000
1728618954.689,-69.824,-14.648,-10.254,0.977,0.000
1728618954.693,47.363,-14.160,-4.395,-6.836,0.000
1728618954.696,51.270,-16.113,2.441,-33.691,0.000
1728618954.700,-9.277,-21.973,-8.301,-39.062,0.000
1728618954.704,-93.750,-25.879,-17.090,-26.367,0.000
1728618954.708,-84.961,-28.320,-20.508,-20.996,0.000
1728618954.712,30.762,-26.855,-24.414,-14.648,0.000
1728618954.716,48.828,-29.785,-6.836,-13.184,0.000
1728618954.720,-2.930,-33.203,4.395,-27.832,0.000
1728618954.724,-83.496,-27.344,-14.160,-34.180,0.000
1728618954.728,-110.840,-29.785,-5.371,-50.781,0.000
1728618954.732,-7.324,-35.156,10.254,-49.316,0.000
1728618954.735,41.504,-17.090,-8.789,-31.250,0.000
1728618954.739,-28.320,-27.832,19.043,-72.754,0.000
1728618954.743,-104.492,-52.246,3.418,-62.012,0.000
1728618954.747,-89.844,-17.090,-41.504,1.465,0.000
1728618954.751,-2.441,-10.254,-35.156,-34.668,0.000
1728618954.755,33.691,-28.809,-18.066,-57.617,0.000
1728618954.759,13.672,-34.180,-4.395,-26.367,0.000
1728618954.762,-76.660,-46.387,27.344,-21.484,0.000
1728618954.766,-108.398,-29.297,-8.789,-5.859,0.000
1728618954.770,-17.090,-20.996,-41.016,-22.461,0.000
1728618954.774,46.875,-11.230,7.324,-28.320,0.000
1728618954.778,48.340,1.465,21.973,-5.371,0.000
1728618954.782,-53.711,-32.227,45.898,-20.020,0.000
1728618954.785,-105.957,-17.090,11.719,-3.906,0.000
1728618954.789,6.348,11.719,-0.488,-2.930,0.000
1728618954.793,66.406,-9.766,26.367,7.812,0.000
1728618954.797,46.387,-23.438,-7.324,11.230,0.000
1728618954.801,-10.254,-18.066,-16.602,-13.184,0.000
1728618954.805,-100.586,-20.996,-5.371,-25.879,0.000
1728618954.809,-51.758,-33.203,16.602,-31.250,0.000
1728618954.813,37.109,-33.691,7.812,-33.203,0.000
1728618954.817,61.035,-19.531,-49.316,-28.809,0.000
1728618954.821,3.418,-23.438,-49.805,-15.625,0.000
1728618954.825,-113.770,-31.738,-95.703,-16.113,0.000
1728618954.828,-48.340,-23.926,-153.809,-12.695,0.000
1728618954.832,55.664,-21.973,-158.203,-9.277,0.000
1728618954.836,41.992,-28.809,-178.711,-20.020,0.000
1728618954.840,9.766,-14.160,-275.879,-3.418,0.000
1728618954.843,-95.215,-20.508,-317.871,-28.809,0.000
1728618954.847,-71.289,-42.480,-325.684,-59.082,0.000
1728618954.851,42.480,-40.527,-441.406,-30.273,0.000
1728618954.855,25.879,-46.387,-502.930,-25.391,0.000
1728618954.859,-31.738,-44.434,-535.156,-41.016,0.000
1728618954.863,-136.230,-56.641,-575.195,-56.641,0.000
1728618954.867,-102.539,-45.898,-643.555,-37.109,0.000
1728618954.871,49.805,-14.648,-748.535,21.973,0.000
1728618954.875,70.312,-12.207,-827.148,13.672,0.000
1728618954.879,17.578,-25.879,-890.137,-11.719,0.000
1728618954.883,-117.188,-43.945,-942.871,-27.344,0.000
1728618954.887,-108.887,-36.133,-993.652,-32.715,0.000
1728618954.891,41.016,-33.691,-1000.000,-30.273,0.000
1728618954.895,65.918,-31.738,-998.535,-5.371,0.000
1728618954.899,17.090,-29.785,-1000.000,1.465,0.000
1728618954.903,-102.051,-45.410,-1000.000,-38.086,0.000
1728618954.907,-133.301,-50.781,-1000.000,-44.434,0.000
1728618954.911,28.809,-22.461,-1000.000,2.930,0.000
1728618954.914,67.871,-21.973,-1000.000,-20.020,0.000
1728618954.918,-5.859,-46.387,-1000.000,-48.340,0.000
1728618954.923,-87.402,-47.852,-1000.000,-11.230,0.000
1728618954.927,-101.562,-37.109,-1000.000,-7.324,0.000
1728618954.930,9.277,-38.086,-1000.000,-17.090,0.000
1728618954.934,58.594,-39.062,-1000.000,-1.953,0.000
1728618954.938,32.227,-34.180,-1000.000,1.465,0.000
1728618954.942,-60.547,-43.457,-1000.000,-11.719,0.000
1728618954.946,-122.559,-49.316,-1000.000,-33.691,0.000
1728618954.950,-22.461,-52.734,-1000.000,-39.551,0.000
1728618954.954,40.527,-45.410,-1000.000,-15.625,0.000
1728618954.958,18.555,-40.527,-1000.000,-23.438,0.000
1728618954.962,-82.031,-47.852,-1000.000,-78.613,0.000
1728618954.966,-125.000,-32.227,-1000.000,-34.668,0.000
1728618954.970,-19.043,-38.086,-1000.000,-6.348,0.000
1728618954.974,18.555,-51.758,-1000.000,-34.180,0.000
1728618954.978,20.996,-26.855,-1000.000,-7.812,0.000
1728618954.981,-16.602,-21.973,-1000.000,2.930,0.000
1728618954.985,-110.352,-35.156,-1000.000,-31.738,0.000
1728618954.989,-43.457,-32.715,-1000.000,-37.598,0.000
1728618954.993,54.199,-21.973,-999.023,0.488,0.000
1728618954.997,41.504,-20.020,-1000.000,4.883,0.000
1728618955.001,-13.672,-18.066,-976.074,-1.465,0.000
1728618955.005,-108.887,-25.879,-925.781,-15.625,0.000
1728618955.009,-36.133,-23.926,-899.902,-13.184,0.000
1728618955.013,62.500,-18.555,-852.051,0.000,0.000
1728618955.017,49.805,-19.043,-804.688,-0.488,0.000
1728618955.021,0.000,-16.602,-768.066,2.441,0.000
1728618955.024,-93.262,-15.625,-741.211,-6.348,0.000
1728618955.028,-53.223,-12.207,-713.867,-19.043,0.000
1728618955.032,49.805,-10.254,-666.504,-17.578,0.000
1728618955.036,64.941,-4.883,-620.605,0.000,0.000
1728618955.040,22.949,-0.977,-566.895,3.418,0.000
1728618955.044,-76.172,-11.719,-521.484,-3.906,0.000
1728618955.048,-62.988,-22.949,-466.797,0.000,0.000
1728618955.052,37.109,-15.137,-388.184,0.488,0.000
1728618955.056,47.852,-9.766,-285.156,-0.488,0.000
1728618955.060,18.066,-10.742,-97.168,8.789,0.000
1728618955.063,-74.707,-11.230,139.160,1.953,0.000
1728618955.067,-73.242,-18.066,356.934,-9.766,0.000
1728618955.071,32.227,-20.996,564.453,-16.602,0.000
1728618955.075,30.762,-30.273,809.570,-23.438,0.000
1728618955.079,-12.695,-41.016,960.449,-27.832,0.000
1728618955.083,-89.355,-37.598,966.309,-28.809,0.000
1728618955.087,-99.609,-29.297,965.332,-37.598,0.000
1728618955.091,1.953,-39.062,968.750,-42.969,0.000
1728618955.095,25.391,-47.852,968.262,-43.945,0.000
1728618955.098,-5.859,-40.039,968.262,-42.969,0.000
1728618955.102,-93.750,-41.992,967.773,-43.945,0.000
1728618955.106,-133.301,-42.969,967.773,-66.406,0.000
1728618955.110,-23.438,-39.062,968.262,-60.059,0.000
1728618955.114,28.809,-41.504,968.262,-39.551,0.000
1728618955.118,4.395,-43.945,968.262,-62.012,0.000
1728618955.122,-83.496,-44.434,968.262,-56.641,0.000
1728618955.125,-127.930,-42.969,968.262,-50.293,0.000
1728618955.129,-29.785,-46.875,968.262,-65.918,0.000
1728618955.133,18.555,-50.781,968.262,-65.918,0.000
1728618955.137,-13.672,-47.852,968.262,-62.012,0.000
1728618955.141,-72.266,-45.410,968.262,-53.711,0.000
1728618955.145,-125.000,-41.992,968.262,-57.129,0.000
1728618955.149,-38.574,-41.992,968.262,-62.500,0.000
1728618955.153,37.598,-32.715,968.262,-42.480,0.000
1728618955.156,26.367,-21.484,968.262,-25.879,0.000
1728618955.160,-48.828,-36.133,968.262,-23.926,0.000
1728618955.164,-134.766,-47.852,966.309,-46.387,0.000
1728618955.168,-66.406,-45.898,970.215,-64.453,0.000
1728618955.172,15.625,-34.668,937.012,-51.270,0.000
1728618955.176,14.160,-25.879,854.492,-41.016,0.000
1728618955.180,-45.898,-28.809,791.504,-40.039,0.000
1728618955.184,-131.348,-30.762,738.770,-43.945,0.000
1728618955.188,-61.523,-26.855,714.844,-41.504,0.000
1728618955.191,33.691,-26.367,716.797,-41.992,0.000
1728618955.195,22.461,-31.250,708.496,-43.945,0.000
1728618955.199,-29.297,-32.715,683.105,-41.992,0.000
1728618955.203,-116.699,-32.227,663.086,-47.852,0.000
1728618955.206,-77.637,-36.621,659.180,-47.852,0.000
1728618955.210,21.484,-33.691,634.766,-41.504,0.000
1728618955.214,23.926,-25.391,594.238,-34.180,0.000
1728618955.218,-22.949,-29.297,558.105,-34.668,0.000
1728618955.222,-121.094,-36.133,526.367,-45.410,0.000
1728618955.226,-90.332,-32.715,484.375,-45.410,0.000
1728618955.230,20.996,-27.832,431.152,-20.020,0.000
1728618955.234,27.832,-21.484,420.410,-20.996,0.000
1728618955.238,-13.184,-28.809,416.504,-39.062,0.000
1728618955.242,-114.258,-42.480,387.695,-42.969,0.000
1728618955.246,-106.934,-36.133,371.094,-38.574,0.000
1728618955.251,19.531,-33.203,352.539,-34.180,0.000
1728618955.255,41.992,-36.133,324.219,-31.738,0.000
1728618955.259,-11.230,-38.086,290.039,-35.156,0.000
1728618955.263,-108.887,-36.133,270.508,-30.762,0.000
1728618955.267,-104.492,-29.297,237.793,-24.414,0.000
1728618955.271,10.254,-27.832,182.617,-20.996,0.000
1728618955.275,39.062,-28.809,177.246,-16.113,0.000
1728618955.279,6.836,-32.715,197.754,-25.879,0.000
1728618955.283,-81.543,-41.016,187.988,-29.297,0.000
1728618955.287,-112.793,-40.039,169.922,-25.391,0.000
1728618955.291,0.977,-33.203,158.691,-31.738,0.000
1728618955.294,42.480,-31.250,147.949,-25.391,0.000
1728618955.299,6.348,-37.598,128.418,-21.973,0.000
1728618955.303,-70.801,-39.062,108.398,-23.438,0.000
1728618955.306,-106.934,-32.715,93.262,-25.391,0.000
1728618955.310,2.930,-27.344,80.566,-18.066,0.000
1728618955.314,55.176,-21.973,54.199,-11.719,0.000
1728618955.318,33.691,-21.973,32.715,0.977,0.000
1728618955.322,-41.992,-34.180,56.641,-5.371,0.000
1728618955.326,-114.746,-37.109,83.008,-33.691,0.000
1728618955.330,-22.949,-28.320,79.102,-27.344,0.000
1728618955.334,41.992,-24.902,54.199,-20.508,0.000
1728618955.338,16.113,-23.438,29.297,-29.297,0.000
1728618955.342,-45.898,-21.973,23.438,-27.344,0.000
1728618955.346,-116.211,-25.391,32.227,-24.414,0.000
1728618955.350,-39.062,-27.344,26.855,-32.227,0.000
1728618955.353,43.457,-22.949,20.020,-31.738,0.000
1728618955.357,20.996,-21.484,10.254,-27.344,0.000
1728618955.361,-47.852,-21.484,6.836,-20.996,0.000
1728618955.365,-120.605,-21.484,6.348,-15.137,0.000
1728618955.369,-45.410,-25.391,-24.414,-22.461,0.000
1728618955.373,44.922,-21.484,-34.668,-19.043,0.000
1728618955.377,20.020,-21.973,-6.348,-18.555,0.000
1728618955.381,-38.574,-34.668,3.418,-31.738,0.000
1728618955.385,-118.164,-29.297,0.977,-36.621,0.000
1728618955.389,-62.012,-23.926,-6.348,-37.109,0.000
1728618955.393,0.000,-28.320,-21.484,-30.273,0.000
1728618955.396,0.000,-31.250,-33.203,-38.086,0.000
1728618955.400,0.000,-32.715,-26.855,-39.062,0.000
1728618955.404,0.000,-32.715,-11.230,-37.598,0.000
1728618955.408,0.000,-26.367,-20.020,-36.621,0.000
1728618955.412,0.000,-23.926,-31.738,-21.484,0.000
1728618955.416,0.000,-25.879,-25.879,-20.020,0.000
1728618955.420,0.000,-26.855,-15.625,-20.020,0.000
1728618955.424,0.000,-33.203,-14.648,-19.043,0.000
1728618955.428,0.000,-35.645,-28.809,-27.832,0.000
1728618955.432,0.000,-36.621,-43.457,-15.137,0.000
1728618955.436,0.000,-34.668,-39.551,-9.277,0.000
1728618955.439,-1.953,-32.715,-39.551,-17.090,0.000
1728618955.443,-88.867,-27.832,-37.598,-22.949,0.000
1728618955.447,-92.773,-23.926,-42.969,-26.855,0.000
1728618955.451,22.461,-22.461,-46.387,-19.043,0.000
1728618955.455,40.527,-25.391,-39.551,-22.461,0.000
1728618955.459,-1.465,-29.297,-52.734,-21.484,0.000
1728618955.463,-77.637,-27.832,-74.219,-11.230,0.000
1728618955.467,-97.656,-31.738,-65.918,-2.441,0.000
1728618955.470,2.441,-36.133,-39.062,-22.461,0.000
1728618955.474,42.969,-29.785,-27.832,-30.762,0.000
1728618955.478,18.066,-20.996,-34.180,-21.484,0.000
1728618955.482,-64.453,-21.484,-43.945,-16.602,0.000
1728618955.486,-96.680,-18.066,-47.852,-16.602,0.000
1728618955.490,7.324,-17.090,-54.688,-28.320,0.000
1728618955.493,46.875,-22.461,-49.316,-21.973,0.000
1728618955.497,21.484,-18.066,-53.223,-14.648,0.000
1728618955.501,-47.363,-15.625,-80.566,-21.484,0.000
1728618955.505,-100.098,-26.367,-56.152,-20.996,0.000
1728618955.509,-4.883,-32.227,-22.949,-17.090,0.000
1728618955.513,39.551,-31.738,-20.996,-16.602,0.000
1728618955.517,11.719,-32.227,-20.996,-21.973,0.000
1728618955.521,-52.734,-30.273,-22.461,-22.949,0.000
1728618955.525,-121.094,-28.320,-22.949,-27.344,0.000
1728618955.529,-37.598,-29.785,-30.762,-26.367,0.000
1728618955.532,32.227,-29.785,-41.504,-21.484,0.000
1728618955.536,16.602,-28.320,-41.504,-27.832,0.000
1728618955.540,-37.109,-27.832,-43.457,-21.484,0.000
1728618955.544,-97.656,-26.855,-50.293,6.348,0.000
1728618955.548,-38.086,-27.832,-48.340,2.441,0.000
1728618955.552,33.691,-28.809,-39.551,-19.043,0.000
1728618955.555,31.738,-31.250,-35.156,-16.602,0.000
1728618955.559,-16.602,-31.250,-38.574,-20.020,0.000
1728618955.563,-116.699,-34.180,-38.086,-36.621,0.000
1728618955.567,-72.754,-34.668,-47.852,-42.969,0.000
1728618955.571,22.461,-23.438,-53.711,-22.949,0.000
1728618955.575,22.949,-16.602,-34.668,-13.184,0.000
1728618955.578,-18.066,-18.555,-26.855,-27.832,0.000
1728618955.582,-100.098,-23.438,-32.715,-24.902,0.000
1728618955.586,-66.895,-25.391,-15.625,-22.461,0.000
1728618955.590,35.156,-19.531,-6.836,-15.625,0.000
1728618955.594,34.668,-16.602,-20.020,-9.766,0.000
1728618955.598,-1.465,-14.648,-9.766,-13.672,0.000
1728618955.602,-93.750,-24.902,-1.953,-18.066,0.000
1728618955.606,-87.891,-29.785,-6.348,-30.762,0.000
1728618955.610,32.227,-18.066,-13.184,-29.785,0.000
1728618955.614,45.898,-16.113,-5.859,-23.438,0.000
1728618955.617,11.230,-13.184,-20.508,-19.043,0.000
1728618955.621,-72.266,-7.812,-16.113,-19.531,0.000
1728618955.626,-76.172,-13.184,5.859,-36.621,0.000
1728618955.630,29.785,-18.555,-1.953,-36.621,0.000
1728618955.634,47.852,-14.648,-9.277,-30.762,0.000
1728618955.638,16.113,-12.207,-18.555,-30.762,0.000
1728618955.641,-71.777,-17.578,-27.832,-29.297,0.000
1728618955.645,-89.355,-20.996,-22.949,-25.391,0.000
1728618955.649,20.996,-20.996,-35.156,-30.762,0.000
1728618955.653,54.199,-20.508,-41.504,-27.832,0.000
1728618955.657,16.113,-25.391,-20.508,-18.555,0.000
1728618955.661,-83.008,-31.250,-11.719,-19.531,0.000
1728618955.665,-123.047,-29.785,-19.043,-32.715,0.000
1728618955.669,-8.301,-25.879,-30.273,-34.180,0.000
1728618955.673,39.551,-18.555,-56.152,-17.578,0.000
1728618955.677,6.836,-20.020,-47.363,-16.113,0.000
1728618955.681,-66.895,-27.344,-12.207,-20.020,0.000
1728618955.685,-116.699,-27.832,-3.418,-33.203,0.000
1728618955.689,-23.926,-33.691,-22.461,-35.645,0.000
1728618955.693,33.203,-32.227,-39.062,-25.879,0.000
1728618955.696,3.418,-30.273,-29.785,-23.438,0.000
1728618955.700,-66.406,-31.250,-24.902,-24.902,0.000
1728618955.704,-121.582,-27.344,-31.738,-18.555,0.000
1728618955.708,-28.809,-27.832,-33.691,-13.184,0.000
1728618955.712,43.945,-26.367,-28.809,-20.508,0.000
1728618955.716,18.066,-29.785,-20.508,-21.973,0.000
1728618955.720,-42.969,-33.203,-17.090,-18.066,0.000
1728618955.724,-115.234,-28.809,-14.648,-26.855,0.000
1728618955.728,-47.852,-26.855,-17.090,-21.973,0.000
1728618955.732,32.715,-27.832,-18.555,-15.137,0.000
1728618955.736,21.973,-31.250,-15.137,-21.973,0.000
1728618955.740,-34.668,-29.297,-23.438,-25.879,0.000
1728618955.744,-118.164,-26.367,-29.785,-26.855,0.000
1728618955.747,-56.641,-25.879,-16.602,-23.926,0.000
1728618955.751,43.457,-20.020,-16.602,-4.395,0.000
1728618955.755,35.156,-18.555,-20.020,-2.441,0.000
1728618955.759,-14.160,-19.531,-11.719,-10.742,0.000
1728618955.763,-98.633,-20.508,-11.230,-8.789,0.000
1728618955.767,-55.664,-20.996,-18.555,-11.230,0.000
1728618955.771,44.434,-20.020,-29.785,-13.672,0.000
1728618955.775,42.969,-18.066,-32.227,-16.602,0.000
1728618955.779,-8.789,-23.438,-34.180,-20.996,0.000
1728618955.783,-104.980,-30.762,-51.270,-25.879,0.000
1728618955.787,-79.590,-29.297,-58.105,-13.672,0.000
1728618955.790,34.180,-32.715,-38.086,-6.348,0.000
1728618955.794,43.457,-34.668,-22.461,-16.113,0.000
1728618955.798,-7.324,-36.621,-16.113,-13.184,0.000
1728618955.802,-105.469,-38.574,-5.859,-24.902,0.000
1728618955.806,-99.121,-34.180,-5.859,-32.227,0.000
1728618955.810,12.695,-33.203,-13.184,-28.320,0.000
1728618955.814,41.992,-29.785,-33.691,-23.926,0.000
1728618955.818,1.465,-27.344,-28.320,-27.832,0.000
1728618955.821,-85.938,-25.391,-16.113,-32.227,0.000
1728618955.825,-78.613,-23.438,-40.527,-20.996,0.000
1728618955.829,30.273,-29.297,-56.152,-22.949,0.000
1728618955.833,35.645,-32.715,-28.809,-28.320,0.000
1728618955.837,7.324,-32.715,-12.207,-20.020,0.000
1728618955.841,-67.871,-31.738,-23.926,-9.766,0.000
1728618955.845,-105.957,-26.367,-38.574,-26.367,0.000
1728618955.849,2.441,-21.973,-44.922,-37.109,0.000
1728618955.853,43.945,-21.484,-35.156,-30.762,0.000
1728618955.857,11.719,-22.461,-12.695,-24.902,0.000
1728618955.860,-71.289,-31.250,-14.160,-27.344,0.000
1728618955.864,-116.699,-35.156,-25.879,-36.621,0.000
1728618955.868,-0.977,-37.109,-22.949,-28.809,0.000
1728618955.872,46.387,-35.156,-22.461,-19.043,0.000
1728618955.876,12.695,-24.414,-39.062,-23.926,0.000
1728618955.880,-46.875,-21.484,-41.016,-23.438,0.000
1728618955.884,-109.375,-26.367,-38.574,-28.809,0.000
1728618955.888,-27.832,-29.297,-28.809,-33.691,0.000
1728618955.891,29.297,-33.691,-15.625,-31.738,0.000
1728618955.895,16.602,-27.344,-17.578,-25.879,0.000
1728618955.899,-41.504,-26.367,-23.438,-23.926,0.000
1728618955.903,-108.887,-29.785,-27.832,-20.996,0.000
1728618955.907,-31.738,-27.344,-20.020,-29.785,0.000
1728618955.911,36.621,-26.855,-22.949,-23.438,0.000
1728618955.914,25.879,-30.762,-50.293,-20.020,0.000
1728618955.918,-26.855,-32.227,-65.430,-28.809,0.000
1728618955.922,-109.375,-33.203,-44.434,-24.902,0.000
1728618955.926,-46.875,-33.203,-5.371,-19.043,0.000
1728618955.930,42.969,-24.414,10.742,-18.555,0.000
1728618955.934,35.156,-21.484,-3.418,-27.344,0.000
1728618955.938,-14.160,-22.949,-14.160,-31.250,0.000
1728618955.942,-93.750,-18.555,-16.113,-19.043,0.000
1728618955.946,-42.480,-17.090,-20.508,-19.043,0.000
1728618955.950,53.711,-23.926,-31.738,-26.855,0.000
1728618955.953,43.945,-29.297,-39.062,-19.043,0.000
1728618955.957,-7.324,-25.391,-41.504,-16.113,0.000
1728618955.961,-101.074,-22.461,-54.688,-27.344,0.000
1728618955.965,-74.219,-23.438,-39.551,-39.062,0.000
1728618955.969,29.785,-19.531,-28.809,-38.086,0.000
1728618955.972,41.992,-20.508,-33.203,-29.785,0.000
1728618955.976,-4.395,-22.949,-23.926,-24.902,0.000
1728618955.980,-102.539,-26.367,-20.020,-32.715,0.000
1728618955.984,-82.520,-29.785,-23.438,-32.715,0.000
1728618955.988,21.973,-30.273,-28.320,-30.762,0.000
1728618955.992,41.504,-26.855,-34.180,-34.668,0.000
1728618955.996,11.719,-23.926,-32.715,-29.785,0.000
1728618956.000,-82.520,-27.832,-30.273,-26.855,0.000
1728618956.004,-82.520,-30.273,-40.527,-34.180,0.000
1728618956.008,31.738,-26.855,-46.387,-27.344,0.000
1728618956.012,43.945,-29.785,-39.551,-20.996,0.000
1728618956.016,-0.488,-31.738,-25.879,-17.578,0.000
1728618956.020,-79.590,-26.367,-15.137,-15.625,0.000
1728618956.024,-97.168,-25.879,-26.855,-30.762,0.000
1728618956.028,6.836,-20.996,-36.133,-30.762,0.000
1728618956.032,40.039,-22.949,-28.320,-13.184,0.000
1728618956.036,3.906,-31.738,-29.785,-4.395,0.000
1728618956.039,-76.172,-29.297,-24.902,-11.230,0.000
1728618956.043,-104.492,-22.949,-15.625,-18.066,0.000
1728618956.048,2.441,-23.926,-24.902,-18.066,0.000
1728618956.052,48.340,-26.367,-45.410,-7.812,0.000
1728618956.056,15.625,-25.879,-28.320,-16.113,0.000
1728618956.059,-57.129,-29.297,-17.578,-25.391,0.000
1728618956.063,-103.516,-27.344,-36.621,-15.137,0.000
1728618956.067,-14.648,-21.973,-37.109,-16.602,0.000
1728618956.071,48.340,-24.902,-23.438,-20.996,0.000
1728618956.075,18.066,-25.879,-20.996,-25.391,0.000
1728618956.079,-44.434,-26.367,-28.809,-20.996,0.000
1728618956.083,-99.609,-24.414,-42.480,-10.742,0.000
1728618956.087,-22.461,-20.508,-29.297,-24.902,0.000
1728618956.091,47.363,-20.996,-18.066,-25.879,0.000
1728618956.095,29.785,-25.879,-18.066,-11.230,0.000
1728618956.099,-28.809,-26.855,-16.602,-8.789,0.000
1728618956.103,-108.887,-28.809,-34.180,-24.414,0.000
1728618956.106,-37.598,-29.297,-43.945,-23.438,0.000
1728618956.110,53.711,-27.832,-38.086,-10.742,0.000
1728618956.114,41.016,-25.879,-45.410,-7.324,0.000
1728618956.118,-12.207,-26.855,-35.645,-18.555,0.000
1728618956.122,-94.238,-29.297,-22.461,-17.090,0.000
1728618956.126,-34.668,-21.484,-29.297,-6.836,0.000
1728618956.130,67.871,-19.043,-26.367,0.000,0.000
1728618956.134,54.199,-25.391,-24.414,0.000,0.000
1728618956.138,-21.484,-25.391,-19.531,-21.973,0.000
1728618956.142,-115.723,-21.484,-26.855,-30.273,0.000
1728618956.145,-70.801,-22.461,-28.809,-36.621,0.000
1728618956.149,45.898,-19.531,-30.762,-37.598,0.000
1728618956.153,41.992,-16.602,-42.480,-25.879,0.000
1728618956.157,-10.254,-23.926,-34.668,-27.344,0.000
1728618956.161,-88.867,-29.785,-24.902,-20.996,0.000
1728618956.165,-71.777,-30.762,-26.367,-26.855,0.000
1728618956.169,32.227,-28.320,-34.180,-25.879,0.000
1728618956.173,46.387,-24.414,-48.340,-18.555,0.000
1728618956.177,0.000,-23.926,-64.941,-30.273,0.000
1728618956.181,-89.844,-26.367,-49.316,-32.715,0.000
1728618956.185,-91.309,-20.508,-28.809,-31.738,0.000
1728618956.188,15.625,-20.996,-25.879,-25.879,0.000
1728618956.192,36.133,-26.855,-28.809,-16.602,0.000
1728618956.196,0.488,-27.832,-43.945,-22.461,0.000
1728618956.200,-77.637,-26.367,-41.016,-21.973,0.000
1728618956.204,-86.426,-26.367,-48.828,-15.137,0.000
1728618956.208,17.090,-25.391,-47.852,-24.414,0.000
1728618956.212,48.828,-19.043,-27.344,-19.531,0.000
1728618956.216,17.090,-18.555,-16.602,-9.277,0.000
1728618956.220,-68.848,-26.367,-10.742,-16.113,0.000
1728618956.223,-103.027,-24.902,-10.254,-26.367,0.000
1728618956.227,2.930,-26.367,-32.227,-33.691,0.000
1728618956.231,52.246,-23.438,-59.570,-27.832,0.000
1728618956.235,24.902,-17.090,-39.062,-28.320,0.000
1728618956.239,-64.453,-26.367,-11.230,-40.039,0.000
1728618956.243,-124.512,-31.250,-16.113,-40.527,0.000
1728618956.247,-18.066,-27.832,-28.320,-42.969,0.000
1728618956.251,42.480,-23.438,-31.738,-31.250,0.000
1728618956.254,8.301,-22.949,-20.020,-18.066,0.000
1728618956.258,-66.406,-28.809,-20.508,-12.207,0.000
1728618956.262,-120.605,-27.344,-34.668,-15.137,0.000
1728618956.266,-17.578,-17.090,-35.645,-19.531,0.000
1728618956.270,48.828,-18.066,-41.992,-17.090,0.000
1728618956.274,24.414,-22.949,-32.227,-20.020,0.000
1728618956.278,-34.180,-21.484,-13.184,-20.020,0.000
1728618956.281,-99.121,-20.996,-28.809,-16.602,0.000
1728618956.285,-15.625,-24.902,-30.762,-17.578,0.000
1728618956.289,42.480,-26.855,-13.672,-18.555,0.000
1728618956.293,17.578,-25.391,-9.766,-23.438,0.000
1728618956.297,-26.855,-22.949,-28.320,-24.414,0.000
1728618956.301,-107.910,-20.996,-53.711,-26.367,0.000
1728618956.305,-54.688,-24.414,-36.621,-20.020,0.000
1728618956.309,31.250,-23.926,-6.348,-13.184,0.000
1728618956.313,28.320,-20.996,-3.418,-17.578,0.000
1728618956.316,-16.113,-21.484,-11.719,-22.461,0.000
1728618956.320,-93.750,-20.996,-32.715,-19.531,0.000
1728618956.324,-51.758,-24.902,-35.156,-9.277,0.000
1728618956.328,40.039,-26.367,-32.227,-16.602,0.000
1728618956.332,45.898,-20.020,-53.711,-14.160,0.000
1728618956.335,10.254,-16.602,-47.363,-8.301,0.000
1728618956.339,-83.496,-20.996,-8.301,-20.508,0.000
1728618956.343,-76.172,-21.973,7.812,-24.902,0.000
1728618956.347,27.344,-20.996,-8.301,-22.949,0.000
1728618956.351,41.992,-22.461,-29.297,-16.113,0.000
1728618956.355,-2.441,-24.902,-39.551,-21.484,0.000
1728618956.359,-99.609,-23.438,-26.855,-39.062,0.000
1728618956.363,-82.520,-23.438,-15.625,-33.691,0.000
1728618956.367,25.879,-28.320,-12.695,-23.926,0.000
1728618956.371,37.598,-25.391,-25.879,-23.438,0.000
1728618956.375,8.789,-20.996,-31.738,-17.090,0.000
1728618956.379,-76.660,-24.414,-18.066,-15.137,0.000
1728618956.383,-84.961,-24.902,-18.066,-27.832,0.000
1728618956.387,26.855,-22.461,-29.785,-22.461,0.000
1728618956.391,51.270,-22.461,-24.414,-10.254,0.000
1728618956.395,16.113,-25.391,-15.625,-9.277,0.000
1728618956.399,-71.289,-28.809,-21.484,-16.602,0.000
1728618956.402,-109.375,-32.227,-17.090,-33.691,0.000
1728618956.406,2.441,-38.086,-20.508,-33.203,0.000
1728618956.410,53.223,-31.738,-25.391,-25.391,0.000
1728618956.414,23.438,-24.414,-24.902,-28.809,0.000
1728618956.418,-58.594,-24.414,-41.016,-11.230,0.000
1728618956.422,-102.539,-24.414,-61.523,-16.113,0.000
1728618956.426,5.859,-22.461,-45.898,-16.113,0.000
1728618956.430,60.059,-21.484,-18.066,-8.301,0.000
1728618956.434,28.809,-20.020,-10.254,-24.902,0.000
1728618956.438,-46.387,-18.555,-20.508,-17.090,0.000
1728618956.442,-108.398,-20.508,-33.203,-16.113,0.000
1728618956.446,-17.578,-23.438,-34.180,-22.461,0.000
1728618956.450,52.734,-22.461,-40.527,-10.254,0.000
1728618956.454,28.809,-24.414,-36.621,-3.418,0.000
1728618956.458,-37.598,-29.785,-16.602,0.000,0.000
1728618956.462,-112.793,-30.762,-11.719,-6.836,0.000
1728618956.465,-39.062,-31.738,-5.859,-19.043,0.000
1728618956.470,44.434,-28.320,-1.953,-22.949,0.000
1728618956.473,41.016,-20.996,-7.324,-13.672,0.000
1728618956.477,-21.484,-20.996,-22.461,-24.414,0.000
1728618956.481,-107.422,-23.438,-29.297,-25.879,0.000
1728618956.485,-48.340,-25.879,-23.926,-17.090,0.000
1728618956.489,44.434,-26.855,-24.902,-17.578,0.000
1728618956.493,40.039,-28.320,-38.086,-16.602,0.000
1728618956.497,-24.414,-30.273,-45.410,-27.832,0.000
1728618956.501,-107.422,-31.250,-30.762,-21.484,0.000
1728618956.505,-63.477,-33.203,-19.531,-20.020,0.000
1728618956.509,24.414,-26.855,-27.344,-26.855,0.000
1728618956.513,28.320,-19.043,-30.762,-20.508,0.000
1728618956.516,-16.602,-23.438,-23.926,-23.438,0.000
1728618956.520,-104.980,-22.949,-41.992,-27.344,0.000
1728618956.524,-65.918,-16.602,-62.988,-20.996,0.000
1728618956.528,39.062,-18.066,-49.805,-15.137,0.000
1728618956.532,36.621,-20.020,-8.789,-22.949,0.000
1728618956.536,-7.324,-23.438,0.000,-25.391,0.000
1728618956.540,-99.121,-24.414,-21.484,-21.973,0.000
1728618956.544,-87.402,-26.367,-13.184,-22.461,0.000
1728618956.548,22.461,-27.344,-4.395,-21.484,0.000
1728618956.552,38.086,-22.949,-23.438,-30.762,0.000
1728618956.556,1.465,-23.926,-31.738,-24.414,0.000
1728618956.559,-98.145,-25.391,-19.043,-23.438,0.000
1728618956.563,-104.980,-23.926,-14.648,-31.250,0.000
1728618956.567,5.859,-27.832,-23.438,-26.855,0.000
1728618956.571,34.668,-27.832,-35.156,-22.461,0.000
1728618956.575,6.348,-22.461,-35.156,-16.113,0.000
1728618956.579,-80.078,-23.438,-26.855,-18.555,0.000
1728618956.583,-103.027,-29.785,-26.855,-31.250,0.000
1728618956.587,13.672,-31.250,-30.762,-28.809,0.000
1728618956.591,57.129,-25.879,-31.250,-15.625,0.000
1728618956.594,17.578,-24.414,-30.273,-21.973,0.000
1728618956.598,-64.453,-24.414,-26.855,-33.691,0.000
1728618956.602,-103.027,-25.391,-23.438,-38.574,0.000
1728618956.606,0.000,-29.297,-26.855,-27.344,0.000
1728618956.611,52.734,-24.414,-23.438,-10.254,0.000
1728618956.615,23.438,-25.879,-15.137,-11.230,0.000
1728618956.619,-49.805,-30.762,-20.508,-15.625,0.000
1728618956.623,-100.586,-30.762,-37.109,-19.043,0.000
1728618956.627,-4.883,-25.391,-36.621,-19.531,0.000
1728618956.631,58.105,-18.555,-18.555,-11.719,0.000
1728618956.635,30.762,-22.461,-20.020,-14.648,0.000
1728618956.639,-42.480,-25.879,-35.645,-17.578,0.000
1728618956.642,-104.980,-30.273,-31.738,-19.043,0.000
1728618956.646,-24.414,-29.297,-7.324,-23.926,0.000
1728618956.650,46.387,-23.926,5.371,-14.648,0.000
1728618956.654,28.320,-25.391,-2.930,-11.230,0.000
1728618956.658,-38.086,-27.832,-16.602,-20.508,0.000
1728618956.661,-115.723,-21.484,-22.461,-15.137,0.000
1728618956.665,-47.852,-20.020,-21.973,-13.672,0.000
1728618956.669,41.016,-21.484,-21.484,-12.207,0.000
1728618956.673,30.273,-20.508,-20.020,-6.836,0.000
1728618956.677,-29.785,-22.461,-15.137,-17.578,0.000
1728618956.681,-115.723,-28.320,-16.113,-21.973,0.000
1728618956.685,-65.430,-25.391,-21.484,-24.414,0.000
1728618956.689,25.879,-23.926,-23.438,-26.855,0.000
1728618956.693,33.203,-23.438,-34.180,-20.508,0.000
1728618956.697,-1.465,-19.043,-28.809,-7.324,0.000
1728618956.700,-100.586,-23.438,-23.438,-17.090,0.000
1728618956.704,-66.895,-27.344,-21.973,-30.273,0.000
1728618956.708,36.621,-25.879,-19.531,-29.785,0.000
1728618956.712,36.133,-25.391,-34.668,-26.855,0.000
1728618956.715,-11.719,-24.414,-40.527,-32.227,0.000
1728618956.719,-99.609,-27.832,-35.156,-37.598,0.000
1728618956.723,-83.008,-31.738,-28.809,-40.527,0.000
1728618956.727,18.555,-33.203,-27.832,-40.039,0.000
1728618956.731,26.855,-31.250,-23.926,-41.504,0.000
1728618956.735,-11.230,-30.762,-21.484,-35.645,0.000
1728618956.739,-94.727,-31.738,-24.414,-28.809,0.000
1728618956.743,-101.562,-33.203,-29.297,-36.621,0.000
1728618956.747,4.395,-32.227,-33.691,-38.086,0.000
1728618956.751,26.855,-32.227,-31.738,-31.250,0.000
1728618956.755,-4.395,-37.109,-24.902,-27.344,0.000
1728618956.759,-75.195,-35.645,-23.926,-27.832,0.000
1728618956.763,-83.496,-31.738,-26.367,-32.715,0.000
1728618956.767,18.555,-27.832,-29.785,-37.598,0.000
1728618956.771,39.551,-23.438,-38.574,-26.855,0.000
1728618956.775,-3.418,-25.391,-32.227,-29.297,0.000
1728618956.779,-85.938,-27.344,-27.832,-34.180,0.000
1728618956.782,-117.676,-28.809,-37.109,-37.598,0.000
1728618956.786,-9.277,-27.832,-29.297,-35.645,0.000
1728618956.790,41.016,-25.879,-22.949,-27.344,0.000
1728618956.794,10.254,-20.996,-21.484,-20.996,0.000
1728618956.798,-57.129,-22.949,-28.809,-18.066,0.000
1728618956.802,-103.516,-30.273,-41.504,-27.832,0.000
1728618956.806,-13.672,-28.809,-37.109,-30.273,0.000
1728618956.810,41.016,-25.879,-27.344,-21.484,0.000
1728618956.814,18.066,-25.391,-21.973,-14.648,0.000
1728618956.818,-54.688,-33.203,-23.438,-19.531,0.000
1728618956.822,-110.840,-32.715,-26.855,-28.320,0.000
1728618956.826,-19.043,-24.414,-36.621,-26.855,0.000
1728618956.830,37.109,-25.391,-55.176,-14.160,0.000
1728618956.834,12.207,-31.250,-46.875,-14.160,0.000
1728618956.837,-48.340,-29.297,-15.137,-25.879,0.000
1728618956.841,-119.629,-29.297,-4.395,-28.320,0.000
1728618956.845,-41.992,-31.738,-6.348,-30.762,0.000
1728618956.849,49.805,-26.367,-7.812,-23.438,0.000
1728618956.853,39.062,-25.391,-13.184,-18.555,0.000
1728618956.857,-20.020,-27.832,-15.625,-17.578,0.000
1728618956.861,-95.703,-26.367,-17.578,-8.789,0.000
1728618956.865,-41.504,-23.926,-23.926,-18.066,0.000
1728618956.869,33.691,-23.438,-26.367,-25.391,0.000
1728618956.873,30.762,-17.578,-36.133,-18.066,0.000
1728618956.877,-12.695,-13.184,-36.133,-1.465,0.000
1728618956.881,-112.305,-23.438,-28.809,-16.113,0.000
1728618956.885,-66.895,-22.461,-33.691,-40.039,0.000
1728618956.888,40.527,-20.508,-27.344,-26.367,0.000
1728618956.892,33.691,-24.414,-20.020,-18.555,0.000
1728618956.896,-4.395,-22.461,-22.461,-24.902,0.000
1728618956.900,-92.285,-22.949,-27.832,-29.785,0.000
1728618956.904,-74.707,-24.414,-29.785,-26.855,0.000
1728618956.908,27.832,-25.391,-38.574,-22.461,0.000
1728618956.912,36.133,-21.973,-48.340,-18.555,0.000
1728618956.916,-7.324,-16.602,-31.250,-19.531,0.000
1728618956.920,-96.191,-17.090,-14.648,-17.578,0.000
1728618956.924,-84.473,-23.926,-20.508,-20.508,0.000
1728618956.927,21.973,-28.809,-22.461,-39.062,0.000
1728618956.931,37.109,-27.832,-24.902,-26.367,0.000
1728618956.935,-5.859,-29.297,-30.762,-21.973,0.000
1728618956.939,-102.539,-35.156,-27.344,-40.039,0.000
1728618956.943,-114.258,-34.180,-24.902,-41.504,0.000
1728618956.947,6.836,-28.809,-29.297,-34.668,0.000
1728618956.951,37.109,-26.855,-41.992,-36.621,0.000
1728618956.955,-6.348,-21.484,-39.551,-39.062,0.000
1728618956.959,-88.867,-18.066,-28.809,-30.762,0.000
1728618956.962,-108.398,-20.996,-30.273,-24.414,0.000
1728618956.966,3.906,-21.484,-25.391,-15.625,0.000
1728618956.970,39.551,-21.484,-19.043,-13.184,0.000
1728618956.974,5.859,-28.809,-27.832,-27.344,0.000
1728618956.978,-68.848,-36.133,-40.039,-23.926,0.000
1728618956.982,-113.770,-31.250,-39.062,-26.855,0.000
1728618956.986,-17.090,-29.785,-22.461,-41.016,0.000
1728618956.989,46.387,-30.273,-12.207,-17.090,0.000
1728618956.993,22.949,-27.832,-13.672,-10.254,0.000
1728618956.997,-52.246,-26.855,-12.207,-28.320,0.000
1728618957.001,-115.723,-27.344,-19.043,-35.156,0.000
1728618957.005,-17.090,-28.320,-39.062,-21.973,0.000
1728618957.009,60.059,-25.879,-49.805,-9.277,0.000
1728618957.013,36.621,-27.832,-41.016,-16.602,0.000
1728618957.017,-31.738,-27.344,-41.016,-17.090,0.000
1728618957.021,-108.887,-26.367,-44.434,-16.602,0.000
1728618957.025,-35.645,-22.949,-25.879,-30.273,0.000
1728618957.029,42.969,-20.508,-3.418,-26.855,0.000
1728618957.032,27.832,-21.484,-3.906,-26.367,0.000
1728618957.036,-31.738,-20.996,-17.090,-31.738,0.000
1728618957.040,-111.816,-21.484,-23.438,-28.320,0.000
1728618957.044,-48.828,-20.508,-23.438,-31.250,0.000
1728618957.048,47.363,-17.578,-32.715,-32.227,0.000
1728618957.051,44.922,-13.672,-48.828,-16.602,0.000
1728618957.055,-17.090,-16.113,-41.504,-1.953,0.000
1728618957.059,-107.910,-23.926,-29.785,-9.277,0.000
1728618957.063,-52.734,-23.926,-39.062,-21.484,0.000
1728618957.067,48.828,-17.578,-48.340,-19.043,0.000
1728618957.071,37.598,-20.020,-24.414,-18.066,0.000
1728618957.075,-15.625,-26.367,-3.906,-25.879,0.000
1728618957.078,-108.887,-27.832,-10.254,-37.109,0.000
1728618957.082,-82.031,-27.832,-17.090,-38.574,0.000
1728618957.086,22.461,-29.297,-18.066,-32.715,0.000
1728618957.090,27.832,-25.391,-29.785,-29.297,0.000
1728618957.094,-10.742,-26.367,-37.109,-29.297,0.000
1728618957.098,-105.957,-29.785,-31.250,-32.227,0.000
1728618957.102,-93.750,-29.297,-32.227,-22.461,0.000
1728618957.106,26.855,-25.879,-30.762,-16.113,0.000
1728618957.109,30.273,-20.020,-29.785,-26.855,0.000
1728618957.113,-9.766,-24.902,-34.668,-25.879,0.000
1728618957.117,-86.426,-27.832,-41.016,-24.414,0.000
1728618957.121,-91.309,-24.902,-44.922,-32.715,0.000
1728618957.126,15.137,-27.344,-41.016,-31.738,0.000
1728618957.130,42.969,-25.391,-31.738,-22.949,0.000
1728618957.133,11.230,-26.367,-28.809,-15.625,0.000
1728618957.137,-84.961,-31.250,-28.320,-19.043,0.000
1728618957.141,-110.840,-38.574,-23.926,-27.344,0.000
1728618957.145,6.836,-35.645,-24.414,-30.273,0.000
1728618957.149,47.363,-30.273,-35.156,-26.367,0.000
1728618957.153,10.742,-33.691,-44.922,-27.832,0.000
1728618957.157,-74.219,-34.180,-28.809,-21.484,0.000
1728618957.161,-112.305,-29.785,-23.926,-30.273,0.000
1728618957.165,-9.766,-30.273,-35.156,-37.598,0.000
1728618957.169,42.969,-27.832,-31.250,-21.973,0.000
1728618957.173,12.207,-27.344,-32.227,-27.832,0.000
1728618957.177,-62.988,-30.273,-36.621,-25.391,0.000
1728618957.181,-112.793,-28.809,-32.715,-19.531,0.000
1728618957.185,-18.555,-29.297,-31.250,-31.250,0.000
1728618957.188,44.434,-25.391,-33.691,-25.391,0.000
1728618957.192,18.066,-20.996,-31.250,-26.855,0.000
1728618957.196,-53.223,-29.785,-25.879,-32.227,0.000
1728618957.200,-128.418,-38.086,-23.926,-42.969,0.000
1728618957.204,-52.246,-34.668,-24.414,-48.828,0.000
1728618957.208,20.996,-28.809,-30.762,-33.691,0.000
1728618957.212,6.348,-26.855,-28.320,-25.391,0.000
1728618957.216,-35.156,-24.902,-33.691,-20.020,0.000
1728618957.220,-101.074,-21.973,-45.410,-12.207,0.000
1728618957.224,-27.832,-20.020,-53.711,-13.184,0.000
1728618957.228,49.805,-22.461,-36.133,-28.809,0.000
1728618957.232,31.250,-24.414,-1.953,-18.066,0.000
1728618957.235,-25.391,-23.438,-2.930,-15.625,0.000
1728618957.239,-111.816,-22.461,-22.461,-32.227,0.000
1728618957.243,-55.664,-21.973,-12.207,-27.344,0.000
1728618957.247,35.645,-19.043,-15.625,-16.113,0.000
1728618957.251,38.574,-18.066,-30.273,-5.859,0.000
1728618957.255,-7.324,-23.438,-22.461,-10.254,0.000
1728618957.259,-103.027,-22.461,-29.297,-20.996,0.000
1728618957.263,-68.848,-23.926,-20.996,-23.438,0.000
1728618957.267,38.086,-26.855,-10.742,-27.344,0.000
1728618957.271,39.551,-23.438,-7.812,-28.320,0.000
1728618957.275,-6.348,-20.996,-0.977,-20.996,0.000
1728618957.278,-94.238,-22.949,-10.742,-27.344,0.000
1728618957.282,-77.148,-25.391,-24.902,-25.879,0.000
1728618957.286,35.645,-23.438,-30.762,-14.648,0.000
1728618957.290,37.598,-28.809,-29.297,-25.391,0.000
1728618957.294,-8.301,-30.273,-28.320,-27.832,0.000
1728618957.298,-92.773,-28.809,-31.738,-10.742,0.000
1728618957.302,-85.938,-26.367,-36.133,-10.254,0.000
1728618957.306,31.250,-22.461,-33.203,-24.902,0.000
1728618957.310,51.758,-18.555,-27.832,-28.320,0.000
1728618957.313,9.766,-17.090,-36.621,-17.578,0.000
1728618957.317,-82.031,-18.555,-42.480,-19.531,0.000
1728618957.321,-91.797,-20.020,-30.273,-20.508,0.000
1728618957.325,15.625,-22.949,-31.738,-21.484,0.000
1728618957.329,47.363,-27.832,-25.879,-21.973,0.000
1728618957.333,16.602,-29.785,-18.066,-15.137,0.000
1728618957.337,-65.430,-26.367,-20.996,-20.996,0.000
1728618957.341,-92.773,-25.391,-27.344,-27.344,0.000
1728618957.345,17.090,-24.902,-34.180,-26.855,0.000
1728618957.349,54.199,-26.855,-33.203,-35.645,0.000
1728618957.353,20.508,-25.391,-28.809,-15.137,0.000
1728618957.356,-55.176,-23.926,-33.691,-8.789,0.000
1728618957.360,-105.469,-25.879,-34.180,-26.855,0.000
1728618957.364,-16.602,-25.879,-28.320,-20.996,0.000
1728618957.368,41.016,-27.344,-26.855,-6.348,0.000
1728618957.372,26.855,-24.902,-25.391,-10.742,0.000
1728618957.376,-50.781,-25.879,-24.414,-16.113,0.000
1728618957.380,-115.234,-31.250,-19.043,-22.461,0.000
1728618957.383,-19.043,-28.320,-19.043,-21.484,0.000
1728618957.387,54.199,-26.367,-35.156,-18.555,0.000
1728618957.391,25.879,-30.273,-32.227,-34.180,0.000
1728618957.395,-44.922,-25.391,-18.555,-32.227,0.000
1728618957.399,-111.328,-24.414,-20.996,-24.414,0.000
1728618957.403,-32.227,-25.879,-23.438,-30.762,0.000
1728618957.406,44.434,-23.926,-22.461,-28.320,0.000
1728618957.410,25.391,-28.809,-23.926,-30.762,0.000
1728618957.414,-30.273,-33.203,-19.043,-35.645,0.000
1728618957.418,-114.746,-28.320,-24.414,-36.621,0.000
1728618957.422,-49.805,-25.879,-31.738,-28.809,0.000
1728618957.426,47.852,-33.691,-19.043,-17.090,0.000
1728618957.430,39.551,-33.691,-3.906,-16.602,0.000
1728618957.434,-12.207,-27.832,-21.484,-21.973,0.000
1728618957.438,-108.398,-36.621,-40.039,-54.688,0.000
1728618957.442,-65.918,-31.250,-42.969,-57.617,0.000
1728618957.446,39.551,-24.902,-48.828,-27.832,0.000
1728618957.449,13.672,-38.574,-20.020,-42.480,0.000
1728618957.453,-45.898,-34.668,7.324,-54.199,0.000
1728618957.457,-127.930,-34.180,-17.578,-48.828,0.000
1728618957.461,-84.961,-31.250,-36.621,-49.805,0.000
1728618957.464,27.832,-24.902,-35.645,-32.715,0.000
1728618957.468,-18.555,-41.992,11.230,-64.941,0.000
1728618957.472,-42.969,-31.738,0.488,-60.547,0.000
1728618957.476,-67.383,-14.648,-54.688,-8.789,0.000
1728618957.480,-73.242,-20.508,-41.504,-25.879,0.000
1728618957.484,-6.836,-42.480,7.812,-61.035,0.000
1728618957.488,16.602,-48.340,29.785,-61.523,0.000
1728618957.492,18.555,-17.578,-18.066,-7.324,0.000
1728618957.496,-93.262,-8.301,-31.738,-21.973,0.000
1728618957.500,-128.906,-34.180,12.207,-59.570,0.000
1728618957.504,25.391,-36.133,18.066,-20.508,0.000
1728618957.508,80.566,-13.184,-14.648,12.207,0.000
1728618957.512,11.230,-13.672,25.391,-21.484,0.000
1728618957.516,-69.824,-27.344,47.852,-17.090,0.000
1728618957.520,-71.289,-30.273,-15.625,23.926,0.000
1728618957.524,24.414,-27.344,1.465,1.465,0.000
1728618957.528,54.688,-18.066,13.672,-12.207,0.000
1728618957.531,11.230,-31.250,5.371,-25.879,0.000
1728618957.535,-72.266,-51.758,11.719,-46.387,0.000
1728618957.539,-110.840,-39.062,-12.207,-30.762,0.000
1728618957.543,-19.043,-43.457,-26.367,-41.992,0.000
1728618957.548,54.688,-42.969,-70.312,-15.625,0.000
1728618957.551,51.270,-20.508,-90.820,5.371,0.000
1728618957.555,-54.199,-36.621,-93.750,-33.691,0.000
1728618957.559,-139.160,-58.105,-109.375,-41.016,0.000
1728618957.563,-39.062,-45.410,-178.223,-25.879,0.000
1728618957.567,41.992,-30.762,-233.887,-29.785,0.000
1728618957.571,1.465,-47.852,-231.934,-46.387,0.000
1728618957.575,-53.711,-49.805,-319.336,-36.621,0.000
1728618957.579,-119.141,-51.270,-383.789,-60.547,0.000
1728618957.583,-40.527,-54.199,-416.992,-77.637,0.000
1728618957.587,36.133,-58.105,-468.750,-59.570,0.000
1728618957.591,-5.859,-70.312,-520.020,-34.668,0.000
1728618957.595,-59.082,-62.012,-559.570,-6.836,0.000
1728618957.599,-157.227,-74.219,-590.332,-57.129,0.000
1728618957.602,-112.793,-76.172,-632.812,-106.934,0.000
1728618957.606,36.621,-36.133,-711.426,-7.324,0.000
1728618957.610,52.246,-32.227,-808.105,31.738,0.000
1728618957.614,-20.020,-36.621,-881.836,-2.441,0.000
1728618957.618,-122.559,-40.039,-961.914,-27.832,0.000
1728618957.622,-73.242,-39.062,-997.559,-61.035,0.000
1728618957.626,29.785,-33.203,-999.512,-56.641,0.000
1728618957.630,4.395,-50.293,-1000.000,-62.500,0.000
1728618957.634,-27.832,-41.016,-1000.000,-17.578,0.000
1728618957.638,-98.145,-37.109,-1000.000,-1.953,0.000
1728618957.642,-84.961,-52.246,-1000.000,-52.246,0.000
1728618957.645,3.906,-41.016,-1000.000,-55.664,0.000
1728618957.649,-1.465,-46.387,-1000.000,-58.105,0.000
1728618957.653,-15.137,-34.668,-1000.000,-20.508,0.000
1728618957.657,-90.332,-18.555,-1000.000,3.418,0.000
1728618957.661,-85.938,-26.855,-1000.000,-37.109,0.000
1728618957.665,25.879,-30.762,-1000.000,-45.898,0.000
1728618957.669,28.320,-37.109,-1000.000,-36.621,0.000
1728618957.673,-23.438,-42.969,-1000.000,-40.527,0.000
1728618957.677,-116.211,-35.156,-1000.000,-41.992,0.000
1728618957.681,-108.398,-25.391,-1000.000,-36.133,0.000
1728618957.685,15.137,-31.250,-1000.000,-20.996,0.000
1728618957.688,25.879,-39.062,-1000.000,-29.297,0.000
1728618957.692,-16.602,-38.574,-1000.000,-40.527,0.000
1728618957.696,-85.449,-30.762,-1000.000,-26.855,0.000
1728618957.700,-107.422,-29.297,-1000.000,-31.250,0.000
1728618957.704,-8.789,-35.645,-1000.000,-57.617,0.000
1728618957.708,29.297,-40.527,-1000.000,-60.547,0.000
1728618957.712,14.648,-34.180,-1000.000,-38.574,0.000
1728618957.716,-51.270,-27.832,-1000.000,-23.926,0.000
1728618957.720,-96.680,-29.785,-1000.000,-25.391,0.000
1728618957.723,-14.160,-30.762,-1000.000,-24.414,0.000
1728618957.727,20.996,-30.762,-1000.000,-24.414,0.000
1728618957.731,-15.137,-36.621,-1000.000,-38.086,0.000
1728618957.735,-88.379,-41.992,-998.047,-37.109,0.000
1728618957.739,-124.512,-29.297,-1000.000,-36.133,0.000
1728618957.743,-19.531,-20.020,-978.516,-32.227,0.000
1728618957.747,46.875,-24.414,-905.273,-13.184,0.000
1728618957.751,26.855,-24.414,-844.238,-7.812,0.000
1728618957.754,-47.852,-24.414,-791.504,-13.184,0.000
1728618957.758,-109.375,-23.926,-742.188,-9.277,0.000
1728618957.762,-17.090,-23.438,-697.266,-9.277,0.000
1728618957.766,57.617,-20.996,-667.480,-9.766,0.000
1728618957.770,37.598,-16.113,-628.418,0.488,0.000
1728618957.774,-26.367,-14.648,-574.707,-4.395,0.000
1728618957.778,-108.887,-16.113,-500.488,-17.578,0.000
1728618957.781,-39.062,-15.137,-395.508,-17.090,0.000
1728618957.785,46.875,-16.113,-287.109,-20.508,0.000
1728618957.789,35.156,-16.602,-109.863,-20.996,0.000
1728618957.793,-25.391,-23.438,136.719,-12.695,0.000
1728618957.797,-114.258,-29.785,363.281,-28.320,0.000
1728618957.801,-59.082,-25.879,583.008,-37.109,0.000
1728618957.805,30.273,-23.926,866.211,-28.809,0.000
1728618957.809,20.996,-25.391,979.004,-34.180,0.000
