timestamps,TP9,AF7,AF8,TP10,Right AUX
1728699467.099,20.996,-27.344,-41.016,18.066,0.000
1728699467.103,20.508,-25.879,-40.039,14.648,0.000
1728699467.107,-18.066,-24.414,-43.457,-18.066,0.000
1728699467.111,-61.035,-24.902,-41.504,-50.293,0.000
1728699467.115,-34.180,-26.367,-35.645,-21.973,0.000
1728699467.119,22.461,-25.879,-34.668,11.230,0.000
1728699467.123,34.180,-25.391,-34.668,29.297,0.000
1728699467.127,-2.930,-27.832,-39.062,12.695,0.000
1728699467.131,-59.082,-28.320,-41.992,-37.109,0.000
1728699467.135,-42.969,-27.832,-34.668,-16.602,0.000
1728699467.139,14.648,-27.344,-23.926,14.160,0.000
1728699467.142,14.160,-29.785,-25.391,7.324,0.000
1728699467.146,-21.973,-36.133,-29.297,-17.090,0.000
1728699467.150,-71.777,-31.250,-26.855,-61.523,0.000
1728699467.154,-61.523,-30.273,-26.367,-43.945,0.000
1728699467.158,0.977,-26.367,-23.926,-4.883,0.000
1728699467.162,15.137,-27.832,-20.996,5.859,0.000
1728699467.166,-2.441,-29.785,-20.996,6.836,0.000
1728699467.170,-66.895,-29.297,-26.367,-39.062,0.000
1728699467.174,-74.219,-28.320,-31.738,-41.504,0.000
1728699467.178,0.977,-27.344,-29.785,2.930,0.000
1728699467.181,20.508,-31.250,-26.855,6.836,0.000
1728699467.185,7.324,-27.344,-27.344,-6.836,0.000
1728699467.189,-41.504,-23.926,-29.297,-41.504,0.000
1728699467.193,-63.965,-30.273,-27.832,-43.945,0.000
1728699467.197,-14.160,-31.738,-29.297,0.000,0.000
1728699467.201,19.043,-27.344,-29.297,10.254,0.000
1728699467.205,11.719,-27.832,-23.926,-4.395,0.000
1728699467.209,-35.645,-32.227,-23.438,-45.898,0.000
1728699467.213,-69.336,-35.156,-22.949,-54.688,0.000
1728699467.217,-34.180,-33.691,-30.273,-9.277,0.000
1728699467.220,0.488,-32.715,-34.668,3.418,0.000
1728699467.224,-4.395,-31.250,-27.832,-7.324,0.000
1728699467.228,-42.969,-31.250,-25.879,-36.621,0.000
1728699467.232,-80.078,-31.738,-27.344,-49.316,0.000
1728699467.236,-35.645,-25.391,-25.879,-15.625,0.000
1728699467.240,17.090,-22.461,-26.367,7.324,0.000
1728699467.244,15.625,-27.344,-29.297,5.371,0.000
1728699467.248,-28.320,-26.855,-30.273,-23.438,0.000
1728699467.252,-84.473,-23.926,-30.273,-57.617,0.000
1728699467.256,-58.105,-30.273,-26.855,-17.578,0.000
1728699467.260,-1.465,-30.762,-22.949,17.578,0.000
1728699467.263,5.859,-26.367,-26.855,0.488,0.000
1728699467.267,-27.344,-30.273,-28.320,-21.973,0.000
1728699467.271,-66.895,-33.203,-24.414,-43.945,0.000
1728699467.275,-43.945,-28.809,-24.902,-20.508,0.000
1728699467.279,2.930,-31.738,-29.785,-0.488,0.000
1728699467.283,7.812,-31.250,-31.250,1.465,0.000
1728699467.287,-33.203,-25.391,-31.738,-18.555,0.000
1728699467.291,-84.961,-31.250,-34.668,-65.430,0.000
1728699467.295,-60.059,-35.645,-32.715,-50.293,0.000
1728699467.299,-7.324,-38.086,-31.250,-12.695,0.000
1728699467.303,6.348,-40.039,-28.320,-8.789,0.000
1728699467.306,-10.742,-35.156,-30.273,-23.438,0.000
1728699467.310,-63.477,-31.250,-30.762,-58.594,0.000
1728699467.314,-74.219,-30.762,-29.297,-49.805,0.000
1728699467.318,-8.301,-31.250,-26.367,-1.953,0.000
1728699467.322,13.184,-29.785,-29.297,4.395,0.000
1728699467.326,-11.719,-20.508,-36.133,-17.090,0.000
1728699467.330,-62.988,-22.949,-39.551,-57.129,0.000
1728699467.334,-80.566,-29.297,-40.039,-63.477,0.000
1728699467.338,-21.484,-30.273,-37.109,-12.695,0.000
1728699467.342,4.395,-31.250,-36.133,-8.789,0.000
1728699467.346,-8.301,-31.250,-36.621,-19.043,0.000
1728699467.349,-47.852,-28.809,-31.250,-41.992,0.000
1728699467.353,-73.730,-33.203,-35.645,-56.641,0.000
1728699467.357,-20.996,-33.203,-37.109,-9.766,0.000
1728699467.361,15.137,-27.832,-29.297,7.812,0.000
1728699467.365,-1.953,-27.344,-30.762,-6.836,0.000
1728699467.369,-46.875,-27.832,-31.250,-46.875,0.000
1728699467.373,-84.473,-25.879,-37.109,-79.102,0.000
1728699467.377,-37.598,-25.879,-35.645,-29.785,0.000
1728699467.381,16.602,-26.855,-26.367,-0.977,0.000
1728699467.385,11.230,-29.297,-26.367,-15.625,0.000
1728699467.388,-24.902,-29.785,-28.320,-36.621,0.000
1728699467.392,-69.336,-27.344,-32.227,-64.941,0.000
1728699467.396,-40.039,-27.832,-31.738,-29.297,0.000
1728699467.400,7.812,-26.855,-32.227,1.465,0.000
1728699467.404,9.766,-26.367,-33.691,-7.324,0.000
1728699467.408,-27.344,-23.926,-28.809,-17.578,0.000
1728699467.412,-78.125,-26.367,-28.809,-40.039,0.000
1728699467.416,-52.734,-31.250,-36.621,-25.879,0.000
1728699467.420,4.883,-30.762,-40.527,-0.488,0.000
1728699467.424,12.695,-29.785,-34.668,-9.766,0.000
1728699467.428,-17.090,-26.855,-25.879,-30.762,0.000
1728699467.431,-67.871,-22.949,-24.902,-60.059,0.000
1728699467.435,-47.852,-24.414,-24.902,-40.527,0.000
1728699467.439,10.742,-27.344,-27.344,-5.371,0.000
1728699467.443,16.602,-25.879,-29.785,-15.137,0.000
1728699467.447,-15.137,-29.297,-25.391,-25.879,0.000
1728699467.451,-71.289,-28.809,-24.902,-51.270,0.000
1728699467.455,-67.871,-27.344,-26.855,-37.109,0.000
1728699467.459,-13.184,-25.879,-32.715,-0.488,0.000
1728699467.463,2.930,-25.391,-37.109,-1.465,0.000
1728699467.467,-14.160,-28.809,-38.086,-18.555,0.000
1728699467.471,-67.871,-31.250,-37.598,-62.500,0.000
1728699467.474,-79.102,-25.879,-34.180,-57.617,0.000
1728699467.478,-8.301,-20.996,-32.715,-13.672,0.000
1728699467.482,18.555,-26.855,-29.785,0.488,0.000
1728699467.486,-2.930,-28.809,-32.715,-6.836,0.000
1728699467.490,-58.105,-25.879,-31.250,-38.574,0.000
1728699467.494,-82.520,-27.832,-30.762,-50.781,0.000
1728699467.498,-24.414,-28.320,-33.691,-12.207,0.000
1728699467.502,13.184,-23.926,-35.645,11.230,0.000
1728699467.506,-7.324,-20.996,-41.504,-14.160,0.000
1728699467.510,-46.387,-20.508,-39.062,-52.246,0.000
1728699467.513,-69.824,-20.996,-33.203,-60.059,0.000
1728699467.517,-34.668,-22.949,-29.297,-17.578,0.000
1728699467.521,4.883,-25.391,-30.762,-1.465,0.000
1728699467.525,6.836,-22.949,-27.832,-4.883,0.000
1728699467.529,-22.949,-20.020,-23.926,-25.391,0.000
1728699467.533,-73.242,-23.926,-29.785,-57.129,0.000
1728699467.537,-35.156,-22.461,-37.598,-19.043,0.000
1728699467.541,43.457,-19.043,-52.734,33.691,0.000
1728699467.545,49.805,-25.879,-47.363,42.480,0.000
1728699467.549,-21.484,-28.320,-28.320,-19.043,0.000
1728699467.552,-87.402,-29.297,-23.926,-73.730,0.000
1728699467.556,-59.570,-36.133,-20.508,-38.574,0.000
1728699467.560,-11.230,-38.086,-21.484,-13.672,0.000
1728699467.564,-20.020,-45.410,-22.461,-29.785,0.000
1728699467.568,-62.012,-50.293,-13.184,-63.965,0.000
1728699467.572,-109.863,-46.387,-21.973,-90.332,0.000
1728699467.576,-116.699,-53.223,-26.367,-83.984,0.000
1728699467.580,-74.707,-65.918,-4.883,-60.059,0.000
1728699467.584,-64.941,-73.242,13.184,-57.129,0.000
1728699467.588,-99.609,-71.289,20.020,-76.660,0.000
1728699467.591,-157.715,-71.289,15.625,-113.281,0.000
1728699467.595,-161.133,-76.172,-4.883,-119.141,0.000
1728699467.599,-90.332,-74.707,-9.766,-60.059,0.000
1728699467.603,-81.055,-76.172,13.672,-56.641,0.000
1728699467.607,-107.910,-80.078,23.438,-85.938,0.000
1728699467.611,-147.949,-80.078,4.395,-114.258,0.000
1728699467.615,-147.461,-81.543,0.000,-101.074,0.000
1728699467.619,-77.148,-78.613,21.973,-59.570,0.000
1728699467.623,-47.363,-73.242,28.809,-44.434,0.000
1728699467.627,-60.059,-71.777,25.391,-43.945,0.000
1728699467.631,-103.027,-70.312,10.254,-74.219,0.000
1728699467.634,-117.188,-61.523,-25.879,-68.848,0.000
1728699467.638,-57.129,-55.176,-29.297,-23.438,0.000
1728699467.642,-16.113,-51.758,-13.184,-4.883,0.000
1728699467.646,-21.484,-50.293,-5.859,-9.766,0.000
1728699467.650,-68.848,-50.781,8.789,-44.922,0.000
1728699467.654,-104.980,-51.270,-7.324,-68.848,0.000
1728699467.658,-55.664,-60.547,-25.391,-20.508,0.000
1728699467.662,-4.883,-55.176,-2.930,10.254,0.000
1728699467.666,-8.789,-46.875,9.277,-5.859,0.000
1728699467.670,-51.758,-44.922,0.000,-47.852,0.000
1728699467.674,-89.844,-43.945,-8.301,-70.801,0.000
1728699467.677,-46.387,-46.387,-16.113,-29.297,0.000
1728699467.681,-1.465,-42.969,-16.113,3.906,0.000
1728699467.685,-11.230,-48.340,-16.602,-1.953,0.000
1728699467.689,-42.480,-48.828,-30.273,-28.320,0.000
1728699467.693,-77.637,-42.969,-39.062,-38.086,0.000
1728699467.697,-38.574,-39.551,-41.016,5.859,0.000
1728699467.701,15.137,-37.598,-34.180,24.414,0.000
1728699467.705,15.137,-39.551,-14.160,5.371,0.000
1728699467.709,-24.414,-44.434,-5.859,-21.973,0.000
1728699467.713,-79.102,-46.387,-9.277,-47.852,0.000
1728699467.717,-56.641,-41.992,-14.648,-19.531,0.000
1728699467.720,1.953,-38.574,-20.996,12.207,0.000
1728699467.724,11.230,-35.645,-29.785,7.812,0.000
1728699467.728,-18.066,-36.133,-31.738,-19.531,0.000
1728699467.732,-72.266,-41.992,-30.762,-51.758,0.000
1728699467.736,-59.570,-41.992,-25.391,-23.438,0.000
1728699467.740,2.441,-38.086,-18.066,16.602,0.000
1728699467.744,13.672,-38.574,-20.996,2.441,0.000
1728699467.748,-9.277,-36.133,-26.855,-18.066,0.000
1728699467.752,-60.059,-35.645,-26.367,-48.828,0.000
1728699467.756,-65.918,-38.574,-24.902,-38.574,0.000
1728699467.760,-7.812,-32.227,-23.926,7.812,0.000
1728699467.763,18.066,-26.367,-22.461,16.113,0.000
1728699467.767,-0.977,-26.855,-27.832,-2.441,0.000
1728699467.771,-53.711,-28.809,-34.180,-40.039,0.000
1728699467.775,-67.871,-31.250,-41.016,-42.969,0.000
1728699467.779,-11.230,-30.762,-42.480,-8.789,0.000
1728699467.783,14.648,-32.227,-35.156,0.000,0.000
1728699467.787,-3.418,-37.109,-31.250,-9.766,0.000
1728699467.791,-52.246,-37.109,-29.785,-50.781,0.000
1728699467.795,-83.008,-33.691,-29.785,-63.477,0.000
1728699467.799,-27.344,-27.832,-27.832,-20.020,0.000
1728699467.802,15.137,-24.902,-22.949,-0.488,0.000
1728699467.806,8.301,-27.832,-29.297,-11.230,0.000
1728699467.810,-37.598,-35.645,-36.621,-40.039,0.000
1728699467.814,-72.266,-37.109,-36.133,-57.617,0.000
1728699467.818,-30.273,-36.133,-30.762,-23.926,0.000
1728699467.822,8.301,-37.109,-31.250,-3.418,0.000
1728699467.826,9.766,-28.320,-32.227,-7.324,0.000
1728699467.830,-33.691,-26.855,-34.668,-34.668,0.000
1728699467.834,-86.914,-33.691,-34.668,-78.613,0.000
1728699467.838,-43.945,-34.180,-29.297,-45.898,0.000
1728699467.842,10.254,-38.574,-31.738,0.977,0.000
1728699467.845,5.371,-39.551,-33.203,-2.441,0.000
1728699467.849,-31.738,-33.203,-37.109,-41.992,0.000
1728699467.853,-77.148,-38.574,-36.621,-70.312,0.000
1728699467.857,-49.805,-40.527,-35.645,-26.855,0.000
1728699467.861,9.277,-32.715,-38.574,8.301,0.000
1728699467.865,15.625,-30.273,-29.297,2.930,0.000
1728699467.869,-14.160,-25.391,-24.414,-21.973,0.000
1728699467.873,-63.965,-31.250,-24.414,-49.316,0.000
1728699467.877,-57.129,-40.527,-26.367,-20.996,0.000
1728699467.881,2.441,-34.180,-30.762,0.977,0.000
1728699467.884,18.555,-27.832,-34.180,-0.977,0.000
1728699467.888,-8.301,-30.273,-32.715,-13.184,0.000
1728699467.892,-63.965,-31.250,-28.320,-54.199,0.000
1728699467.896,-59.570,-30.273,-39.062,-48.340,0.000
1728699467.900,4.395,-28.809,-41.016,-0.488,0.000
1728699467.904,17.090,-24.414,-26.367,11.719,0.000
1728699467.908,-9.277,-25.879,-21.973,-3.418,0.000
1728699467.912,-62.988,-28.809,-29.785,-40.039,0.000
1728699467.916,-69.336,-30.273,-29.785,-51.758,0.000
1728699467.920,-4.395,-29.785,-28.809,-2.441,0.000
1728699467.923,16.113,-27.832,-31.738,7.812,0.000
1728699467.927,-0.488,-26.855,-27.344,-9.277,0.000
1728699467.931,-45.898,-25.879,-27.832,-42.480,0.000
1728699467.935,-73.242,-28.809,-29.785,-54.688,0.000
1728699467.939,-17.090,-27.344,-28.320,-8.789,0.000
1728699467.943,16.602,-22.461,-23.926,-1.953,0.000
1728699467.947,5.371,-25.879,-27.344,-13.672,0.000
1728699467.951,-46.387,-27.832,-29.785,-39.551,0.000
1728699467.955,-82.031,-20.020,-26.367,-56.152,0.000
1728699467.959,-22.949,-22.949,-34.180,-22.461,0.000
1728699467.963,23.926,-26.367,-28.809,11.230,0.000
1728699467.967,4.883,-26.367,-25.879,13.184,0.000
1728699467.970,-44.434,-26.367,-35.156,-33.203,0.000
1728699467.974,-80.566,-21.973,-30.273,-56.641,0.000
1728699467.978,-40.527,-23.438,-25.391,-11.230,0.000
1728699467.982,9.277,-25.391,-27.344,6.348,0.000
1728699467.986,8.789,-24.414,-27.344,-12.207,0.000
1728699467.990,-30.273,-29.785,-28.320,-36.621,0.000
1728699467.994,-85.938,-29.785,-31.738,-68.359,0.000
1728699467.998,-57.617,-30.273,-31.738,-41.504,0.000
1728699468.002,2.930,-34.668,-28.809,-2.441,0.000
1728699468.006,14.160,-33.203,-26.855,2.930,0.000
1728699468.010,-24.902,-29.297,-34.668,-26.367,0.000
1728699468.013,-77.637,-30.762,-38.086,-58.594,0.000
1728699468.017,-53.711,-31.738,-36.133,-36.621,0.000
1728699468.021,6.836,-32.227,-32.227,0.977,0.000
1728699468.025,15.137,-27.344,-30.273,10.742,0.000
1728699468.029,-11.719,-23.926,-33.691,-13.184,0.000
1728699468.033,-62.012,-27.344,-32.715,-55.664,0.000
1728699468.037,-62.988,-30.762,-30.273,-38.086,0.000
1728699468.041,-8.301,-26.367,-31.738,7.324,0.000
1728699468.045,0.000,-23.438,-36.621,7.812,0.000
1728699468.049,-14.648,-24.902,-28.809,-9.766,0.000
1728699468.053,-56.641,-28.320,-32.227,-44.434,0.000
1728699468.056,-65.918,-34.668,-35.156,-37.109,0.000
1728699468.060,-5.859,-33.203,-29.785,7.812,0.000
1728699468.064,18.555,-26.855,-32.227,2.441,0.000
1728699468.068,5.371,-27.344,-30.762,-4.395,0.000
1728699468.072,-51.758,-31.738,-28.809,-32.227,0.000
1728699468.076,-80.078,-29.297,-31.738,-58.594,0.000
1728699468.080,-21.484,-27.344,-40.039,-9.766,0.000
1728699468.084,11.230,-28.320,-44.434,18.066,0.000
1728699468.088,4.395,-23.926,-41.992,1.953,0.000
1728699468.092,-34.180,-21.484,-39.062,-31.250,0.000
1728699468.096,-66.406,-29.297,-30.762,-44.922,0.000
1728699468.099,-21.484,-34.668,-26.367,-7.812,0.000
1728699468.103,14.648,-35.156,-27.832,13.184,0.000
1728699468.107,-0.977,-38.086,-29.785,-1.465,0.000
1728699468.111,-46.387,-37.598,-31.738,-38.574,0.000
1728699468.115,-77.637,-34.180,-34.180,-59.570,0.000
1728699468.119,-37.109,-37.598,-34.180,-22.461,0.000
1728699468.123,14.160,-40.039,-34.180,9.277,0.000
1728699468.127,12.695,-34.668,-38.086,-5.859,0.000
1728699468.131,-28.320,-36.133,-34.668,-37.598,0.000
1728699468.135,-80.078,-38.574,-35.645,-65.430,0.000
1728699468.138,-55.176,-37.109,-39.062,-34.180,0.000
1728699468.142,0.000,-34.668,-40.039,4.883,0.000
1728699468.146,-1.953,-38.086,-46.875,-10.254,0.000
1728699468.150,-35.156,-40.039,-40.527,-32.227,0.000
1728699468.154,-75.195,-30.273,-29.297,-59.082,0.000
1728699468.158,-33.691,-25.879,-34.668,-20.020,0.000
1728699468.162,32.715,-27.832,-38.086,30.273,0.000
1728699468.166,30.762,-30.273,-27.344,8.789,0.000
1728699468.170,-21.973,-31.250,-26.367,-36.621,0.000
1728699468.174,-90.332,-34.668,-24.414,-79.590,0.000
1728699468.178,-75.195,-44.434,-19.043,-40.039,0.000
1728699468.181,-20.020,-52.246,-14.648,10.254,0.000
1728699468.185,-11.719,-51.270,-5.859,3.906,0.000
1728699468.189,-31.250,-47.363,-4.395,-14.648,0.000
1728699468.193,-80.078,-47.363,-4.883,-54.688,0.000
1728699468.197,-82.031,-49.316,-7.324,-53.711,0.000
1728699468.201,-22.949,-51.758,-6.836,-6.836,0.000
1728699468.205,2.441,-51.270,-10.742,7.324,0.000
1728699468.209,-10.742,-49.316,-11.719,-5.859,0.000
1728699468.213,-58.105,-48.340,-13.672,-43.457,0.000
1728699468.217,-69.336,-47.363,-11.719,-37.598,0.000
1728699468.220,-17.578,-41.992,-12.207,4.883,0.000
1728699468.224,1.465,-40.527,-25.391,13.672,0.000
1728699468.228,-9.766,-38.574,-28.809,4.395,0.000
1728699468.232,-54.199,-36.133,-16.602,-40.039,0.000
1728699468.236,-86.426,-40.039,-10.742,-59.570,0.000
1728699468.240,-39.551,-42.969,-13.672,-22.949,0.000
1728699468.244,-3.418,-42.480,-16.113,-6.348,0.000
1728699468.248,-5.859,-41.016,-14.648,-9.766,0.000
1728699468.252,-41.992,-35.645,-17.578,-35.156,0.000
1728699468.256,-82.031,-37.598,-27.832,-64.941,0.000
1728699468.260,-36.133,-43.457,-34.668,-21.484,0.000
1728699468.263,13.184,-39.551,-35.156,0.977,0.000
1728699468.267,3.906,-37.598,-31.250,-16.602,0.000
1728699468.271,-40.039,-38.574,-33.691,-45.898,0.000
1728699468.275,-83.008,-38.086,-36.133,-63.477,0.000
1728699468.279,-40.527,-38.086,-24.414,-24.902,0.000
1728699468.283,18.555,-36.133,-17.578,5.371,0.000
1728699468.287,18.066,-32.715,-25.879,-4.395,0.000
1728699468.291,-24.414,-32.715,-26.367,-27.344,0.000
1728699468.295,-75.195,-35.156,-32.227,-56.152,0.000
1728699468.299,-41.016,-36.621,-40.039,-41.016,0.000
1728699468.302,17.090,-38.574,-29.297,-9.766,0.000
1728699468.306,7.324,-40.527,-29.297,-0.488,0.000
1728699468.310,-33.203,-40.039,-29.785,-24.902,0.000
1728699468.314,-82.520,-34.668,-22.949,-70.312,0.000
1728699468.318,-58.594,-35.156,-23.926,-42.969,0.000
1728699468.322,13.184,-36.621,-24.414,1.953,0.000
1728699468.326,25.879,-37.109,-21.973,3.418,0.000
1728699468.330,-13.672,-35.156,-30.273,-18.066,0.000
1728699468.334,-65.430,-31.738,-25.879,-60.059,0.000
1728699468.338,-54.199,-32.715,-21.484,-45.410,0.000
1728699468.341,11.230,-31.250,-32.715,3.418,0.000
1728699468.345,36.133,-31.738,-34.180,2.930,0.000
1728699468.349,13.672,-31.738,-29.297,-18.555,0.000
1728699468.353,-51.758,-35.645,-24.902,-46.875,0.000
1728699468.357,-72.266,-39.551,-31.250,-39.062,0.000
1728699468.361,-6.836,-33.691,-29.785,-4.883,0.000
1728699468.365,30.762,-31.250,-21.484,6.348,0.000
1728699468.369,6.836,-30.762,-28.809,0.488,0.000
1728699468.373,-54.199,-32.227,-34.668,-38.574,0.000
1728699468.377,-69.824,-32.715,-30.273,-47.852,0.000
1728699468.381,-14.160,-28.809,-32.715,-8.301,0.000
1728699468.384,18.555,-28.809,-28.809,3.418,0.000
1728699468.388,8.301,-28.809,-23.926,2.441,0.000
1728699468.392,-41.016,-25.879,-28.320,-36.621,0.000
1728699468.396,-70.801,-27.344,-28.809,-56.641,0.000
1728699468.400,-15.137,-27.344,-27.344,-13.672,0.000
1728699468.404,20.020,-22.949,-31.250,-4.883,0.000
1728699468.408,7.324,-29.297,-33.203,-18.555,0.000
1728699468.412,-40.527,-36.621,-31.738,-42.969,0.000
1728699468.416,-83.984,-27.344,-44.434,-71.777,0.000
1728699468.420,-38.574,-30.762,-47.852,-28.809,0.000
1728699468.424,3.418,-37.598,-38.574,5.859,0.000
1728699468.427,4.395,-29.785,-39.062,-0.977,0.000
1728699468.431,-25.879,-30.273,-40.527,-31.738,0.000
1728699468.435,-68.848,-32.227,-39.551,-68.359,0.000
1728699468.439,-33.203,-32.227,-38.086,-32.715,0.000
1728699468.443,23.438,-28.809,-33.203,3.906,0.000
1728699468.447,20.508,-29.785,-25.879,-5.859,0.000
1728699468.451,-20.996,-32.715,-26.367,-33.203,0.000
1728699468.455,-65.918,-28.320,-36.133,-66.895,0.000
1728699468.459,-47.852,-27.832,-30.762,-49.316,0.000
1728699468.463,1.953,-29.297,-23.926,-4.883,0.000
1728699468.467,5.371,-27.344,-28.809,0.000,0.000
1728699468.470,-25.391,-31.250,-28.320,-24.414,0.000
1728699468.474,-67.383,-31.250,-32.715,-52.734,0.000
1728699468.478,-72.754,-38.574,-33.691,-43.945,0.000
1728699468.482,-27.344,-43.945,-20.996,-34.180,0.000
1728699468.486,6.348,-41.992,-30.273,-31.250,0.000
1728699468.490,-8.301,-39.551,-35.156,-14.648,0.000
1728699468.494,-71.777,-34.668,-24.414,-52.246,0.000
1728699468.498,-74.219,-35.645,-5.859,-63.477,0.000
1728699468.502,12.207,-15.625,-8.789,6.348,0.000
1728699468.506,26.855,-17.578,-33.691,8.789,0.000
1728699468.509,-10.254,-37.598,-5.371,-30.762,0.000
1728699468.513,-80.566,-43.945,27.344,-98.145,0.000
1728699468.517,-101.074,-34.180,0.977,-91.309,0.000
1728699468.521,-7.812,-11.719,-23.438,4.395,0.000
1728699468.525,27.344,-11.230,-6.836,0.977,0.000
1728699468.529,-14.648,-26.855,2.441,-53.223,0.000
1728699468.533,-100.586,-42.480,-16.602,-104.492,0.000
1728699468.537,-138.184,-33.691,20.020,-125.000,0.000
1728699468.541,-56.641,-20.020,26.855,-59.082,0.000
1728699468.545,-30.273,-34.180,42.969,-68.848,0.000
1728699468.549,-54.199,-39.551,27.832,-107.910,0.000
1728699468.552,-89.355,-25.391,7.324,-103.027,0.000
1728699468.556,-155.273,-51.270,78.613,-128.418,0.000
1728699468.560,-108.398,-53.711,108.398,-97.168,0.000
1728699468.564,-38.574,-27.832,103.027,-70.801,0.000
1728699468.568,-57.129,-37.109,131.348,-78.613,0.000
1728699468.572,-124.512,-51.270,180.664,-123.047,0.000
1728699468.576,-173.828,-45.410,212.891,-174.805,0.000
1728699468.580,-147.949,-58.105,243.652,-121.582,0.000
1728699468.584,-77.637,-62.012,246.582,-52.246,0.000
1728699468.588,-47.363,-56.641,265.137,-46.387,0.000
1728699468.591,-68.359,-53.223,292.969,-76.172,0.000
1728699468.595,-117.676,-43.457,312.500,-122.559,0.000
1728699468.599,-148.438,-54.688,356.445,-132.812,0.000
1728699468.603,-79.102,-34.180,356.934,-86.914,0.000
1728699468.607,-45.410,-37.598,354.492,-81.543,0.000
1728699468.611,-72.266,-42.480,316.406,-91.309,0.000
1728699468.615,-124.023,-34.180,307.129,-118.652,0.000
1728699468.619,-122.559,-42.969,317.383,-118.652,0.000
1728699468.623,-23.926,-20.508,251.953,-21.484,0.000
1728699468.627,-43.457,-53.711,276.855,-32.227,0.000
1728699468.631,-61.035,-75.684,234.863,-89.355,0.000
1728699468.634,-61.035,-38.086,64.453,-112.793,0.000
1728699468.638,-115.234,-45.898,23.438,-122.559,0.000
1728699468.642,-85.938,-54.199,-15.625,-57.129,0.000
1728699468.646,3.906,-37.598,-164.551,0.488,0.000
1728699468.650,18.066,-27.344,-274.414,-17.090,0.000
1728699468.654,-56.641,-33.203,-306.152,-79.590,0.000
1728699468.658,-101.074,-49.316,-355.469,-83.984,0.000
1728699468.662,-45.898,-56.641,-406.738,-23.926,0.000
1728699468.666,-6.348,-46.875,-468.750,-16.113,0.000
1728699468.670,-18.555,-34.668,-567.871,-26.367,0.000
1728699468.673,-58.105,-40.039,-636.230,-40.527,0.000
1728699468.677,-81.055,-46.387,-690.430,-58.594,0.000
1728699468.681,-29.297,-43.457,-766.113,-35.156,0.000
1728699468.685,19.043,-28.809,-860.352,3.418,0.000
1728699468.689,15.625,-31.738,-941.406,17.090,0.000
1728699468.693,-20.020,-28.320,-997.070,-12.207,0.000
1728699468.697,-55.176,-22.949,-1000.000,-50.781,0.000
1728699468.701,-21.973,-40.039,-999.023,-18.555,0.000
1728699468.705,7.812,-46.387,-1000.000,11.719,0.000
1728699468.709,6.348,-32.715,-1000.000,2.441,0.000
1728699468.712,-18.555,-24.414,-1000.000,-27.832,0.000
1728699468.716,-71.289,-29.785,-1000.000,-53.223,0.000
1728699468.720,-48.340,-36.133,-1000.000,-31.738,0.000
1728699468.724,18.066,-40.527,-1000.000,9.766,0.000
1728699468.728,34.180,-31.738,-1000.000,46.875,0.000
1728699468.732,-0.488,-23.438,-1000.000,32.227,0.000
1728699468.736,-47.852,-25.391,-1000.000,-16.602,0.000
1728699468.740,-17.578,-26.367,-1000.000,11.230,0.000
1728699468.744,33.691,-24.414,-1000.000,46.875,0.000
1728699468.748,52.246,-24.902,-1000.000,45.898,0.000
1728699468.752,22.461,-24.414,-1000.000,21.973,0.000
1728699468.755,-47.852,-25.391,-1000.000,-19.043,0.000
1728699468.759,-35.645,-16.602,-999.512,11.230,0.000
1728699468.763,25.879,-8.301,-1000.000,54.199,0.000
1728699468.767,42.969,-9.277,-982.910,44.922,0.000
1728699468.771,10.254,-13.184,-932.129,20.508,0.000
1728699468.775,-49.316,-19.531,-887.695,-27.832,0.000
1728699468.779,-34.668,-17.090,-858.887,-5.859,0.000
1728699468.783,23.438,-15.137,-811.523,51.270,0.000
1728699468.787,28.809,-20.996,-748.047,57.129,0.000
1728699468.791,14.160,-24.414,-690.918,39.551,0.000
1728699468.795,-27.344,-27.344,-634.277,-11.230,0.000
1728699468.798,-48.340,-27.832,-569.336,-10.742,0.000
1728699468.802,9.766,-23.438,-518.066,45.410,0.000
1728699468.806,42.969,-24.902,-436.035,57.129,0.000
1728699468.810,18.066,-27.832,-305.664,29.785,0.000
1728699468.814,-30.273,-19.043,-177.246,-20.020,0.000
1728699468.818,-46.387,-17.090,-35.645,-15.625,0.000
1728699468.822,7.324,-27.832,148.438,35.645,0.000
1728699468.826,47.852,-25.879,381.836,37.109,0.000
1728699468.830,35.156,-11.719,610.840,20.508,0.000
1728699468.834,-20.020,-11.719,831.055,-18.066,0.000
1728699468.838,-43.945,-15.625,965.820,-20.996,0.000
1728699468.841,11.230,-14.648,965.820,25.879,0.000
1728699468.845,60.547,-7.812,965.820,43.945,0.000
1728699468.849,47.363,-10.254,969.238,29.785,0.000
1728699468.853,-8.301,-14.160,968.262,-1.953,0.000
1728699468.857,-51.270,-16.602,967.773,-28.320,0.000
1728699468.861,-13.184,-18.555,967.773,5.859,0.000
1728699468.865,34.180,-14.160,968.262,33.203,0.000
1728699468.869,25.391,-16.113,968.262,9.766,0.000
1728699468.873,-15.137,-18.066,967.773,-29.785,0.000
1728699468.877,-51.270,-18.555,968.262,-59.082,0.000
1728699468.881,-16.602,-19.531,968.262,-23.438,0.000
1728699468.884,30.762,-17.578,968.750,15.625,0.000
1728699468.888,37.598,-13.672,966.309,21.973,0.000
1728699468.892,1.465,-8.789,969.238,-4.883,0.000
1728699468.896,-48.340,-13.672,955.078,-48.828,0.000
1728699468.900,-17.578,-20.996,885.254,-30.762,0.000
1728699468.904,40.039,-16.602,795.410,15.625,0.000
1728699468.908,43.945,-11.719,726.074,23.438,0.000
1728699468.912,5.859,-13.672,671.875,-5.859,0.000
1728699468.916,-49.805,-20.020,608.887,-37.598,0.000
1728699468.920,-45.410,-23.926,545.898,-21.973,0.000
1728699468.924,11.719,-26.855,514.160,8.789,0.000
1728699468.927,17.090,-29.785,507.324,6.348,0.000
1728699468.931,-8.301,-27.832,480.469,-13.184,0.000
1728699468.935,-46.875,-22.949,435.059,-30.273,0.000
1728699468.939,-54.199,-22.461,380.859,-25.879,0.000
1728699468.943,-4.395,-24.902,345.215,1.953,0.000
1728699468.947,16.113,-20.020,328.613,10.742,0.000
1728699468.951,-0.977,-21.484,289.551,-7.812,0.000
1728699468.955,-56.641,-23.926,242.676,-46.875,0.000
1728699468.959,-83.008,-21.973,226.074,-47.852,0.000
1728699468.963,-10.742,-19.531,204.590,-3.906,0.000
1728699468.966,28.809,-15.137,172.852,4.395,0.000
1728699468.970,9.766,-21.973,154.297,-14.648,0.000
1728699468.974,-44.922,-27.344,138.672,-50.293,0.000
1728699468.978,-75.684,-28.809,123.535,-59.082,0.000
1728699468.982,-20.508,-28.320,123.535,-16.113,0.000
1728699468.986,18.066,-26.855,133.301,5.371,0.000
1728699468.990,2.930,-28.809,126.465,-12.695,0.000
1728699468.994,-45.410,-24.902,96.680,-44.434,0.000
1728699468.998,-83.008,-26.367,88.867,-54.199,0.000
1728699469.002,-38.086,-31.738,97.168,-9.277,0.000
1728699469.005,5.371,-32.715,87.891,0.488,0.000
1728699469.009,14.160,-26.367,77.637,-6.348,0.000
1728699469.013,-27.344,-25.391,59.570,-28.320,0.000
1728699469.017,-77.637,-26.367,41.992,-52.246,0.000
1728699469.021,-36.133,-25.879,31.250,-10.742,0.000
1728699469.025,19.043,-25.879,27.344,12.695,0.000
1728699469.029,14.648,-26.855,25.879,0.488,0.000
1728699469.033,-18.555,-33.203,0.977,-22.949,0.000
1728699469.037,-58.594,-27.832,-13.184,-54.199,0.000
1728699469.041,-36.621,-25.391,-4.883,-27.832,0.000
1728699469.045,12.695,-27.344,-4.395,17.578,0.000
1728699469.048,14.160,-26.367,-14.648,16.113,0.000
1728699469.052,-16.113,-22.461,-26.367,-11.719,0.000
1728699469.056,-69.336,-19.531,-42.480,-43.457,0.000
1728699469.060,-54.688,-20.996,-41.016,-26.855,0.000
1728699469.064,13.184,-20.020,-21.973,14.160,0.000
1728699469.068,27.344,-20.020,-23.438,10.742,0.000
1728699469.072,4.395,-25.391,-31.738,-2.930,0.000
1728699469.076,-52.246,-26.367,-37.109,-36.133,0.000
1728699469.080,-63.477,-23.438,-40.039,-34.180,0.000
1728699469.084,-9.277,-21.484,-47.363,9.277,0.000
1728699469.088,12.695,-20.020,-56.152,19.043,0.000
1728699469.091,-3.906,-16.602,-72.754,0.000,0.000
1728699469.095,-55.664,-16.602,-84.473,-48.340,0.000
1728699469.099,-68.848,-21.484,-63.965,-46.875,0.000
1728699469.103,-6.348,-23.926,-50.781,-0.488,0.000
1728699469.107,20.996,-22.461,-51.270,4.395,0.000
1728699469.111,2.441,-22.949,-52.246,-6.348,0.000
1728699469.115,-44.434,-25.879,-61.523,-41.504,0.000
1728699469.119,-72.266,-27.344,-64.453,-50.781,0.000
1728699469.123,-22.461,-22.461,-57.129,-0.488,0.000
1728699469.127,9.766,-24.414,-57.617,10.254,0.000
1728699469.131,0.977,-29.297,-65.918,-0.488,0.000
1728699469.134,-37.109,-25.879,-67.383,-25.879,0.000
1728699469.138,-69.824,-22.461,-82.031,-41.504,0.000
1728699469.142,-23.438,-22.949,-91.309,-4.883,0.000
1728699469.146,19.531,-30.762,-79.102,16.602,0.000
1728699469.150,20.020,-33.203,-99.121,15.137,0.000
1728699469.154,-28.320,-26.367,-107.910,-21.973,0.000
1728699469.158,-77.637,-28.809,-75.195,-61.035,0.000
1728699469.162,-40.039,-33.203,-51.270,-25.391,0.000
1728699469.166,1.465,-33.691,-44.922,0.000,0.000
1728699469.170,1.465,-32.715,-50.293,-9.277,0.000
1728699469.174,-29.297,-27.832,-53.223,-32.715,0.000
1728699469.177,-78.613,-33.203,-63.477,-57.129,0.000
1728699469.181,-47.852,-35.156,-90.820,-28.320,0.000
1728699469.185,7.324,-33.203,-96.680,5.371,0.000
1728699469.189,5.371,-33.203,-82.520,0.977,0.000
1728699469.193,-23.438,-27.344,-69.824,-20.020,0.000
1728699469.197,-78.613,-29.297,-62.012,-45.410,0.000
1728699469.201,-65.430,-33.203,-69.336,-34.180,0.000
1728699469.205,-3.906,-32.715,-73.730,0.488,0.000
1728699469.209,4.395,-33.203,-66.895,-1.953,0.000
1728699469.213,-14.160,-32.227,-74.219,-20.996,0.000
1728699469.217,-55.176,-26.367,-95.215,-52.246,0.000
1728699469.220,-55.664,-27.832,-93.262,-36.133,0.000
1728699469.224,-6.836,-33.203,-62.500,2.930,0.000
1728699469.228,18.555,-30.273,-41.016,1.953,0.000
1728699469.232,0.000,-29.785,-38.086,-19.531,0.000
1728699469.236,-55.176,-33.691,-43.945,-53.711,0.000
1728699469.240,-64.453,-37.598,-46.387,-44.434,0.000
1728699469.244,-2.930,-31.738,-47.852,-0.488,0.000
1728699469.248,23.926,-25.879,-48.828,9.277,0.000
1728699469.252,5.859,-23.926,-61.035,-1.465,0.000
1728699469.256,-41.504,-22.461,-70.312,-37.109,0.000
1728699469.260,-71.289,-26.367,-66.895,-48.828,0.000
1728699469.263,-21.484,-32.715,-59.570,-5.859,0.000
1728699469.267,11.230,-38.086,-57.129,6.836,0.000
1728699469.271,-2.441,-31.738,-54.688,-16.602,0.000
1728699469.275,-36.621,-26.855,-44.434,-52.246,0.000
1728699469.279,-77.637,-31.250,-42.969,-58.594,0.000
1728699469.283,-43.457,-32.715,-42.480,-0.488,0.000
1728699469.287,15.625,-30.762,-54.688,17.090,0.000
1728699469.291,14.648,-27.832,-62.988,-9.766,0.000
1728699469.295,-35.645,-29.297,-58.105,-37.109,0.000
1728699469.299,-71.777,-33.203,-56.152,-61.523,0.000
1728699469.302,-16.113,-29.297,-49.805,-15.137,0.000
1728699469.306,25.391,-26.367,-50.781,12.695,0.000
1728699469.310,18.555,-29.297,-50.293,-1.953,0.000
1728699469.314,-4.883,-28.320,-56.152,-19.043,0.000
1728699469.318,-47.363,-24.414,-82.031,-39.062,0.000
1728699469.322,-27.832,-27.344,-86.914,-12.207,0.000
1728699469.326,12.695,-25.879,-56.152,12.695,0.000
1728699469.330,11.230,-26.855,-28.809,11.719,0.000
1728699469.334,-28.320,-33.691,-11.230,-25.879,0.000
1728699469.338,-83.984,-34.668,-16.113,-72.754,0.000
1728699469.342,-49.316,-31.738,-20.996,-39.062,0.000
1728699469.345,16.602,-29.785,-27.344,13.184,0.000
1728699469.349,19.043,-27.832,-46.387,2.441,0.000
1728699469.353,-15.625,-29.297,-46.875,-29.785,0.000
1728699469.357,-61.035,-29.297,-38.574,-43.457,0.000
1728699469.361,-50.781,-30.762,-35.156,-22.461,0.000
1728699469.365,2.441,-31.250,-29.297,8.789,0.000
1728699469.369,16.113,-26.855,-33.203,8.789,0.000
1728699469.373,-7.812,-27.344,-47.852,-3.906,0.000
1728699469.377,-64.453,-32.715,-44.434,-43.945,0.000
1728699469.381,-66.895,-26.367,-46.875,-45.410,0.000
1728699469.384,3.906,-19.043,-61.035,6.836,0.000
1728699469.388,23.438,-25.879,-60.547,11.230,0.000
1728699469.392,-10.742,-25.391,-47.852,-10.254,0.000
1728699469.396,-54.688,-24.902,-30.273,-36.133,0.000
1728699469.400,-61.523,-28.809,-37.109,-39.062,0.000
1728699469.404,-10.742,-25.879,-57.129,-6.348,0.000
1728699469.408,14.160,-23.926,-45.898,-0.977,0.000
1728699469.412,-6.836,-29.785,-23.438,-15.137,0.000
1728699469.416,-51.270,-30.273,-14.160,-44.434,0.000
1728699469.420,-80.566,-32.227,-12.207,-52.734,0.000
1728699469.423,-32.227,-35.156,-25.879,-16.113,0.000
1728699469.427,11.230,-29.297,-39.551,6.348,0.000
1728699469.431,0.000,-28.320,-36.621,-0.977,0.000
1728699469.435,-42.969,-29.785,-28.320,-34.668,0.000
1728699469.439,-72.754,-28.809,-35.156,-53.711,0.000
1728699469.443,-25.879,-26.367,-37.598,-11.719,0.000
1728699469.447,20.508,-23.438,-19.531,13.184,0.000
1728699469.451,12.207,-26.367,-22.949,7.324,0.000
1728699469.455,-31.738,-27.344,-36.621,-18.066,0.000
1728699469.459,-71.777,-27.832,-25.879,-49.316,0.000
1728699469.462,-33.691,-30.762,-18.555,-14.648,0.000
1728699469.466,13.184,-24.902,-17.578,13.184,0.000
1728699469.470,15.625,-14.648,-28.320,-1.953,0.000
1728699469.474,-20.996,-18.555,-38.086,-27.344,0.000
1728699469.478,-75.684,-27.344,-33.203,-52.246,0.000
1728699469.482,-45.898,-21.973,-30.762,-23.926,0.000
1728699469.486,7.324,-20.508,-27.344,7.812,0.000
1728699469.490,5.371,-21.973,-32.227,4.395,0.000
1728699469.494,-28.320,-23.926,-40.527,-24.902,0.000
1728699469.498,-66.895,-28.320,-32.715,-54.688,0.000
1728699469.502,-49.805,-26.367,-23.438,-29.297,0.000
1728699469.505,5.371,-19.043,-17.090,2.930,0.000
1728699469.509,21.484,-21.484,-14.648,-0.977,0.000
1728699469.513,1.465,-24.902,-29.785,-21.484,0.000
1728699469.517,-57.129,-23.438,-45.898,-62.988,0.000
1728699469.521,-66.895,-23.438,-38.086,-52.246,0.000
1728699469.525,0.488,-24.902,-25.879,-2.441,0.000
1728699469.529,20.020,-30.273,-20.508,-3.418,0.000
1728699469.533,-9.766,-31.738,-16.113,-20.508,0.000
1728699469.537,-59.570,-31.738,-13.184,-54.688,0.000
1728699469.541,-62.012,-35.156,-5.371,-54.199,0.000
1728699469.545,4.883,-30.273,-10.254,-9.277,0.000
1728699469.548,26.855,-25.879,-31.250,2.441,0.000
1728699469.552,-6.348,-25.879,-29.785,-8.789,0.000
1728699469.556,-52.734,-24.414,-14.648,-45.898,0.000
1728699469.560,-78.125,-21.973,-13.184,-61.035,0.000
1728699469.564,-24.414,-23.438,-12.695,-25.391,0.000
1728699469.568,22.461,-24.414,-8.301,8.789,0.000
1728699469.572,12.207,-21.973,-11.230,9.277,0.000
1728699469.576,-35.156,-24.414,-16.602,-30.273,0.000
1728699469.580,-71.289,-25.879,-28.320,-44.434,0.000
1728699469.584,-23.438,-25.879,-47.852,-7.324,0.000
1728699469.588,23.438,-20.996,-42.969,11.230,0.000
1728699469.591,15.625,-24.902,-20.508,2.930,0.000
1728699469.595,-39.062,-29.297,-7.812,-21.484,0.000
1728699469.599,-83.984,-26.367,-12.695,-50.293,0.000
1728699469.603,-45.410,-28.320,-21.484,-25.391,0.000
1728699469.607,6.836,-29.297,-24.902,-1.465,0.000
1728699469.611,17.090,-27.344,-34.668,-4.883,0.000
1728699469.615,-18.555,-28.809,-28.809,-23.926,0.000
1728699469.619,-67.871,-31.738,-33.691,-57.617,0.000
1728699469.623,-45.410,-30.762,-50.293,-22.949,0.000
1728699469.627,6.348,-27.832,-44.922,19.043,0.000
1728699469.631,8.301,-28.809,-37.109,7.812,0.000
1728699469.634,-21.484,-32.227,-23.438,-18.066,0.000
1728699469.638,-69.824,-31.738,-13.672,-48.340,0.000
1728699469.642,-57.617,-35.156,-14.648,-20.996,0.000
1728699469.646,6.836,-36.621,-18.555,10.254,0.000
1728699469.650,18.066,-29.297,-21.484,5.371,0.000
1728699469.654,-8.789,-26.367,-27.344,-6.836,0.000
1728699469.658,-49.805,-25.391,-29.785,-34.180,0.000
1728699469.662,-56.152,-30.762,-30.762,-31.738,0.000
1728699469.666,-6.348,-36.621,-37.109,-0.977,0.000
1728699469.670,25.391,-30.762,-26.855,24.414,0.000
1728699469.673,19.043,-26.367,-26.855,12.695,0.000
1728699469.677,-29.785,-26.855,-33.203,-41.504,0.000
1728699469.681,-59.570,-25.391,-38.574,-54.688,0.000
1728699469.685,-15.137,-22.461,-40.527,-16.113,0.000
1728699469.689,7.812,-24.414,-31.738,-6.836,0.000
1728699469.693,-5.371,-21.973,-39.062,-20.020,0.000
1728699469.697,-55.176,-20.508,-45.898,-59.570,0.000
1728699469.701,-78.613,-24.414,-38.574,-60.059,0.000
1728699469.705,-10.742,-26.367,-35.645,0.000,0.000
1728699469.709,19.043,-23.926,-44.434,6.836,0.000
1728699469.713,-5.859,-24.414,-51.758,-15.625,0.000
1728699469.716,-44.922,-28.320,-46.387,-52.734,0.000
1728699469.720,-73.730,-25.391,-37.598,-69.336,0.000
1728699469.724,-25.391,-22.949,-35.156,-17.578,0.000
1728699469.728,19.531,-22.949,-36.621,5.859,0.000
1728699469.732,14.648,-19.043,-35.645,-8.789,0.000
1728699469.736,-29.785,-21.484,-41.016,-45.898,0.000
1728699469.740,-77.637,-23.438,-46.387,-59.570,0.000
1728699469.744,-40.039,-18.555,-38.086,-16.113,0.000
1728699469.748,3.906,-20.996,-38.086,5.371,0.000
1728699469.752,5.859,-27.344,-52.246,-8.301,0.000
1728699469.755,-30.273,-24.902,-69.824,-46.875,0.000
1728699469.759,-82.031,-23.926,-65.918,-73.242,0.000
1728699469.763,-48.828,-28.320,-46.875,-44.922,0.000
1728699469.767,0.488,-31.250,-38.574,-19.043,0.000
1728699469.771,3.418,-33.203,-35.645,-18.555,0.000
1728699469.775,-28.320,-30.762,-41.016,-46.387,0.000
1728699469.779,-81.543,-35.645,-43.945,-71.289,0.000
1728699469.783,-55.664,-43.945,-35.156,-42.969,0.000
1728699469.787,6.836,-37.109,-34.180,-2.930,0.000
1728699469.791,18.555,-34.668,-55.176,2.441,0.000
1728699469.795,-11.719,-36.133,-62.988,-22.949,0.000
1728699469.798,-69.824,-33.203,-40.039,-60.547,0.000
1728699469.802,-55.176,-32.227,-24.902,-40.039,0.000
1728699469.806,10.742,-30.273,-25.391,1.953,0.000
1728699469.810,20.996,-25.879,-26.367,-9.277,0.000
1728699469.814,-11.719,-25.879,-35.156,-29.297,0.000
1728699469.818,-67.383,-30.762,-47.363,-57.617,0.000
1728699469.822,-68.359,-29.297,-45.410,-53.711,0.000
1728699469.826,-10.254,-26.367,-40.527,-9.277,0.000
1728699469.830,3.906,-30.273,-36.133,-7.812,0.000
1728699469.833,-12.207,-28.809,-28.320,-15.137,0.000
1728699469.837,-55.176,-26.855,-32.227,-37.109,0.000
1728699469.841,-76.172,-29.297,-41.504,-42.480,0.000
1728699469.845,-19.531,-30.762,-34.180,-1.953,0.000
1728699469.849,15.137,-27.832,-24.414,7.812,0.000
1728699469.853,2.441,-21.973,-29.297,2.441,0.000
1728699469.857,-44.434,-24.902,-31.250,-27.344,0.000
1728699469.861,-70.312,-24.414,-24.902,-45.410,0.000
1728699469.865,-23.438,-25.879,-24.902,-9.277,0.000
1728699469.869,9.766,-32.227,-37.598,5.371,0.000
1728699469.873,6.836,-28.809,-42.969,-3.906,0.000
1728699469.877,-35.645,-24.902,-30.762,-48.828,0.000
1728699469.880,-77.637,-27.832,-22.949,-69.336,0.000
1728699469.884,-33.691,-25.879,-25.879,-26.367,0.000
1728699469.888,17.578,-23.438,-29.785,0.000,0.000
1728699469.892,18.555,-26.367,-36.133,0.977,0.000
1728699469.896,-14.648,-26.855,-37.109,-20.996,0.000
1728699469.900,-62.988,-25.391,-33.691,-48.340,0.000
1728699469.904,-42.969,-26.855,-32.227,-20.996,0.000
1728699469.908,5.371,-30.762,-24.902,4.883,0.000
1728699469.912,3.906,-25.879,-23.438,-2.441,0.000
1728699469.916,-28.320,-17.090,-26.855,-30.273,0.000
1728699469.920,-68.359,-15.625,-24.414,-68.359,0.000
1728699469.923,-47.852,-23.926,-27.832,-44.922,0.000
1728699469.927,10.254,-30.273,-33.203,-10.742,0.000
1728699469.931,23.438,-30.273,-33.203,2.441,0.000
1728699469.935,-4.883,-33.691,-29.297,-9.277,0.000
1728699469.939,-71.777,-27.832,-34.668,-62.012,0.000
1728699469.943,-66.406,-20.996,-49.805,-42.969,0.000
1728699469.947,-6.348,-23.438,-47.852,-10.254,0.000
1728699469.951,3.418,-29.297,-40.039,-14.160,0.000
1728699469.955,-12.695,-26.855,-34.180,-23.926,0.000
1728699469.959,-55.664,-18.066,-33.691,-59.082,0.000
1728699469.963,-51.270,-22.949,-31.738,-37.598,0.000
1728699469.966,1.953,-26.367,-33.691,3.418,0.000
1728699469.970,22.949,-28.809,-35.645,4.395,0.000
1728699469.974,7.324,-30.762,-34.668,-9.277,0.000
1728699469.978,-52.734,-25.391,-38.086,-39.551,0.000
1728699469.982,-70.312,-20.508,-34.180,-33.691,0.000
1728699469.986,-9.277,-20.020,-35.156,4.883,0.000
1728699469.990,19.531,-21.484,-40.039,13.672,0.000
1728699469.994,10.742,-21.973,-41.016,0.000,0.000
1728699469.998,-40.527,-20.996,-41.992,-43.457,0.000
1728699470.002,-70.312,-24.414,-32.227,-50.293,0.000
1728699470.005,-5.859,-27.344,-24.902,-0.977,0.000
1728699470.009,29.297,-26.367,-28.809,14.160,0.000
1728699470.013,20.996,-22.461,-31.738,5.371,0.000
1728699470.017,-3.418,-20.020,-34.668,-18.066,0.000
1728699470.021,-41.992,-21.484,-38.574,-34.180,0.000
1728699470.025,-9.766,-20.020,-38.574,-5.859,0.000
1728699470.029,22.461,-20.508,-38.086,11.719,0.000
1728699470.033,20.020,-20.508,-30.762,16.113,0.000
1728699470.037,-19.531,-25.391,-27.344,-11.719,0.000
1728699470.041,-57.129,-24.902,-35.156,-47.363,0.000
1728699470.045,-23.438,-21.973,-32.715,-13.184,0.000
1728699470.048,19.531,-27.832,-33.203,8.789,0.000
1728699470.052,26.367,-29.297,-34.180,0.488,0.000
1728699470.056,-11.719,-23.926,-25.879,-20.996,0.000
1728699470.060,-68.848,-30.273,-22.949,-58.594,0.000
1728699470.064,-47.852,-30.762,-22.461,-27.344,0.000
1728699470.068,15.625,-20.020,-25.879,16.602,0.000
1728699470.072,19.043,-23.926,-31.250,9.766,0.000
1728699470.076,-20.020,-24.902,-34.180,-19.531,0.000
1728699470.080,-64.453,-21.484,-33.691,-45.898,0.000
1728699470.084,-49.316,-23.438,-33.203,-17.090,0.000
1728699470.087,4.883,-22.949,-25.879,19.043,0.000
1728699470.091,20.020,-25.391,-17.578,6.836,0.000
1728699470.095,-11.230,-28.320,-16.113,-15.137,0.000
1728699470.099,-74.219,-31.738,-22.461,-53.223,0.000
1728699470.103,-70.312,-30.273,-31.250,-43.945,0.000
1728699470.107,-3.906,-21.973,-40.039,-0.977,0.000
1728699470.111,12.207,-20.508,-37.109,0.488,0.000
1728699470.115,-9.766,-23.926,-26.367,-17.578,0.000
1728699470.119,-63.477,-26.367,-15.625,-61.523,0.000
1728699470.123,-77.148,-32.715,-15.137,-52.734,0.000
1728699470.127,-17.578,-36.133,-25.391,-3.418,0.000
1728699470.130,1.953,-33.203,-31.250,-12.695,0.000
1728699470.134,-15.137,-31.738,-29.785,-31.738,0.000
1728699470.138,-46.875,-30.273,-32.715,-54.199,0.000
1728699470.142,-58.594,-35.645,-28.320,-48.828,0.000
1728699470.146,-16.113,-39.551,-31.250,-15.625,0.000
1728699470.150,-1.953,-36.133,-39.062,-3.906,0.000
1728699470.154,-12.207,-36.133,-35.156,-7.324,0.000
1728699470.158,-53.223,-32.715,-30.273,-40.527,0.000
1728699470.162,-81.055,-30.762,-27.344,-58.594,0.000
1728699470.166,-32.227,-33.691,-28.320,-20.508,0.000
1728699470.169,8.789,-34.668,-31.250,8.789,0.000
1728699470.173,-6.348,-34.668,-40.039,-5.371,0.000
1728699470.177,-54.199,-32.715,-33.691,-52.246,0.000
1728699470.181,-86.426,-35.156,-25.879,-76.172,0.000
1728699470.185,-40.527,-39.551,-32.227,-33.203,0.000
1728699470.189,15.625,-35.645,-28.809,0.000,0.000
1728699470.193,16.113,-30.273,-22.949,0.488,0.000
1728699470.197,-24.902,-32.715,-20.020,-32.715,0.000
1728699470.201,-71.289,-32.715,-25.879,-63.965,0.000
1728699470.205,-39.551,-30.762,-31.738,-23.438,0.000
1728699470.209,14.648,-27.832,-24.902,15.137,0.000
1728699470.213,33.203,-26.367,-16.113,27.344,0.000
1728699470.217,8.789,-23.926,-19.043,9.766,0.000
1728699470.220,-61.035,-17.578,-33.203,-57.617,0.000
1728699470.224,-43.457,-19.043,-29.297,-43.945,0.000
1728699470.228,21.484,-12.207,-21.484,20.508,0.000
1728699470.232,31.250,-6.348,-26.367,13.184,0.000
1728699470.236,14.648,-16.113,-25.391,-6.836,0.000
1728699470.240,-44.922,-20.508,-28.320,-36.621,0.000
1728699470.244,-44.922,-20.508,-31.250,-20.508,0.000
1728699470.248,13.672,-18.066,-32.227,27.832,0.000
1728699470.252,40.039,-9.277,-27.344,30.273,0.000
1728699470.256,22.461,-9.277,-29.297,5.859,0.000
1728699470.260,-43.457,-15.625,-33.203,-38.574,0.000
1728699470.263,-41.016,-17.578,-33.691,-32.715,0.000
1728699470.267,19.043,-14.160,-36.133,11.230,0.000
1728699470.271,22.461,-12.207,-32.715,14.648,0.000
1728699470.275,15.137,-15.625,-33.203,-2.441,0.000
1728699470.279,-30.762,-17.578,-37.109,-41.992,0.000
1728699470.283,-58.105,-20.508,-31.738,-53.711,0.000
1728699470.287,0.977,-20.996,-26.855,-1.953,0.000
1728699470.291,39.062,-21.484,-25.391,22.461,0.000
1728699470.295,16.602,-21.973,-32.227,-8.789,0.000
1728699470.299,-39.062,-20.020,-40.039,-56.641,0.000
1728699470.303,-63.477,-25.391,-42.969,-49.316,0.000
1728699470.306,-18.066,-27.344,-43.457,-9.766,0.000
1728699470.310,10.742,-23.438,-45.410,0.488,0.000
1728699470.314,-6.836,-27.344,-51.270,-4.395,0.000
1728699470.318,-45.410,-29.297,-50.781,-30.762,0.000
1728699470.322,-74.707,-27.344,-45.898,-49.805,0.000
1728699470.326,-20.508,-28.320,-33.203,-17.090,0.000
1728699470.330,30.273,-29.785,-25.879,3.906,0.000
1728699470.334,20.508,-30.762,-32.227,-5.371,0.000
1728699470.338,-17.578,-33.203,-36.133,-33.203,0.000
1728699470.342,-74.219,-29.785,-37.109,-54.199,0.000
1728699470.346,-42.969,-28.809,-42.969,-17.090,0.000
1728699470.349,17.578,-28.320,-50.781,10.742,0.000
1728699470.353,14.160,-24.414,-34.180,6.836,0.000
1728699470.357,-24.414,-22.461,-21.484,-18.066,0.000
1728699470.361,-64.941,-21.973,-26.367,-48.340,0.000
1728699470.365,-33.203,-22.461,-26.855,-11.719,0.000
1728699470.369,19.043,-21.973,-30.273,18.555,0.000
1728699470.373,21.973,-18.066,-25.879,5.859,0.000
1728699470.377,-7.324,-15.137,-21.484,-9.766,0.000
1728699470.381,-72.266,-22.461,-23.438,-52.734,0.000
1728699470.385,-64.453,-23.438,-28.320,-41.504,0.000
1728699470.388,-6.348,-20.996,-30.762,2.930,0.000
1728699470.392,16.602,-22.461,-28.320,5.859,0.000
1728699470.396,7.812,-21.484,-36.133,-14.160,0.000
1728699470.400,-61.035,-23.438,-42.969,-57.129,0.000
1728699470.404,-68.359,-24.414,-34.180,-56.152,0.000
1728699470.408,-10.742,-22.949,-20.020,-6.348,0.000
1728699470.412,2.441,-26.855,-18.066,-3.418,0.000
1728699470.416,-8.789,-29.297,-26.367,-29.297,0.000
1728699470.420,-60.059,-26.367,-27.344,-61.523,0.000
1728699470.424,-85.449,-25.879,-25.391,-61.035,0.000
1728699470.428,-31.250,-28.320,-29.297,-18.066,0.000
1728699470.431,-8.789,-26.855,-35.645,-12.695,0.000
1728699470.435,-19.531,-25.391,-36.621,-21.484,0.000
1728699470.439,-57.129,-24.902,-40.039,-51.758,0.000
1728699470.443,-78.613,-22.949,-44.434,-65.430,0.000
1728699470.447,-26.367,-26.367,-43.945,-20.996,0.000
1728699470.451,6.348,-25.879,-38.574,-1.465,0.000
1728699470.455,-0.977,-24.414,-39.062,-3.418,0.000
1728699470.459,-41.016,-29.297,-41.992,-38.574,0.000
1728699470.463,-79.590,-31.738,-43.945,-70.801,0.000
1728699470.467,-38.086,-37.598,-47.363,-36.133,0.000
1728699470.470,8.789,-35.645,-41.992,-7.324,0.000
1728699470.474,-7.812,-28.809,-42.480,-8.789,0.000
1728699470.478,-43.457,-30.762,-44.434,-33.691,0.000
1728699470.482,-59.082,-32.227,-33.203,-49.316,0.000
1728699470.486,-24.414,-32.715,-27.832,-17.578,0.000
1728699470.490,19.531,-32.715,-29.297,8.301,0.000
1728699470.494,17.578,-32.715,-27.344,1.465,0.000
1728699470.498,-11.230,-26.367,-39.062,-14.160,0.000
1728699470.502,-58.105,-20.020,-51.270,-32.227,0.000
1728699470.506,-37.109,-20.508,-53.223,-12.695,0.000
1728699470.510,25.391,-20.020,-44.922,16.602,0.000
1728699470.513,29.297,-22.949,-25.391,12.695,0.000
1728699470.517,-1.465,-25.879,-17.578,-9.277,0.000
1728699470.521,-51.758,-25.879,-19.043,-45.410,0.000
1728699470.525,-46.875,-24.902,-32.227,-28.809,0.000
1728699470.529,12.207,-27.344,-42.969,16.602,0.000
1728699470.533,29.785,-27.832,-40.039,12.207,0.000
1728699470.537,-1.465,-27.344,-28.809,-25.879,0.000
1728699470.541,-58.105,-30.762,-23.926,-55.664,0.000
1728699470.545,-51.270,-35.156,-25.391,-26.855,0.000
1728699470.549,12.207,-35.645,-26.367,13.672,0.000
1728699470.552,26.855,-30.273,-24.414,6.836,0.000
1728699470.556,0.488,-28.809,-30.273,-11.230,0.000
1728699470.560,-49.805,-31.738,-42.969,-42.480,0.000
1728699470.564,-62.988,-28.320,-40.527,-45.410,0.000
1728699470.568,4.395,-25.391,-36.133,-5.859,0.000
1728699470.572,36.133,-27.344,-43.945,3.418,0.000
1728699470.576,-5.859,-28.320,-46.875,-13.672,0.000
1728699470.580,-63.965,-31.738,-33.691,-58.594,0.000
1728699470.584,-77.637,-36.133,-37.109,-64.453,0.000
1728699470.588,-20.996,-36.621,-38.574,-9.766,0.000
1728699470.591,19.531,-34.180,-28.809,4.395,0.000
1728699470.595,5.371,-35.645,-34.180,-15.137,0.000
1728699470.599,-49.316,-38.086,-39.551,-54.199,0.000
1728699470.603,-84.961,-35.645,-36.133,-63.965,0.000
1728699470.607,-32.227,-32.715,-32.715,-18.555,0.000
1728699470.611,8.789,-30.273,-29.297,-5.859,0.000
1728699470.615,3.418,-29.297,-35.645,-21.484,0.000
1728699470.619,-37.598,-31.738,-35.645,-46.387,0.000
1728699470.623,-83.984,-36.621,-31.250,-69.336,0.000
1728699470.627,-44.434,-35.156,-32.715,-41.504,0.000
1728699470.631,5.371,-30.273,-30.273,-12.695,0.000
1728699470.634,-0.977,-28.320,-20.508,-8.301,0.000
1728699470.638,-41.504,-25.879,-20.020,-33.203,0.000
1728699470.642,-86.426,-31.738,-24.902,-64.453,0.000
1728699470.646,-67.871,-35.645,-26.855,-30.762,0.000
1728699470.650,-3.418,-31.738,-28.809,1.465,0.000
1728699470.654,17.578,-28.320,-30.273,-7.812,0.000
1728699470.658,-19.531,-28.320,-30.273,-29.297,0.000
1728699470.662,-69.824,-28.809,-31.738,-62.012,0.000
1728699470.666,-63.965,-32.715,-36.133,-41.016,0.000
1728699470.670,-16.113,-35.156,-43.945,4.395,0.000
1728699470.674,3.906,-33.691,-43.945,-2.930,0.000
1728699470.677,-15.137,-34.180,-29.785,-25.879,0.000
1728699470.681,-63.965,-36.133,-20.996,-41.992,0.000
1728699470.685,-57.617,-34.668,-22.461,-25.879,0.000
1728699470.689,-2.930,-32.715,-25.879,5.371,0.000
1728699470.693,19.531,-34.668,-31.738,13.672,0.000
1728699470.697,3.418,-34.668,-39.062,-6.836,0.000
1728699470.701,-62.500,-37.598,-38.086,-53.711,0.000
1728699470.705,-84.473,-41.504,-31.250,-45.410,0.000
1728699470.709,-32.715,-36.621,-38.086,-1.953,0.000
1728699470.713,2.441,-35.645,-45.410,-3.418,0.000
1728699470.717,-5.371,-35.156,-40.527,-20.508,0.000
1728699470.720,-47.852,-31.738,-27.344,-43.945,0.000
1728699470.724,-67.383,-29.297,-21.973,-43.457,0.000
1728699470.728,-17.578,-34.180,-30.762,-10.254,0.000
1728699470.732,9.277,-35.645,-34.180,-8.301,0.000
1728699470.736,-7.812,-31.738,-39.062,-16.602,0.000
1728699470.740,-38.574,-30.762,-40.039,-36.133,0.000
1728699470.744,-70.312,-30.273,-34.668,-57.129,0.000
1728699470.748,-34.180,-26.855,-35.645,-24.902,0.000
1728699470.752,9.277,-23.438,-30.762,1.465,0.000
1728699470.756,-2.441,-25.879,-26.855,-16.113,0.000
1728699470.760,-43.945,-28.809,-25.391,-49.805,0.000
1728699470.763,-74.707,-29.785,-21.484,-58.594,0.000
1728699470.767,-38.086,-31.738,-28.320,-17.578,0.000
1728699470.771,9.277,-27.344,-39.551,0.000,0.000
1728699470.775,9.277,-22.949,-40.039,-6.836,0.000
1728699470.779,-36.133,-25.391,-35.156,-37.109,0.000
1728699470.783,-78.613,-26.855,-27.832,-73.730,0.000
1728699470.787,-50.781,-26.855,-30.762,-42.480,0.000
1728699470.791,-14.648,-27.832,-36.621,-14.648,0.000
1728699470.795,-10.254,-34.180,-33.691,-16.602,0.000
1728699470.799,-40.527,-37.109,-34.180,-40.039,0.000
1728699470.802,-93.750,-32.715,-39.551,-77.637,0.000
1728699470.806,-56.641,-37.598,-35.645,-47.852,0.000
1728699470.810,10.742,-38.086,-31.250,0.000,0.000
1728699470.814,10.742,-27.832,-30.273,-5.859,0.000
1728699470.818,-18.555,-28.809,-32.715,-24.414,0.000
1728699470.822,-55.664,-30.762,-35.645,-44.922,0.000
1728699470.826,-47.363,-26.855,-33.203,-31.250,0.000
1728699470.830,-4.395,-29.297,-24.902,2.441,0.000
1728699470.834,-1.465,-35.645,-24.414,-11.230,0.000
1728699470.838,-31.738,-37.598,-29.785,-54.199,0.000
1728699470.842,-82.520,-29.297,-24.902,-83.008,0.000
1728699470.845,-84.473,-27.344,-29.297,-69.824,0.000
1728699470.849,-26.367,-35.156,-33.691,-19.043,0.000
1728699470.853,6.348,-34.668,-21.484,-2.441,0.000
1728699470.857,-15.625,-32.227,-17.578,-24.414,0.000
1728699470.861,-83.496,-37.598,-18.555,-64.941,0.000
1728699470.865,-93.750,-34.180,-20.508,-59.570,0.000
1728699470.869,-30.273,-28.809,-33.691,-21.484,0.000
1728699470.873,3.418,-29.785,-31.738,-10.742,0.000
1728699470.877,-8.789,-28.320,-25.391,-14.160,0.000
1728699470.881,-62.012,-30.762,-31.250,-53.223,0.000
1728699470.884,-87.891,-33.203,-37.109,-71.777,0.000
1728699470.888,-23.438,-32.227,-42.969,-23.438,0.000
1728699470.892,24.902,-26.367,-41.016,-4.883,0.000
1728699470.896,13.672,-27.832,-33.691,-24.902,0.000
1728699470.900,-30.273,-30.762,-32.227,-47.852,0.000
1728699470.904,-73.730,-29.785,-27.832,-69.824,0.000
1728699470.908,-33.203,-28.809,-26.367,-32.227,0.000
1728699470.912,19.531,-22.461,-29.785,1.953,0.000
1728699470.916,9.766,-18.066,-34.180,-14.160,0.000
1728699470.920,-33.203,-24.902,-30.273,-37.109,0.000
1728699470.923,-81.055,-29.785,-24.902,-58.105,0.000
1728699470.927,-50.293,-26.855,-26.855,-35.156,0.000
1728699470.931,8.789,-23.438,-30.273,-10.742,0.000
1728699470.935,10.254,-26.367,-27.832,-12.207,0.000
1728699470.939,-28.809,-29.297,-27.832,-30.762,0.000
1728699470.943,-75.684,-31.738,-30.762,-58.105,0.000
1728699470.947,-62.988,-29.297,-27.832,-31.250,0.000
1728699470.951,-8.789,-27.344,-32.227,-4.395,0.000
1728699470.955,0.977,-30.762,-32.715,-7.812,0.000
1728699470.959,-27.344,-27.344,-31.250,-30.273,0.000
1728699470.962,-54.688,-24.902,-29.297,-57.617,0.000
1728699470.966,-39.062,-23.926,-33.203,-22.461,0.000
1728699470.970,4.883,-25.391,-44.434,9.766,0.000
1728699470.974,10.742,-26.367,-48.828,4.883,0.000
1728699470.978,-13.184,-26.367,-38.086,-16.602,0.000
1728699470.982,-70.312,-29.785,-23.438,-63.965,0.000
1728699470.986,-71.777,-29.785,-21.973,-60.059,0.000
1728699470.990,-13.184,-24.414,-21.484,-5.371,0.000
1728699470.994,-0.977,-27.832,-22.949,0.488,0.000
1728699470.998,-28.320,-32.227,-28.809,-23.926,0.000
1728699471.002,-75.684,-29.785,-28.320,-56.152,0.000
1728699471.005,-83.008,-29.785,-26.855,-51.270,0.000
1728699471.009,-23.438,-31.250,-28.809,-4.883,0.000
1728699471.013,9.277,-32.715,-31.250,-2.441,0.000
1728699471.017,-2.441,-32.227,-30.273,-23.926,0.000
1728699471.021,-60.059,-37.109,-27.344,-54.199,0.000
1728699471.025,-85.938,-41.992,-30.762,-50.781,0.000
1728699471.029,-20.508,-38.086,-34.668,-5.859,0.000
1728699471.033,21.973,-33.691,-35.156,12.695,0.000
1728699471.037,4.395,-34.180,-32.227,4.395,0.000
1728699471.041,-45.410,-31.738,-37.109,-33.203,0.000
1728699471.045,-68.359,-30.273,-40.527,-53.223,0.000
1728699471.048,-21.973,-26.367,-36.621,-16.113,0.000
1728699471.052,15.625,-26.855,-35.156,7.324,0.000
1728699471.056,17.578,-29.785,-34.180,-0.977,0.000
1728699471.060,-20.996,-28.809,-32.715,-34.180,0.000
1728699471.064,-65.918,-28.809,-27.832,-52.734,0.000
1728699471.068,-27.344,-27.344,-26.855,-4.395,0.000
1728699471.072,18.555,-27.344,-29.785,23.926,0.000
1728699471.076,13.672,-25.879,-28.809,8.789,0.000
1728699471.080,-24.414,-25.391,-30.273,-15.625,0.000
1728699471.084,-69.824,-31.250,-21.973,-46.387,0.000
1728699471.088,-35.645,-32.715,-21.973,-20.020,0.000
1728699471.091,0.000,-31.250,-31.738,7.324,0.000
1728699471.095,6.836,-29.297,-32.715,0.977,0.000
1728699471.099,-2.930,-27.344,-26.855,-19.531,0.000
1728699471.103,-57.617,-25.879,-25.391,-52.734,0.000
1728699471.107,-47.363,-28.320,-28.809,-35.156,0.000
1728699471.111,3.906,-30.762,-36.133,-0.488,0.000
1728699471.115,11.719,-30.273,-33.203,1.953,0.000
1728699471.119,-10.742,-34.668,-31.250,-20.996,0.000
1728699471.123,-63.965,-32.227,-29.297,-62.012,0.000
1728699471.127,-61.523,-27.344,-22.461,-46.875,0.000
1728699471.131,0.000,-25.391,-26.855,0.977,0.000
1728699471.134,19.043,-25.391,-28.809,0.488,0.000
1728699471.138,1.465,-27.832,-24.414,-21.484,0.000
1728699471.142,-44.434,-27.344,-24.902,-50.293,0.000
1728699471.146,-47.852,-28.320,-31.738,-36.621,0.000
1728699471.150,-1.465,-32.715,-34.180,1.465,0.000
1728699471.154,12.695,-33.691,-28.320,0.000,0.000
1728699471.158,0.488,-31.738,-28.320,-7.324,0.000
1728699471.162,-47.852,-33.691,-28.320,-30.273,0.000
1728699471.166,-76.660,-36.133,-27.832,-48.340,0.000
1728699471.170,-22.949,-36.621,-27.344,-15.625,0.000
1728699471.173,20.020,-39.551,-25.879,9.277,0.000
1728699471.177,24.414,-34.180,-26.855,13.672,0.000
1728699471.181,-13.672,-29.785,-23.926,-14.160,0.000
1728699471.185,-69.824,-34.668,-23.926,-50.781,0.000
1728699471.189,-44.922,-38.086,-30.273,-24.902,0.000
1728699471.193,-3.418,-38.574,-31.738,-4.395,0.000
1728699471.197,-14.648,-40.039,-29.785,-20.020,0.000
1728699471.201,-54.688,-41.992,-26.367,-56.152,0.000
1728699471.205,-97.656,-43.945,-23.438,-78.613,0.000
1728699471.209,-71.289,-47.363,-31.738,-47.363,0.000
1728699471.213,-26.855,-44.922,-36.133,-29.785,0.000
1728699471.216,-36.133,-42.480,-33.691,-41.016,0.000
1728699471.220,-72.266,-41.504,-30.762,-62.988,0.000
1728699471.224,-114.746,-39.551,-24.414,-91.309,0.000
1728699471.228,-85.938,-35.645,-30.273,-62.988,0.000
1728699471.232,-29.297,-32.715,-27.344,-25.391,0.000
1728699471.236,-23.438,-34.180,-19.043,-20.996,0.000
1728699471.240,-56.641,-33.691,-21.973,-34.180,0.000
1728699471.244,-98.145,-30.273,-25.879,-72.754,0.000
1728699471.248,-70.312,-25.879,-18.066,-42.480,0.000
1728699471.252,-12.695,-26.855,-17.578,9.277,0.000
1728699471.255,-4.883,-30.273,-25.879,-6.348,0.000
1728699471.259,-32.227,-31.250,-22.949,-30.273,0.000
1728699471.263,-81.543,-27.344,-22.949,-61.035,0.000
1728699471.267,-71.777,-22.949,-33.203,-49.805,0.000
1728699471.271,-12.695,-25.391,-39.551,-3.418,0.000
1728699471.275,5.371,-27.832,-36.133,1.465,0.000
1728699471.279,-9.277,-28.320,-35.645,-21.484,0.000
1728699471.283,-61.523,-29.785,-35.645,-52.734,0.000
1728699471.287,-68.848,-27.344,-33.691,-42.480,0.000
1728699471.291,-3.418,-27.344,-31.738,-4.883,0.000
1728699471.294,27.832,-26.855,-33.203,5.371,0.000
1728699471.298,12.207,-26.855,-41.016,-13.184,0.000
1728699471.302,-48.340,-30.762,-42.480,-58.594,0.000
1728699471.306,-70.312,-36.621,-38.086,-61.523,0.000
1728699471.310,-12.695,-36.133,-36.133,-10.742,0.000
1728699471.314,22.461,-33.691,-37.109,-7.812,0.000
1728699471.318,9.766,-31.250,-38.086,-13.672,0.000
1728699471.322,-45.410,-28.809,-27.344,-32.227,0.000
1728699471.326,-86.914,-31.738,-26.855,-41.504,0.000
1728699471.330,-28.809,-26.367,-33.203,-1.953,0.000
1728699471.334,22.949,-30.762,-17.578,4.883,0.000
1728699471.338,18.066,-38.574,-9.277,8.789,0.000
1728699471.341,-26.367,-29.297,-24.902,-22.461,0.000
1728699471.345,-78.125,-30.273,-18.555,-72.754,0.000
1728699471.349,-25.391,-32.227,-4.883,-10.742,0.000
1728699471.353,31.250,-26.367,-19.043,24.902,0.000
1728699471.357,13.672,-22.949,-31.250,6.348,0.000
1728699471.361,-32.715,-20.508,-23.438,-29.785,0.000
1728699471.365,-114.258,-33.691,-16.602,-114.258,0.000
1728699471.369,-104.980,-49.805,-22.461,-112.305,0.000
1728699471.373,-27.344,-41.016,-52.734,-37.598,0.000
1728699471.377,-41.992,-37.109,-36.133,-26.855,0.000
1728699471.381,-102.539,-44.922,2.441,-84.961,0.000
1728699471.384,-94.238,-26.367,-35.156,-100.098,0.000
1728699471.388,-50.293,-18.066,-31.738,-32.715,0.000
1728699471.392,-18.555,-18.066,-11.719,-1.465,0.000
1728699471.396,14.160,-23.438,-1.465,-3.906,0.000
1728699471.400,-59.570,-61.523,16.602,-55.176,0.000
1728699471.404,-188.965,-73.242,26.367,-155.273,0.000
1728699471.408,-145.996,-42.969,19.043,-131.348,0.000
1728699471.412,-75.684,-37.109,41.992,-86.914,0.000
1728699471.416,-56.641,-38.574,17.090,-68.848,0.000
1728699471.420,-74.219,-52.246,-15.625,-101.074,0.000
1728699471.424,-125.000,-35.156,11.719,-119.629,0.000
1728699471.427,-129.395,-18.555,21.973,-88.379,0.000
1728699471.431,-110.840,-62.988,20.996,-106.445,0.000
1728699471.435,-139.160,-87.402,62.012,-136.719,0.000
1728699471.439,-132.324,-63.477,77.148,-130.371,0.000
1728699471.443,-122.559,-40.527,48.828,-115.723,0.000
1728699471.447,-141.113,-51.758,115.723,-106.445,0.000
1728699471.451,-103.516,-68.848,167.480,-80.566,0.000
1728699471.455,-52.246,-58.594,166.016,-39.062,0.000
1728699471.459,-80.078,-67.871,216.797,-81.055,0.000
1728699471.463,-155.273,-80.078,222.168,-154.785,0.000
1728699471.467,-143.555,-56.641,196.777,-113.281,0.000
1728699471.470,-33.203,-30.762,232.910,-31.738,0.000
1728699471.474,-52.246,-58.594,292.480,-78.613,0.000
1728699471.478,-122.559,-83.984,309.570,-147.461,0.000
1728699471.482,-114.258,-52.734,248.047,-141.113,0.000
1728699471.486,-153.320,-56.641,250.488,-132.324,0.000
1728699471.490,-129.883,-81.055,307.129,-90.820,0.000
1728699471.494,-50.293,-70.312,298.340,-48.828,0.000
1728699471.498,-60.547,-76.172,291.504,-74.219,0.000
1728699471.502,-89.844,-78.613,247.559,-106.445,0.000
1728699471.506,-92.773,-78.125,173.340,-80.566,0.000
1728699471.510,-68.848,-86.914,133.301,-46.875,0.000
1728699471.513,-51.270,-54.688,67.871,-75.195,0.000
1728699471.517,-65.918,-37.598,-3.906,-93.262,0.000
1728699471.521,-119.629,-60.059,-75.684,-118.652,0.000
1728699471.525,-177.734,-76.660,-166.504,-157.715,0.000
1728699471.529,-111.328,-58.594,-298.340,-88.867,0.000
1728699471.533,-30.762,-51.758,-365.234,-42.480,0.000
1728699471.537,-33.203,-62.012,-386.230,-48.340,0.000
1728699471.541,-69.336,-65.918,-422.852,-59.082,0.000
1728699471.545,-110.352,-68.848,-462.891,-112.793,0.000
1728699471.549,-92.773,-68.848,-509.277,-94.238,0.000
1728699471.552,-21.484,-63.477,-575.684,-24.414,0.000
1728699471.556,-0.488,-61.035,-619.141,-19.531,0.000
1728699471.560,-42.480,-62.988,-650.879,-38.086,0.000
1728699471.564,-100.098,-69.336,-685.059,-71.289,0.000
1728699471.568,-99.121,-74.219,-718.750,-71.289,0.000
1728699471.572,-21.484,-61.035,-776.855,-9.766,0.000
1728699471.576,22.461,-54.199,-818.359,26.855,0.000
1728699471.580,-3.906,-54.199,-839.355,8.789,0.000
1728699471.584,-65.918,-52.734,-845.215,-54.199,0.000
1728699471.588,-72.266,-54.688,-837.891,-51.758,0.000
1728699471.592,-9.277,-55.664,-834.961,11.719,0.000
1728699471.595,14.160,-52.734,-841.309,16.113,0.000
1728699471.599,16.602,-50.293,-831.055,10.254,0.000
1728699471.603,-16.113,-58.105,-803.223,-19.531,0.000
1728699471.607,-54.688,-52.734,-800.293,-41.016,0.000
1728699471.611,-13.672,-37.109,-793.457,2.930,0.000
1728699471.615,12.207,-35.645,-744.141,19.531,0.000
1728699471.619,16.602,-33.691,-703.613,25.879,0.000
1728699471.623,-2.930,-21.973,-673.828,8.301,0.000
1728699471.627,-30.273,-21.973,-642.090,-15.137,0.000
1728699471.631,7.324,-27.344,-606.445,22.949,0.000
1728699471.634,42.969,-28.809,-554.199,55.176,0.000
1728699471.638,40.039,-29.297,-498.047,45.410,0.000
1728699471.642,-5.371,-36.133,-419.434,-3.418,0.000
1728699471.646,-47.363,-36.621,-336.914,-29.297,0.000
1728699471.650,0.977,-24.414,-229.980,12.207,0.000
1728699471.654,56.641,-21.484,-20.508,31.250,0.000
1728699471.658,41.504,-22.949,206.543,22.461,0.000
1728699471.662,-6.348,-24.902,350.586,-7.324,0.000
1728699471.666,-50.293,-23.438,480.957,-36.621,0.000
1728699471.670,-20.996,-22.461,647.949,8.301,0.000
1728699471.673,33.691,-24.414,771.484,32.715,0.000
1728699471.677,48.828,-19.043,813.965,30.762,0.000
1728699471.681,28.320,-10.254,800.781,19.531,0.000
1728699471.685,-32.227,-11.230,796.875,-35.156,0.000
1728699471.689,-34.668,-16.113,813.477,-19.531,0.000
1728699471.693,16.113,-15.137,787.598,13.672,0.000
1728699471.697,26.367,-19.043,742.188,6.348,0.000
1728699471.701,-1.465,-20.996,704.102,-13.184,0.000
1728699471.705,-56.641,-20.996,668.945,-52.246,0.000
1728699471.709,-45.898,-24.902,607.910,-40.527,0.000
1728699471.712,25.879,-19.531,521.484,10.254,0.000
1728699471.716,43.945,-17.578,488.281,18.066,0.000
1728699471.720,11.230,-23.438,479.004,-7.324,0.000
1728699471.724,-45.410,-23.438,461.426,-46.875,0.000
1728699471.728,-32.715,-18.555,414.551,-27.344,0.000
1728699471.732,33.691,-17.090,382.324,16.602,0.000
1728699471.736,42.480,-22.461,390.137,5.371,0.000
1728699471.740,24.414,-22.461,370.117,-3.906,0.000
1728699471.744,-19.531,-19.043,348.145,-28.809,0.000
1728699471.748,-43.457,-20.996,315.430,-42.969,0.000
1728699471.752,7.812,-21.484,281.738,0.000,0.000
1728699471.755,27.832,-18.066,248.047,20.020,0.000
1728699471.759,13.184,-13.672,219.238,16.113,0.000
1728699471.763,-19.043,-12.207,175.781,-11.719,0.000
1728699471.767,-39.551,-10.254,110.840,-19.043,0.000
1728699471.771,14.160,-10.742,112.305,29.297,0.000
1728699471.775,49.316,-14.648,149.902,43.945,0.000
1728699471.779,34.180,-18.066,146.973,19.531,0.000
1728699471.783,-8.301,-17.090,114.258,-15.137,0.000
1728699471.787,-37.598,-15.625,102.051,-31.738,0.000
1728699471.791,0.977,-17.090,109.375,9.277,0.000
1728699471.795,44.922,-13.184,95.215,41.992,0.000
1728699471.798,52.246,-7.324,72.754,35.156,0.000
1728699471.802,14.160,-8.301,52.734,5.371,0.000
1728699471.806,-32.227,-12.695,44.922,-28.809,0.000
1728699471.810,-8.301,-12.695,35.645,0.977,0.000
1728699471.814,40.039,-10.254,30.273,34.668,0.000
1728699471.818,51.270,-14.160,29.785,28.809,0.000
1728699471.822,11.230,-19.531,13.672,-4.883,0.000
1728699471.826,-46.387,-15.625,-9.766,-39.062,0.000
1728699471.830,-25.879,-11.230,-24.414,-6.836,0.000
1728699471.834,35.156,-13.672,-24.902,25.391,0.000
1728699471.838,40.527,-14.648,-30.762,14.160,0.000
1728699471.841,3.906,-9.766,-32.227,-13.184,0.000
1728699471.845,-45.898,-11.230,-27.344,-45.410,0.000
1728699471.849,-36.621,-14.648,-32.715,-25.879,0.000
1728699471.853,18.066,-8.301,-39.551,25.391,0.000
1728699471.857,28.320,-7.812,-40.039,23.926,0.000
1728699471.861,6.348,-14.160,-28.809,-5.371,0.000
1728699471.865,-39.551,-14.648,-22.949,-33.691,0.000
1728699471.869,-50.781,-17.578,-26.855,-27.832,0.000
1728699471.873,5.859,-19.531,-23.926,4.395,0.000
1728699471.877,15.625,-16.113,-23.438,7.812,0.000
1728699471.881,0.000,-17.090,-27.832,-1.465,0.000
1728699471.884,-38.574,-19.043,-27.832,-40.039,0.000
1728699471.888,-63.965,-23.438,-44.922,-43.457,0.000
1728699471.892,-7.324,-29.785,-48.340,9.766,0.000
1728699471.896,26.367,-21.973,-33.203,16.602,0.000
1728699471.900,21.973,-16.602,-37.598,4.883,0.000
1728699471.904,-36.621,-22.949,-35.645,-28.320,0.000
1728699471.908,-73.730,-25.391,-41.016,-36.133,0.000
1728699471.912,-20.020,-23.438,-40.527,9.766,0.000
1728699471.916,6.348,-22.949,-27.344,11.230,0.000
1728699471.920,8.789,-21.484,-20.508,1.953,0.000
1728699471.924,-24.902,-17.578,-27.344,-19.531,0.000
1728699471.927,-69.336,-21.484,-36.133,-39.062,0.000
1728699471.931,-23.926,-22.949,-40.039,-8.789,0.000
1728699471.935,24.902,-18.066,-61.035,15.137,0.000
1728699471.939,29.785,-27.832,-74.219,22.949,0.000
1728699471.943,-16.113,-37.109,-59.082,-14.160,0.000
1728699471.947,-70.801,-23.438,-54.199,-49.805,0.000
1728699471.951,-32.715,-14.160,-56.641,-16.113,0.000
1728699471.955,20.020,-14.160,-46.875,15.137,0.000
1728699471.959,21.973,-14.160,-26.367,13.184,0.000
1728699471.963,-4.883,-12.207,-20.996,-11.230,0.000
1728699471.966,-54.688,-14.648,-26.855,-37.598,0.000
1728699471.970,-31.250,-13.184,-35.156,-6.348,0.000
1728699471.974,31.738,-14.648,-38.574,30.762,0.000
1728699471.978,36.621,-15.137,-70.312,20.020,0.000
1728699471.982,5.371,-8.789,-101.562,0.488,0.000
1728699471.986,-47.852,-14.648,-73.730,-41.992,0.000
1728699471.990,-40.527,-23.438,-46.387,-35.156,0.000
1728699471.994,15.625,-23.438,-38.086,11.230,0.000
1728699471.998,29.785,-21.973,-34.668,23.926,0.000
1728699472.002,4.395,-27.344,-32.227,11.230,0.000
1728699472.006,-65.430,-27.832,-30.762,-46.387,0.000
1728699472.009,-63.965,-24.902,-29.785,-37.109,0.000
1728699472.013,4.883,-23.926,-37.598,19.043,0.000
1728699472.017,12.695,-22.949,-50.293,14.648,0.000
1728699472.021,-2.930,-24.414,-58.105,1.953,0.000
1728699472.025,-49.316,-26.367,-56.152,-29.297,0.000
1728699472.029,-76.172,-30.273,-38.086,-42.969,0.000
1728699472.033,-21.973,-27.832,-30.273,-12.695,0.000
1728699472.037,14.160,-25.391,-39.062,-7.324,0.000
1728699472.041,8.301,-26.855,-38.574,-12.695,0.000
1728699472.045,-37.598,-23.926,-38.574,-33.203,0.000
1728699472.048,-68.359,-29.785,-46.875,-44.434,0.000
1728699472.052,-15.625,-30.273,-64.453,-2.441,0.000
1728699472.056,24.414,-32.715,-77.637,9.766,0.000
1728699472.060,8.789,-35.156,-84.961,-8.789,0.000
1728699472.064,-47.363,-28.320,-84.961,-45.410,0.000
1728699472.068,-83.984,-27.344,-57.129,-63.965,0.000
1728699472.072,-23.926,-28.809,-56.641,-11.230,0.000
1728699472.076,18.066,-26.855,-58.594,7.812,0.000
1728699472.080,0.488,-27.344,-42.480,-14.160,0.000
1728699472.084,-34.180,-33.691,-52.246,-45.410,0.000
1728699472.087,-75.195,-36.133,-41.504,-55.664,0.000
1728699472.091,-37.598,-28.809,-56.641,-11.719,0.000
1728699472.095,18.555,-20.020,-86.426,3.906,0.000
1728699472.099,19.043,-17.578,-54.688,-2.930,0.000
1728699472.103,-10.742,-21.484,-23.438,-23.926,0.000
1728699472.107,-57.617,-26.367,-29.297,-59.082,0.000
1728699472.111,-43.457,-27.344,-42.480,-35.645,0.000
1728699472.115,4.395,-25.879,-44.922,-4.883,0.000
1728699472.119,19.043,-21.484,-46.875,-15.137,0.000
1728699472.123,-12.207,-20.996,-49.316,-34.180,0.000
1728699472.127,-66.406,-24.414,-50.293,-62.988,0.000
1728699472.130,-46.387,-27.344,-53.223,-37.109,0.000
1728699472.134,5.859,-26.367,-58.594,0.000,0.000
1728699472.138,19.043,-26.855,-63.965,-6.836,0.000
1728699472.142,2.441,-26.855,-55.664,-21.484,0.000
1728699472.146,-45.898,-21.484,-42.480,-48.828,0.000
1728699472.150,-55.176,-23.438,-37.598,-43.457,0.000
1728699472.154,-1.953,-29.785,-42.969,-5.371,0.000
1728699472.158,25.879,-26.367,-57.129,0.488,0.000
1728699472.162,6.836,-24.414,-60.547,-12.695,0.000
1728699472.166,-56.152,-25.879,-50.781,-48.340,0.000
1728699472.170,-73.730,-33.203,-45.410,-53.223,0.000
1728699472.173,-16.113,-37.598,-35.156,-14.648,0.000
1728699472.177,12.695,-33.203,-27.344,-5.859,0.000
1728699472.181,-7.324,-41.504,-26.367,-20.996,0.000
1728699472.185,-69.336,-45.898,-39.062,-55.664,0.000
1728699472.189,-91.309,-39.551,-46.875,-64.941,0.000
1728699472.193,-32.227,-38.086,-36.621,-16.602,0.000
1728699472.197,7.812,-34.668,-32.227,10.254,0.000
1728699472.201,2.441,-37.109,-38.574,-6.836,0.000
1728699472.205,-45.410,-33.691,-41.992,-37.598,0.000
1728699472.209,-82.520,-29.785,-44.922,-50.293,0.000
1728699472.213,-36.621,-32.227,-62.012,-14.160,0.000
1728699472.216,5.371,-32.715,-59.082,0.977,0.000
1728699472.220,5.371,-33.691,-35.645,-8.301,0.000
1728699472.224,-32.227,-34.180,-30.273,-36.621,0.000
1728699472.228,-83.984,-34.668,-37.109,-63.965,0.000
1728699472.232,-38.086,-26.855,-50.781,-18.066,0.000
1728699472.236,35.156,-17.578,-59.570,22.949,0.000
1728699472.240,34.180,-12.207,-49.316,24.902,0.000
1728699472.244,-19.043,-20.996,-36.621,-8.301,0.000
1728699472.248,-70.801,-34.180,-24.902,-51.270,0.000
1728699472.252,-39.551,-28.809,-14.160,-14.160,0.000
1728699472.256,7.324,-24.414,-25.879,9.766,0.000
1728699472.259,11.719,-29.297,-37.109,-7.812,0.000
1728699472.263,-21.973,-30.273,-27.832,-26.855,0.000
1728699472.267,-69.824,-26.367,-31.250,-59.082,0.000
1728699472.271,-43.457,-23.926,-41.992,-31.250,0.000
1728699472.275,9.766,-23.926,-50.293,9.277,0.000
1728699472.279,14.648,-31.250,-45.898,2.930,0.000
1728699472.283,-8.301,-33.691,-31.738,-14.160,0.000
1728699472.287,-61.035,-30.762,-28.809,-44.922,0.000
1728699472.291,-57.617,-31.250,-41.016,-29.785,0.000
1728699472.295,4.883,-27.344,-37.598,11.719,0.000
1728699472.298,25.391,-28.320,-20.508,10.742,0.000
1728699472.302,0.977,-30.762,-18.555,-8.789,0.000
1728699472.306,-56.152,-27.344,-28.320,-48.828,0.000
1728699472.310,-64.941,-26.367,-38.086,-49.316,0.000
1728699472.314,-8.301,-23.438,-28.320,-1.953,0.000
1728699472.318,8.301,-21.484,-16.602,5.859,0.000
1728699472.322,-10.254,-21.484,-22.461,-13.672,0.000
1728699472.326,-62.988,-23.926,-32.715,-52.734,0.000
1728699472.330,-81.055,-28.320,-29.785,-54.688,0.000
1728699472.334,-23.926,-29.785,-26.855,-10.254,0.000
1728699472.338,4.883,-27.344,-41.016,-5.371,0.000
1728699472.341,1.953,-25.391,-36.621,-5.371,0.000
1728699472.345,-39.551,-29.297,-27.344,-34.180,0.000
1728699472.349,-72.754,-28.809,-30.273,-61.523,0.000
1728699472.353,-22.949,-25.391,-26.855,-20.020,0.000
1728699472.357,20.020,-22.949,-21.973,1.465,0.000
1728699472.361,5.371,-25.879,-23.438,-11.230,0.000
1728699472.365,-42.969,-29.785,-34.668,-45.410,0.000
1728699472.369,-71.289,-30.762,-42.969,-62.988,0.000
1728699472.373,-25.391,-35.645,-34.668,-14.160,0.000
1728699472.377,15.137,-36.621,-23.438,14.648,0.000
1728699472.380,6.348,-33.691,-36.133,-11.230,0.000
1728699472.384,-30.273,-30.273,-45.898,-47.852,0.000
1728699472.388,-75.684,-27.832,-35.645,-71.289,0.000
1728699472.392,-43.945,-28.320,-26.367,-37.109,0.000
1728699472.396,6.348,-32.227,-35.156,-0.977,0.000
1728699472.400,2.930,-35.156,-36.133,-10.742,0.000
1728699472.404,-35.645,-35.156,-25.391,-41.992,0.000
1728699472.408,-85.938,-35.645,-33.691,-70.312,0.000
1728699472.412,-58.105,-35.156,-47.363,-38.574,0.000
1728699472.416,1.465,-35.645,-45.898,-7.812,0.000
1728699472.419,16.113,-30.762,-48.340,-1.465,0.000
1728699472.423,-8.301,-28.320,-50.781,-17.090,0.000
1728699472.427,-55.176,-34.668,-34.180,-58.105,0.000
1728699472.431,-54.199,-37.109,-20.996,-41.016,0.000
1728699472.435,-18.066,-33.691,-22.949,-10.254,0.000
1728699472.439,-0.488,-21.484,-26.367,-8.789,0.000
1728699472.443,-11.230,-16.113,-37.109,-20.996,0.000
1728699472.447,-59.570,-17.090,-33.203,-58.105,0.000
1728699472.451,-65.430,-19.043,-31.738,-51.758,0.000
1728699472.455,-11.230,-20.508,-41.016,0.977,0.000
1728699472.458,8.789,-20.996,-37.109,9.766,0.000
1728699472.462,-15.137,-23.438,-34.180,-8.301,0.000
1728699472.466,-62.500,-20.996,-37.109,-38.574,0.000
1728699472.470,-80.078,-21.973,-37.109,-49.316,0.000
1728699472.474,-21.973,-17.578,-33.691,-8.789,0.000
1728699472.478,28.320,-12.207,-47.852,18.555,0.000
1728699472.482,7.324,-22.949,-53.711,2.930,0.000
1728699472.486,-62.500,-27.344,-40.527,-47.363,0.000
1728699472.490,-86.426,-30.273,-31.738,-62.012,0.000
1728699472.494,-32.227,-33.691,-33.691,-23.926,0.000
1728699472.498,7.324,-28.809,-33.203,-7.812,0.000
1728699472.501,3.906,-28.809,-24.414,-13.672,0.000
1728699472.505,-37.598,-29.297,-28.809,-43.457,0.000
1728699472.509,-74.707,-28.809,-43.457,-59.082,0.000
1728699472.513,-20.508,-29.785,-41.504,-13.184,0.000
1728699472.517,32.715,-26.855,-36.133,16.602,0.000
1728699472.521,25.879,-19.531,-29.785,-1.953,0.000
1728699472.525,-30.273,-24.902,-23.438,-42.969,0.000
1728699472.529,-85.449,-36.133,-24.414,-81.543,0.000
1728699472.533,-44.434,-35.156,-43.945,-47.852,0.000
1728699472.537,4.395,-25.391,-51.758,-13.672,0.000
1728699472.541,7.324,-20.020,-26.855,-13.672,0.000
1728699472.544,-21.484,-21.973,-21.484,-27.832,0.000
1728699472.548,-75.195,-26.367,-41.016,-61.523,0.000
1728699472.552,-57.617,-27.344,-53.223,-33.203,0.000
1728699472.556,0.977,-28.809,-27.344,0.977,0.000
1728699472.560,4.883,-31.738,-12.207,-10.254,0.000
1728699472.564,-28.320,-29.297,-21.973,-27.832,0.000
1728699472.568,-76.172,-33.203,-20.996,-54.199,0.000
1728699472.572,-68.359,-33.203,-31.738,-42.480,0.000
1728699472.576,-11.230,-31.250,-34.180,-7.812,0.000
1728699472.580,3.906,-32.715,-28.809,-9.277,0.000
1728699472.584,-29.297,-33.203,-44.922,-31.250,0.000
1728699472.587,-82.520,-36.133,-52.734,-71.289,0.000
1728699472.591,-78.125,-37.109,-46.875,-62.012,0.000
1728699472.595,-20.020,-37.109,-44.922,-15.625,0.000
1728699472.599,-0.488,-36.621,-30.762,-15.137,0.000
1728699472.603,-15.137,-30.762,-25.879,-38.574,0.000
1728699472.607,-62.988,-28.809,-30.273,-73.730,0.000
1728699472.611,-82.031,-30.762,-39.062,-62.500,0.000
1728699472.615,-20.508,-31.250,-47.363,-12.207,0.000
1728699472.619,7.324,-29.785,-46.387,-8.789,0.000
1728699472.623,-11.719,-32.715,-44.922,-30.762,0.000
1728699472.627,-53.711,-27.344,-44.922,-50.293,0.000
1728699472.630,-73.242,-20.020,-54.688,-43.945,0.000
1728699472.634,-17.090,-24.902,-54.688,-2.930,0.000
1728699472.638,11.230,-27.832,-21.484,0.000,0.000
1728699472.642,-8.789,-29.297,-11.719,-18.066,0.000
1728699472.646,-56.641,-32.715,-38.574,-50.781,0.000
1728699472.650,-85.449,-32.715,-48.828,-67.383,0.000
1728699472.654,-31.250,-31.738,-41.016,-21.484,0.000
1728699472.658,13.184,-30.762,-48.340,5.859,0.000
1728699472.662,15.625,-34.180,-38.574,7.812,0.000
1728699472.666,-32.715,-32.227,-23.438,-34.668,0.000
1728699472.669,-81.055,-25.879,-18.066,-64.453,0.000
1728699472.673,-30.762,-23.926,-29.785,-21.484,0.000
1728699472.677,15.137,-25.391,-45.410,5.859,0.000
1728699472.681,-0.488,-29.785,-41.016,-8.301,0.000
1728699472.685,-29.785,-31.250,-32.715,-39.062,0.000
1728699472.689,-78.125,-31.250,-33.203,-63.965,0.000
1728699472.693,-59.570,-36.621,-34.668,-30.273,0.000
1728699472.697,1.953,-36.621,-38.086,7.324,0.000
1728699472.701,10.254,-30.762,-49.316,1.953,0.000
1728699472.705,-20.996,-30.762,-44.922,-20.020,0.000
1728699472.709,-71.777,-30.762,-33.691,-55.176,0.000
1728699472.712,-58.594,-32.715,-29.297,-42.480,0.000
1728699472.716,0.977,-32.715,-43.945,-1.953,0.000
1728699472.720,19.531,-29.297,-51.270,4.883,0.000
1728699472.724,-4.395,-27.832,-39.062,-14.160,0.000
1728699472.728,-64.941,-30.762,-35.645,-46.875,0.000
1728699472.732,-66.406,-35.645,-42.480,-32.715,0.000
1728699472.736,3.906,-35.156,-39.551,3.906,0.000
1728699472.740,23.438,-32.227,-38.086,0.000,0.000
1728699472.744,-3.906,-32.715,-41.016,-18.555,0.000
1728699472.748,-55.664,-30.273,-27.832,-39.551,0.000
1728699472.751,-71.777,-28.809,-20.508,-31.250,0.000
1728699472.755,-15.625,-28.809,-20.996,-11.230,0.000
1728699472.759,13.184,-29.785,-19.531,-4.883,0.000
1728699472.763,-6.348,-30.762,-25.879,-9.277,0.000
1728699472.767,-58.594,-30.273,-27.832,-46.875,0.000
1728699472.771,-81.543,-30.762,-29.785,-51.758,0.000
1728699472.775,-25.879,-31.738,-37.109,-7.324,0.000
1728699472.779,19.531,-25.391,-32.227,11.719,0.000
1728699472.783,9.766,-21.973,-31.738,9.277,0.000
1728699472.787,-36.133,-20.996,-40.039,-27.344,0.000
1728699472.790,-52.734,-13.184,-56.152,-41.992,0.000
1728699472.794,-10.742,-17.090,-49.316,5.371,0.000
1728699472.798,15.137,-27.344,-12.695,14.160,0.000
1728699472.802,1.953,-29.785,8.789,-4.883,0.000
1728699472.806,-43.945,-35.156,3.418,-29.297,0.000
1728699472.810,-72.754,-36.621,-9.766,-44.922,0.000
1728699472.814,-8.789,-32.227,-15.625,9.277,0.000
1728699472.818,39.551,-27.832,-21.973,31.250,0.000
1728699472.822,20.020,-20.020,-35.645,2.930,0.000
1728699472.826,-27.832,-20.996,-44.922,-40.039,0.000
1728699472.829,-66.406,-25.391,-36.133,-58.594,0.000
1728699472.833,-20.508,-19.043,-33.203,-19.043,0.000
1728699472.837,46.875,-12.207,-35.645,16.602,0.000
1728699472.841,53.223,-13.184,-37.109,35.156,0.000
1728699472.845,20.020,-10.742,-50.293,12.695,0.000
1728699472.849,-27.344,-7.324,-57.129,-23.926,0.000
1728699472.853,2.930,-8.301,-49.805,12.695,0.000
1728699472.857,58.594,-7.324,-44.922,48.340,0.000
1728699472.861,62.012,-12.695,-43.457,45.410,0.000
1728699472.865,53.223,-9.766,-42.969,42.480,0.000
1728699472.869,-3.418,-6.348,-38.086,-2.441,0.000
1728699472.872,-14.648,-11.230,-46.875,4.395,0.000
1728699472.876,53.711,-7.812,-91.309,54.688,0.000
1728699472.880,79.590,-10.254,-86.914,55.664,0.000
1728699472.884,40.039,-20.996,-39.551,20.996,0.000
1728699472.888,-30.762,-26.367,-25.391,-33.203,0.000
1728699472.892,-37.598,-22.949,-24.414,-35.645,0.000
1728699472.896,27.832,-26.367,-22.949,16.602,0.000
1728699472.900,46.875,-28.809,-24.414,27.344,0.000
1728699472.904,12.207,-26.855,-22.949,-0.488,0.000
1728699472.908,-37.109,-28.320,-22.461,-33.203,0.000
1728699472.912,-49.316,-26.367,-26.367,-25.391,0.000
1728699472.916,0.000,-30.273,-35.156,18.066,0.000
1728699472.919,39.062,-25.391,-40.039,27.832,0.000
1728699472.923,30.762,-16.602,-30.762,12.207,0.000
1728699472.927,-16.602,-24.414,-34.180,-15.625,0.000
1728699472.931,-43.945,-27.832,-46.875,-27.832,0.000
1728699472.935,-5.371,-25.879,-35.156,-0.977,0.000
1728699472.939,23.926,-26.367,-28.809,12.695,0.000
1728699472.943,23.926,-24.902,-35.645,17.090,0.000
1728699472.947,-20.020,-28.320,-44.434,-21.973,0.000
1728699472.951,-59.570,-34.180,-44.434,-61.035,0.000
1728699472.955,-12.207,-28.320,-45.410,-20.508,0.000
1728699472.958,23.926,-27.344,-61.035,7.324,0.000
1728699472.962,22.461,-37.598,-59.570,6.348,0.000
1728699472.966,-9.277,-29.297,-53.223,-26.367,0.000
1728699472.970,-58.105,-19.531,-47.363,-67.383,0.000
1728699472.974,-23.438,-20.020,-23.926,-31.738,0.000
1728699472.978,20.020,-21.484,-20.020,7.324,0.000
1728699472.982,13.184,-21.484,-23.438,4.883,0.000
1728699472.986,-29.297,-23.438,-21.484,-29.297,0.000
1728699472.990,-71.777,-22.949,-27.832,-49.316,0.000
1728699472.994,-47.363,-25.391,-34.668,-20.020,0.000
1728699472.998,5.859,-22.949,-27.832,2.930,0.000
1728699473.001,15.137,-24.414,-28.320,3.906,0.000
1728699473.005,-17.090,-26.367,-38.086,-19.531,0.000
1728699473.009,-57.617,-22.461,-44.922,-53.223,0.000
1728699473.013,-47.852,-25.391,-42.480,-41.504,0.000
1728699473.017,2.441,-25.879,-53.711,-0.977,0.000
1728699473.021,18.555,-24.414,-70.801,10.742,0.000
1728699473.025,-6.836,-23.926,-47.363,-17.578,0.000
1728699473.029,-58.105,-22.461,-23.926,-57.617,0.000
1728699473.033,-56.152,-24.902,-39.551,-39.062,0.000
1728699473.037,-5.859,-27.344,-41.992,7.812,0.000
1728699473.041,3.418,-28.809,-19.531,-3.906,0.000
1728699473.044,-5.859,-32.227,-16.113,-24.414,0.000
1728699473.048,-46.387,-32.715,-18.066,-52.734,0.000
1728699473.052,-60.059,-28.809,-17.578,-49.316,0.000
1728699473.056,-12.695,-28.809,-23.926,-7.812,0.000
1728699473.060,3.906,-27.832,-37.109,4.883,0.000
1728699473.064,-9.766,-31.738,-43.457,-1.465,0.000
1728699473.068,-62.988,-40.527,-40.039,-37.109,0.000
1728699473.072,-99.609,-37.598,-49.805,-47.363,0.000
1728699473.076,-38.574,-30.762,-54.688,0.977,0.000
1728699473.080,12.207,-29.785,-31.250,24.902,0.000
1728699473.083,-7.324,-33.203,-8.789,-5.859,0.000
1728699473.087,-53.223,-30.762,-7.812,-47.852,0.000
1728699473.091,-73.730,-26.855,-11.719,-54.199,0.000
1728699473.095,-28.320,-28.809,-19.043,-15.137,0.000
1728699473.099,10.254,-27.344,-25.391,-1.465,0.000
1728699473.103,3.418,-23.438,-24.902,-8.789,0.000
1728699473.107,-30.762,-20.508,-30.273,-30.762,0.000
1728699473.111,-65.430,-21.484,-37.109,-62.012,0.000
1728699473.115,-28.320,-20.020,-43.945,-27.832,0.000
1728699473.119,19.043,-18.066,-38.574,8.301,0.000
1728699473.122,23.438,-20.996,-34.180,12.695,0.000
1728699473.126,-5.371,-22.461,-43.945,-17.578,0.000
1728699473.130,-63.477,-23.926,-49.805,-54.688,0.000
1728699473.134,-36.621,-28.320,-37.109,-17.090,0.000
1728699473.138,20.508,-29.785,-24.414,13.672,0.000
1728699473.142,10.254,-28.809,-45.898,5.371,0.000
1728699473.146,-19.531,-28.809,-43.457,-15.137,0.000
1728699473.150,-62.012,-27.344,-27.832,-53.711,0.000
1728699473.154,-45.898,-22.949,-20.020,-38.086,0.000
1728699473.158,4.883,-26.367,-17.578,0.488,0.000
1728699473.162,5.859,-30.762,-27.344,-1.953,0.000
1728699473.165,-7.812,-25.391,-38.086,-20.020,0.000
1728699473.169,-56.152,-26.367,-45.898,-56.152,0.000
1728699473.173,-60.547,-30.762,-49.805,-47.363,0.000
1728699473.177,0.000,-26.855,-49.805,-5.371,0.000
1728699473.181,22.461,-22.461,-41.992,2.441,0.000
1728699473.185,2.930,-19.043,-35.156,-20.996,0.000
1728699473.189,-58.594,-23.438,-31.250,-61.523,0.000
1728699473.193,-75.684,-30.762,-33.691,-55.176,0.000
1728699473.197,-7.324,-27.344,-41.504,-8.789,0.000
1728699473.200,14.648,-23.926,-31.738,-11.230,0.000
1728699473.204,-12.207,-20.996,-29.297,-24.414,0.000
1728699473.208,-65.918,-19.043,-30.273,-56.152,0.000
1728699473.212,-86.426,-24.414,-29.297,-52.246,0.000
1728699473.216,-26.855,-25.391,-29.785,-0.977,0.000
1728699473.220,15.625,-28.809,-32.227,7.812,0.000
1728699473.224,11.719,-28.809,-39.551,7.324,0.000
1728699473.228,-28.320,-28.809,-35.645,-29.297,0.000
1728699473.232,-79.102,-35.645,-27.344,-78.125,0.000
1728699473.236,-59.570,-40.039,-25.391,-50.293,0.000
1728699473.240,-15.625,-41.504,-29.785,-26.855,0.000
1728699473.244,-12.695,-38.086,-24.902,-36.133,0.000
1728699473.247,-62.012,-35.645,-20.996,-62.988,0.000
1728699473.251,-107.422,-41.504,-21.973,-81.543,0.000
1728699473.255,-73.730,-44.922,-17.578,-46.875,0.000
1728699473.259,-28.320,-46.875,-14.160,-22.949,0.000
1728699473.263,-19.531,-44.434,-20.020,-32.227,0.000
1728699473.267,-54.199,-37.598,-29.297,-61.035,0.000
1728699473.271,-110.840,-36.133,-42.480,-88.379,0.000
1728699473.275,-78.125,-39.062,-39.062,-41.992,0.000
1728699473.279,-19.043,-41.016,-34.180,-9.277,0.000
1728699473.283,-18.066,-41.504,-47.852,-24.414,0.000
1728699473.287,-41.992,-33.203,-49.805,-44.922,0.000
1728699473.290,-80.566,-33.691,-23.926,-74.707,0.000
1728699473.294,-63.477,-38.574,-1.953,-46.387,0.000
1728699473.298,-6.836,-30.762,-8.301,-4.883,0.000
1728699473.302,1.953,-34.668,-11.719,-16.113,0.000
1728699473.306,-22.949,-36.133,-13.184,-39.551,0.000
1728699473.310,-81.543,-28.809,-9.766,-67.383,0.000
1728699473.314,-83.008,-31.738,-11.230,-55.176,0.000
1728699473.318,-11.230,-35.645,-13.672,-13.184,0.000
1728699473.322,3.906,-33.203,-15.137,-16.602,0.000
1728699473.326,-25.879,-32.715,-31.250,-46.875,0.000
1728699473.329,-65.918,-34.668,-37.109,-72.754,0.000
1728699473.333,-65.430,-30.273,-36.133,-61.523,0.000
1728699473.337,-13.672,-35.645,-39.062,-22.949,0.000
1728699473.341,10.254,-35.645,-32.227,-16.113,0.000
1728699473.345,1.953,-27.832,-26.367,-31.250,0.000
1728699473.349,-41.016,-34.180,-28.320,-60.059,0.000
1728699473.353,-68.359,-35.645,-24.414,-61.035,0.000
1728699473.357,-23.438,-38.086,-24.902,-17.090,0.000
1728699473.361,5.859,-38.574,-29.785,-0.977,0.000
1728699473.365,1.953,-24.414,-25.391,-1.465,0.000
1728699473.369,-33.203,-20.996,-28.320,-34.180,0.000
1728699473.372,-70.312,-25.391,-29.785,-63.477,0.000
1728699473.376,-27.832,-32.715,-22.949,-22.461,0.000
1728699473.380,5.859,-33.203,-18.066,-9.766,0.000
1728699473.384,-5.371,-35.156,-15.625,-15.625,0.000
1728699473.388,-45.898,-40.039,-25.391,-36.621,0.000
1728699473.392,-77.148,-33.203,-31.738,-58.105,0.000
1728699473.396,-18.066,-35.645,-31.250,-25.879,0.000
1728699473.400,23.438,-37.109,-37.109,-10.254,0.000
1728699473.404,17.090,-29.297,-37.598,-9.766,0.000
1728699473.408,-17.090,-29.785,-30.762,-32.715,0.000
1728699473.412,-63.477,-31.250,-42.480,-61.523,0.000
1728699473.415,-48.828,-30.273,-51.758,-42.480,0.000
1728699473.419,-3.906,-31.738,-41.504,-14.648,0.000
1728699473.423,8.789,-31.738,-35.156,0.488,0.000
1728699473.427,-26.855,-31.738,-39.062,-29.297,0.000
1728699473.431,-78.125,-28.809,-41.016,-71.289,0.000
1728699473.435,-52.734,-32.715,-34.668,-42.969,0.000
1728699473.439,-4.395,-36.621,-21.973,-4.395,0.000
1728699473.443,-1.465,-33.691,-14.648,-8.301,0.000
1728699473.447,-24.902,-29.785,-15.137,-28.809,0.000
1728699473.451,-74.707,-26.855,-18.066,-63.965,0.000
1728699473.455,-63.477,-28.320,-19.531,-37.109,0.000
1728699473.458,1.953,-30.762,-31.250,6.836,0.000
1728699473.462,9.277,-32.227,-30.762,-0.488,0.000
1728699473.466,-17.090,-30.762,-24.902,-10.254,0.000
1728699473.470,-64.941,-26.367,-21.973,-41.504,0.000
1728699473.474,-67.871,-24.902,-27.832,-29.785,0.000
1728699473.478,-0.488,-24.414,-34.180,18.555,0.000
1728699473.482,24.414,-22.949,-27.832,19.043,0.000
1728699473.486,7.324,-28.320,-22.461,0.488,0.000
1728699473.490,-46.875,-30.273,-19.043,-30.762,0.000
1728699473.494,-61.035,-28.320,-27.344,-29.297,0.000
1728699473.497,4.883,-24.902,-33.691,17.578,0.000
1728699473.501,32.715,-26.367,-30.762,31.738,0.000
1728699473.505,13.184,-28.320,-29.297,4.395,0.000
1728699473.509,-27.344,-25.391,-22.949,-33.203,0.000
1728699473.513,-58.594,-25.391,-24.414,-33.691,0.000
1728699473.517,-14.648,-25.391,-31.250,10.254,0.000
1728699473.521,34.668,-25.879,-32.227,20.996,0.000
1728699473.525,22.461,-28.320,-27.832,0.000,0.000
1728699473.529,-21.484,-27.832,-33.203,-18.066,0.000
1728699473.533,-55.664,-25.879,-48.340,-29.785,0.000
1728699473.536,-19.531,-26.367,-51.270,1.953,0.000
1728699473.540,13.672,-27.344,-31.738,18.555,0.000
1728699473.544,7.324,-23.926,-1.953,16.113,0.000
1728699473.548,-40.039,-22.949,-7.812,-20.508,0.000
1728699473.552,-88.379,-27.344,-20.996,-68.848,0.000
1728699473.556,-42.480,-27.832,-21.973,-34.180,0.000
1728699473.560,14.160,-26.855,-23.438,3.418,0.000
1728699473.564,0.000,-26.855,-29.785,-11.719,0.000
1728699473.568,-32.715,-28.809,-40.527,-45.898,0.000
1728699473.572,-74.707,-25.879,-40.039,-71.777,0.000
1728699473.575,-53.223,-26.367,-30.762,-41.992,0.000
1728699473.579,-1.465,-23.438,-36.133,-6.348,0.000
1728699473.583,0.977,-18.555,-58.105,-3.418,0.000
1728699473.587,-16.602,-24.414,-38.086,-21.973,0.000
1728699473.591,-66.895,-28.320,-11.719,-59.082,0.000
1728699473.595,-55.176,-23.926,-13.184,-39.062,0.000
1728699473.599,8.301,-21.484,-14.648,-0.977,0.000
1728699473.603,20.020,-19.531,-20.020,-5.371,0.000
1728699473.607,-1.953,-17.090,-22.461,-19.531,0.000
1728699473.611,-55.664,-17.090,-29.785,-52.246,0.000
1728699473.615,-60.547,-18.555,-31.250,-39.551,0.000
1728699473.618,-7.812,-26.367,-21.973,-1.953,0.000
1728699473.622,8.789,-31.250,-31.738,-9.277,0.000
1728699473.626,-4.395,-27.832,-49.805,-23.438,0.000
1728699473.630,-43.457,-24.902,-47.852,-49.316,0.000
1728699473.634,-73.730,-30.762,-29.785,-42.969,0.000
1728699473.638,-23.926,-30.762,-22.461,2.930,0.000
1728699473.642,25.879,-28.320,-18.066,5.371,0.000
1728699473.646,12.695,-30.273,-13.184,-14.648,0.000
1728699473.650,-31.250,-33.203,-12.695,-35.645,0.000
1728699473.654,-61.035,-32.715,-25.879,-44.922,0.000
1728699473.658,-21.973,-29.297,-41.992,-13.184,0.000
1728699473.661,14.160,-25.879,-38.086,6.348,0.000
1728699473.665,9.766,-21.973,-41.016,-2.441,0.000
1728699473.669,-41.992,-23.438,-43.945,-45.898,0.000
1728699473.673,-78.125,-28.320,-33.691,-67.871,0.000
1728699473.677,-34.668,-32.227,-30.273,-22.461,0.000
1728699473.681,3.418,-32.715,-34.668,-4.395,0.000
1728699473.685,4.883,-32.227,-32.227,-6.836,0.000
1728699473.689,-27.832,-29.785,-30.762,-25.391,0.000
1728699473.693,-70.801,-27.344,-26.367,-52.246,0.000
1728699473.697,-39.062,-27.832,-27.832,-22.461,0.000
1728699473.701,15.137,-26.367,-44.434,1.465,0.000
1728699473.704,9.766,-32.227,-41.016,-12.207,0.000
1728699473.708,-36.133,-32.715,-25.879,-38.574,0.000
1728699473.712,-93.262,-27.344,-26.855,-61.523,0.000
1728699473.716,-62.988,-29.297,-31.250,-30.762,0.000
1728699473.720,16.113,-27.832,-31.250,5.371,0.000
1728699473.724,17.578,-22.461,-36.133,-2.441,0.000
1728699473.728,-27.832,-28.809,-37.598,-30.273,0.000
1728699473.732,-71.289,-31.738,-36.133,-68.848,0.000
1728699473.736,-55.664,-30.273,-36.621,-43.457,0.000
1728699473.740,0.488,-28.320,-36.621,9.277,0.000
1728699473.744,13.672,-22.949,-42.969,0.000,0.000
1728699473.747,-17.090,-23.926,-41.016,-29.297,0.000
1728699473.751,-68.848,-25.879,-27.344,-58.594,0.000
1728699473.755,-67.871,-24.902,-23.926,-48.340,0.000
1728699473.759,-6.836,-23.926,-33.203,-9.277,0.000
1728699473.763,15.137,-24.414,-37.109,-1.953,0.000
1728699473.767,0.488,-23.926,-32.715,-14.160,0.000
1728699473.771,-41.992,-23.926,-28.809,-56.152,0.000
1728699473.775,-70.801,-26.367,-28.809,-52.734,0.000
1728699473.779,-27.344,-26.367,-30.273,-4.883,0.000
1728699473.783,5.859,-23.438,-33.203,-1.953,0.000
1728699473.787,-8.301,-22.949,-40.527,-15.137,0.000
1728699473.790,-59.570,-27.832,-52.246,-46.387,0.000
1728699473.794,-78.613,-28.320,-45.898,-48.828,0.000
1728699473.798,-19.531,-26.855,-29.297,-5.371,0.000
1728699473.802,4.883,-28.320,-18.555,-1.465,0.000
1728699473.806,4.883,-25.391,-21.484,-3.906,0.000
1728699473.810,-22.949,-21.484,-36.133,-32.227,0.000
1728699473.814,-63.965,-27.832,-35.645,-60.059,0.000
1728699473.818,-23.926,-30.762,-34.180,-19.531,0.000
1728699473.822,4.395,-31.738,-29.785,-2.930,0.000
1728699473.826,-13.672,-36.133,-19.531,-25.391,0.000
1728699473.829,-55.664,-36.621,-16.602,-56.641,0.000
1728699473.833,-100.586,-41.992,-22.461,-78.125,0.000
1728699473.837,-66.895,-46.387,-28.320,-41.016,0.000
1728699473.841,-21.484,-45.410,-19.531,-20.996,0.000
1728699473.845,-20.020,-49.805,-20.020,-26.855,0.000
1728699473.849,-58.594,-50.781,-23.926,-40.039,0.000
1728699473.853,-115.234,-51.270,-27.832,-79.590,0.000
1728699473.857,-87.891,-56.152,-29.297,-59.570,0.000
1728699473.861,-22.949,-41.504,-34.668,-23.926,0.000
1728699473.865,-14.160,-35.156,-39.062,-20.996,0.000
1728699473.869,-42.480,-40.039,-25.879,-35.645,0.000
1728699473.872,-88.379,-43.457,-17.090,-59.570,0.000
1728699473.876,-76.172,-43.945,-16.602,-36.621,0.000
1728699473.880,-17.578,-48.340,-23.926,-12.207,0.000
1728699473.884,-0.488,-46.387,-25.879,-9.277,0.000
1728699473.888,-14.160,-36.621,-18.066,-17.578,0.000
1728699473.892,-69.336,-35.645,-15.625,-58.105,0.000
1728699473.896,-75.195,-34.180,-17.578,-52.246,0.000
1728699473.900,-18.555,-29.785,-24.902,-10.254,0.000
1728699473.904,1.953,-27.832,-31.250,-16.113,0.000
1728699473.908,-14.160,-27.832,-37.109,-32.715,0.000
1728699473.911,-71.777,-33.203,-25.879,-61.035,0.000
1728699473.915,-85.449,-36.133,-19.043,-58.105,0.000
1728699473.919,-22.949,-29.785,-21.484,-9.766,0.000
1728699473.923,-13.672,-32.715,-25.879,0.000,0.000
1728699473.927,-25.391,-40.527,-34.180,-20.996,0.000
1728699473.931,-52.246,-39.062,-31.738,-56.152,0.000
1728699473.935,-80.078,-35.156,-33.203,-64.453,0.000
1728699473.939,-21.484,-32.715,-32.715,-18.066,0.000
1728699473.943,6.348,-31.738,-35.645,-7.812,0.000
1728699473.947,-9.766,-32.715,-42.480,-24.414,0.000
1728699473.950,-47.363,-37.109,-40.039,-52.246,0.000
1728699473.954,-77.637,-39.062,-43.457,-61.035,0.000
1728699473.958,-27.832,-35.645,-42.969,-14.160,0.000
1728699473.962,17.578,-32.715,-36.133,11.230,0.000
1728699473.966,16.113,-33.203,-36.133,7.324,0.000
1728699473.970,-30.762,-36.133,-30.762,-32.715,0.000
1728699473.974,-77.637,-35.156,-35.156,-67.383,0.000
1728699473.978,-46.875,-34.180,-47.363,-38.574,0.000
1728699473.982,-1.953,-30.273,-44.922,-10.742,0.000
1728699473.986,-3.418,-29.785,-42.480,-15.625,0.000
1728699473.990,-35.645,-32.715,-40.527,-47.363,0.000
1728699473.993,-73.242,-36.133,-39.062,-67.383,0.000
1728699473.997,-43.457,-42.480,-32.715,-33.203,0.000
1728699474.001,11.719,-37.598,-29.785,2.441,0.000
1728699474.005,9.277,-29.785,-34.180,1.465,0.000
1728699474.009,-30.762,-29.297,-41.016,-25.391,0.000
1728699474.013,-87.891,-38.574,-39.062,-65.430,0.000
1728699474.017,-70.312,-41.992,-30.762,-51.270,0.000
1728699474.021,-6.348,-37.109,-36.133,-11.230,0.000
1728699474.025,11.719,-30.762,-35.156,1.465,0.000
1728699474.029,-14.648,-31.250,-30.273,-13.672,0.000
1728699474.033,-82.031,-43.945,-16.602,-67.383,0.000
1728699474.036,-78.613,-40.527,-15.137,-58.105,0.000
1728699474.040,-4.883,-29.785,-31.738,-7.324,0.000
1728699474.044,12.207,-23.438,-34.180,22.949,0.000
1728699474.048,-23.438,-25.879,-18.555,-1.953,0.000
1728699474.052,-80.078,-35.156,-23.926,-76.660,0.000
1728699474.056,-71.777,-28.809,-24.902,-53.711,0.000
1728699474.060,-28.809,-35.156,-1.953,-37.109,0.000
1728699474.064,-30.273,-53.223,8.301,-75.195,0.000
1728699474.068,-18.555,-32.715,-21.484,-31.738,0.000
1728699474.072,-44.922,-16.602,-56.641,-34.180,0.000
1728699474.076,-104.980,-39.062,-29.297,-86.426,0.000
1728699474.079,-73.242,-44.922,-2.930,-81.543,0.000
1728699474.083,-22.949,-33.691,-6.836,-62.988,0.000
1728699474.087,-45.898,-36.133,11.230,-62.012,0.000
1728699474.091,-88.867,-40.527,18.066,-83.008,0.000
1728699474.095,-85.938,-32.227,-2.930,-65.918,0.000
1728699474.099,-65.918,-37.109,7.812,-54.688,0.000
1728699474.103,-28.320,-30.273,15.625,-42.969,0.000
1728699474.107,-39.551,-26.367,34.180,-43.945,0.000
1728699474.111,-95.703,-35.156,74.219,-92.773,0.000
1728699474.115,-122.559,-36.621,103.027,-113.281,0.000
1728699474.119,-118.164,-39.551,141.113,-110.840,0.000
1728699474.122,-74.707,-33.691,134.766,-81.543,0.000
1728699474.126,-41.016,-34.180,118.164,-57.617,0.000
1728699474.130,-71.289,-37.598,143.555,-76.660,0.000
1728699474.134,-127.930,-40.039,198.242,-117.676,0.000
1728699474.138,-106.445,-45.410,242.188,-101.074,0.000
1728699474.142,-87.402,-65.430,297.852,-87.402,0.000
1728699474.146,-62.500,-54.688,291.016,-62.988,0.000
1728699474.150,-72.754,-47.852,267.090,-76.660,0.000
1728699474.154,-144.043,-66.406,287.109,-143.555,0.000
1728699474.158,-118.164,-66.406,280.273,-123.047,0.000
1728699474.161,-50.293,-60.547,289.551,-82.520,0.000
1728699474.165,-29.297,-45.898,244.629,-56.641,0.000
1728699474.169,-64.453,-48.828,201.172,-65.918,0.000
1728699474.173,-137.207,-65.430,173.340,-123.047,0.000
1728699474.177,-99.609,-51.758,56.152,-83.496,0.000
1728699474.181,-49.805,-53.223,0.488,-57.129,0.000
1728699474.185,-28.809,-59.082,-57.617,-49.316,0.000
1728699474.189,-28.809,-47.363,-198.730,-45.410,0.000
1728699474.193,-109.375,-52.246,-227.539,-111.328,0.000
1728699474.197,-117.188,-56.641,-288.574,-101.562,0.000
1728699474.201,-40.527,-44.434,-418.945,-23.438,0.000
1728699474.204,-34.668,-50.781,-445.801,-21.484,0.000
1728699474.208,-41.992,-44.922,-479.492,-38.574,0.000
1728699474.212,-66.895,-38.574,-540.527,-72.266,0.000
1728699474.216,-78.613,-50.293,-577.637,-80.078,0.000
1728699474.220,-34.668,-61.523,-610.352,-37.598,0.000
1728699474.224,-20.020,-51.270,-652.832,-19.043,0.000
1728699474.228,-34.668,-46.875,-675.293,-41.016,0.000
1728699474.232,-93.262,-51.270,-673.828,-90.332,0.000
1728699474.236,-99.609,-38.574,-757.324,-63.965,0.000
1728699474.240,-14.160,-23.926,-856.934,-0.977,0.000
1728699474.243,14.648,-28.809,-863.770,1.953,0.000
1728699474.247,0.488,-27.344,-868.652,10.254,0.000
1728699474.251,-35.645,-31.738,-890.625,-19.531,0.000
1728699474.255,-81.543,-43.457,-914.062,-61.035,0.000
1728699474.259,-40.039,-37.598,-941.406,-21.484,0.000
1728699474.263,1.953,-36.621,-946.777,-9.766,0.000
1728699474.267,-8.789,-33.691,-957.520,-21.484,0.000
1728699474.271,-33.691,-29.297,-976.562,-31.250,0.000
1728699474.275,-66.406,-30.273,-967.773,-58.594,0.000
1728699474.279,-38.086,-25.879,-945.801,-21.973,0.000
1728699474.282,15.625,-24.902,-910.645,24.414,0.000
1728699474.286,23.438,-25.391,-884.766,20.996,0.000
1728699474.290,-4.883,-20.508,-870.117,-0.977,0.000
1728699474.294,-45.410,-18.066,-851.562,-30.273,0.000
1728699474.298,-25.879,-26.367,-828.613,-4.395,0.000
1728699474.302,25.879,-32.227,-805.176,33.203,0.000
1728699474.306,26.855,-23.438,-781.250,26.367,0.000
1728699474.310,-6.836,-19.043,-753.906,-1.465,0.000
1728699474.314,-57.129,-20.508,-726.074,-34.180,0.000
1728699474.318,-46.387,-21.484,-681.152,-18.066,0.000
1728699474.321,4.395,-20.020,-639.648,23.438,0.000
1728699474.325,22.949,-8.789,-607.422,30.762,0.000
1728699474.329,11.719,-11.719,-556.641,8.789,0.000
1728699474.333,-49.316,-30.762,-501.465,-41.504,0.000
1728699474.337,-44.434,-33.691,-419.922,-27.344,0.000
1728699474.341,21.973,-23.438,-288.086,24.414,0.000
1728699474.345,44.922,-20.996,-97.168,22.949,0.000
1728699474.349,29.297,-21.973,114.746,5.371,0.000
1728699474.353,-28.809,-16.602,342.285,-31.250,0.000
1728699474.357,-45.898,-17.090,549.805,-42.480,0.000
1728699474.361,10.254,-29.785,667.969,-5.859,0.000
1728699474.365,41.992,-24.414,762.695,11.719,0.000
1728699474.368,26.367,-12.695,890.137,6.348,0.000
1728699474.372,-23.438,-17.090,967.285,-21.484,0.000
1728699474.376,-43.945,-16.113,966.309,-32.227,0.000
1728699474.380,9.277,-15.137,966.797,12.695,0.000
1728699474.384,34.668,-18.066,968.750,24.902,0.000
1728699474.388,18.066,-16.602,968.750,6.348,0.000
1728699474.392,-20.020,-17.090,965.332,-25.879,0.000
1728699474.396,-47.852,-20.996,971.191,-44.434,0.000
1728699474.400,-1.465,-21.973,948.730,-2.441,0.000
1728699474.404,49.316,-16.113,853.516,26.855,0.000
1728699474.407,47.363,-13.672,796.387,20.508,0.000
1728699474.411,-0.977,-19.043,773.926,-11.230,0.000
1728699474.415,-49.805,-19.531,711.914,-40.527,0.000
1728699474.419,-6.348,-19.531,663.574,-10.742,0.000
1728699474.423,40.527,-22.461,630.859,11.230,0.000
1728699474.427,37.598,-23.438,596.191,10.254,0.000
1728699474.431,11.230,-24.414,543.945,-11.719,0.000
1728699474.435,-42.480,-25.391,490.234,-44.922,0.000
1728699474.439,-17.578,-23.926,451.172,-17.578,0.000
1728699474.443,44.922,-20.996,413.086,22.949,0.000
1728699474.447,40.039,-21.484,382.324,26.367,0.000
1728699474.450,-3.906,-24.414,334.961,-2.930,0.000
1728699474.454,-49.805,-24.414,286.621,-37.109,0.000
1728699474.458,-31.738,-19.531,262.207,-21.973,0.000
1728699474.462,32.227,-18.066,247.070,7.812,0.000
1728699474.466,43.945,-19.531,225.098,0.977,0.000
1728699474.470,17.578,-22.949,195.801,-19.043,0.000
1728699474.474,-33.691,-25.391,170.898,-55.176,0.000
1728699474.478,-34.668,-29.785,156.250,-48.340,0.000
1728699474.482,12.207,-31.250,147.461,-9.766,0.000
1728699474.486,23.926,-30.273,138.672,0.977,0.000
1728699474.490,12.207,-32.715,119.629,5.371,0.000
1728699474.493,-39.062,-29.785,104.492,-34.180,0.000
1728699474.497,-44.434,-23.926,106.445,-33.203,0.000
1728699474.501,15.137,-34.668,102.539,15.625,0.000
1728699474.505,38.086,-35.156,82.031,23.438,0.000
1728699474.509,23.926,-26.855,61.035,8.789,0.000
1728699474.513,-21.973,-21.484,55.664,-34.668,0.000
1728699474.517,-52.246,-21.973,59.570,-53.223,0.000
1728699474.521,-14.160,-26.367,65.430,-5.859,0.000
1728699474.525,24.414,-22.949,69.824,21.973,0.000
1728699474.529,19.531,-23.438,66.406,13.672,0.000
1728699474.533,-33.203,-25.391,62.988,-24.414,0.000
1728699474.536,-58.105,-27.832,47.363,-40.039,0.000
1728699474.540,-9.766,-26.855,38.574,-0.977,0.000
1728699474.544,29.297,-25.391,34.180,15.625,0.000
1728699474.548,29.785,-25.879,14.160,13.672,0.000
1728699474.552,-17.578,-29.785,12.695,-21.973,0.000
1728699474.556,-69.824,-32.715,19.043,-49.805,0.000
1728699474.560,-31.250,-29.785,14.648,-1.465,0.000
1728699474.564,22.461,-27.832,6.836,23.926,0.000
1728699474.568,11.230,-33.203,-0.977,0.488,0.000
1728699474.572,-31.250,-33.203,-9.277,-26.367,0.000
1728699474.576,-72.266,-31.738,-16.113,-47.852,0.000
1728699474.579,-29.785,-26.367,-15.625,-6.836,0.000
1728699474.583,28.809,-20.508,-24.902,20.996,0.000
1728699474.587,22.461,-22.461,-34.180,13.184,0.000
1728699474.591,-13.184,-18.066,-29.297,-5.371,0.000
1728699474.595,-60.547,-19.531,-23.926,-47.363,0.000
1728699474.599,-42.969,-24.414,-16.113,-27.344,0.000
1728699474.603,18.555,-21.484,-19.531,8.301,0.000
1728699474.607,27.832,-21.484,-29.297,9.277,0.000
1728699474.611,3.418,-22.949,-33.691,-1.953,0.000
1728699474.615,-47.852,-26.855,-35.156,-40.039,0.000
1728699474.618,-44.434,-29.785,-54.199,-29.785,0.000
1728699474.622,20.020,-20.508,-64.941,21.484,0.000
1728699474.626,23.438,-23.926,-56.641,19.043,0.000
1728699474.630,-7.812,-29.785,-46.387,-16.602,0.000
1728699474.634,-49.316,-28.809,-28.320,-50.293,0.000
1728699474.638,-51.758,-33.203,-23.438,-35.156,0.000
1728699474.642,1.953,-34.668,-26.367,4.883,0.000
1728699474.646,24.414,-32.227,-28.809,11.719,0.000
1728699474.650,4.395,-36.621,-37.598,-1.953,0.000
1728699474.654,-49.805,-36.621,-39.551,-41.992,0.000
1728699474.657,-70.312,-30.762,-45.410,-38.574,0.000
1728699474.661,-15.137,-24.414,-55.664,5.859,0.000
1728699474.665,19.531,-22.949,-48.340,11.719,0.000
1728699474.669,8.301,-30.273,-56.152,3.906,0.000
1728699474.673,-47.363,-28.809,-68.848,-31.250,0.000
1728699474.677,-84.961,-29.297,-60.547,-50.293,0.000
1728699474.681,-33.203,-34.180,-53.711,-12.695,0.000
1728699474.685,10.254,-35.156,-55.664,8.301,0.000
1728699474.689,-5.859,-35.645,-62.012,-0.977,0.000
1728699474.693,-44.922,-32.715,-51.270,-41.016,0.000
1728699474.696,-70.312,-30.273,-55.176,-52.734,0.000
1728699474.700,-22.461,-29.297,-70.312,-11.719,0.000
1728699474.704,21.973,-29.785,-53.223,8.301,0.000
1728699474.708,15.625,-28.809,-40.039,1.465,0.000
1728699474.712,-13.672,-28.320,-46.875,-21.973,0.000
1728699474.716,-53.711,-30.273,-56.152,-44.434,0.000
1728699474.720,-24.902,-23.926,-62.012,-8.789,0.000
1728699474.724,28.320,-20.996,-58.105,20.508,0.000
1728699474.728,24.902,-26.855,-43.945,0.977,0.000
1728699474.732,-12.207,-28.809,-36.621,-26.855,0.000
1728699474.736,-69.824,-27.832,-40.039,-57.617,0.000
1728699474.739,-57.129,-29.785,-40.039,-26.855,0.000
1728699474.743,0.488,-32.227,-44.922,7.812,0.000
1728699474.747,13.672,-31.250,-46.875,-2.441,0.000
1728699474.751,-7.324,-30.273,-48.340,-18.066,0.000
1728699474.755,-64.453,-31.738,-61.523,-65.918,0.000
1728699474.759,-68.848,-31.738,-64.941,-56.152,0.000
1728699474.763,-7.324,-34.180,-59.082,-6.836,0.000
1728699474.767,7.324,-28.320,-59.570,-5.371,0.000
1728699474.771,-15.137,-27.344,-58.594,-13.672,0.000
1728699474.775,-58.105,-27.344,-51.758,-43.457,0.000
1728699474.779,-66.895,-26.367,-41.016,-40.527,0.000
1728699474.782,-20.996,-29.785,-38.086,-0.488,0.000
1728699474.786,6.348,-28.320,-40.039,12.207,0.000
1728699474.790,-2.441,-24.902,-38.574,-0.488,0.000
1728699474.794,-62.988,-25.879,-37.109,-47.363,0.000
1728699474.798,-80.078,-26.367,-36.133,-50.781,0.000
1728699474.802,-17.578,-25.391,-33.691,-7.812,0.000
1728699474.806,15.137,-32.715,-41.504,1.465,0.000
1728699474.810,4.395,-33.691,-57.617,-4.395,0.000
1728699474.814,-49.805,-26.855,-60.059,-46.875,0.000
1728699474.818,-72.266,-28.320,-49.316,-55.664,0.000
1728699474.822,-18.066,-33.203,-41.992,-8.789,0.000
1728699474.825,0.977,-33.203,-36.133,-7.812,0.000
1728699474.829,-8.789,-34.180,-29.297,-12.695,0.000
1728699474.833,-51.758,-38.574,-33.203,-36.621,0.000
1728699474.837,-88.379,-36.133,-30.273,-64.941,0.000
1728699474.841,-40.527,-29.785,-23.926,-20.020,0.000
1728699474.845,9.277,-25.391,-23.438,12.695,0.000
1728699474.849,12.695,-24.902,-29.297,1.953,0.000
1728699474.853,-24.902,-28.320,-31.738,-28.809,0.000
1728699474.857,-69.336,-28.809,-46.875,-60.059,0.000
1728699474.861,-38.086,-31.250,-65.918,-34.180,0.000
1728699474.865,14.160,-31.250,-51.270,12.207,0.000
1728699474.868,5.859,-33.691,-35.645,3.906,0.000
1728699474.872,-29.785,-33.203,-34.668,-34.668,0.000
1728699474.876,-70.801,-29.297,-31.250,-52.734,0.000
1728699474.880,-48.340,-24.902,-34.668,-17.578,0.000
1728699474.884,8.301,-22.949,-40.039,11.719,0.000
1728699474.888,12.695,-21.484,-49.805,-1.465,0.000
1728699474.892,-24.414,-24.414,-45.410,-27.832,0.000
1728699474.896,-73.730,-29.297,-32.227,-59.570,0.000
1728699474.900,-53.223,-29.785,-34.180,-38.086,0.000
1728699474.904,0.000,-30.762,-34.180,0.488,0.000
1728699474.908,7.812,-29.785,-26.367,-0.488,0.000
1728699474.911,-10.742,-32.715,-15.625,-12.695,0.000
1728699474.915,-71.289,-34.180,-21.973,-56.641,0.000
1728699474.919,-70.801,-33.203,-29.785,-48.340,0.000
1728699474.923,-3.418,-34.668,-29.297,-9.766,0.000
1728699474.927,16.113,-37.109,-27.832,-8.301,0.000
1728699474.931,-5.371,-35.156,-35.156,-16.113,0.000
1728699474.935,-57.617,-34.668,-43.457,-50.293,0.000
1728699474.939,-69.336,-35.645,-44.922,-55.176,0.000
1728699474.943,-14.160,-30.762,-50.293,-22.949,0.000
1728699474.947,21.484,-27.344,-46.387,-11.719,0.000
1728699474.950,16.602,-27.344,-32.715,-14.648,0.000
1728699474.954,-25.879,-24.902,-20.508,-29.785,0.000
1728699474.958,-63.965,-24.414,-14.160,-47.363,0.000
1728699474.962,-20.996,-22.949,-23.926,-25.391,0.000
1728699474.966,24.414,-17.090,-34.180,1.465,0.000
1728699474.970,5.371,-18.555,-35.156,-8.789,0.000
1728699474.974,-46.387,-19.043,-29.785,-45.410,0.000
1728699474.978,-90.820,-19.043,-20.508,-70.312,0.000
1728699474.982,-47.852,-21.973,-16.602,-23.926,0.000
1728699474.986,3.906,-18.066,-25.391,0.488,0.000
1728699474.990,-3.906,-16.602,-41.992,-17.578,0.000
1728699474.993,-39.062,-17.090,-46.875,-35.645,0.000
1728699474.997,-71.289,-23.438,-30.273,-51.758,0.000
1728699475.001,-37.109,-28.320,-26.855,-15.137,0.000
1728699475.005,9.766,-26.367,-51.270,-0.977,0.000
1728699475.009,17.578,-23.926,-64.453,-12.207,0.000
1728699475.013,-21.973,-23.438,-44.434,-30.273,0.000
1728699475.017,-72.266,-34.180,-29.785,-57.129,0.000
1728699475.021,-46.387,-37.598,-20.508,-25.879,0.000
1728699475.025,0.000,-30.273,-17.578,6.348,0.000
1728699475.029,7.812,-27.832,-23.926,-3.418,0.000
1728699475.032,-23.438,-26.855,-34.668,-32.715,0.000
1728699475.036,-75.195,-25.879,-44.434,-60.547,0.000
1728699475.040,-59.570,-26.855,-42.480,-33.203,0.000
1728699475.044,0.488,-28.320,-32.227,7.812,0.000
1728699475.048,15.137,-27.832,-32.227,8.301,0.000
1728699475.052,-9.277,-25.879,-23.438,-7.324,0.000
1728699475.056,-60.059,-27.344,-17.090,-40.527,0.000
1728699475.060,-58.105,-32.227,-29.785,-34.668,0.000
1728699475.064,-7.812,-32.227,-43.945,0.977,0.000
1728699475.068,12.695,-23.926,-50.293,9.277,0.000
1728699475.071,2.930,-23.926,-38.574,-4.395,0.000
1728699475.075,-53.711,-25.879,-40.527,-46.875,0.000
1728699475.079,-63.965,-24.902,-49.805,-48.828,0.000
1728699475.083,0.977,-29.297,-29.297,-8.789,0.000
1728699475.087,29.297,-34.668,-19.531,-2.930,0.000
1728699475.091,10.742,-33.691,-29.297,-14.160,0.000
1728699475.095,-47.852,-31.250,-24.902,-44.434,0.000
1728699475.099,-78.613,-28.809,-32.715,-53.711,0.000
1728699475.103,-25.391,-30.273,-39.551,-20.020,0.000
1728699475.107,1.465,-30.762,-34.180,-9.277,0.000
1728699475.110,-6.348,-29.785,-31.250,-11.719,0.000
1728699475.114,-36.621,-28.320,-28.320,-36.133,0.000
1728699475.118,-75.684,-30.762,-33.203,-61.035,0.000
1728699475.122,-35.156,-32.227,-36.621,-20.508,0.000
1728699475.126,12.695,-27.832,-35.156,9.277,0.000
1728699475.130,6.348,-29.297,-38.574,-2.930,0.000
1728699475.134,-31.250,-26.855,-42.480,-31.738,0.000
1728699475.138,-62.988,-24.902,-47.852,-57.617,0.000
1728699475.142,-28.809,-24.902,-47.363,-30.273,0.000
1728699475.146,16.602,-26.855,-36.133,-1.465,0.000
1728699475.150,21.484,-29.785,-26.855,-2.441,0.000
1728699475.154,-25.879,-29.785,-34.668,-41.016,0.000
1728699475.157,-76.660,-30.762,-41.016,-68.848,0.000
1728699475.161,-41.016,-30.273,-28.809,-26.855,0.000
1728699475.165,10.742,-32.227,-20.996,-8.301,0.000
1728699475.169,17.578,-30.273,-24.414,-15.625,0.000
1728699475.173,-12.695,-24.902,-28.809,-24.902,0.000
1728699475.177,-82.031,-32.227,-47.852,-63.965,0.000
1728699475.181,-69.336,-35.156,-57.617,-37.598,0.000
1728699475.185,0.977,-24.902,-38.574,8.301,0.000
1728699475.189,9.766,-20.020,-21.973,-4.395,0.000
1728699475.193,-11.230,-22.461,-12.207,-27.832,0.000
1728699475.197,-58.594,-19.043,-11.230,-47.852,0.000
1728699475.200,-61.523,-18.066,-20.996,-39.551,0.000
1728699475.204,-1.953,-26.855,-36.621,-10.254,0.000
1728699475.208,26.855,-27.344,-67.383,-5.371,0.000
1728699475.212,7.812,-26.855,-73.730,-17.578,0.000
1728699475.216,-52.734,-27.832,-37.109,-47.363,0.000
1728699475.220,-64.453,-27.344,-7.324,-42.969,0.000
1728699475.224,-8.301,-24.902,-9.766,-3.418,0.000
1728699475.228,16.113,-25.391,-24.902,0.977,0.000
1728699475.232,10.254,-30.273,-23.438,-11.719,0.000
1728699475.236,-38.574,-26.367,-20.508,-47.852,0.000
1728699475.240,-64.453,-30.273,-22.461,-49.316,0.000
1728699475.243,-12.695,-30.762,-30.273,-6.348,0.000
1728699475.247,14.648,-23.438,-33.203,7.812,0.000
1728699475.251,5.371,-27.344,-29.785,3.906,0.000
1728699475.255,-45.410,-33.203,-38.574,-43.457,0.000
1728699475.259,-86.426,-31.250,-39.551,-69.824,0.000
1728699475.263,-33.691,-28.320,-31.250,-20.996,0.000
1728699475.267,17.578,-28.320,-37.598,6.348,0.000
1728699475.271,15.137,-27.832,-47.363,2.441,0.000
1728699475.275,-32.227,-28.320,-44.434,-31.250,0.000
1728699475.279,-77.637,-32.227,-37.109,-64.453,0.000
1728699475.282,-36.133,-35.156,-33.203,-27.344,0.000
1728699475.286,3.418,-31.738,-36.621,-0.977,0.000
1728699475.290,-13.672,-32.715,-42.480,-16.602,0.000
1728699475.294,-47.363,-29.297,-46.875,-44.434,0.000
1728699475.298,-90.332,-26.367,-46.387,-70.312,0.000
1728699475.302,-61.035,-34.180,-38.086,-39.551,0.000
1728699475.306,2.441,-31.250,-24.902,0.977,0.000
1728699475.310,5.859,-26.367,-24.414,-1.465,0.000
1728699475.314,-24.414,-26.367,-44.922,-20.020,0.000
1728699475.318,-70.312,-23.438,-60.547,-53.711,0.000
1728699475.322,-63.477,-26.367,-44.434,-41.992,0.000
1728699475.325,-16.602,-33.203,-25.391,-9.277,0.000
1728699475.329,-0.977,-32.227,-19.531,-2.441,0.000
1728699475.333,-15.625,-33.691,-21.484,-11.719,0.000
1728699475.337,-58.594,-31.250,-26.855,-48.340,0.000
1728699475.341,-53.711,-23.438,-32.227,-38.086,0.000
1728699475.345,-4.883,-20.508,-39.551,-9.766,0.000
1728699475.349,6.348,-21.973,-47.363,-6.836,0.000
1728699475.353,-18.555,-20.996,-53.711,-26.855,0.000
1728699475.357,-65.918,-20.508,-39.551,-63.477,0.000
1728699475.361,-67.383,-28.320,-33.691,-51.270,0.000
1728699475.364,-9.766,-29.785,-40.039,0.000,0.000
1728699475.368,5.859,-29.785,-43.457,7.324,0.000
1728699475.372,-3.906,-26.855,-50.293,-5.371,0.000
1728699475.376,-51.758,-22.949,-47.852,-39.062,0.000
1728699475.380,-76.660,-25.391,-34.180,-57.129,0.000
1728699475.384,-17.090,-25.391,-36.133,-14.160,0.000
1728699475.388,14.648,-18.555,-48.340,10.742,0.000
1728699475.392,4.883,-18.066,-39.062,1.953,0.000
1728699475.396,-40.527,-25.391,-26.855,-37.109,0.000
1728699475.400,-73.730,-29.785,-23.926,-52.734,0.000
1728699475.403,-23.438,-31.250,-38.086,-5.371,0.000
1728699475.407,21.973,-24.414,-44.434,12.207,0.000
1728699475.411,13.184,-19.531,-28.809,0.000,0.000
1728699475.415,-39.062,-23.438,-20.508,-38.086,0.000
1728699475.419,-75.684,-25.879,-21.973,-51.270,0.000
1728699475.423,-29.297,-27.832,-29.785,-2.441,0.000
1728699475.427,16.602,-29.297,-37.598,13.672,0.000
1728699475.431,25.391,-23.926,-35.645,10.742,0.000
1728699475.435,-10.254,-19.531,-28.320,-23.438,0.000
1728699475.439,-69.824,-25.879,-29.297,-54.688,0.000
1728699475.442,-36.621,-21.973,-43.457,-9.277,0.000
1728699475.446,24.902,-16.602,-51.758,23.438,0.000
1728699475.450,24.414,-21.484,-40.039,6.348,0.000
1728699475.454,-12.695,-24.902,-14.648,-23.926,0.000
1728699475.458,-66.406,-26.367,-4.395,-62.500,0.000
1728699475.462,-42.969,-26.855,-12.695,-29.785,0.000
1728699475.466,21.973,-24.414,-18.555,16.602,0.000
1728699475.470,21.973,-25.391,-23.926,1.953,0.000
1728699475.474,-15.625,-27.344,-27.344,-19.531,0.000
1728699475.478,-67.871,-23.926,-27.832,-42.480,0.000
1728699475.482,-66.406,-27.344,-35.156,-37.109,0.000
1728699475.485,-6.348,-26.855,-37.598,-3.418,0.000
1728699475.489,11.719,-27.344,-39.551,4.395,0.000
1728699475.493,-15.625,-33.203,-42.969,-19.043,0.000
1728699475.497,-67.871,-26.855,-36.621,-58.594,0.000
1728699475.501,-64.941,-21.973,-35.645,-45.410,0.000
1728699475.505,-6.836,-24.902,-39.062,0.000,0.000
1728699475.509,10.254,-26.367,-39.062,2.930,0.000
1728699475.513,-6.348,-33.203,-45.410,-27.832,0.000
1728699475.517,-58.105,-31.250,-42.969,-69.336,0.000
1728699475.521,-67.871,-25.391,-34.180,-62.500,0.000
1728699475.525,-6.348,-30.762,-26.855,-12.695,0.000
1728699475.528,11.719,-35.645,-23.438,-2.441,0.000
1728699475.532,-9.277,-35.156,-25.879,-12.207,0.000
1728699475.536,-52.246,-29.297,-22.949,-43.457,0.000
1728699475.540,-77.148,-26.367,-32.227,-52.734,0.000
1728699475.544,-20.020,-28.809,-49.316,-13.672,0.000
1728699475.548,18.555,-28.809,-40.527,2.930,0.000
1728699475.552,7.812,-22.949,-37.109,2.441,0.000
1728699475.556,-34.180,-20.020,-44.922,-34.668,0.000
1728699475.560,-67.383,-23.926,-26.855,-55.176,0.000
1728699475.564,-20.996,-26.855,-14.160,-20.508,0.000
1728699475.568,29.297,-20.996,-15.137,0.488,0.000
1728699475.571,18.066,-20.020,-15.625,-0.488,0.000
1728699475.575,-24.902,-23.438,-19.043,-30.273,0.000
1728699475.579,-59.082,-23.926,-19.531,-52.246,0.000
1728699475.583,-37.598,-31.250,-30.273,-27.832,0.000
1728699475.587,9.766,-29.785,-45.410,1.465,0.000
1728699475.591,14.648,-23.926,-38.574,4.883,0.000
1728699475.595,-20.020,-25.391,-17.090,-17.090,0.000
1728699475.599,-64.453,-26.367,-10.742,-52.734,0.000
1728699475.603,-45.898,-27.832,-18.555,-34.668,0.000
1728699475.607,9.766,-25.879,-32.227,9.766,0.000
1728699475.611,7.324,-23.438,-38.086,7.812,0.000
1728699475.614,-20.996,-25.879,-26.367,-11.719,0.000
1728699475.618,-69.824,-25.879,-26.855,-45.898,0.000
1728699475.622,-73.242,-25.879,-35.156,-38.086,0.000
1728699475.626,-11.719,-25.391,-33.203,8.301,0.000
1728699475.630,7.324,-28.320,-27.344,12.207,0.000
1728699475.634,-20.020,-32.227,-26.367,-15.625,0.000
1728699475.638,-71.777,-28.809,-31.738,-57.617,0.000
1728699475.642,-66.895,-26.367,-23.926,-44.922,0.000
1728699475.646,5.371,-30.762,-20.508,6.348,0.000
1728699475.650,29.297,-30.762,-30.273,12.207,0.000
1728699475.654,-4.395,-22.461,-27.832,-15.625,0.000
1728699475.657,-62.988,-17.090,-29.297,-58.105,0.000
1728699475.661,-83.496,-22.949,-38.086,-60.547,0.000
1728699475.665,-34.180,-31.250,-37.598,-30.273,0.000
1728699475.669,10.254,-25.391,-30.273,-16.113,0.000
1728699475.673,-6.348,-25.879,-33.203,-31.738,0.000
1728699475.677,-65.918,-25.391,-33.203,-71.777,0.000
1728699475.681,-94.238,-24.414,-31.738,-75.684,0.000
1728699475.685,-35.156,-24.902,-42.480,-22.461,0.000
1728699475.689,1.465,-20.020,-48.340,-0.488,0.000
1728699475.693,-4.883,-18.555,-38.574,-14.648,0.000
1728699475.697,-31.250,-21.484,-27.832,-37.598,0.000
1728699475.700,-77.637,-26.855,-27.344,-65.430,0.000
1728699475.704,-37.109,-28.809,-26.367,-25.391,0.000
1728699475.708,15.625,-27.832,-21.484,9.766,0.000
1728699475.712,10.254,-28.320,-30.762,-9.277,0.000
1728699475.716,-30.273,-26.367,-41.016,-41.992,0.000
1728699475.720,-78.125,-24.902,-37.598,-62.012,0.000
1728699475.724,-43.945,-23.926,-38.574,-18.555,0.000
1728699475.728,8.301,-27.832,-47.363,1.953,0.000
1728699475.732,15.625,-31.250,-40.039,-9.766,0.000
1728699475.736,-24.902,-32.227,-31.738,-36.133,0.000
1728699475.739,-90.820,-38.574,-40.527,-77.148,0.000
1728699475.743,-64.941,-36.621,-48.340,-40.527,0.000
1728699475.747,-3.906,-38.086,-37.598,5.859,0.000
1728699475.751,2.930,-38.086,-24.902,2.930,0.000
1728699475.755,-26.367,-31.250,-31.738,-29.297,0.000
1728699475.759,-75.684,-29.297,-39.062,-64.941,0.000
1728699475.763,-60.547,-29.785,-31.250,-29.297,0.000
1728699475.767,8.301,-28.320,-30.273,14.160,0.000
1728699475.771,22.461,-29.297,-38.574,-4.395,0.000
1728699475.775,-8.789,-31.738,-38.574,-32.227,0.000
1728699475.778,-53.223,-29.297,-30.762,-56.641,0.000
1728699475.782,-64.453,-25.391,-32.227,-41.504,0.000
1728699475.786,-14.648,-22.461,-37.109,-4.883,0.000
1728699475.790,17.578,-20.508,-38.574,0.488,0.000
1728699475.794,-0.977,-24.902,-38.086,-10.742,0.000
1728699475.798,-62.500,-29.785,-45.410,-52.734,0.000
1728699475.802,-72.266,-30.273,-54.199,-58.105,0.000
1728699475.806,-12.207,-30.762,-37.109,-17.578,0.000
1728699475.810,6.836,-27.832,-26.367,-10.254,0.000
1728699475.814,-11.230,-23.926,-34.668,-14.648,0.000
1728699475.817,-63.477,-25.391,-35.156,-47.852,0.000
1728699475.821,-78.125,-26.855,-42.969,-60.547,0.000
1728699475.825,-16.113,-26.367,-47.852,-19.531,0.000
1728699475.829,18.066,-21.484,-43.457,-3.906,0.000
1728699475.833,5.859,-21.973,-47.852,-13.184,0.000
1728699475.837,-36.621,-26.367,-42.969,-39.551,0.000
1728699475.841,-66.895,-24.414,-27.344,-46.875,0.000
1728699475.845,-19.043,-22.461,-31.738,-15.137,0.000
1728699475.849,22.461,-14.648,-27.344,-5.371,0.000
1728699475.853,11.230,-17.090,-23.926,-11.230,0.000
1728699475.857,-37.109,-23.926,-38.086,-34.180,0.000
1728699475.860,-83.984,-22.949,-47.852,-64.453,0.000
1728699475.864,-35.645,-22.949,-46.875,-21.973,0.000
1728699475.868,14.648,-22.949,-41.016,16.113,0.000
1728699475.872,0.977,-27.344,-40.039,-8.789,0.000
1728699475.876,-34.668,-31.738,-34.668,-44.434,0.000
1728699475.880,-75.195,-31.250,-23.926,-67.871,0.000
1728699475.884,-55.176,-28.320,-20.996,-30.762,0.000
1728699475.888,-10.742,-27.344,-24.902,2.930,0.000
1728699475.892,-2.930,-26.855,-31.250,-0.488,0.000
1728699475.896,-23.926,-27.344,-34.668,-16.602,0.000
1728699475.900,-56.152,-29.297,-25.879,-37.109,0.000
1728699475.903,-35.156,-32.715,-22.461,-13.672,0.000
1728699475.907,18.555,-25.391,-30.273,8.789,0.000
1728699475.911,32.715,-16.113,-31.250,-2.930,0.000
1728699475.915,-6.836,-19.043,-32.227,-34.668,0.000
1728699475.919,-70.312,-29.297,-34.668,-65.430,0.000
1728699475.923,-65.430,-27.832,-37.598,-41.504,0.000
1728699475.927,3.418,-21.973,-34.668,3.418,0.000
1728699475.931,25.879,-22.949,-20.996,4.395,0.000
1728699475.935,0.977,-30.762,-21.973,-7.812,0.000
1728699475.939,-51.270,-31.250,-30.273,-42.969,0.000
1728699475.943,-63.965,-27.832,-27.344,-45.898,0.000
1728699475.946,-3.418,-26.855,-22.949,0.488,0.000
1728699475.950,14.160,-23.438,-30.273,5.371,0.000
1728699475.954,-9.277,-24.414,-41.992,-12.695,0.000
1728699475.958,-53.223,-26.855,-48.828,-46.387,0.000
1728699475.962,-77.148,-25.391,-38.574,-46.875,0.000
1728699475.966,-17.090,-24.414,-33.203,-3.906,0.000
1728699475.970,16.602,-26.855,-40.527,7.324,0.000
1728699475.974,-0.488,-30.762,-45.410,-4.395,0.000
1728699475.978,-37.598,-31.738,-38.574,-38.086,0.000
1728699475.982,-72.266,-31.250,-29.297,-57.129,0.000
1728699475.986,-24.414,-27.832,-31.250,-18.066,0.000
1728699475.989,12.207,-24.414,-28.320,12.695,0.000
1728699475.993,-5.859,-30.762,-27.832,1.465,0.000
1728699475.997,-46.387,-28.320,-27.832,-38.086,0.000
1728699476.001,-84.961,-25.879,-27.832,-63.965,0.000
1728699476.005,-40.527,-27.832,-35.156,-22.949,0.000
1728699476.009,11.230,-26.367,-36.133,6.836,0.000
1728699476.013,12.207,-26.367,-33.203,2.930,0.000
1728699476.017,-24.414,-27.344,-29.785,-19.043,0.000
1728699476.021,-81.543,-27.832,-23.926,-46.387,0.000
1728699476.025,-56.641,-23.926,-27.344,-11.719,0.000
1728699476.029,4.883,-20.508,-40.527,15.625,0.000
1728699476.032,15.625,-22.461,-34.668,9.277,0.000
1728699476.036,-13.672,-23.438,-29.297,-10.742,0.000
1728699476.040,-62.500,-22.461,-33.203,-50.781,0.000
1728699476.044,-47.852,-26.855,-29.297,-27.344,0.000
1728699476.048,6.348,-26.367,-23.926,5.859,0.000
1728699476.052,15.625,-29.785,-20.508,4.883,0.000
1728699476.056,-18.066,-33.691,-18.066,-13.184,0.000
1728699476.060,-68.359,-27.832,-22.949,-51.758,0.000
1728699476.064,-59.082,-29.297,-36.133,-41.992,0.000
1728699476.068,1.465,-34.668,-36.133,-3.418,0.000
1728699476.071,18.555,-33.691,-41.016,-0.488,0.000
1728699476.075,-4.883,-30.762,-41.992,-16.602,0.000
1728699476.079,-54.688,-28.809,-32.227,-43.945,0.000
1728699476.083,-72.266,-30.762,-32.715,-41.016,0.000
1728699476.087,-17.090,-27.344,-24.902,-4.883,0.000
1728699476.091,22.949,-26.855,-29.297,-4.395,0.000
1728699476.095,13.184,-28.320,-44.922,-11.719,0.000
1728699476.099,-40.039,-24.902,-33.691,-33.691,0.000
1728699476.103,-68.359,-24.902,-17.090,-37.109,0.000
1728699476.107,-9.277,-22.461,-16.113,6.836,0.000
