,TP9,AF7,AF8,TP10
0,-183.300168269025,-15.79232654617047,-19.980022521692106,-24.790772594774086
1,-189.38489812196877,-16.339908984773924,-20.67826978945809,-25.728341474910412
2,-195.34512102519207,-16.876796246978692,-21.363058263196987,-26.647009098288102
3,-201.17174022962266,-17.40217432701339,-22.033348997298148,-27.545523652348407
4,-206.85598214686948,-17.91525773023675,-22.688139162992293,-28.42267642876323
5,-212.3893963492225,-18.41528947313766,-23.326462048351573,-29.277301823435156
6,-217.76385556965283,-18.901541083335154,-23.94738705828949,-30.108277336497416
7,-222.97155570181232,-19.37331259957843,-24.550019714560932,-30.914523572313936
8,-228.00501580003382,-19.82993257174682,-25.13350165576218,-31.695004239479285
9,-232.85707807933156,-20.270758060849833,-25.69701063733088,-32.44872615081871
10,-237.52090791540022,-20.69517463902705,-26.239760531546054,-33.174739223388144
11,-241.98999384461587,-21.10259638954826,-26.761001327528163,-33.87213647847407
12,-246.25814756403523,-21.49246590681337,-27.260019131238938,-34.54005404159383
13,-250.31950393139607,-21.86425429635244,-27.736136165481582,-35.177671142495214
14,-254.16852096511732,-22.217461174825694,-28.18871076990067,-35.78421011515687
15,-257.79997984429866,-22.551614670023426,-28.617137400982088,-36.358936397787936
16,-261.2089849087205,-22.86627142086616,-29.02084663205314,-36.90115853282829
17,-264.3909636588444,-23.161016577404492,-29.399305153282516,-37.41022816694849
18,-267.3416667558133,-23.435463800819193,-29.752015771680256,-37.8855400510497
19,-270.05716802144974,-23.689255263421153,-30.078517411097778,-38.32653204026376
20,-272.5338644382588,-23.922061648651457,-30.37838511222788,-38.73268509395313
21,-274.7684761494252,-24.13358215108122,-30.651230032604737,-39.103523275711
22,-276.75804645881493,-24.323544476411797,-30.896699446603872,-39.438613753361096
23,-278.4999418309752,-24.49170484147462,-31.114476745442197,-39.73756679895791
24,-279.9918518911338,-24.6378479742313,-31.30428143717795,-40.00003578878654
25,-281.23178942519905,-24.761787113773526,-31.465869146710833,-40.225717203362706
26,-282.2180903797607,-24.863364010323163,-31.599031615781772,-40.41435062743278
27,-282.9494138620892,-24.942448925232235,-31.703596702973222,-40.565718749973826
28,-283.4247421401354,-24.998940630982826,-31.779428383708886,-40.67964736419352
29,-283.6433806425316,-25.032766411187186,-31.826426750253844,-40.75600536753019
30,-283.6049579585905,-25.043882060587755,-31.8445280117146,-40.79470476165278
31,-283.3094258383059,-25.032271885056986,-31.833704494038965,-40.795700652460916
32,-282.7570591923523,-24.997948701597576,-31.793964640016117,-40.75899125008488
33,-281.94845609208477,-24.94095383834227,-31.72535300927662,-40.68461786888552
34,-280.8845377695395,-24.861357134553987,-31.627950278292403,-40.572664927454376
35,-279.5665486174334,-24.759256940625768,-31.501873240376685,-40.42325994861363
36,-277.99605618916394,-24.634780118080776,-31.347274805684147,-40.2365735594161
37,-276.1749511988096,-24.488082039572298,-31.164344001210743,-40.012819491145166
38,-274.1054475211297,-24.319346588883736,-30.953305970793846,-39.75225457931501
39,-271.79008219156384,-24.128786160928662,-30.714421975112113,-39.455178763670276
40,-269.231715406233,-23.916641661750695,-30.44798939168562,-39.12193508818628
41,-266.43353052193834,-23.683182508523682,-30.154341714875784,-38.7529097010691
42,-263.3990340561621,-23.4287066295515,-29.83384855588534,-38.34853185475527
43,-260.1320556870672,-23.153540464268193,-29.48691564275843,-37.90927390591205
44,-256.63674825349716,-22.858038963237934,-29.113984820380477,-37.4356513154373
45,-252.9175877549762,-22.542585588154992,-28.71553405047832,-36.92822264845952
46,-248.97937335170946,-22.207592311843776,-28.292077411620138,-36.38758957433788
47,-244.82722736458243,-21.853499618258795,-27.844165099215413,-35.81439686666206
48,-240.46659527516158,-21.48077650248469,-27.372383425515032,-35.20933240325248
49,-235.90324572569406,-21.08992047073625,-26.87735481961118,-34.57312716616008
50,-231.14327051910735,-20.681457540358338,-26.359737827437442,-33.90655524166658
51,-226.19308461901008,-20.255942239825934,-25.82022711176867,-33.210433820284166
52,-221.05942614969106,-19.813957608744175,-25.259553452221155,-32.48562319675568
53,-215.7493563961201,-19.35611519784827,-24.678483745252468,-31.73302677005465
54,-210.27025980394748,-18.88305506900358,-24.077821004161535,-30.953591043385167
55,-204.6298439795043,-18.39544579520556,-23.45840435908865,-30.148305624181944
56,-198.836139689802,-17.89398446057978,-22.821109057015402,-29.318203224110334
57,-192.89750086253264,-17.379396660381932,-22.16684646176476,-28.464359659066286
58,-186.8226045860693,-16.852436500997815,-21.496564054001013,-27.587893849176375
59,-180.62045110946528,-16.313886599943334,-20.8112454312298,-26.68996781879776
60,-174.30036384245454,-15.764558085864527,-20.11191030779808,-25.77178669651829
61,-167.8719893554518,-15.20529059853751,-19.399614514894175,-24.83459871515632
62,-161.34529737955214,-14.636952288868558,-18.675450000547723,-23.87969521176089
63,-154.7305808065312,-14.06043981889398,-17.9405448296297,-22.908410627611634
64,-204.7790545290441,-10.588194223196844,-14.273155925391885,-18.269604564345983
65,-212.16703008936767,-11.33776327279763,-14.484793536206299,-21.285640872429624
66,-219.43805975917124,-12.08872196342032,-14.681635365768448,-24.334649474942914
67,-226.5801001491706,-12.839640226251017,-14.86353791050042,-27.410573318063058
68,-233.58151099021285,-13.58912397753528,-15.03037231302014,-30.507486141979637
69,-240.43105513327689,-14.335815118578076,-15.182024362141437,-33.61959248089454
70,-247.11789854947386,-15.07839153574384,-15.318394492873985,-36.74122766302208
71,-253.6316103300461,-15.81556710045644,-15.439397786423324,-39.866857810588876
72,-259.96216268636783,-16.546091669199154,-15.544963970190892,-42.9910798398339
73,-266.09993094994525,-17.26875108351473,-15.635037417773965,-46.10862146100844
74,-272.035693572416,-17.982367170005332,-15.709577148965684,-49.214341178376216
75,-277.7606321255496,-18.685797740332575,-15.76855682975508,-52.303228290213184
76,-283.2663313012472,-19.377936591217473,-15.811964772327054,-55.37040288880772
77,-288.544778911542,-20.057713504440517,-15.83980393506232,-58.41111586046049
78,-293.58836588859805,-20.724094246841588,-15.852091922537523,-61.42074888548446
79,-298.3898862847118,-21.376080570320028,-15.848860985525153,-64.39481443820499
80,-302.9425372723112,-22.012710211834605,-15.830158020993542,-67.32895578695971
81,-307.23991914395594,-22.63305689340349,-15.796044572106902,-70.21894699409863
82,-311.2760353123369,-23.236230322104337,-15.74659682822533,-73.060692915984
83,-315.04529231027726,-23.821376190074144,-15.68190562490475,-75.85022920299043
84,-318.5424997907314,-24.387676174509416,-15.60207644389699,-78.58372229950487
85,-321.76287052678543,-24.93434793766603,-15.507229413149698,-81.25746944392652
86,-324.70202041165726,-25.46064512685934,-15.397499306806422,-83.8678986686669
87,-327.35596845869577,-25.96585737446407,-15.273035545206543,-86.41156880014981
88,-329.7211368013823,-26.449310297914383,-15.134002194885324,-88.88516945881145
89,-331.79435069332914,-26.9103654997039,-14.980577968573906,-91.28552105910022
90,-333.5728385082803,-27.348420567385595,-14.812956225199235,-93.60957480947677
91,-335.05423174011156,-27.762909073571933,-14.631344969884193,-95.85441271241423
92,-336.2365650028302,-28.153300575934757,-14.435966853947464,-98.0172475643978
93,-337.11827603057475,-28.519100617205343,-14.2270591749036,-100.09542295592514
94,-337.6982056776155,-28.859850725174383,-14.004873876463055,-102.08641327150598
95,-337.9755979183543,-29.175128412691986,-13.769677548532107,-103.98782368966256
96,-337.95009984732445,-29.464547177667658,-13.521751427212887,-105.79739018292928
97,-337.6217616791908,-29.727756503070367,-13.26139139480342,-107.51297951785276
98,-336.9910367487497,-29.964441856928442,-12.988907979797535,-109.132589254992
99,-336.05878151092895,-30.17432469232966,-12.704626356885012,-110.65434774891823
100,-334.8262555407875,-30.357162447421207,-12.408886346951382,-112.07651414821487
101,-333.2951215335166,-30.51274854540967,-12.10204241707811,-113.3974783954777
102,-331.46744530443806,-30.64091239456106,-11.784463680542467,-114.61576122731465
103,-329.3456957890057,-30.741519388200782,-11.456533896817636,-115.73001417434604
104,-326.93274504280475,-30.814470904713662,-11.118651471572608,-116.73901956120426
105,-324.2318682415515,-30.859704307543943,-10.771229456672263,-117.64169050653412
106,-321.2467436810939,-30.877192945195254,-10.414695550177319,-118.43707092299265
107,-317.9814527774115,-30.86694615123065,-10.04949209634435,-119.12433551724894
108,-314.4404800666148,-30.82900924427256,-9.676076085625793,-119.70278978998456
109,-310.6287132049462,-30.763463528002877,-9.294919154669941,-120.17187003589312
110,-306.55144296877904,-30.67042629116285,-8.906507586320942,-120.5311433436806
111,-302.21436325461843,-30.550050807553145,-8.511342309618783,-120.78030759606511
112,-297.6235710791005,-30.402526336033834,-8.109938899799333,-120.91919146977703
113,-292.7855665789927,-30.228078120524383,-7.702827578294296,-120.94775443555903
114,-287.7072530111944,-30.026967390003655,-7.290553212731218,-120.86608675816584
115,-282.3959367527355,-29.799491358509954,-6.873675316933534,-120.67440949636448
116,-276.859327300778,-29.545983225140912,-6.452768050920487,-120.37307450293426
117,-271.1055372726145,-29.26681217405362,-6.028420220907219,-119.96256442466661
118,-265.1430824056695,-28.96238337446455,-5.60123527930469,-119.44349270236515
119,-258.98088155749844,-28.633137980649565,-5.171831324719717,-118.8166035708458
120,-252.62825670578803,-28.279553131943906,-4.740841101954981,-118.08277205893653
121,-246.09493294835656,-27.90214195274225,-4.308912002009012,-117.24300398947771
122,-239.39103850315337,-27.50145355249863,-3.8767060620761784,-116.29843597932171
123,-232.52710470825906,-27.078073025726507,-3.4448999655467074,-115.25033543933324
124,-225.51406602188544,-26.632621451998702,-3.01418504200668,-114.10010057438907
125,-218.3632600223758,-26.165755895947445,-2.585267267238012,-112.84926038337821
126,-211.08642740820443,-25.678169407264356,-2.1588672632184873,-111.49947465920188
127,-203.69571199797687,-25.17059102070043,-1.7357202981217266,-110.05253398877346
128,-182.28650418896922,-13.89075286515854,-5.562613959146589,-24.632865905547625
129,-188.5079067657664,-14.177159011328746,-5.9530747389732985,-25.26374557986228
130,-194.60536676116632,-14.45263303898827,-6.343481420185822,-25.872437347441657
131,-200.56964880172632,-14.716759783621585,-6.733128082095439,-26.458220547670305
132,-206.39184190057728,-14.969144177906314,-7.121326588448782,-27.020407768977666
133,-212.0633594574218,-15.209411251713284,-7.507406587427856,-27.558344848838175
134,-217.57593925853584,-15.437206132106509,-7.890715511650029,-28.0714108737712
135,-222.9216434767677,-15.652194043343155,-8.270618578168033,-28.559018179341024
136,-228.09285867153838,-15.8540603068736,-8.646498788469975,-29.020612350156927
137,-233.0822957888412,-16.042510341341387,-9.017756928479313,-29.45567221987306
138,-237.88299016124262,-16.217269662583245,-9.383811568554878,-29.863709871188533
139,-242.48830150788135,-16.378083883629074,-9.744099063490866,-30.24427063584743
140,-246.89191393446868,-16.52471871470197,-10.098073552516835,-30.596933094638732
141,-251.08783593328866,-16.656959963218178,-10.4452069592977,-30.92130907739636
142,-255.0704003831976,-16.77461353378716,-10.784988991933744,-31.217043662999195
143,-258.83426454962495,-16.87750542821151,-11.11692714296063,-31.48381517937104
144,-262.37441008457216,-16.96548174548704,-11.44054668934934,-31.721335203480614
145,-265.6861430266135,-17.03840868180272,-11.755390692506262,-31.92934856134159
146,-268.76509380089567,-17.09617253054071,-12.061019998273109,-32.107633328012554
147,-271.6072172191381,-17.138679682276297,-12.35701323692699,-32.25600082759706
148,-274.20879247963234,-17.16585662477801,-12.642966823180348,-32.374295633243555
149,-276.5664231672431,-17.177649943007523,-12.918494956181,-32.46239556714542
150,-278.6770372534071,-17.17402631911966,-13.183229619512097,-32.520211700540976
151,-280.5378870961337,-17.154972532462477,-13.436820581192194,-32.54768835371349
152,-282.14654944000495,-17.120495459577146,-13.678935393675168,-32.54480309599113
153,-283.50092541617494,-17.070622074198024,-13.90925939385026,-32.51156674574699
154,-284.59924054237075,-17.005399447252678,-14.127495703042088,-32.448023370399106
155,-285.4400447228917,-16.924894746861806,-14.333365227010601,-32.35425028641038
156,-286.0222122486096,-16.829195238339285,-14.526606655951118,-32.2303580592888
157,-286.34494179696856,-16.718408284192172,-14.706976464494327,-32.07649050358705
158,-286.40775643198543,-16.592661344120696,-14.874248911706243,-31.89282468290294
159,-286.2105036042495,-16.45210197501825,-15.028216041088259,-31.679570909879036
160,-285.7533551509223,-16.296897830971407,-15.168687680577124,-31.43697274620293
161,-285.0368072957379,-16.12723666325987,-15.295491442544916,-31.16530700260718
162,-284.06168064900265,-15.943326320356562,-15.408472723799104,-30.864883738869075
163,-282.8291202075957,-15.745394747927552,-15.50749470558249,-30.536046263811027
164,-281.34059535496783,-15.533689988832064,-15.592438353573229,-30.179171135300262
165,-279.5978998611433,-15.308480183122512,-15.663202417884829,-29.79466816024889
166,-277.60315188271807,-15.07005356804445,-15.719703433066165,-29.382980394614044
167,-275.3587939628604,-14.81871847803664,-15.761875718101454,-28.944584143397694
168,-272.8675930313112,-14.554803344730965,-15.789671376410249,-28.47998896064674
169,-270.132640404384,-14.278656696952499,-15.803060295847482,-27.989737649453016
170,-267.15735178496396,-13.990647160719474,-15.802030148703425,-27.474406261953252
171,-263.94546726250934,-13.691163459243274,-15.786586391703697,-26.93460409932908
172,-260.50105131305037,-13.38061441292847,-15.756752266009272,-26.370973711807075
173,-256.82849279918946,-13.059428939372776,-15.712568797216463,-25.7841908986587
174,-252.93250497010186,-12.728056053367084,-15.654094795356952,-25.17496470820034
175,-248.81812546153466,-12.386964866895445,-15.581406854897756,-24.54403743779327
176,-244.49071629580766,-12.036644589135062,-15.494599354741245,-23.892184633843694
177,-239.9559638818125,-11.677604526456305,-15.393784458225129,-23.220215091802732
178,-235.21987901501384,-11.31037408242271,-15.279092113122482,-22.528970856166342
179,-230.2887968774477,-10.935502757790964,-15.15067005164171,-21.81932722047553
180,-225.16937703772322,-10.553560150510922,-15.008683790426568,-21.09219272731604
181,-219.8686034510212,-10.165135955725594,-14.853316630556169,-20.348509168318632
182,-214.39378445909517,-9.770839965771156,-14.684769657544956,-19.58925158415894
183,-208.75255279027073,-9.37130207017693,-14.50326174134273,-18.815428264557504
184,-202.95286555944563,-8.96717225566541,-14.309029536334636,-18.028080748279724
185,-197.00300426809014,-8.559120606152229,-14.102327481341154,-17.228283823135985
186,-190.91157480424636,-8.1478373027462,-13.883427799618113,-16.4171455259815
187,-184.6875074425292,-7.734032623749274,-13.652620498856693,-15.595807142716412
188,-178.34005684412526,-7.318436944656568,-13.410213371183413,-14.765443208285763
189,-171.87880205679366,-6.901800738156354,-13.156531993160131,-13.92726150667948
190,-165.3136465148656,-6.484894574130054,-12.891919725784046,-13.082503070932411
191,-158.65481803924442,-6.068509119652249,-12.616737714487709,-12.232442183124286
192,-179.58660702774222,-7.5845770585124015,-10.129894091262726,-14.162875449376422
193,-183.84451456677107,-8.03395526557218,-10.371459530681179,-14.529951228074768
194,-187.98253537857735,-8.481074099511073,-10.60573507499712,-14.886268399926331
195,-191.99358957492808,-8.925180301263499,-10.832346007306745,-15.231300018915777
196,-195.8708871943141,-9.36554083659624,-11.05093353423425,-15.564541106810886
197,-199.60792820194962,-9.801442896108451,-11.261154785931872,-15.8855086531625
198,-203.1985024897731,-10.2321938952316,-11.462682816079857,-16.19374161530459
199,-206.6366898764463,-10.65712147422955,-11.655206601886462,-16.488800918354194
200,-209.91686010735492,-11.07557349819851,-11.838431044087985,-16.770269455211455
201,-213.0336728546085,-11.486918057067044,-12.012076966948703,-17.037752086559607
202,-215.98207771703983,-11.890543465596043,-12.175881118260943,-17.29087564086494
203,-218.75731422020624,-12.285858263378802,-12.32959616934504,-17.529288914376895
204,-221.3549118163877,-12.672291214840925,-12.47299071504933,-17.75266267112795
205,-223.7706898845886,-13.049291309240406,-12.605849273750172,-17.960689642933698
206,-226.00075773053715,-13.416327760667553,-12.72797228735196,-18.153084529392824
207,-228.04151458668474,-13.772890008045055,-12.839176121287066,-18.329583997887074
208,-229.8896496122064,-14.118487715127939,-12.939293064515912,-18.489946683581298
209,-231.54214189300134,-14.452650770503597,-13.028171329526895,-18.63395318942346
210,-232.99626044169207,-14.774929287591746,-13.105675052336462,-18.76140608614456
211,-234.2495641976248,-15.08489360464449,-13.171684292489058,-18.872129912258703
212,-235.2999020268695,-15.382134284746241,-13.226095033057126,-18.965971174063096
213,-236.14541272221976,-15.666262115813785,-13.268819180641154,-19.042798345638015
214,-236.78452500319239,-15.93690811059626,-13.299784565369624,-19.10250186884681
215,-237.21595751602857,-16.19372350667514,-13.318934940899002,-19.144994153335976
216,-237.43871883369266,-16.43637976646426,-13.326229984413821,-19.170209576534983
217,-237.45210745587227,-16.66456857720978,-13.32164529662658,-19.178104483656465
218,-237.25571180897964,-16.878001850990234,-13.30517240177781,-19.16865718769614
219,-236.84941024614966,-17.07641172471646,-13.276818747636058,-19.141867969432766
220,-236.23337104724104,-17.259550560131718,-13.236607705497855,-19.097759077428194
221,-235.40805241883658,-17.42719094381152,-13.184578570187753,-19.03637472802737
222,-234.37420249424176,-17.579125687163796,-13.12078656005831,-18.957781105358315
223,-233.13285933348666,-17.715167826428775,-13.045302816990112,-18.862066361332122
224,-231.68535092332408,-17.835150622679073,-12.958214406391734,-18.749340615642975
225,-230.0332951772308,-17.938927561819604,-12.859624317199764,-18.619735955768125
226,-228.17859993540696,-18.02637235458764,-12.749651461878788,-18.473406436967913
227,-226.12346296477648,-18.09737893655282,-12.628430676421406,-18.31052808228574
228,-223.87037195898665,-18.151861468117087,-12.49611272034824,-18.13129888254809
229,-221.4221045384083,-18.189754334514767,-12.352864276707898,-17.93593879636454
230,-218.7817282501357,-18.211012145812482,-12.198867952076995,-17.724689750127734
231,-215.95260056798676,-18.215609736909222,-12.034322276560168,-17.497815638013364
232,-212.938368892503,-18.203542167536316,-11.859441703790031,-17.25560232198024
233,-209.74297055094928,-18.174824722257437,-11.674456610927228,-16.998357631770237
234,-206.3706327973138,-18.129492910468574,-11.479613298660404,-16.72641136490826
235,-202.82587281230866,-18.06760246639807,-11.275173991206183,-16.44011528670235
236,-199.11349770336926,-17.989229349106616,-11.061416836309238,-16.13984313024359
237,-195.23860450465432,-17.89446974248723,-10.838635905242203,-15.825990596406124
238,-191.20658017704613,-17.78344005526525,-10.607141192805734,-15.498975353847193
239,-187.0231016081506,-17.65627692099838,-10.367258617328485,-15.159237039007087
240,-182.6941356122969,-17.513137198076652,-10.11933002066712,-14.80723725610918
241,-178.2259389305376,-17.35419796972242,-9.863713168206289,-14.443459577159917
242,-173.625058230649,-17.179656543990394,-9.600781748858653,-14.068409541948805
243,-168.8983301071305,-16.9897304537676,-9.330925375064883,-13.682614658048431
244,-164.05288108120527,-16.784657456773406,-9.054549582793632,-13.28662440081443
245,-159.0961276008195,-16.564695535559522,-8.772075831541565,-12.881010213385528
246,-154.03577604064319,-16.33012289750998,-8.483941504333345,-12.466365506683516
247,-148.8798227020694,-16.081237974841148,-8.190599907721634,-12.043305659413239
248,-143.63655381321493,-15.818359424601713,-7.892520271787088,-11.612468018062602
249,-138.31454552891972,-15.541826128672737,-7.59018775013837,-11.174511896902612
250,-132.92266393074704,-15.251997193767567,-7.284103419912136,-10.730118577987305
251,-127.47006502698392,-14.94925195143189,-6.974784281773042,-10.279991311153792
252,-121.96619475264033,-14.633989958043745,-6.662763259913737,-9.824855314022264
253,-116.42078896944993,-14.30663099481349,-6.348589202054879,-9.365457771995956
254,-110.84387346586954,-13.967615067783798,-6.032826879445107,-8.902567838261175
255,-105.2457639570794,-13.617402407829697,-5.716056986861067,-8.436976633787296
256,-241.61733345889976,-249.85843237421116,-148.21983656194467,-148.10162012261958
257,-250.21399819929695,-284.75646966812207,-168.82270125937814,-154.2571648814993
258,-258.64612492817145,-319.91142708017986,-189.61749832451926,-160.29958802425546
259,-266.90108160163686,-355.25806402171304,-210.56365709904662,-166.220783167582
260,-274.96667267167237,-390.7325692058474,-231.62149117216435,-172.01291153659955
261,-282.8311390861228,-426.2725606475082,-252.75219838060187,-177.6684019648558
262,-290.48315828869875,-461.8170856634169,-273.91786080861345,-183.17995089432566
263,-297.9118442189767,-497.3066208720934,-295.0814447879789,-188.54052237541046
264,-305.1067473123991,-532.6830721938555,-316.20680089800294,-193.74334806693864
265,-312.0578545002728,-567.8897748508182,-337.258663965516,-198.7819272361656
266,-318.755589209772,-602.8714933668953,-358.20265306487283,-203.6500267587734
267,-325.1908113639355,-637.5744215677971,-379.0052715179537,-208.34168111887126
268,-331.3548173816682,-671.9461825810324,-399.63390689416434,-212.85119240899488
269,-337.2393401777403,-705.9358288359065,-420.0568310104349,-217.17313033010703
270,-342.83654916278834,-739.4938420635244,-440.2431999312209,-221.30233219159726
271,-348.13905024331325,-772.5721332967858,-460.1630539685027,-225.2339029112823
272,-353.1398858216831,-805.1240428703899,-479.78731768178613,-228.96321501540507
273,-357.8325347961307,-837.1043404208328,-499.08779987810175,-232.48590863863598
274,-362.2109125607541,-868.4692248864086,-518.0371936120043,-235.7978915240719
275,-366.2693710055178,-899.1763245072073,-536.6090761855752,-238.8953390232364
276,-370.0026985162514,-929.1846968251178,-554.777909148419,-241.77469409608025
277,-373.40611997465004,-958.454828683826,-572.5190382976666,-244.43266731098092
278,-376.47529675827485,-986.9486362288139,-589.8086936779724,-246.86623684474216
279,-379.20632674055173,-1014.629464907363,-606.6239895815169,-249.07264848259535
280,-381.59574429077315,-1041.46208946855,-622.9429245480047,-251.04941561819814
281,-383.6405202740963,-1067.4127139632492,-638.7443813646657,-252.794319253635
282,-385.3380620515439,-1092.4489717441336,-654.008127066254,-254.3054079994172
283,-386.68621348000477,-1116.539925465671,-668.7148129350495,-255.58099807448292
284,-387.6832549122324,-1139.6560670841286,-682.845974500855,-256.61967330619683
285,-388.32790319684614,-1161.769317857569,-696.3840315410004,-257.42028513035063
286,-388.61931167833205,-1182.8530283458515,-709.3122880803381,-257.98195259116284
287,-388.55707019703914,-1202.8819784106347,-721.6149323912468,-258.30406234127815
288,-388.14120508918404,-1221.8323772153717,-733.2770369936295,-258.3862686417685
289,-387.37217918684786,-1239.6818632253146,-744.2845586549134,-258.22849336213267
290,-386.2508918179771,-1256.4095042075103,-754.6243383900501,-257.8309259802956
291,-384.7786788063839,-1271.995797230804,-764.2841014615171,-257.1940235826094
292,-382.9573124717461,-1286.4226686658378,-773.2524573793156,-256.31851086385274
293,-380.7890016296063,-1299.6734741850498,-781.5188999009705,-255.2053801272313
294,-378.27639159137334,-1311.7329987626747,-789.0738070315333,-253.85589128437684
295,-375.42256416432025,-1322.5874566747457,-795.9084410235781,-252.2715718553481
296,-372.2310376515868,-1332.22449149909,-802.0149483772049,-250.45421696863065
297,-368.70576685217696,-1340.6331761153333,-807.3863598400374,-248.40588936113673
298,-364.85114306096096,-1347.8040127048982,-812.016590407224,-246.12891937820498
299,-360.67199406867354,-1353.7289327510025,-815.9004393214375,-243.62590497360102
300,-356.17358416191547,-1358.4012970386618,-819.0335900728752,-240.89971170951696
301,-351.36161412315226,-1361.815895654687,-821.4126103992585,-237.9534727565717
302,-346.2422212307154,-1363.968947987687,-823.0349522858338,-234.79058889381045
303,-340.8219792588011,-1364.8581027280657,-823.898951965371,-231.41472850870548
304,-335.1078984774708,-1364.4824378680246,-824.0038299181654,-227.8298275971554
305,-329.1074256526522,-1362.8424607015606,-823.3496908720355,-224.0400897634857
306,-322.82844404613684,-1359.9401078244675,-821.9375238023247,-220.0499862204481
307,-316.2792734155824,-1355.7787451343354,-819.7692019319011,-215.86425578922157
308,-309.468670014512,-1350.3631678305503,-816.8474827311561,-211.48790489941075
309,-302.405826592313,-1343.6996004142957,-813.1760079180059,-206.92620758904786
310,-295.10037239423934,-1335.7956966885492,-808.7593034578907,-202.1847055045911
311,-287.562373161409,-1326.6605397580863,-803.6027795637755,-197.26920790092584
312,-279.80233113080556,-1316.3046420294784,-797.7127306961484,-192.185791641363
313,-271.83118503527834,-1304.7399452110928,-791.0963355630224,-186.94080119764126
314,-263.66031010354095,-1291.9798203130922,-783.7616571199345,-181.54084864992504
315,-255.30151806017267,-1278.0390676474365,-775.7176425699458,-175.99281368680556
316,-246.76705712561795,-1262.9339168278811,-766.9741233636416,-170.30384360530093
317,-238.06961201618623,-1246.682026769977,-757.5418151991306,-164.48135331085538
318,-229.22230394405236,-1229.3024856910722,-747.4323180220467,-158.53302531733982
319,-220.23869061725597,-1210.815811110309,-736.6581160255464,-152.46680974705183
320,-237.56970771278517,-429.04100027131653,-409.7378792368133,-214.78424707530678
321,-244.96772666543532,-441.31595135718175,-418.3474688101927,-218.29475574837628
322,-252.21489111983374,-453.3206180927567,-426.6368179247173,-221.60620426905567
323,-259.29938173572697,-465.03469950760285,-434.5933296618663,-224.71484160519086
324,-266.2098068359873,-476.43866212241255,-442.20501197931964,-227.61716860683526
325,-272.9352024066115,-487.5137399490093,-449.4604777109562,-230.30993800624938
326,-279.46503209672153,-498.2419344903462,-456.3489445668555,-232.79015441790096
327,-285.789187218564,-508.60601474050804,-462.86023513329627,-235.0550743384655
328,-291.8979867475114,-518.5895171847089,-468.9847768727582,-237.10220614682498
329,-297.7821773220601,-528.1767457992942,-474.7136021239195,-238.9293101040692
330,-303.4329332438323,-537.3527720517405,-480.03834810165984,-240.53439835349477
331,-308.84185647757465,-546.1034349006536,-484.95125689705753,-241.91573492060584
332,-314.0009766511592,-554.4153407957704,-489.445175477391,-243.0718357131138
333,-318.9027510555824,-562.2758636779582,-493.51355568613906,-244.001468520937
334,-323.54006464496615,-569.6731449792148,-497.1504542429798,-244.7036530162011
335,-327.90623003655656,-576.5960936226687,-500.3505327437912,-245.17766075323905
336,-331.99498751072605,-583.0343860225784,-503.10905766065065,-245.42301516859078
337,-335.80050501097054,-588.9784660843326,-505.42190034183636,-245.4394915810038
338,-339.3173781439111,-594.4195452044514,-507.28553701182597,-245.2271171914324
339,-342.54063017929474,-599.3496022705842,-508.69704877129595,-244.78617108303837
340,-345.4657120499914,-603.7613836615116,-509.6541215971233,-244.11718422119014
341,-348.0885023519977,-607.6484032471435,-510.155046342385,-243.22093945346407
342,-350.4053073444344,-611.0049423885214,-510.19871873635697,-242.09847150964325
343,-352.41286094954705,-613.8260499378157,-509.7846393845153,-240.75106700171787
344,-354.10832475270615,-616.1075422383282,-508.91291376853553,-239.18026442388535
345,-355.4892880024071,-617.8460031244905,-507.58425224629343,-237.38785415255032
346,-356.55376761026974,-619.0387839218645,-505.79997005186357,-235.37587844632444
347,-357.3002081510393,-619.6840034471421,-503.5619872955207,-233.1466314460265
348,-357.72748186258514,-619.780548008146,-500.87282896373915,-230.70265917468274
349,-357.8348886459019,-619.328071403829,-497.73562491919245,-228.04675953752582
350,-357.6221560651085,-618.3269949242728,-494.1541099007546,-225.1819823219964
351,-357.08943934744974,-616.7785073506906,-490.13262352349835,-222.11162919774134
352,-356.2373213832939,-614.6845649554258,-485.6761102786963,-218.8392537166155
353,-355.06681272613446,-612.0478915019512,-480.7901195338206,-215.36866131268
354,-353.5793515925896,-608.8719782448699,-475.4808055325428,-211.70390930220364
355,-351.7768038624025,-605.1610839299151,-469.75492739473435,-207.84930688366197
356,-349.66146307844076,-600.9202347939506,-463.6198491164658,-203.8094151377378
357,-347.23605044669694,-596.155224564969,-457.08353957000753,-199.58904702732102
358,-344.5037148362877,-590.872614462094,-450.1545725038289,-195.19326739750832
359,-341.46803277945503,-585.0797331955794,-442.8421265425994,-190.62739297560398
360,-338.1330084715654,-578.7846769668079,-435.15598518718747,-185.8969923711186
361,-334.50307377110977,-571.9963094682932,-427.10653681466124,-181.00788607577053
362,-330.5830881997039,-564.7242618836783,-418.70477467828835,-175.96614646348462
363,-326.37833894208836,-556.978932887737,-409.9622969075349,-170.77809779039313
364,-321.894540846128,-548.771488646372,-400.891306508068,-165.4503161948352
365,-317.13783642281237,-540.1138628166165,-391.50461136175295,-159.98962969735697
366,-312.11479584625584,-531.0187565466332,-381.8156242266548,-154.40311820071167
367,-306.83241695369713,-521.499638475715,-371.83836273703787,-148.69811348985954
368,-301.2981252454998,-511.57074473428474,-361.58744940336595,-142.88219923196766
369,-295.51977388515195,-501.24707894389445,-351.078111612302,-136.9632109764103
370,-289.50564369926593,-490.5444122172264,-340.3261816267084,-130.9492361547686
371,-283.264443177579,-479.47928315809315,-329.3480965856466,-124.84861408083091
372,-276.8053084729528,-468.0689978614362,-318.1608985043776,-118.6699359505923
373,-270.13780340137356,-456.3316299133266,-306.78223427436177,-112.42204484225479
374,-263.27191944195215,-444.2860203909664,-295.2303556632583,-106.11403571622773
375,-256.21807573692365,-431.95177786268636,-283.5241193149257,-99.75525541512702
376,-248.9871190916481,-419.34927838794704,-271.6829867494222,-93.35530266377576
377,-241.5903239746097,-406.4996655173388,-259.7270243630047,-86.92402806920396
378,-234.03939251741727,-393.424850292582,-247.6769034281295,-80.47153412064849
379,-226.34645451480384,-380.147511246526,-235.55390009345203,-74.00817518955324
380,-218.52406742462733,-366.69109440315015,-223.3798953838269,-67.54455752956906
381,-210.58521636787,-353.07981327756335,-211.17737520030784,-61.0915392765537
382,-202.54331412863831,-339.3386488760043,-198.96943032014784,-54.66023044857174
383,-194.41220115416354,-325.493349695841,-186.7797563967989,-48.26199294589474
384,-191.40252618087226,-291.27894798093024,-109.74380483222963,-9.665814723349982
385,-198.12650822153165,-298.3487957681316,-111.25488993617742,-10.021632097481525
386,-204.72526958770507,-305.2022907760145,-112.66286116624968,-10.372626273626564
387,-211.18861277946402,-311.8288871759757,-113.96618992227755,-10.718185366702741
388,-217.50669292675082,-318.21848877691923,-115.16347098606522,-11.057717386598908
389,-223.67001778937805,-324.3614490252553,-116.25342252138931,-11.39065023817507
390,-229.66944775702905,-330.24857100490175,-117.23488607399973,-11.71643172126245
391,-235.4961958492573,-335.8711074372829,-118.10682657161892,-12.034529530663425
392,-241.14182771548693,-341.22076068132947,-118.86833232394218,-12.344431256151553
393,-246.59826163501236,-346.2896827334802,-119.5186150226378,-12.645644382471593
394,-251.85776851699856,-351.0704752276795,-120.05700974134675,-12.937696289339467
395,-256.9129719004807,-355.55618943537974,-120.4829749356828,-13.220134251442287
396,-261.7568479543649,-359.74032626553895,-120.79609244323255,-13.492525438438348
397,-266.38272547742713,-363.61683626462263,-120.99606748355552,-13.7544569149571
398,-270.78428589831384,-367.18011961660335,-121.0827286581839,-14.005535640599202
399,-274.9555632755422,-370.4250261429598,-121.05602795062269,-14.24538846993647
400,-278.89094429749946,-373.34685530267757,-120.91604072634982,-14.473662152511913
401,-282.5851682824434,-375.9413561922497,-120.66296573281592,-14.6900233328397
402,-286.03332717850196,-378.20472754567476,-120.29712509944439,-14.894158550405201
403,-289.23086556367355,-380.1336177344596,-119.81896433763158,-15.085774239664923
404,-292.1735806458274,-381.72512476761693,-119.22905234074628,-15.264596730046605
405,-294.85762226270214,-382.97679629166544,-118.52808138413059,-15.430372245949101
406,-297.27949288190734,-383.8866295906322,-117.71686712509886,-15.582866906742485
407,-299.4360476009228,-384.4530715860496,-116.79634860293868,-15.721866726767983
408,-301.32449414709856,-384.6750188369579,-115.76758823891016,-15.847177615338008
409,-302.94239287765504,-384.55181753990286,-114.63177183624607,-15.958625376736135
410,-304.2876567796834,-384.0832635289377,-113.39020858015223,-16.056055710217116
411,-305.35855147014377,-383.2696022756222,-112.04433103780728,-16.139334210006876
412,-306.1536951958679,-382.11152888902234,-110.59569515836223,-16.208346365302493
413,-306.67205883355746,-380.61018811571114,-109.0459802729411,-16.262997560272268
414,-306.91296588978406,-378.7671743397685,-107.39698909464074,-16.30321307405562
415,-306.87609250098944,-376.5845315827801,-105.65064771853075,-16.32893808076317
416,-306.5614674334867,-374.0647535038395,-103.80900562165324,-16.34013764947669
417,-305.9694720834576,-371.2107833995453,-101.87423566302336,-16.33679674424912
418,-305.1008404769555,-368.0260142040039,-99.84863408362882,-16.31892022410461
419,-303.95665926990284,-364.5142884888282,-97.73462050643008,-16.28653284303841
420,-302.5383677480934,-360.67989846313674,-95.53473793636068,-16.239679250017012
421,-300.8477578271902,-356.52758597355546,-93.25165276032645,-16.178423988978015
422,-298.8869740527272,-352.0625425042166,-90.88815474720614,-16.102851498830216
423,-296.65851360010794,-347.2904091767592,-88.44715704785125,-16.013066113453572
424,-294.1652262746063,-342.2172767503283,-85.931696195086,-15.909192061699208
425,-291.4103145113669,-336.8496856215758,-83.3449321037074,-15.791373467389421
426,-288.3973333754036,-331.19462582465997,-80.690148070485,-15.659774349317658
427,-285.13019056160124,-325.25953703124594,-77.97075077416123,-15.514578621248539
428,-281.61314639471414,-319.05230855050456,-75.19027027545135,-15.355990091917858
429,-277.8508138293673,-312.5812793291137,-72.35236001704294,-15.184232465032563
430,-273.8481584500557,-305.85523795125795,-69.46079682359678,-14.999549339270757
431,-269.6104984711441,-298.88342263862774,-66.51948090174602,-14.80220420828172
432,-265.1435047368677,-291.67552125042033,-63.53243584009664,-14.592480460685888
433,-260.45320072133194,-284.24167128333903,-60.50380860922729,-14.370681380074874
434,-255.5459625285119,-276.5924598715941,-57.43786956168935,-14.137130145011426
435,-250.4285188922532,-268.7389237869019,-54.339012432006975,-13.892169829029472
436,-245.10795117627126,-260.69254943848495,-51.21175433667686,-13.636163400634096
437,-239.59169337415182,-252.46527287307282,-48.06073577416849,-13.369493723301543
438,-233.88753210935042,-244.06947977490086,-44.89072062492399,-13.092563555479217
439,-228.00360663519268,-235.518005465711,-41.70659615135829,-12.805795550585687
440,-221.9484088348745,-226.82413490475145,-38.51337299785885,-12.509632257010662
441,-215.73078322146168,-218.00160268877687,-35.316185190785866,-12.20453611811503
442,-209.35992693788995,-209.06459305204825,-32.120290138472264,-11.890989472230835
443,-202.84538975696515,-200.0277398663329,-28.931068631223624,-11.569494552661261
444,-196.1970740813633,-190.90612664090423,-25.754024841318177,-11.240573487680678
445,-189.4252349436301,-181.7152865225425,-22.59478632300682,-10.90476830053458
446,-182.54048000618147,-172.47120229553346,-19.459104012513137,-10.56264090943964
447,-175.5537695613034,-163.19030638166984,-16.35285222803338,-10.214773127583673
448,-186.24338921473378,-314.3677115883477,-13.658369585573558,-6.437330020897248
449,-192.01132852076225,-318.32828278291515,-14.214684030921502,-7.595587366579906
450,-197.65870141960045,-321.9833221756275,-14.764730680022698,-8.772796693094456
451,-203.17641678610994,-325.3294121105765,-15.307556815166652,-9.966345290512143
452,-208.5557125715619,-328.36346876499823,-15.842239194589876,-11.173675505471914
453,-213.7881558036364,-331.08274214927195,-16.367884052475834,-12.392284741180449
454,-218.86564258642352,-333.48481610692085,-16.883627098954996,-13.619725457412143
455,-223.78039810042242,-335.567608314611,-17.388633520104825,-14.853605170509097
456,-228.52497660254167,-337.3293702821528,-17.882097977949726,-16.091586453381133
457,-233.09226142609964,-338.76868735250014,-18.36324461046113,-17.331386935505773
458,-237.47546498082357,-339.88447870174974,-18.83132703155744,-18.570779302928262
459,-241.66812875285052,-340.6759973391425,-19.285628331104014,-19.80759129826156
460,-245.66412330472693,-341.14283010706305,-19.725461074913213,-21.039705720686314
461,-249.4576482754081,-341.2848976810389,-20.150167304744375,-22.265060425950903
462,-253.0432323802595,-341.10245456974116,-20.55911853830381,-23.481648326371378
463,-256.4157334110551,-340.5960891149844,-20.951715769244824,-24.68751739083152
464,-259.5703382359792,-339.76672349172736,-21.327389467167663,-25.880770644782814
465,-262.5025627996246,-338.6156137080717,-21.68559957761956,-27.059566170244437
466,-265.20825212299394,-337.14434960526256,-22.025835522094784,-28.22211710580326
467,-267.68358030349896,-335.35485485768885,-22.347616198034483,-29.366691646613862
468,-269.9250505149609,-333.24938697288206,-22.650489978826847,-30.491613044398527
469,-271.9294950076101,-330.83053729151857,-22.934034713807023,-31.595259607447204
470,-273.69407510808645,-328.1012309874172,-23.197857728257112,-32.67606470061759
471,-275.2162812194392,-325.0647270675401,-23.441595823406214,-33.73251674533502
472,-276.4939328211266,-321.7246183719934,-23.664915276430396,-34.76315921959256
473,-277.5251784690161,-318.08483157402657,-23.86751184045266,-35.76659065795095
474,-278.30849579538494,-314.14962718003244,-24.049110744543032,-36.74146465153861
475,-278.8426915089195,-309.9235995295466,-24.209466693718472,-37.68648984805169
476,-279.12690139471493,-305.41167679524926,-24.34836386894291,-38.60042995175396
477,-279.1605903142762,-300.619120982963,-24.465615927127278,-39.48210372347693
478,-278.94355220551745,-295.55152793165433,-24.561066001129443,-40.330384980619804
479,-278.47591008276186,-290.2148273134329,-24.634586699754216,-41.14420259714941
480,-277.75811603674174,-284.6152826335517,-24.686080107753437,-41.9225405036003
481,-276.79095123459905,-278.75949123040704,-24.71547778582587,-42.66443768707472
482,-275.5755259198847,-272.6543842755393,-24.722740770617246,-43.368988191242536
483,-274.1132794125587,-266.3072267736308,-24.70785957472026,-44.03534111634135
484,-272.4059801089907,-259.72561756250843,-24.670854186674596,-44.66270061917643
485,-270.45572548195906,-252.91748931314189,-24.611774070966874,-45.2503259131207
486,-268.26494208065174,-245.891108529644,-24.53069816803065,-45.79753126811475
487,-265.83638553066527,-238.6550755492719,-24.427734894246523,-46.30368601066687
488,-263.1731405340064,-231.21832454242445,-24.303022141941973,-46.76821452385305
489,-260.27862086908976,-223.5901235126453,-24.156727279391465,-47.19059624731687
490,-257.15656939074006,-215.78007429662023,-23.98904715081645,-47.57036567726961
491,-253.81105803019105,-207.79811256417918,-23.80020807638528,-47.90711236649027
492,-250.2464877950854,-199.65450781829492,-23.59046585221333,-48.20048092432545
493,-246.4675887694748,-191.3598633950834,-23.360105750362905,-48.45017101668943
494,-242.47942011382028,-182.92511646380404,-23.10944251884322,-48.6559373660642
495,-238.2873700649921,-174.36153802685965,-22.838820381610528,-48.817589751499334
496,-233.89715593626937,-165.68073291979587,-22.54861303856798,-48.93499300861215
497,-229.31482411734063,-156.89463981130172,-22.23922366556569,-49.00806702958756
498,-224.54675007430296,-148.01553120320958,-21.911084914400746,-49.03678676317815
499,-219.59963834966314,-139.05601343049517,-21.564658912817176,-49.02118221470418
500,-214.48052256233663,-130.02902666127693,-21.200437264505947,-48.96133844605358
501,-209.19676540764831,-120.94784489681682,-20.81894104910501,-48.85739557568189
502,-203.75605865733158,-111.82607597152007,-20.420720822199222,-48.70954877861232
503,-198.1664231595294,-102.67766155293508,-20.006356615320424,-48.51804828643577
504,-192.4362088387937,-93.51687714175306,-19.576457935947403,-48.28319938731073
505,-186.57409469608533,-84.3583320718089,-19.131663767505888,-48.00536242596338
506,-180.58908880877416,-75.21696951008019,-18.672642569368545,-47.68495280368754
507,-174.49052833063908,-66.10806645668804,-18.200092276855,-47.32244097834465
508,-168.2880794918681,-57.0472337448966,-17.71474030123183,-46.91835246436383
509,-161.99173759905824,-48.050416041112946,-17.217343529712544,-46.473267832741854
510,-155.61182703521544,-39.133891844887565,-16.708688325457615,-45.98782271104307
511,-149.15900125975466,-30.314273488913972,-16.18959052757443,-45.46270778339957
512,-170.60382915053341,-20.972814041827004,-20.648538000458238,-15.983870544719643
513,-177.46506730460146,-21.60930041007345,-21.295972000990258,-16.65446493437371
514,-184.2300922313301,-22.231305878551353,-21.928807679812408,-17.316262617327645
515,-190.88800071396793,-22.837867484907868,-22.546090881844272,-17.96819582786248
516,-197.4282392801973,-23.428058207281662,-23.146902786404887,-18.609230594174477
517,-203.84060420213592,-24.000986964302864,-23.7303599072128,-19.238366738375284
518,-210.11524149633476,-24.55579861509311,-24.295614092386078,-19.854637876491793
519,-216.24264692377994,-25.09167395926552,-24.841852524442285,-20.457111418466212
520,-222.21366598989124,-25.607829736924764,-25.368297720298482,-21.044888568156065
521,-228.01949394452336,-26.103518628666915,-25.87420753127125,-21.617104323334154
522,-233.65167578196488,-26.578029255579604,-26.35887514307664,-22.17292747568854
523,-239.10210624093864,-27.030686179241943,-26.821629075830224,-22.711560610822648
524,-244.3630298046021,-27.460849901724487,-27.261833184047074,-23.232240108255148
525,-249.42704070054657,-27.867916865589343,-27.678886656641733,-23.734236141420038
526,-254.28708290079808,-28.251319453890062,-28.072224016928267,-24.216852677666576
527,-258.9364501218165,-28.610525990171716,-28.441315122620225,-24.67942747825933
528,-263.3687858244963,-28.945040738470844,-28.78566516583067,-25.12133209837818
529,-267.57808321416576,-29.254403903315467,-29.10481467307217,-25.541971887118233
530,-271.5586852405876,-29.538191629725105,-29.398339505256704,-25.940785987489935
531,-275.30528459795903,-29.796016003210756,-29.665850857695837,-26.317247336419037
532,-278.81292372491123,-30.027525049774876,-29.90699526010058,-26.67086266474652
533,-282.0769948045094,-30.232402735911453,-30.121454576581435,-27.001172497228694
534,-285.09323976425316,-30.410368968605923,-30.308946005648448,-27.307751152537133
535,-287.8577502760762,-30.561179595335208,-30.46922208021108,-27.590206743258722
536,-290.3669677563469,-30.684626404067714,-30.602070667578303,-27.84818117589562
537,-292.6176833658669,-30.780537123263326,-30.7073149694586,-28.081350150865262
538,-294.6070380098727,-30.8487754218734,-30.784813521959926,-28.289423162500352
539,-296.33252233803495,-30.889240909340767,-30.834460195589713,-28.472143499048908
540,-297.7919767444576,-30.901869135599775,-30.8561841952549,-28.629288242674217
541,-298.98359136768005,-30.886631591076178,-30.84995006026189,-28.76066826945487
542,-299.90590609067465,-30.843535706687256,-30.815757664316568,-28.866128249384655
543,-300.55781054084855,-30.77262485384174,-30.753642215524323,-28.945546646372748
544,-300.93854409004297,-30.67397834443985,-30.663674256390017,-28.998835718243527
545,-301.04769585453323,-30.547711430873274,-30.54595966381799,-29.02594151673668
546,-300.885204695028,-30.39397530602515,-30.40063964911202,-29.02684388750714
547,-300.4513592166713,-30.2129571032701,-30.227890757975462,-29.0015564701252
548,-299.74679776904003,-30.00487989647425,-30.02792487051108,-28.95012669807632
549,-298.7725084461464,-29.770002699995143,-29.80098920122109,-28.872635798761294
550,-297.5298290864353,-29.508620468681805,-29.547366299007265,-28.769198793496173
551,-296.02044727278684,-29.221064097874738,-29.267374047170776,-28.639964497512313
552,-294.2464003325145,-28.907700423405924,-28.961365663412366,-28.48511551995627
553,-292.210075337366,-28.56893222159877,-28.629729699832115,-28.304868263889944
554,-289.9142091035233,-28.205198209268186,-28.27289004292972,-28.099472926290474
555,-287.36188819160196,-27.816973043720512,-27.89130591360423,-27.86921349805028
556,-284.556548906652,-27.404767322753592,-27.48547186715425,-27.614407763977006
557,-281.5019772981569,-26.96912758465671,-27.05591779327782,-27.33540730279364
558,-278.20230916003476,-26.510636308210575,-26.603208916072454,-27.032597487138364
559,-274.66203003063714,-26.029911912687435,-26.127945794035135,-26.70639748356469
560,-270.88597519275004,-25.527608757850913,-25.630764320062305,-26.357260252541355
561,-266.87932967359296,-25.00441714395617,-25.1123357214499,-25.985672548452357
562,-262.6476282448198,-24.461063311749772,-24.5733665598933,-25.59215491959698
563,-258.19675542251827,-23.898309442469728,-24.01459873148737,-25.17726170818975
564,-253.53294546720966,-23.316953657845566,-23.436809466726405,-24.74158105036048
565,-248.6627823838498,-22.71783002009823,-22.840811330504213,-24.285734876154248
566,-243.5931999218281,-22.1018085319401,-22.22745222211402,-23.810378909531345
567,-238.33148157496788,-21.469795136575048,-21.59761537524854,-23.31620266836736
568,-232.88526058152664,-20.822731717698378,-20.95221935799994,-22.80392946445315
569,-227.26251992419546,-20.161596099496855,-20.29221807285986,-22.2743164034948
570,-221.47159233009944,-19.487402046648672,-19.61860075671938,-21.72815438511367
571,-215.52116027079765,-18.801199264323515,-18.932391980869056,-21.16626810284638
572,-209.42025596228297,-18.104073398182475,-18.234651650998895,-20.589516044144798
573,-203.1782613649822,-17.397146034378125,-17.526475007198375,-19.998790490376027
574,-196.80490818375597,-16.68157469955445,-16.80899262395639,-19.395017516822488
575,-190.31027786789858,-15.958552860846922,-16.083370410161336,-18.779156992681777
576,-221.128665028938,-17.33866911243423,-19.506752806928326,-5.815401621571464
577,-227.8881331710278,-17.898091174778166,-20.210859095896488,-6.3159633406335365
578,-234.49320349769792,-18.446146223015223,-20.902892651048134,-6.821967414653888
579,-240.93377378091242,-18.98196964482044,-21.581757197632484,-7.33228876746543
580,-247.20011745887675,-19.504727722731232,-22.24639344802304,-7.8458285664647045
581,-253.28288363603923,-20.013617634147455,-22.89577910171769,-8.361514222611849
582,-259.17309708309017,-20.507867451331336,-23.528928845338708,-8.878299390430655
583,-264.86215823696165,-20.98673614140749,-24.14489435263269,-9.395163968008498
584,-270.3418432008289,-21.44951356636294,-24.742764284470596,-9.911114096996423
585,-275.604303744108,-21.895520483047097,-25.321664288847753,-10.42518216260904
586,-280.6420673024579,-22.3241085431718,-25.880757000883868,-10.936426793624614
587,-285.44803697778013,-22.73466029331126,-26.419242042822905,-11.44393286238502
588,-290.01549153821713,-23.126589174902062,-26.936356024033326,-11.946811484795747
589,-294.33808541815444,-23.499339524243215,-27.431372541007814,-12.44420002032589
590,-298.4098487182199,-23.852386572496112,-27.903602177363467,-12.935262072008191
591,-302.2251872052824,-24.18523644568453,-28.352392503841767,-13.419187486438966
592,-305.7788823124538,-24.497426164694637,-28.77712807830845,-13.895192353778196
593,-309.0660911390875,-24.788523645275006,-29.177230445753693,-14.362519007749416
594,-312.08234645077937,-25.058127698036575,-29.552158138291965,-14.820436025639829
595,-314.8235566793672,-25.305868028452704,-29.90140667516212,-15.26823822830023
596,-317.28600592293105,-25.53140523685913,-30.22450856272733,-15.70524668014502
597,-319.46635394579255,-25.734430818453944,-30.5210332944751,-16.13080868915221
598,-321.3616361785155,-25.914667163297654,-30.79058735101736,-16.544297806863447
599,-322.9692637179061,-26.071867556313173,-31.03281420009027,-16.945113828383956
600,-324.28702332701255,-26.205816177285744,-31.24739429655442,-17.332682792382602
601,-325.3130774351242,-26.316328100863053,-31.43404508239469,-17.706456981091836
602,-326.0459641377734,-26.403249296555135,-31.59252098672035,-18.06591492030773
603,-326.48459719673457,-26.466456628734413,-31.722613425764965,-18.410561379389954
604,-326.6282660400233,-26.505857856635693,-31.824150802886464,-18.739927371261796
605,-326.4766357618972,-26.521391634356185,-31.89699850856712,-19.053570152410156
606,-326.0297471228567,-26.51302751085543,-31.941058920413504,-19.35107322288552
607,-325.2880165496435,-26.480765929955396,-31.956271403156578,-19.63204632630201
608,-324.25223613524133,-26.424638230340406,-31.942612308651604,-19.89612544983731
609,-322.9235736388763,-26.344706645557196,-31.900094975878194,-20.14297282423274
610,-321.3035724860159,-26.241064304014813,-31.82876973094029,-20.372276923793226
611,-319.39415176836974,-26.113835228984744,-31.728723887066167,-20.58375246638729
612,-317.19760624388937,-25.963174338600826,-31.60008174460842,-20.777140413447036
613,-314.7166063367682,-25.789267445859267,-31.44300459104402,-20.952207969968196
614,-311.95419813744184,-25.592331258618678,-31.25769070097421,-21.10874858451011
615,-308.91380340258695,-25.372613379600004,-31.044375336124588,-21.246581949195686
616,-305.5992195551234,-25.13039230638659,-30.803330745345107,-21.36555399971146
617,-302.0146196842117,-24.86597743142415,-30.53486616461001,-21.465536915307556
618,-298.1645525452548,-24.57970904202077,-30.239327817017887,-21.546429118797693
619,-294.05394255989734,-24.2719583203469,-29.917098912791648,-21.608155276559206
620,-289.688089816026,-23.943127343435364,-29.568599649278514,-21.650666298533
621,-285.07267006776897,-23.59364908318137,-29.194287210950076,-21.673939338223608
622,-280.21373473549676,-23.223987406342488,-28.794655769402194,-21.677977792699128
623,-275.1177109058211,-22.83463707453861,-28.370236483355093,-21.662811302591287
624,-269.7914013315958,-22.426123744252084,-27.921597498653302,-21.628495752095382
625,-264.2419844319167,-21.999003966827548,-27.449343948265657,-21.5751132689703
626,-258.47701429212117,-21.553865188472056,-26.95411795228535,-21.502772224538553
627,-252.5044206637882,-21.091325750254978,-26.436598617929867,-21.41160723368622
628,-246.33250896473902,-20.612034888108116,-25.89750203954101,-21.30177915486298
629,-239.96996027903623,-20.11667273282557,-25.337581298584915,-21.173475090082093
630,-233.42583135698433,-19.605950310063843,-24.757626463652013,-21.02690838492044
631,-226.70955461512972,-19.08060954034179,-24.158464590457083,-20.862318628518462
632,-219.83093813626004,-18.541423239040626,-23.540959721839197,-20.67997165358021
633,-212.80016566940517,-17.98919511640392,-22.906012887761733,-20.48015953637331
634,-205.62779662983672,-17.42475977753762,-22.254562105312402,-20.263200596728986
635,-198.3247660990674,-16.84898272241002,-21.587582378703207,-20.029439398042047
636,-190.90238482485245,-16.262760345851767,-20.90608569927051,-19.779246747270896
637,-183.37233922118816,-15.667019937555887,-20.211121045474904,-19.513019694937512
638,-175.74669136831284,-15.062719682077748,-19.503774382901362,-19.231181535127465
639,-168.03787901270624,-14.450848658835076,-18.785168664259146,-18.934181805489917
640,-228.327686004378,-18.301386468297217,-20.04068240213291,-82.54853467726686
641,-236.03677439328837,-18.664008952338445,-20.540742781717405,-86.68080484723312
642,-243.59963980633106,-19.010432989824412,-21.02449032622163,-90.78384220788946
643,-251.00431483781898,-19.3402243426785,-21.491258726474662,-94.85054692561353
644,-258.23925011106644,-19.65297257751905,-21.94041100726726,-98.87402182646406
645,-265.2933142783891,-19.948291065659422,-22.37133952735196,-102.84757239618109
646,-272.1557940211041,-20.225816983107933,-22.783465979443008,-106.76470678018542
647,-278.81639404953023,-20.485211310567816,-23.176241390216383,-110.61913578357904
648,-285.26523710298756,-20.72615883343735,-23.54914612030978,-114.404772871145
649,-291.49286394979714,-20.948368141809752,-23.901689864322638,-118.11573416734743
650,-297.4902333872825,-21.15157163047319,-24.23341165081616,-121.74633845633142
651,-303.24872224176823,-21.335525498910833,-24.543879842313164,-125.29110718192315
652,-308.7601253685797,-21.5000097513008,-24.83269213529834,-128.74476444762993
653,-314.01665565204405,-21.644828196516173,-25.099475560218004,-132.10223701663986
654,-319.01094400549,-21.76980844812503,-25.343886481480205,-135.3586543118224
655,-323.73603937124784,-21.87480192439038,-25.565610597454786,-138.50934841572777
656,-328.1854087206487,-21.9596838482702,-25.76436294047323,-141.5498540705872
657,-332.3529370540253,-22.024353247417455,-25.9398878768288,-144.47590867831317
658,-336.23292740071156,-22.068732954180064,-26.091959106776464,-147.28345230049896
659,-339.82010081904286,-22.09276960560092,-26.2203796645329,-149.968627658419
660,-343.10959639635655,-22.09643364341785,-26.324981918276514,-152.52778013302844
661,-346.0969712489902,-22.079719314063688,-26.405627570147434,-154.9574577649639
662,-348.7782005222831,-22.042644668666178,-26.46220765624754,-157.25441125454245
663,-351.1496773905763,-21.985251563048063,-26.494642546640378,-159.41559396176257
664,-353.2082130572117,-21.907605657727032,-26.50288194535123,-161.43816190630352
665,-354.95103675453214,-21.80979641791575,-26.486904890367118,-163.31947376752555
666,-356.3757957438827,-21.691937113521835,-26.44671975363677,-165.05709088446991
667,-357.4805553156089,-21.554164819147857,-26.382364241070608,-166.6487772558589
668,-358.263798789058,-21.39664041409135,-26.29390539254079,-168.09249954009556
669,-358.72442751257813,-21.219548582344817,-26.181439581881214,-169.38642705526414
670,-358.86176086351867,-21.023097812595672,-26.045092516887436,-170.52893177912964
671,-358.67553624823057,-20.807520398226355,-25.885019239316765,-171.518588349138
672,-358.16590910206594,-20.57307243731424,-25.70140412488819,-172.35417406241638
673,-357.33345288937767,-20.320033832631626,-25.49446088328249,-173.03466887577258
674,-356.1791591035204,-20.048708291645788,-25.264432558142065,-173.5592554056954
675,-354.70443726684954,-19.759423326518956,-25.01159152707105,-173.92731892835468
676,-352.91111493072157,-19.452530254108336,-24.73623950163533,-174.1384473796012
677,-350.80143767549515,-19.12840419596605,-24.43870752736247,-174.19243135496632
678,-348.3780691105285,-18.787444078339192,-24.119355983741727,-174.08926410966274
679,-345.64409087418215,-18.430072632169818,-23.778574584224124,-173.8291415585838
680,-342.60300263381765,-18.05673639309491,-23.416782376222283,-173.41246227630393
681,-339.258722085797,-17.66790570144643,-23.034427741110665,-172.8398274970782
682,-335.615584955484,-17.264074702251268,-22.631988394225356,-172.11204111484292
683,-331.6783449972433,-16.845761345231303,-22.209971384864172,-171.23010968321498
684,-327.45217399444067,-16.413507384803303,-21.76891309628661,-170.1952424154923
685,-322.94266175944307,-15.967878380079027,-21.309379245713917,-169.00885118465362
686,-318.1558161336183,-15.509463694865188,-20.831964884328976,-167.67255052335872
687,-313.09806298733565,-15.038876497663427,-20.337294397276448,-166.18815762394803
688,-307.77624621996466,-14.556753761670342,-19.826021503662638,-164.55769233844282
689,-302.1976277598768,-14.063756264777462,-19.298829256555603,-162.78337717854555
690,-296.369887564444,-13.560568589571291,-18.75643004298503,-160.86763731563917
691,-290.3011236200396,-13.047899123333261,-18.19956558394238,-158.8131005807877
692,-283.9998519420379,-12.526480058039757,-17.62900693438077,-156.62259746473592
693,-277.4750065748136,-11.997067390362108,-17.04555448321502,-154.29916111790956
694,-270.7359395917433,-11.46044092166656,-16.45003795332167,-151.84602735041497
695,-263.7924210952041,-10.917404258014352,-15.843316401538926,-149.26663463203946
696,-256.6546392165739,-10.368784810161628,-15.226278218666712,-146.56462409225122
697,-249.3332001162322,-9.815433793559507,-14.59984112946664,-143.74383952019926
698,-241.8391279835589,-9.258226228354012,-13.96495219266203,-140.80832736471325
699,-234.1838650369349,-8.698060939386135,-13.322587800937864,-137.76233673430386
700,-226.37927152374232,-8.135860556191794,-12.673753680940855,-134.61031939716236
701,-218.43762572036394,-7.57257151300187,-12.01948489327938,-131.35692978116109
702,-210.37162393218358,-7.009164048742147,-11.36084583252353,-128.0070249738529
703,-202.19438049358598,-6.446632207033383,-10.698930227205077,-124.56566472247175
704,-283.64624454304254,9.404571035768672,-2.578463674406193,-236.7582217406347
705,-293.61411170179423,9.836586209993447,-2.603055897710538,-245.30335037849613
706,-303.4123028920025,10.263642705070309,-2.6256389903982007,-253.7095147417981
707,-313.0248732436247,10.685062766775436,-2.646167186864772,-261.9630079396228
708,-322.4364183993755,11.100188933413454,-2.664598026045118,-270.05058131795334
709,-331.6320745147275,11.508384035817386,-2.680892351413384,-277.9594444596744
710,-340.59751825790937,11.909031197348696,-2.6950143109829834,-285.67726518457135
711,-349.318966809908,12.301533833897238,-2.706931357306606,-293.19216954933074
712,-357.78317786446854,12.685315653881284,-2.716614247476218,-300.4927418475411
713,-365.9774496280915,13.059820658247535,-2.7240370431230567,-307.5680246096915
714,-373.8896208200358,13.424513140471094,-2.7291771104176332,-314.40751860317187
715,-381.5080706723176,13.77887768655549,-2.7320151200697356,-321.00118283227397
716,-388.82171892971087,14.122419175032645,-2.7325350473284216,-327.33943453819035
717,-395.8200258497454,14.454662776962909,-2.7307241719820285,-333.4131491990149
718,-402.49299220270973,14.775153955935039,-2.726573078358155,-339.2136605297418
719,-408.83115927164874,15.083458468066205,-2.7200756553236887,-344.7327604822679
720,-414.825608852365,15.379162362002004,-2.7112290962847805,-349.96269924538973
721,-420.4679632534179,15.661871978916404,-2.7000338991868555,-354.8961852448055
722,-425.7503852961247,15.931213952511815,-2.6864938665146187,-359.5263851431144
723,-430.66557831455935,16.18683520901906,-2.6706161052920403,-363.8469238398167
724,-435.20678615555306,16.428402967197343,-2.6524110270823664,-367.85188447131384
725,-439.3677931786943,16.655604738334308,-2.63189234798812,-371.535808410908
726,-443.1429242563283,16.868148326245983,-2.609077088651091,-374.8936952688026
727,-446.52704477355826,17.065761827276816,-2.5839855742523437,-377.92100289210214
728,-449.51556062824386,17.248193630299664,-2.556641434512218,-380.6136473648118
729,-452.1044182310023,17.41521241671578,-2.5270716036903274,-382.9680030078385
730,-454.2901045052075,17.56660716045485,-2.495306320585551,-384.9809023789889
731,-456.0696468869907,17.702187127974916,-2.461379128536047,-386.649636272972
732,-457.44061332524,17.821781878262485,-2.425326875419242,-387.97195372139663
733,-458.40111228160123,17.925241262832422,-2.3871897136518387,-388.9460619927735
734,-458.94979273047676,18.01243542572802,-2.3470111001898117,-389.5706265925135
735,-459.08584415902544,18.083254803520962,-2.3048377965284064,-389.84477126292904
736,-458.8089965671647,18.137610125311355,-2.260719868702137,-389.7680779832332
737,-458.1195204675674,18.17543241272769,-2.2147106872847964,-389.34058696953986
738,-457.0182268856643,18.196672979926866,-2.1668669273894445,-388.5627966748639
739,-455.50646735964324,18.201303433594187,-2.117248568668415,-387.43566378912107
740,-453.5861339404482,18.189315672943362,-2.065918895313316,-385.96060323912775
741,-451.2596591917809,18.16072188971649,-2.012944496055022,-384.1394881886023
742,-448.5300161900998,18.115554568184084,-1.9583952641636846,-381.9746500381625
743,-445.40071852462046,18.053866485145033,-1.9023443974487224,-379.46887842532755
744,-441.87582029731516,17.975730709926662,-1.844868398258828,-376.6254212245176
745,-437.95991612291294,17.88124060438465,-1.7860470734819645,-373.4479845470535
746,-433.65814112890007,17.770509822903136,-1.7259635345453679,-369.9407327411572
747,-428.9761709555198,17.64367231239459,-1.6647041974155448,-366.10828839195074
748,-423.92022175577165,17.500882312299932,-1.6023587825982712,-361.95573232145773
749,-418.4970501954131,17.34231435458844,-1.5390203151385977,-357.48860358860236
750,-412.71395345295696,17.168163263757823,-1.4747851246208432,-352.7128994892091
751,-406.57876921967437,16.978644156834157,-1.409752845168598,-347.63507555600376
752,-400.09987569959236,16.773992443371945,-1.3440264154447223,-342.2620455586126
753,-393.2861916094954,16.55446382545405,-1.2777120786513525,-336.6011815035628
754,-386.1471761789239,16.32033429769176,-1.2109193825298883,-330.66031363428203
755,-378.69282915017624,16.07190014722473,-1.143761179361006,-324.4477304310988
756,-370.93369077830647,15.80947795372104,-1.076353625964648,-317.9721786112426
757,-362.88084183112613,15.533404589377142,-1.008816183700031,-311.24286312884306
758,-354.5459035892032,15.244037218917878,-0.9412716184656398,-304.26944717493086
759,-345.9410378458625,14.94175329959651,-0.8738460006992302,-297.0620521774374
760,-337.07894690718535,14.62695058119465,-0.8066687053778286,-289.63125780119447
761,-327.9728735920104,14.300047106022335,-0.7398724120177315,-281.98810194793464
762,-318.63660123193216,13.961481208917984,-0.6735931046745045,-274.1440807562912
763,-309.08445367130236,13.611711517248404,-0.6079700719429852,-266.11114860179794
764,-299.33129526722945,13.251216950908784,-0.5431459069572796,-257.9017180968895
765,-289.3925308895784,12.880496722322722,-0.47926650739076415,-249.52866009090081
766,-279.2841059209705,12.500070336442183,-0.41648107545608476,-241.00530367006746
767,-269.0225062567845,12.110477590747548,-0.3549421179051576,-232.34543615752585
768,-312.69147794380405,-55.524278230326686,-71.30340579389352,-247.24842197333984
769,-325.742823098565,-81.34446066816315,-89.5239612431568,-261.05761599765316
770,-338.5981297284505,-107.59062780870472,-108.00728086413407,-274.7733071829352
771,-351.23788149367743,-134.2083267887797,-126.71544878394924,-288.3728526465629
772,-363.643189555722,-161.14418048353662,-145.6113228697564,-301.83424101514925
773,-375.79579257731933,-188.345887506444,-164.65853472873968,-315.13609242454237
774,-387.6780567224642,-215.76222220929066,-183.82148970811318,-328.2576585198258
775,-399.27297565641027,-243.34303468218496,-203.0653668951211,-341.17882245531837
776,-410.5641705456703,-271.03925075355585,-222.3561191170377,-353.8800988945749
777,-421.5358900580167,-298.80287199015197,-241.660472941167,-366.3426340103849
778,-432.1730103624806,-326.5869756970421,-260.9459286748434,-378.5482054847737
779,-442.4610351293523,-354.3457149176144,-280.18076036543073,-390.479222509002
780,-452.38609553018136,-382.03431843357777,-299.3340158003233,-402.1187257835654
781,-461.93495023777643,-409.60909076496046,-318.3755165069451,-413.4503875181956
782,-471.09498542620526,-437.0274121701106,-337.2758577527498,-424.458511431859
783,-479.8542147707946,-464.2477386456965,-356.0064085452212,-435.12803275275735
784,-488.20127944813066,-491.22960192670587,-374.5393116318729,-445.44451821832814
785,-496.12544813605814,-517.9336094864465,-392.8474835002486,-455.39416607524396
786,-503.6166170136805,-544.3214445365455,-410.9046143779215,-464.9638060794121
787,-510.6653097613616,-570.3558660269505,-428.68516823249473,-474.1408994959759
788,-517.2626775607228,-596.0007086459282,-446.1643827716009,-482.91353909931365
789,-523.4004990946452,-621.2208828200648,-463.31826944290293,-491.27044917303874
790,-529.0711805472693,-645.9823747142672,-480.12361343409333,-499.20098550999995
791,-534.2677556039932,-670.2522462317605,-496.5579736728942,-506.69513541228116
792,-538.9838854514753,-693.9986350140907,-512.5996828270573,-513.7435176912013
793,-543.2138587776321,-717.1907544411229,-528.2278473043644,-520.3373826673143
794,-546.9525917716397,-739.7988936310409,-543.4223472526267,-526.4686121704102
795,-550.1956281239327,-761.7944174403497,-558.1638365596849,-532.1297195395132
796,-552.939139026204,-783.149766463873,-572.4337428534101,-537.3138496228826
797,-555.1799231714066,-803.8384570347527,-586.2142675017019,-542.0147787780135
798,-556.9154067537518,-823.8350812244524,-599.4883856124907,-546.2269148716355
799,-558.1436434687092,-843.1153068427539,-612.2398460337354,-549.9452972797137
800,-558.863314513008,-861.6558774377584,-624.4531713534254,-553.1655968874477
801,-559.0737285846361,-879.4346122958868,-636.1136578995787,-555.8841160892728
802,-558.7748218828399,-896.4304064418791,-647.2073757402438,-558.0977887888587
803,-557.9671581081246,-912.623230638795,-657.7211686834983,-559.8041803991105
804,-556.6519284622542,-927.9941313880131,-667.6426542774493,-561.0014878421686
805,-554.8309516482515,-942.5252309292312,-676.9602238102328,-561.6885395494076
806,-552.5066738703989,-956.1997272404672,-685.6630423100156,-561.8647954614373
807,-549.6821688342359,-969.0018940380567,-693.7410485449926,-561.5303470281032
808,-546.3611377465616,-980.9170807766561,-701.184955023389,-560.6859172084844
809,-542.5479093154338,-991.93171264924,-707.9862479934586,-559.3328604708964
810,-538.2474397501687,-1002.0332905871023,-714.1371874434861,-557.473162792888
811,-533.465312761342,-1011.2103912598566,-719.6308071017836,-555.1094416612452
812,-528.2077395607869,-1019.4526670754346,-724.460914436694,-552.2449460719861
813,-522.4815588615957,-1026.750846180088,-728.6220906565889,-548.8835565303656
814,-516.2942368781195,-1033.096732458387,-732.1096907098693,-545.0297850508731
815,-509.653867325968,-1038.4832055332208,-734.9198432849661,-540.688775157232
816,-502.56917142200894,-1042.9042207657983,-737.0494508103378,-535.8663018824014
817,-495.04949788436977,-1046.3548092556462,-738.4961894544746,-530.5687717685748
818,-487.1048229324353,-1048.831077840611,-739.2585091258935,-524.8032228671811
819,-478.74575028684916,-1050.3302090968582,-739.3356334731426,-518.577324738883
820,-469.98351116951443,-1050.8504613388718,-738.7275598847983,-511.8993784535787
821,-460.82996430359145,-1050.391168619455,-737.4350594894667,-504.7783165904008
822,-451.2975959134998,-1048.9527407297287,-735.4596771557823,-497.2237032377166
823,-441.3995197249173,-1046.5366631991346,-732.803731492409,-489.24573399312845
824,-431.14947696478055,-1043.1454972954314,-729.4703148480405,-480.855235963473
825,-420.56183636128384,-1038.7828800246978,-725.4632933113988,-472.0636677648218
826,-409.65159414388125,-1033.4535241313306,-720.7873067112356,-462.883119522481
827,-398.4343740432837,-1027.1632180980448,-715.4477686163312,-453.32631287099196
828,-386.9264272914616,-1019.9188261458761,-709.4508663354953,-443.4066009541292
829,-375.1446326216438,-1011.7282882341763,-702.8035609175665,-433.13796842490376
830,-363.10649626831656,-1002.6006200606175,-695.5135871514124,-422.5350314455598
831,-350.8301519672255,-992.54591306119,-687.5894535659295,-411.6130376875766
832,-154.06045818756346,-668.1058757495358,-554.8783101354962,-118.69512896049442
833,-160.75473145492614,-676.2333283992781,-563.2165125162472,-123.07428954180197
834,-167.3717305922651,-683.8016538611103,-571.0890285420202,-127.36298755735034
835,-173.90056400832967,-690.7990990652065,-578.4843057468275,-131.55535599016767
836,-180.33067308967208,-697.2147373664582,-585.3915083455398,-135.6457321245512
837,-186.6518322006478,-703.0384685444669,-591.8005172338932,-139.62865754606676
838,-192.85414868341567,-708.2610188035501,-597.7019299884827,-143.49887814154948
839,-198.92806285793725,-712.8739407727358,-603.0870608667659,-147.2513440991033
840,-204.86434802197738,-716.8696135057685,-607.9479408070613,-150.88120990810128
841,-210.65411045110443,-720.2412424811039,-612.27731742855,-154.3838343591851
842,-216.28878939868937,-722.9828596019105,-616.0686550312753,-157.75478054426569
843,-221.76015709590652,-725.0893231960723,-619.3161345961392,-160.9898158565227
844,-227.06031875173332,-726.5563180161848,-622.0146537849087,-164.0849119904048
845,-232.18171255295022,-727.3803552395573,-624.1598269402094,-167.03624494162958
846,-237.11710966414086,-727.5587724682117,-625.7479850855312,-169.84019500718372
847,-241.85961422769157,-727.0897337288847,-626.7761759252228,-172.49334678532247
848,-246.4026633637926,-725.9722294730243,-627.2421638444963,-174.99248917557023
849,-250.74002717043663,-724.2060765767922,-627.144429909424,-177.33461537872026
850,-254.8658087234191,-721.7919183410638,-626.4821718669408,-179.51692289683464
851,-258.7744440763395,-718.7312244914269,-625.2553041448423,-181.5368135332444
852,-262.4607022605992,-715.026291178183,-623.4644578517851,-183.39189339254958
853,-265.9196852854036,-710.6802409763459,-621.1109807772887,-185.07997288061895
854,-269.14682813776056,-705.697022885643,-618.1969373917323,-186.5990667045902
855,-272.13789878248105,-700.0814123305154,-614.7251088463574,-187.94739387286995
856,-274.8889981621791,-693.8390111601151,-610.6989929732672,-189.12337769513346
857,-277.3965601972718,-686.9762476483099,-606.1228042854248,-190.12564578232545
858,-279.6573517859794,-679.5003764936772,-601.0014739766557,-190.95303004665848
859,-281.6684728043245,-671.4194788195109,-595.3406499216464,-191.6045667016153
860,-283.4273561061334,-662.742462173815,-589.1466966759449,-192.07949626194622
861,-284.9317675230348,-653.4790605293082,-582.4266954759605,-192.37726354367132
862,-286.1798058644608,-643.6398342834215,-575.1884442389635,-192.49751766407894
863,-287.1699029176463,-633.2361702582978,-567.4404575630853,-192.44011204172668
864,-287.9008234476291,-622.2802817007951,-559.1919667273181,-192.2051043964408
865,-288.3716651972501,-610.7852082824812,-550.4529196915166,-191.7927567493162
866,-288.5818588871526,-598.7648160996395,-541.2339810963957,-191.2035354227169
867,-288.5311682157835,-586.2337976732647,-531.5465322635322,-190.43811104027552
868,-288.2196898593925,-573.2076719490651,-521.4026711953628,-189.49735852689372
869,-287.64785347203167,-559.7027842974607,-510.81521257518637,-188.38235710874176
870,-286.81642168555675,-545.7363065135845,-499.7976877671622,-187.09439031325886
871,-285.7264901096257,-531.3262368172834,-488.3643448163118,-185.63494596915294
872,-284.37948733169975,-516.4913998531157,-476.53014844851646,-184.00571620640073
873,-282.7771749170427,-501.2514466903528,-464.310780070519,-182.2085974562477
874,-280.92164740872175,-485.62685482297815,-451.7226377699233,-180.24569045120816
875,-278.8153323276065,-469.6389281696894,-438.782836315195,-178.11930022506533
876,-276.4609901723693,-453.30979707389497,-425.5092071556591,-175.83193611287106
877,-273.8617144194859,-436.6624183037172,-411.9202984215029,-173.3863117509458
878,-271.0209315232344,-419.72057505199047,-398.03537492377444,-170.7853450768792
879,-267.9424009156958,-402.50887693626174,-383.87441815438245,-168.03215832952932
880,-264.6302150067544,-385.05275999879035,-369.45812628609673,-165.13007804902298
881,-261.0887991840965,-367.37848670654853,-354.807914172548,-162.08263507675605
882,-257.3229118132118,-349.51314595122057,-339.9459133482279,-158.89356455539277
883,-253.33764423739257,-331.48465304920387,-324.89497202848884,-155.56680592886642
884,-249.138420777734,-313.3217497416076,-309.6786551095441,-152.1065029423789
885,-244.73099873313393,-295.05400419425354,-294.3212441684682,-148.5170036424008
886,-240.12146838029307,-276.7118109976763,-278.84773746319587,-144.80286037667145
887,-235.31625297371485,-258.32639116712244,-263.2838499325232,-140.96882979419888
888,-230.32210874570546,-239.9297921425511,-247.65601319610658,-137.01987284525998
889,-225.14612490637396,-221.55488778863355,-231.99137555446384,-132.96115478140027
890,-219.79572364363185,-203.23537839475384,-216.31780198897303,-128.7980451554339
891,-214.27866012319356,-185.0057906750079,-200.66387416187305,-124.53611782144384
892,-208.60302248857633,-166.90147776820413,-185.0588904162636,-120.18115093478167
893,-202.77723186110012,-148.9586192378633,-169.53286577610533,-115.73912695206774
894,-196.81004233988733,-131.2142210722183,-154.11653194621894,-111.21623263119092
895,-190.7105410018633,-113.70611568421432,-138.84133731228664,-106.61885903130903
896,-186.35318714844078,-326.7907274433371,-41.29635151543209,-57.13088937348976
897,-193.5651831390229,-336.3813450024071,-42.25390708858351,-58.19170500412153
898,-200.67091662312748,-345.7500793097593,-43.18683404570698,-59.19973127590344
899,-207.65888374463623,-354.8821032149703,-44.09336869877414,-60.153813424569385
900,-214.51795334865568,-363.7631485597595,-44.97181845771211,-61.052866689555174
901,-221.23736698151595,-372.3795061779876,-45.820561830403356,-61.89587631399788
902,-227.80673889077275,-380.71802589565755,-46.6380484226858,-62.68189754473641
903,-234.216056025205,-388.7661165309145,-47.42279893835281,-63.410055632311185
904,-240.45567803481626,-396.5117458940453,-48.17340517915324,-64.07954583096426
905,-246.51633727083475,-403.94344078747815,-48.88853004479121,-64.68963339863919
906,-252.38913878571267,-411.0502870057838,-49.566907532926336,-65.23965359698124
907,-258.0655603331267,-417.821929335675,-50.20734273917369,-65.72901169133726
908,-263.5374523679777,-424.2485715560061,-50.80871185710373,-66.15718295075558
909,-268.7970380463906,-430.32097643777325,-51.36996217824231,-66.52371264798617
910,-273.83691322571514,-436.0304657441141,-51.89011209207073,-66.82821605948062
911,-278.65004646452496,-441.36892023030885,-52.36825108602571,-67.0703784653921
912,-283.2297790226179,-446.3287796437791,-52.803539745499286,-67.24995514957533
913,-287.56982486101623,-450.90304272408844,-53.195209753839045,-67.36677139958655
914,-291.6642706419663,-455.08526720294225,-53.542563892347935,-67.42072250668375
915,-295.5075757289391,-458.8695698041871,-53.84497604028421,-67.41177376582638
916,-299.0945721866293,-462.2506262438123,-54.10189117486166,-67.33996047567541
917,-302.420464780956,-465.2236712299482,-54.31282537124938,-67.20538793859359
918,-305.4808309790625,-467.78449846286685,-54.477365802571924,-67.00823146064499
919,-308.2716209493165,-469.929460634983,-54.59517073990923,-66.7487363515954
920,-310.78915756130954,-471.65546943085155,-54.665969552296644,-66.42721792491224
921,-313.0301363858574,-472.95999552717035,-54.68956270672485,-66.04406149776423
922,-314.99162569500055,-473.8410685927784,-54.66582176814002,-65.59972239102203
923,-316.67106646200284,-474.2972772886564,-54.594689399443624,-65.09472592925749
924,-318.06627236135245,-474.3277692679272,-54.47617936149257,-64.52966744074435
925,-319.1754297687624,-473.9322511758542,-54.31037651309915,-63.90521225745765
926,-319.9970977611689,-473.1109886498436,-54.09743681103108,-63.222095715074154
927,-320.5302081167329,-471.8648063194427,-53.83758731001136,-62.4811231529721
928,-320.7740653148393,-470.1950878063399,-53.531126162718465,-61.68316991423134
929,-320.7283465360971,-468.10377572436664,-53.178422619786225,-60.82918134563317
930,-320.39310166233895,-465.59337167949406,-52.779917029803855,-59.920172797660655
931,-319.7687532766228,-462.6669362698365,-52.336120839315946,-58.9572296244982
932,-318.8560966632292,-459.3280890856485,-51.847616592822405,-57.94150718403179
933,-317.65629980766386,-455.58100870932736,-51.31505793277863,-56.8742308378491
934,-316.17090339665594,-451.43043271541126,-50.73916959959531,-55.756695951239145
935,-314.4018208181591,-446.8816576705799,-50.12074743163852,-54.59026789319262
936,-312.35133816135067,-441.9405391336543,-49.46065836522971,-53.3763820364018
937,-310.0221142166321,-436.6134916555977,-48.75984043464573,-52.11654375726042
938,-307.4171804756292,-430.907488779514,-48.01930277211873,-50.81232843586366
939,-304.5399411311912,-424.830063040649,-47.24012560783628,-49.465381456008444
940,-301.394173077392,-418.38930596638977,-46.423460269941316,-48.077418205193105
941,-297.9840259095291,-411.5938680762647,-45.57052918453208,-46.65022407461754
942,-294.31402192412384,-404.4529588819442,-44.682625875662204,-45.185654459183205
943,-290.389056118922,-396.97634688723923,-43.76111496534072,-43.685634757493006
944,-286.21439619289305,-389.174359588103,-42.807432173531964,-42.15216037185143
945,-281.7956825462305,-381.0578834726293,-41.823084318155615,-40.58729670826453
946,-277.13892828035193,-372.6383640210539,-40.80964931508676,-38.993179176439874
947,-272.25051919789854,-363.92780570575354,-39.768776178155804,-37.37201318978648
948,-267.1372138027357,-354.93877199124626,-38.70218501914852,-35.72607416541493
949,-261.8061432999528,-345.68438533419186,-37.61166704780601,-34.057707524137356
950,-256.2648115958628,-336.1783271833912,-36.49908457182471,-32.36932869046735
951,-250.52109529800316,-326.4348379797862,-35.36637099685644,-30.663423092620107
952,-244.58324371513456,-316.46871715646057,-34.21553082650833,-28.942546162512286
953,-238.45987885724205,-306.2953231386388,-33.04863966234288,-27.209323335762026
954,-232.1599954355345,-295.93057334368694,-31.867844203877894,-25.46645005168904
955,-225.69296086244452,-285.3909441811123,-30.675362248586556,-23.716691753314514
956,-219.06851525162858,-274.69347105256315,-29.473482691897342,-21.962883887361183
957,-212.29677141796722,-263.85574835182945,-28.2645655271941,-20.20793190425323
958,-205.38821487756448,-252.89592946484163,-27.051041845816002,-18.454811258116408
959,-198.35370384774865,-241.83272676967206,-25.835413837057526,-16.706567406777936
960,-169.9246383464006,-318.53147564279806,-18.35933052033639,-12.081967967179333
961,-175.8348206661631,-326.5344503457615,-18.75408173220106,-12.523282908322955
962,-181.6254081532462,-334.2701153760016,-19.13349209642518,-12.957097563365947
963,-187.28786397866605,-341.7281850210953,-19.497042994756207,-13.382727740406532
964,-192.81395232670184,-348.8988380949237,-19.84424141875482,-13.799512330278494
965,-198.19573839489553,-355.77271793767005,-20.174619969794822,-14.20681330655119
966,-203.425588394052,-362.34093241581985,-20.487736859063247,-14.604015725529557
967,-208.49616954823887,-368.5950539221606,-20.783175907560253,-14.990527726254093
968,-213.40045009478635,-374.5271193757836,-21.060546546099197,-15.365780530500883
969,-218.13169928428795,-380.12963022208135,-21.31948381530661,-15.72922844278153
970,-222.68348738059942,-385.3955524327495,-21.559648365622188,-16.08034885034326
971,-227.04968566083963,-390.31831650578624,-21.78072645729882,-16.418642223168824
972,-231.2244664153903,-394.89181746549133,-21.98242996040251,-16.743632113976574
973,-235.2023029478957,-399.11041486246813,-22.164496354812513,-17.054865158220398
974,-238.9779695752629,-402.9689327736217,-22.326688730221232,-17.35191107408976
975,-242.54654162766172,-406.4626598021594,-22.468795786134184,-17.634362662509705
976,-245.90339544852498,-409.5873490775913,-22.59063183187011,-17.9018358071408
977,-249.0442083945478,-412.3392182557306,-22.692036786560898,-18.153969474379224
978,-251.96495883568832,-414.71494951869096,-22.77287617915164,-18.39042571335669
979,-254.66192615516746,-416.7116895748902,-22.83304114840054,-18.610889655940472
980,-257.1316907494687,-418.32704965904765,-22.87244844287901,-18.815069516733427
981,-259.37113402833836,-419.55910553218524,-22.891040420971603,-19.002696593073935
982,-261.3774384147854,-420.406397481627,-22.88878505087607,-19.17352526503597
983,-263.1480873450814,-420.8679303209992,-22.86567591060329,-19.327332995429074
984,-264.6808652687607,-420.9431733902312,-22.82173218797734,-19.463920329798302
985,-265.9738576486205,-420.6320605555535,-22.75699868063543,-19.583110896424326
986,-267.02545096072043,-419.9349902094999,-22.671545796027956,-19.684751406323315
987,-267.83433269438285,-418.85282527090607,-22.565469551418488,-19.76871165324706
988,-268.3994913521929,-417.38689318490964,-22.438891573883712,-19.83488451368285
989,-268.7202164499983,-415.5389859229511,-22.291959100313502,-19.88318594685357
990,-268.79609851690947,-413.31135998277233,-22.124844977410916,-19.91355499471765
991,-268.62702909529924,-410.7067363884186,-21.937747661692153,-19.92595378196907
992,-268.2132007408033,-407.72830069023655,-21.73089121948657,-19.920367516037366
993,-267.55510702231993,-404.3797029648753,-21.504525326936648,-19.896804487087632
994,-266.65354252201007,-400.6650578152859,-21.258925269998105,-19.85529606802054
995,-265.50960283529736,-396.58894437072183,-20.994391944439748,-19.795896714472256
996,-264.12468457086777,-392.15640628673896,-20.71125185584359,-19.71868396481455
997,-262.50048535067003,-387.3729517451952,-20.409857119604755,-19.62375844015473
998,-260.63900380991544,-382.2445534542503,-20.09058546093155,-19.511243844335652
999,-258.54253959707785,-376.7776486483663,-19.753840214845457,-19.381286963935725
1000,-256.21369337389393,-370.9791390883077,-19.400050326181074,-19.234057668268896
1001,-253.6553668153626,-364.8563910611405,-19.02967034958617,-19.069748909384707
1002,-250.87076260974547,-358.41723538023325,-18.643180449521655,-18.88857672206818
1003,-247.86338445856654,-351.66996738525694,-18.241086400261622,-18.69078022383996
1004,-244.63703707661298,-344.62334694218384,-17.823919585893304,-18.476621614956183
1005,-241.19582619193372,-337.2865984432887,-17.392237000317078,-18.246386178408557
1006,-237.54415854584062,-329.6694108071482,-16.946621247246444,-18.000382279924327
1007,-233.68674189290795,-321.78193747864174,-16.487680540208125,-17.73894136796631
1008,-229.62858500097286,-313.6347964289498,-16.016048702541948,-17.46241797373284
1009,-225.3749976511342,-305.2390701555553,-15.532385167400877,-17.171189711157822
1010,-220.93159063775445,-296.60630568224343,-15.037374977751051,-16.865657276910675
1011,-216.3042757684575,-287.7485145591009,-14.531728786371751,-16.54624445039639
1012,-211.4992658641304,-278.6781728625168,-14.016182855855401,-16.21339809375549
1013,-206.52307475892263,-269.40822119518236,-13.491499058607584,-15.867588151864041
1014,-201.38251730024587,-259.95206468608995,-12.958464876847014,-15.509307652333675
1015,-196.08470934877448,-250.32357299053496,-12.417893402605554,-15.139072705511522
1016,-190.63706777844519,-240.53708029011418,-11.870623337728224,-14.75742250448029
1017,-185.04731047645726,-230.6073852927263,-11.317518993873177,-14.364919325058215
1018,-179.3234563432725,-220.549751232572,-10.759470292511711,-13.962148525799083
1019,-173.47382529261486,-210.37990587015423,-10.197392764928274,-13.549718547992198
1020,-167.50703825147087,-200.11404149227738,-9.632227552220455,-13.128260915662443
1021,-161.43201716008969,-189.76881491204796,-9.064941405298981,-12.698430235570193
1022,-155.25798497198267,-179.3613474688744,-8.496526684887721,-12.260904197211392
1023,-148.99446565392364,-168.90922502846703,-7.928001361523691,-11.816383572817523
1024,-192.6536495792062,-29.006518515461213,-12.814252660956072,-16.397192645434394
1025,-198.81817993790114,-29.727843810737415,-13.241714357881495,-17.19936908992357
1026,-204.86361194073532,-30.42676815132133,-13.66069625359638,-18.00135510957778
1027,-210.78001701511903,-31.102265449713325,-14.070547340312196,-18.801478691082785
1028,-216.5578175982148,-31.75335373687711,-14.470639560062775,-19.598113529440692
1029,-222.18778713693706,-32.379095162239814,-14.86036780470434,-20.389679027969898
1030,-227.6610500879523,-32.97859599369195,-15.239149915915482,-21.174640298305185
1031,-232.96908191767938,-33.551006617587404,-15.606426685197171,-21.951508160397566
1032,-238.10370910228883,-34.09552153874343,-15.961661853872771,-22.718839142514465
1033,-243.057109127703,-34.6113793804407,-16.304342113088005,-23.47523548123955
1034,-247.82181048959674,-35.09786288442321,-16.633977103810984,-24.219345121472866
1035,-252.39069269339672,-35.55429891089841,-16.950099416832195,-24.949861716430753
1036,-256.7569862542814,-35.98005843853698,-17.25226459276448,-25.665524627645834
1037,-260.9142726971813,-36.374556564473174,-17.540051122043106,-26.365118924967117
1038,-264.856484556779,-36.73725250430447,-17.813060444925657,-27.04747538655983
1039,-268.5779053775093,-37.06764959209178,-18.070916951492126,-27.71147049890563
1040,-272.0731697135584,-37.36529528035939,-18.31326798164487,-28.356026456802372
1041,-275.3372631288647,-37.62978114009497,-18.53978382510862,-28.980111163364285
1042,-278.36552219711876,-37.86074286074949,-18.750157721430487,-29.58273823002191
1043,-281.1536345017629,-38.05786025023733,-18.94410585997993,-30.162966976522064
1044,-283.69763863599087,-38.22085723493627,-19.121367379948826,-30.7199024309279
1045,-285.99392420274944,-38.34950185968743,-19.281704370351367,-31.252695329618835
1046,-288.0392318147361,-38.44360628779526,-19.424901870024154,-31.76054211729064
1047,-289.830653094401,-38.503026801027666,-19.550767867626142,-32.24268494695537
1048,-291.365630673946,-38.52766379961584,-19.659133301638658,-32.698411679941394
1049,-292.6419581953248,-38.51746180225436,-19.749852060365395,-33.12705588589334
1050,-293.65778031024286,-38.47240944610117,-19.822800981932442,-33.52799684277222
1051,-294.41159268015775,-38.39253948677753,-19.877879854288206,-33.90065953685524
1052,-294.90224197627856,-38.27792879836814,-19.91501141520349,-34.24451466273597
1053,-295.1289258795666,-38.128698373421074,-19.934141352271478,-34.55907862332427
1054,-295.0911930807348,-37.94501332294757,-19.935238302907685,-34.843913529846326
1055,-294.78894328024796,-37.72708287642247,-19.918293854350036,-35.09862720184455
1056,-294.2224271883226,-37.47516038178386,-19.88332254365877,-35.32287316717766
1057,-293.39224652492726,-37.18954330543314,-19.830361857716508,-35.51635066202074
1058,-292.2993540197823,-36.870573232235124,-19.75947223322827,-35.67880463086509
1059,-290.9450534123596,-36.51863586551797,-19.6707370567214,-35.81002572651833
1060,-289.3309994518829,-36.134161027073155,-19.564262664545605,-35.909850310104375
1061,-287.45919789732824,-35.717622657155566,-19.44017834287299,-35.97816045106342
1062,-285.33200551742254,-35.26953881448339,-19.29863632769798,-36.014883927151935
1063,-282.9521300906449,-34.79047167623818,-19.139811804837386,-36.01999422444271
1064,-280.3226304052268,-34.281027538064805,-18.96390290993037,-35.99351053732478
1065,-277.44691625915027,-33.741856814071525,-18.771130728438457,-35.935497768503495
1066,-274.32874846015017,-33.17365403682996,-18.561739295645534,-35.84606652900048
1067,-270.9722388257122,-32.577157857375006,-18.335995596657845,-35.725373138153635
1068,-267.38185018307456,-31.953151045204933,-18.094189566403998,-35.57361962361716
1069,-263.56239636922663,-31.302460488281383,-17.836634089634927,-35.39105372136151
1070,-259.51904223090963,-30.625957193029322,-17.563665000923972,-35.17796887567343
1071,-255.2573036246167,-29.924556284337,-17.275641084666812,-34.934704239155955
1072,-250.78304741659247,-29.199217005556104,-16.972944075081465,-34.661644672728386
1073,-246.10249148283322,-28.45094271850158,-16.655978656208323,-34.35922074562628
1074,-241.22220470908675,-27.680780903451755,-16.32517246191013,-34.0279087354015
1075,-236.1491069908531,-26.889823159148268,-15.98097607587198,-33.66823062792219
1076,-230.89046923338339,-26.079205202796114,-15.623863031601323,-33.28075411737271
1077,-225.45391335168043,-25.25010687006359,-15.254329812427967,-32.86609260625376
1078,-219.8474122704993,-24.40375211508237,-14.872895851504069,-32.42490520538227
1079,-214.0792899243458,-23.54140901044741,-14.480103531804131,-31.95789673389145
1080,-208.15822125747798,-22.66438974721703,-14.076518186125025,-31.465817719230763
1081,-202.09323222390543,-21.77405063491287,-13.662728097085964,-30.949464397165976
1082,-195.8936997873891,-20.871792101519922,-13.239344497128512,-30.40967871177908
1083,-189.56935192144164,-19.95905869348644,-12.80700156851658,-29.847348315468363
1084,-183.1302676093274,-19.03733907572408,-12.366356443336436,-29.263406568948362
1085,-176.5868768440622,-18.108166031607777,-11.918089203496695,-28.65883254124987
1086,-169.94996062841352,-17.17311646297581,-11.46290288072832,-28.03465100971996
1087,-163.23065097490039,-16.233811390129762,-11.001523456584616,-27.39193246002195
1088,-117.94225606658681,-16.141077578137782,-13.652824338974147,-54.55384611176346
1089,-121.91961985129602,-16.704877148548565,-14.011136727994923,-57.04485538331496
1090,-125.80952318370336,-17.258402109421954,-14.358008350099206,-59.50328718127607
1091,-129.60636865644005,-17.800782173498416,-14.692980040283857,-61.92538805997358
1092,-133.30476535353827,-18.331176944783195,-15.015612789573737,-64.30752164246482
1093,-136.89952885043115,-18.848775918546306,-15.325487745021737,-66.64616862053764
1094,-140.3856812139526,-19.35279848132251,-15.62220620970879,-68.9379267547104
1095,-143.7584510023376,-19.84249391091134,-15.905389642743861,-71.17951087423192
1096,-147.01327326522176,-20.317141376377112,-16.17467965926395,-73.36775287708154
1097,-150.14578954364168,-20.776049938048907,-16.429738030434034,-75.49960172996914
1098,-153.15184787003503,-21.21855854752053,-16.670246683447175,-77.5721234683351
1099,-156.0275027682399,-21.6440360476506,-16.895907701524447,-79.58250119635021
1100,-158.76901525349567,-22.05188117256244,-17.10644332391493,-81.52803508691579
1101,-161.37285283244236,-22.441522547644198,-17.301595945895738,-83.40614238166368
1102,-163.83568950312085,-22.81241868954873,-17.48112811877202,-85.21435739095625
1103,-166.15440575497283,-23.164058006193642,-17.644822549876935,-86.95033149388607
1104,-168.32608856884102,-23.495958796761414,-17.792482102571675,-88.6118331382766
1105,-170.34803141696892,-23.807669251699128,-17.923929796245456,-90.19674784068155
1106,-172.2177342630004,-24.09876745271871,-18.039008806315508,-91.70307818638503
1107,-173.932903561981,-24.368861372796832,-18.13758246422712,-93.12894382940183
1108,-175.49145226035637,-24.61758887617491,-18.219534257453514,-94.47258149247699
1109,-176.89149979597332,-24.844617718359157,-18.284767829496037,-95.73234496708616
1110,-178.13137209807923,-25.049645546120438,-18.33320697988401,-96.90670511343545
1111,-179.20960158732254,-25.232399897494513,-18.364795664174775,-97.9942498604614
1112,-180.12492717575236,-25.39263820178177,-18.379497993953674,-98.99368420583096
1113,-180.87629426681872,-25.530147779547413,-18.377298236834104,-99.90383021594154
1114,-181.46285475537226,-25.644745842621397,-18.358200816457472,-100.72362702592109
1115,-181.88396702766457,-25.736279494098405,-18.322230312493186,-101.45213083962791
1116,-182.1391959613477,-25.804625728337907,-18.26943146063871,-102.08851492965084
1117,-182.22831292547488,-25.84969143096408,-18.199869152619495,-102.63206963730909
1118,-182.15129578050008,-25.87141337886586,-18.113628436188986,-103.0822023726523
1119,-181.9083288782776,-25.869758240196937,-18.010814515128704,-103.43843761446063
1120,-181.49980306206314,-25.84472257437579,-17.89155274924813,-103.70041691024457
1121,-180.92631566651247,-25.796332832085568,-17.75598865438481,-103.86789887624506
1122,-180.18867051768262,-25.724645355274202,-17.60428790240428,-103.94075919743361
1123,-179.28787793303135,-25.629746377154397,-17.436636321200098,-103.91899062751196
1124,-178.22515472141686,-25.511752022203567,-17.253239894693802,-103.80270298891243
1125,-177.00192418309834,-25.370808306163852,-17.054324762835005,-103.59212317279766
1126,-175.61981610973547,-25.20709113604221,-16.840137221601285,-103.28759513906068
1127,-174.0806667843889,-25.02080631011026,-16.610943722998247,-102.88957991632509
1128,-172.38651898151997,-24.81218951790441,-16.367030875059523,-102.39865560194477
1129,-170.53962196699058,-24.581506340225797,-16.108705441846737,-101.81551736200403
1130,-168.5424314980635,-24.329052249140283,-15.836294343449545,-101.14097743131757
1131,-166.3976098234022,-24.055152607978503,-15.550144655985576,-100.37596511343065
1132,-164.10802568307068,-23.7601626713358,-15.250623611600515,-99.52152678061863
1133,-161.6767543085338,-23.44446758507227,-14.938118598468026,-98.57882587388755
1134,-159.10707742265717,-23.108482386312744,-14.613037160789807,-97.54914290297383
1135,-156.4024832397068,-22.752652003446812,-14.275806998795543,-96.43387544634405
1136,-153.56666646534975,-22.37745125612874,-13.926875968742936,-95.23453815119532
1137,-150.60352829665345,-21.983384855277603,-13.56671208291769,-93.95276273345527
1138,-147.51717642208624,-21.570987403077154,-13.195803509633539,-92.59029797778167
1139,-144.3119250215171,-21.140823392975914,-12.8146585732322,-91.14900973756286
1140,-140.9922947662154,-20.693487209687117,-12.423805754083398,-89.63088093491743
1141,-137.56301281885152,-20.22960312918874,-12.023793688584883,-88.03801156069444
1142,-134.02901283349627,-19.749825318723502,-11.615191169162392,-86.37261867447329
1143,-130.39543495562117,-19.254837836798824,-11.198587144269672,-84.63703640456374
1144,-126.66762582209846,-18.745354633186896,-10.77459071838848,-82.83371594800592
1145,-122.85113856120093,-18.2221195489246,-10.343831152028581,-80.9652255705703
1146,-118.95173279260207,-17.685906316313574,-9.906957861727728,-79.0342506067578
1147,-114.9753746273759,-17.13751855892016,-9.46464042005169,-77.04359345979967
1148,-110.92823666799718,-16.577789791575466,-9.01756855559424,-74.99617360165739
1149,-106.81669800834116,-16.007583420375276,-8.566452152977135,-72.89502757302294
1150,-102.6473442336839,-15.427792742680152,-8.112021252850163,-70.74330898331861
1151,-98.42696742070186,-14.83934094711535,-7.655026051891088,-68.54428851069706
1152,-163.69935630641427,-19.117889247613892,-13.058259536484185,-76.88627307017906
1153,-168.98587948850405,-19.754252646456045,-13.539091640664632,-78.68658785072235
1154,-174.1666761439565,-20.37824896803232,-14.011925030616904,-80.43139862948115
1155,-179.23351278717854,-20.988891979889875,-14.476010407847925,-82.11790055692033
1156,-184.17844738309154,-21.585230278021516,-14.930623530816849,-83.74340913806466
1157,-188.9938293471305,-22.16634728686574,-15.37506521493505,-85.3053602324981
1158,-193.67229954524524,-22.73136125930674,-15.808661332566109,-86.80131005436473
1159,-198.2067902938989,-23.279425276674438,-16.23076281302581,-88.2289351723682
1160,-202.59052536006956,-23.80972724874438,-16.640745642582175,-89.58603250977153
1161,-206.81701996124886,-24.32148991373786,-17.038010864455423,-90.8705193443978
1162,-210.8800807654428,-24.81397083832183,-17.421984578817977,-92.08043330862948
1163,-214.77380589117135,-25.286462417608927,-17.79211794279451,-93.2139323894087
1164,-218.49258490746877,-25.738291875157497,-18.147887170461857,-94.26929492823753
1165,-222.03109883388333,-26.16882126297155,-18.488793532849087,-95.24491962117726
1166,-225.3843201404773,-26.57744746150078,-18.8143633579375,-96.13932551884925
1167,-228.54751274782703,-26.963602179640603,-19.124148030660567,-96.9511520264342
1168,-231.5162320270232,-27.326751954732057,-19.417723992903976,-97.67915890367266
1169,-234.28632479966996,-27.666398152561896,-19.69469274350567,-98.32222626486455
1170,-236.8539293378865,-27.982076967362573,-19.95468083825573,-98.87935457886967
1171,-239.21547536430506,-28.27335942181222,-20.197339889896494,-99.34966466910734
1172,-241.3676840520724,-28.539851367034558,-20.422346568122464,-99.73239771355667
1173,-243.3075680248496,-28.78119348259915,-20.629402599580416,-100.02691524475615
1174,-245.03243135681103,-28.997061276521087,-20.818234767869228,-100.23269914980392
1175,-246.53986957264567,-29.187165085261228,-20.98859491354012,-100.34935167035813
1176,-247.82776964755635,-29.351250073726078,-21.140259934096367,-100.37659540263599
1177,-248.89431000725978,-29.489096235267798,-21.273031783993567,-100.31427329741456
1178,-249.737960527987,-29.600518391684272,-21.386737474639457,-100.16234866003084
1179,-250.35748253648285,-29.685366193219014,-21.481229074393987,-99.92090515038086
1180,-250.75192881000606,-29.74352411856124,-21.55638370856933,-99.59014678292063
1181,-250.92064357632935,-29.774911474845805,-21.612103559429855,-99.17039792666577
1182,-250.86326251373984,-29.77948239765329,-21.648315866192096,-98.6621033051913
1183,-250.57971275103787,-29.757225851009878,-21.664972925024824,-98.06582799663185
1184,-250.07021286753846,-29.708165627387512,-21.662052089048995,-97.3822574336819
1185,-249.33527289307028,-29.632360347703706,-21.639555768337786,-96.61219740359533
1186,-248.3756943079757,-29.529903461321705,-21.59751142991653,-95.75657404818556
1187,-247.1925700431115,-29.400923246050414,-21.535971597762803,-94.81643386382581
1188,-245.78728447984813,-29.24558280814437,-21.455013852806324,-93.79294370144859
1189,-244.16151345007017,-29.06408008230382,-21.354740832929085,-92.68739076654624
1190,-242.31722423617575,-28.85664783167464,-21.235280232965213,-91.50118261917063
1191,-240.25667557107724,-28.623553647848404,-21.09678480470103,-90.23584717393312
1192,-237.98241763820093,-28.365099950862334,-20.939432356875084,-88.89303270000474
1193,-235.49729207148678,-28.08162398919931,-20.763425755178105,-87.4745078211159
1194,-232.80443195538865,-27.773497839787872,-20.568992922253027,-85.98216151555688
1195,-229.9072618248746,-27.44112840800224,-20.356386837694913,-84.41800311617733
1196,-226.80949766542633,-27.084957427662257,-20.125885538051136,-82.78416231038642
1197,-223.51514691303942,-26.705461461033487,-19.877792116821162,-81.08288914015304
1198,-220.0285084542233,-26.303151898827064,-19.612434724456676,-79.31655400200546
1199,-216.3541726260015,-25.878574960199884,-19.330166568361577,-77.48764764703164
1200,-212.4970212159111,-25.43231169275443,-19.031365912891925,-75.59878118087904
1201,-208.46222746200303,-24.96497797253883,-18.716436079355972,-73.65268606375467
1202,-204.25525605284227,-24.47722450404692,-18.385805446014185,-71.65221411042509
1203,-199.88186312750764,-23.96973682021816,-18.03992744807919,-69.60033749021638
1204,-195.3480962755915,-23.443235282437666,-17.679280577715815,-67.5001487270141
1205,-190.6602945372003,-22.898475080536222,-17.304368384041066,-65.35486069926361
1206,-185.82508840295415,-22.336246232790234,-16.91571947312415,-63.16780663996943
1207,-180.8493998139872,-21.757373585921787,-16.51388750798644,-60.94244013669586
1208,-175.74044216194685,-21.1627168150986,-16.09945120860151,-58.68233513156667
1209,-170.505720288995,-20.553170423934056,-15.67301435189512,-56.39118592126517
1210,-165.15303048780692,-19.929663744487176,-15.235205771745202,-54.07280715703409
1211,-159.69046050157166,-19.293160937262638,-14.78667935898187,-51.7311338446758
1212,-154.12638952399215,-18.64466099121074,-14.328114061387438,-49.37022134455214
1213,-148.469488199285,-17.985197723727456,-13.860213883696389,-46.99424537158447
1214,-142.72871862218068,-17.31583978065441,-13.383707887595394,-44.60750199525362
1215,-136.91333433792335,-16.63769063627884,-12.899350191723299,-42.21440763960001
1216,-149.03585802306324,-17.233805339188777,-17.422844630949367,-18.32076346670394
1217,-154.1483403031001,-17.77625660095899,-18.04545046680515,-19.347062906450745
1218,-159.16095569921043,-18.306818335745895,-18.65662028233827,-20.36852180316018
1219,-164.06599603193118,-18.824676108115543,-19.25541795550086,-21.38334870263231
1220,-168.85602553737192,-19.329045426142468,-19.840939299780498,-22.389801428212095
1221,-173.5238808672145,-19.81917174140952,-20.412312064200194,-23.386187080789192
1222,-178.06267108871367,-20.29433044900797,-20.96869593331839,-24.370862038798098
1223,-182.46577768469666,-20.753826887537464,-21.509282527228947,-25.342231958218083
1224,-186.7268545535631,-21.196996339106047,-22.033295401561173,-26.298751772573244
1225,-190.8398280092854,-21.623204029330108,-22.53999004747983,-27.238925692932416
1226,-194.7988967814086,-22.03184512733448,-23.028653891685053,-28.161307207909264
1227,-198.59853201504953,-22.422344745752337,-23.498606296412486,-29.0644990836622
1228,-202.2334772708989,-22.794157940725235,-23.949198559433114,-29.947153363894444
1229,-205.69874852521892,-23.146769711903104,-24.379813914053432,-30.80797136985402
1230,-208.98963416984432,-23.479695002444306,-24.789867529115288,-31.645703700333673
1231,-212.10169501218297,-23.792478699015522,-25.178806508996026,-32.45915023167102
1232,-215.03076427521475,-24.084695631791853,-25.546109893608367,-33.24716011774838
1233,-217.77294759749225,-24.355950574456745,-25.891288658400498,-34.00863178999287
1234,-220.32462303314054,-24.60587824420207,-26.213885714355985,-34.7425129573764
1235,-222.68244105185715,-24.834143301727998,-26.51347590799387,-35.447800606415655
1236,-224.84332453891219,-25.040440351243177,-26.789666021368564,-36.123541001172114
1237,-226.80446879514804,-25.224493940464544,-27.042094772069944,-36.768829683251965
1238,-228.56334153697992,-25.386058560617467,-27.27043281322328,-37.38281147180625
1239,-230.11768289639505,-25.52491864643564,-27.4743827334893,-37.96468046353074
1240,-231.46550542095343,-25.640888576161156,-27.65367905706409,-38.513680032665945
1241,-232.60509407378763,-25.73381267154451,-27.80808824367923,-39.02910283099724
1242,-233.53500623360216,-25.8035651978445,-27.937408688601682,-39.510290787854665
1243,-234.25407169467462,-25.85005036382839,-28.041470722633804,-39.95663511011312
1244,-234.7613926668543,-25.8732023217717,-28.12013661211341,-40.36757628219219
1245,-235.05634377556376,-25.87298516745842,-28.173300558913727,-40.74260406605631
1246,-235.1385720617973,-25.849392940180838,-28.200888700443354,-41.08125750121459
1247,-235.00799698212194,-25.802449622739672,-28.20285910964637,-41.383124904720944
1248,-234.6648104086772,-25.73220914144396,-28.179201795002207,-41.64784387117408
1249,-234.10947662917476,-25.638755366111127,-28.129938700525773,-41.8751012727174
1250,-233.3427323468988,-25.52220211006695,-28.055123705767326,-42.06463325903913
1251,-232.36558668070592,-25.382693130145597,-27.954842625812585,-42.2162252573722
1252,-231.17932116502507,-25.220402126689592,-27.82921321128265,-42.32971197249434
1253,-229.7854897498576,-25.035532743549805,-27.67838514833403,-42.404977386728014
1254,-228.18591880077722,-24.82831856808548,-27.502540058658695,-42.44195475994045
1255,-226.38270709893,-24.599023131164248,-27.30189149948396,-42.44062662954363
1256,-224.3782258410345,-24.347939907162047,-27.076684963572568,-42.40102481049426
1257,-222.1751186393813,-24.07539231396325,-26.827197879222695,-42.32323039529386
1258,-219.77630152183372,-23.781733712960524,-26.553739610267897,-42.20737375398862
1259,-217.1849629318271,-23.46734740905491,-26.256651456077137,-42.05363453416954
1260,-214.4045637283694,-23.132646650655868,-25.936306651554798,-41.86224166097236
1261,-211.4388371860405,-22.778074629681115,-25.59311036714066,-41.633473337077554
1262,-208.2917889949932,-22.40410448155683,-25.227499708809905,-41.367657042710306
1263,-204.967697260952,-22.011239285217464,-24.8399437180731,-41.065169535640635
1264,-201.4711125052141,-21.600012063105876,-24.43094337197627,-40.726436851183195
1265,-197.80685766464876,-21.170985781173265,-24.001031583100776,-40.35193430219749
1266,-193.98002809169782,-20.72475334887917,-23.55077319956342,-39.94218647908767
1267,-189.99599155437502,-20.26193761919152,-23.08076500501641,-39.49776724980272
1268,-185.86038823626689,-19.783191388586566,-22.59163571864731,-39.019299759836244
1269,-181.57913073653182,-19.28919739704892,-22.084045995179128,-38.50745643222668
1270,-177.15840406990048,-18.780668328071545,-21.558688424870226,-37.962958967557185
1271,-172.604665666676,-18.25834680865579,-21.016287533514408,-37.386578343955605
1272,-167.92464537273366,-17.723005409311295,-20.457599782440862,-36.77913481709459
1273,-163.12534544952112,-17.175446644056073,-19.883413568514158,-36.141497920191455
1274,-158.214040574058,-16.61650297041651,-19.294549224134244,-35.47458646400828
1275,-153.19827783893655,-16.04703678942733,-18.691859017236517,-34.77936853685191
1276,-148.0858767523208,-15.467940445631575,-18.07622715129172,-34.05686150457385
1277,-142.88492923794738,-14.880136227080671,-17.448569765305997,-33.308132010570354
1278,-137.60379963512494,-14.28457636533438,-16.809834933820905,-32.53429597578244
1279,-132.25112469873443,-13.682243035460798,-16.16100266691336,-31.736518598695813
1280,-164.70817582100912,-8.49568594495922,-14.504436092926882,-35.40493785094617
1281,-172.8468309910373,-10.584291146087295,-17.484498875346198,-39.50774798351959
1282,-180.94315945166872,-12.72197918382948,-20.511937396270834,-43.66027691507867
1283,-188.982341651594,-14.903441227090296,-23.580190168645114,-47.85361506309065
1284,-196.9499732270023,-17.123476371333417,-26.682832582592862,-52.07904972494713
1285,-204.83206500158076,-19.3769916385818,-29.813576905417378,-56.32806507796366
1286,-212.61504298651474,-21.659001977417585,-32.966272281601434,-60.59234217938004
1287,-220.28574838048723,-23.964630262982134,-36.134904732807286,-64.8637589663602
1288,-227.83143756968008,-26.289107296976024,-39.31359715787664,-69.1343902559921
1289,-235.239782127773,-28.627771807659034,-42.49660933283065,-73.39650774528792
1290,-242.4988688159434,-30.976070449850134,-45.67833791086996,-77.642580011184
1291,-249.597199582867,-33.32955780492754,-48.85331642237467,-81.8652725105406
1292,-256.5236915647177,-35.6838963808286,-52.01621527490431,-86.05744758014228
1293,-263.26767708516746,-38.03485661204993,-55.16184175319786,-90.21216443669762
1294,-269.81890365538584,-40.37831685964728,-58.28514001917374,-94.3226791768393
1295,-276.16753397404113,-42.710263411235616,-61.3811911119299,-98.38244477712402
1296,-282.30414592729915,-45.02679048098912,-64.44521294774361,-102.38511109403284
1297,-288.2197325888239,-47.32410020964113,-67.47256032007165,-106.32452486397055
1298,-293.905702219777,-49.598502664484165,-70.45872489955019,-110.1947297032662
1299,-299.3538782688192,-51.84641583936995,-73.39933523399485,-113.98996610817295
1300,-304.556499372108,-54.06436565470934,-76.2901567484007,-117.70467145486795
1301,-309.50621935329923,-56.24898595747244,-79.12709174494222,-121.33347999945245
1302,-314.196107223547,-58.39701852118848,-81.90617940297328,-124.87122287795174
1303,-318.61964718150296,-60.50531304594587,-84.62359577902723,-128.31292810631516
1304,-322.7707386133171,-62.5708271583922,-87.27565380681678,-131.65382058041618
1305,-326.6436960926373,-64.59062641173419,-89.85880329723405,-134.88932207605222
1306,-330.2332493806089,-66.56188428573778,-92.3696309383506,-138.0150512489448
1307,-333.5345434258756,-68.48188218672804,-94.80486029541736,-141.0268236347394
1308,-336.5431383645791,-70.34800944758918,-97.16135181086473,-143.9206516490057
1309,-339.2550095203582,-72.15776332776461,-99.43610280430242,-146.69274458723714
1310,-341.6665474043509,-73.90874901325688,-101.62624747251962,-149.3395086248515
1311,-343.77455771519203,-75.59867961662763,-103.72905688948484,-151.85754681719044
1312,-345.5762613390145,-77.22537617699776,-105.741939006346,-154.24365909951942
1313,-347.0692943494492,-78.78676766004723,-107.66243865143038,-156.49484228702826
1314,-348.2517080076251,-80.28089095801518,-109.48823753024475,-158.6082900748306
1315,-349.12196876216865,-81.70589088969989,-111.21715422547511,-160.58139303796415
1316,-349.6789582492041,-83.06002020045872,-112.84714419698697,-162.41173863139045
1317,-349.92197329235375,-84.34163956220829,-114.37629978182513,-164.09711118999525
1318,-349.8507259027379,-85.54921757342424,-115.80285019421375,-165.6354919285882
1319,-349.46534327897376,-86.68133075914136,-117.12516152555645,-167.0250589419029
1320,-348.76636780717746,-87.73666357095365,-118.34173674443603,-168.26418720459694
1321,-347.7547570609623,-88.71400838701409,-119.45121569661488,-169.351448571252
1322,-346.43188380143914,-89.61226551203494,-120.45237510503459,-170.28561177637346
1323,-344.79953597721726,-90.43044317728746,-121.34412856981615,-171.06564243439092
1324,-342.8599167244029,-91.1676575406021,-122.12552656825989,-171.69070303965782
1325,-340.61564436660103,-91.82313268636838,-122.79575645484549,-172.1601529664516
1326,-338.06975241491335,-92.39620062553497,-123.35414246123199,-172.47354846897366
1327,-335.2256895679398,-92.88630129560966,-123.80014569625779,-172.63064268134923
1328,-332.08731971177815,-93.29298256065928,-124.1333641459405,-172.63138561762761
1329,-328.6589219200234,-93.61590021130979,-124.35353267347723,-172.47592417178197
1330,-324.9451904537686,-93.85481796474632,-124.46052301924429,-172.16460211770942
1331,-320.9512347616043,-94.00960746471303,-124.45434380079747,-171.69796010923108
1332,-316.68257947961916,-94.08024828151316,-124.3351405128717,-171.07673568009182
1333,-312.1451644313989,-94.06682791200917,-124.10319552738132,-170.30186324396053
1334,-307.345344628027,-93.96954177962245,-123.75892809342002,-169.37447409443004
1335,-302.28989026808483,-93.78869323433355,-123.30289433726075,-168.2958964050171
1336,-296.9859867376515,-93.52469355268215,-122.73578726235581,-167.06765522916217
1337,-291.4412346103033,-93.17806193776694,-122.05843674933675,-165.69147250022988
1338,-285.6636496471143,-92.74942551924579,-121.27180955601453,-164.16926703150855
1339,-279.6616627966565,-92.23951935333552,-120.37700931737925,-162.5031545162105
1340,-273.444120194999,-91.64918642281214,-119.37527654560047,-160.6954475274719
1341,-267.0202831657088,-90.97937763701066,-118.26798863002692,-158.74865551835285
1342,-260.39982821985046,-90.23115183182522,-117.05665983718671,-156.6654848218371
1343,-253.5928470559858,-89.40567576970896,-115.74294131078722,-154.44883865083258
1344,-285.46341745739676,-1257.7988246939333,-670.6213353766473,-249.58500794497698
1345,-295.1169565987498,-1279.8132036436766,-688.0195143008904,-262.1864716872236
1346,-304.6044192970862,-1300.653145540923,-704.8774376068371,-274.73440530627147
1347,-313.9099001237761,-1320.295420536897,-721.171877306437,-287.2053349416871
1348,-323.018043462916,-1338.718300073636,-736.8805932611344,-299.5764522893887
1349,-331.91404351132996,-1355.90155688399,-751.982333181872,-311.8256146016456
1350,-340.583644278569,-1371.8264649916173,-766.4568326290881,-323.93134468707797
1351,-349.01313958691094,-1386.475799710992,-780.2848150127177,-335.87283091065797
1352,-357.1893730713605,-1399.8338376473978,-793.447991592193,-347.6299271937081
1353,-365.0997381796498,-1411.8863566969321,-805.9290614764415,-359.1831530139028
1354,-372.7321781722374,-1422.620636046502,-817.7117116238908,-370.5136934052675
1355,-380.07518612230916,-1432.0254561738277,-828.7806168424597,-381.60339895817884
1356,-387.1178049157779,-1440.0910988474427,-839.1214397895669,-392.4347858193644
1357,-393.84962725128287,-1446.809347126686,-848.7208309721274,-402.9910356919033
1358,-400.26079564019074,-1452.1734853617158,-857.5664287465522,-413.25599583522524
1359,-406.3420024065948,-1456.1782991934974,-865.6468593187484,-423.2141790651118
1360,-412.08448968731545,-1458.8200755538112,-872.951736744119,-432.850763753695
1361,-417.48004943189943,-1460.0966026652443,-879.4716629275658,-442.15159382945825
1362,-422.5210234026211,-1460.0071700411984,-885.1982276234843,-451.103178777236
1363,-427.20030317448146,-1458.5525684858858,-890.1240084357676,-459.6926936382136
1364,-431.5113301352073,-1455.7350900943318,-894.2425708178054,-467.90797900992783
1365,-435.4480954852536,-1451.5585282523714,-897.5484680724817,-475.73754104626596
1366,-439.0051402378018,-1446.02817763665,-900.0372413521796,-483.1705514574668
1367,-442.17755521875944,-1439.1508342146278,-901.7054196587766,-490.1968475101199
1368,-444.96098106676163,-1430.9347952445737,-902.5505198436473,-496.8069320271658
1369,-447.3516082331697,-1421.3898592755684,-902.5710466076617,-502.9919733878959
1370,-449.3461769820718,-1410.527326147503,-901.7664925011869,-508.743805527953
1371,-450.9419773902835,-1398.3599969910806,-900.1373379240854,-514.0549279393297
1372,-452.1368493473462,-1384.902174227817,-897.6850511257157,-518.9185056703712
1373,-452.92918255552803,-1370.1696615700369,-894.4120882049332,-523.3283693257723
1374,-453.3179165298249,-1354.1797640208756,-890.3218931100893,-527.2790150665792
1375,-453.30254059795794,-1336.9512878742828,-885.4188976390302,-530.7656046101887
1376,-452.88309390037574,-1318.5045407150149,-879.7085214390999,-533.7839652303487
1377,-452.060165390254,-1298.8613314186427,-873.1971720071374,-536.3305897571578
1378,-450.8348938334937,-1278.0449701515458,-865.892244689478,-538.402636577066
1379,-449.208967808724,-1256.0802683709167,-857.802122681952,-539.997929632873
1380,-447.1846257072996,-1232.993538824757,-848.9361770298874,-541.11495842373
1381,-444.76465573330177,-1208.8125955518783,-839.3047666281069,-541.7528780051387
1382,-441.9523959035391,-1183.5667538819073,-828.9192382209294,-541.911508988952
1383,-438.7517340475467,-1157.286830435277,-817.7919264021699,-541.5913375433731
1384,-435.16710780758535,-1130.0051431232318,-805.9361536151387,-540.7935153929562
1385,-431.20350463864315,-1101.755511147829,-793.3662301526421,-539.5198598186062
1386,-426.86646180843474,-1072.5732550019356,-780.0974541569832,-537.7728536575783
1387,-422.1620663974009,-1042.4951964692277,-766.1461116199587,-535.5556453034787
1388,-417.0969552987094,-1011.5596586241936,-751.5294763828633,-532.8720487062645
1389,-411.67831521825366,-979.8064658321327,-736.2658101364865,-529.726543372243
1390,-405.9138826746545,-947.2769437491515,-720.3743624211132,-526.1242743640724
1391,-399.8119439992591,-914.0139193221727,-703.8753706265248,-522.0710523007614
1392,-393.38133533614047,-880.0617207889237,-686.7900599919969,-517.5733533576692
1393,-386.63144264209853,-845.4661776779454,-669.1406436063024,-512.6383192665061
1394,-379.5722016866598,-810.2746208085882,-650.9503224077097,-507.2737573153322
1395,-372.2140980520766,-774.5358822910144,-632.243285183981,-501.4881403485587
1396,-364.56816713332853,-738.3002955261932,-613.044708572376,-495.29060676694735
1397,-356.64599413812084,-701.6196952059076,-593.3807570596493,-488.69096052761006
1398,-348.4597140868853,-664.5474173127488,-573.278582982051,-481.6996711440096
1399,-340.0220118127802,-627.1382991201191,-552.7663265253258,-474.3278736859588
1400,-331.34612196169024,-589.4486791922302,-531.8731157247156,-466.5873687796216
1401,-322.4458289922263,-551.5363973841041,-510.6290664649568,-458.490622607512
1402,-313.3354671757259,-513.4607948415742,-489.065282480281,-450.05076690849444
1403,-304.02992059625245,-475.2827140012815,-467.21385535441556,-441.28159897778386
1404,-294.54462315059567,-437.0644985906796,-445.1078645205834,-432.1975816669453
1405,-284.89555854827216,-398.86999362802976,-422.7813772615026,-422.813843383895
1406,-275.0992603115242,-360.76454542240515,-400.2694487093861,-413.1461780928988
1407,-265.17281177532044,-322.81500157368714,-377.60812184594306,-403.2110453145732
1408,-203.52515704964264,-516.8393387998981,-185.21247577642413,-73.37202247034756
1409,-210.8942157494411,-528.6026472702366,-186.37055418276185,-74.53915374570121
1410,-218.13858227457936,-539.9414984958485,-187.34401807088355,-75.65676550188955
1411,-225.24672499200403,-550.8401883179318,-188.13240773193306,-76.72261209033014
1412,-232.20750073135173,-561.2837474168686,-188.73543841106206,-77.73456111015511
1413,-239.0101547849488,-571.2579413122224,-189.15300030742938,-78.69059340821134
1414,-245.64432090781125,-580.7492703627405,-189.38515857420214,-79.58880307906051
1415,-252.10002131764463,-589.7449697663512,-189.43215331855407,-80.42739746497875
1416,-258.3676666948444,-598.233009560167,-189.29439960166752,-81.20469715595698
1417,-264.43805618249536,-606.2020946204821,-188.97248743873155,-81.9191359897009
1418,-270.3023773863728,-613.641664662773,-188.4671817989435,-82.56926105163082
1419,-275.9522063749406,-620.5418942417002,-187.77942260550756,-83.15373267488185
1420,-281.3795076793531,-626.8936927511055,-186.9103247356363,-83.6713244403036
1421,-286.57663429345376,-632.6887044240119,-185.86117802054918,-84.12092317646044
1422,-291.5363276737762,-637.9193083326286,-184.63344724547346,-84.50152895963129
1423,-296.2517177395429,-642.5786183883442,-183.2287721496441,-84.81225511381018
1424,-300.7163228726668,-646.6604833417302,-181.64896742630324,-85.05232821070526
1425,-304.92404991775027,-650.1594867825414,-179.896022722701,-85.22108806973962
1426,-308.8691941820845,-653.0709471397145,-177.9721026400948,-85.31798775805099
1427,-312.54643943565134,-655.3909176813686,-175.87954673374983,-85.34259359049193
1428,-315.95085791112126,-657.1161865148055,-173.6208695129383,-85.29458512962916
1429,-319.0779103038552,-658.2442765865089,-171.19876044094033,-85.1737551857446
1430,-321.92344577190335,-658.7734456821454,-168.61608393504366,-84.98000981683457
1431,-324.48370193600505,-658.702686426563,-165.87587936654336,-84.71336832861002
1432,-326.75530487958935,-658.0317262837938,-162.98136106074196,-84.37396327449667
1433,-328.73526914877516,-656.7610275570496,-159.93591829694964,-83.96204045563478
1434,-330.42099775237097,-654.8917873887265,-156.74311530848408,-83.47795892087932
1435,-331.81028216187394,-652.4259377604025,-153.40669128267044,-82.92219096679982
1436,-332.9013023114716,-649.3661454928373,-149.93056036084133,-82.29532213768061
1437,-333.6926265980408,-645.7158122459736,-146.31881163833708,-81.5980512255204
1438,-334.1832118811478,-641.479074518935,-142.57570916450504,-80.83119027003276
1439,-334.3724034830483,-636.6608036500287,-138.70569194270053,-79.99566455864586
1440,-334.25993518868734,-631.2666058167435,-134.71337393028605,-79.09251262650237
1441,-333.84592924569984,-625.3028220357504,-130.60354403863192,-78.12288625645967
1442,-333.13089636440947,-618.7765281629021,-126.38116613311544,-77.08805047908984
1443,-332.11573571783015,-611.6955348932343,-122.05137903312196,-75.98938357267936
1444,-330.80173494166473,-604.0683877609639,-117.61949651204365,-74.82837706322955
1445,-329.1905701343057,-595.9043671394908,-113.09100729728071,-73.60663572445628
1446,-327.28430585683486,-587.2134882413959,-108.4715750702405,-72.3258775777899
1447,-325.0853951330233,-578.006501118443,-103.76703846633791,-70.98793389237552
1448,-322.59667944933193,-568.294890661578,-98.98341107499526,-69.59474918507286
1449,-319.82138875491046,-558.0908766009279,-94.12688143964249,-68.14838122045617
1450,-316.7631414615983,-547.4074135058028,-89.2038130577166,-66.65100101081428
1451,-313.42594444392444,-536.258190784694,-84.22074438066248,-65.10489281615068
1452,-309.8141930391067,-524.6576326852746,-79.18438881393202,-63.51245414418347
1453,-305.9326710470528,-512.6208982944012,-74.1016347169848,-61.87619575034528
1454,-301.78655073035975,-500.1638815381103,-68.97954540328799,-60.19874163778336
1455,-297.3813928143131,-487.3032111816214,-63.82535914031576,-58.482829057359574
1456,-292.72314648688877,-474.05625082933597,-58.64648914954995,-56.73130850765029
1457,-287.81814939875136,-460.44109892483687,-53.45052360647986,-54.94714373494657
1458,-282.6731276632551,-446.4765887508891,-48.245225640601994,-53.13341173325394
1459,-277.2951958564429,-432.18228842943967,-43.03853333542042,-51.293302744292625
1460,-271.69185701704816,-417.57850092161704,-37.83855972844659,-49.43012025749728
1461,-265.87100264649234,-402.68626402773134,-32.653592811199395,-47.547281010017265
