,TP9,AF7,AF8,TP10
0,-4.441217991526491e-11,-8.641170239580833e-11,-2.1138299718081035e-10,-7.877632948846944e-11
1,-7.687575048575013e-10,-1.7428602528646857e-09,-2.087485933849301e-09,-1.5391870013187854e-09
2,-9.265486469729896e-09,-1.9421528363583475e-08,-2.5291517976396875e-08,-1.7944991230336796e-08
3,-7.206146828382722e-08,-1.42784358874002e-07,-1.8630010724395175e-07,-1.3640954943502442e-07
4,-4.182680716941724e-07,-7.876517597419452e-07,-1.0334809114288249e-06,-7.748442961889358e-07
5,-1.935285823500617e-06,-3.488146975884484e-06,-4.595873404115586e-06,-3.5152333054676395e-06
6,-7.45824927624091e-06,-1.2962033380654629e-05,-1.7119913602951524e-05,-1.3308007837525573e-05
7,-2.4706556763946108e-05,-4.17076808258889e-05,-5.5142300652496336e-05,-4.338404215724961e-05
8,-7.205507470353643e-05,-0.00011897504489069143,-0.00015724759060266677,-0.00012472470043484497
9,-0.0001885685162085128,-0.00030645766999928185,-0.0004044363649588664,-0.0003222443313292595
10,-0.000449784389192501,-0.0007233372580481059,-0.0009521983609270813,-0.0007598230352079577
11,-0.0009906612153544347,-0.0015833045487670472,-0.002077163699856112,-0.0016560456438431226
12,-0.002036991325868966,-0.003245852291631591,-0.004240469572004657,-0.0033720400443749752
13,-0.003946432064596111,-0.0062835096236447925,-0.008168931042970007,-0.00647220728934269
14,-0.007259998969177291,-0.011565765710996144,-0.014953728741933193,-0.011797811683635745
15,-0.012764240825477413,-0.020359219571570133,-0.02616482962826082,-0.0205522931512059
16,-0.021563321116900888,-0.0344419772056323,-0.04397762174317563,-0.034395800380131895
17,-0.03515899489505878,-0.05622851439071804,-0.07130633070298972,-0.055544961609686826
18,-0.05553516553682571,-0.08889917044739767,-0.11193654111365887,-0.08687242520254694
19,-0.08524244940075029,-0.13652623109108636,-0.17064670289727088,-0.1319992369731093
20,-0.12747698664912036,-0.20418634991742415,-0.2533060937199323,-0.19537169402229154
21,-0.18614663098766698,-0.2980470706258216,-0.36693468166277027,-0.28231302576579426
22,-0.2659167450257429,-0.42541374595494685,-0.5197092522329309,-0.3990393788412529
23,-0.3722272727785284,-0.5947225222774106,-0.7209003214293224,-0.5526294242193655
24,-0.5112727178397346,-0.8154655743633776,-0.9807261329471058,-0.7509377142772636
25,-0.6899372271568984,-1.0980366210520383,-1.310113364324405,-1.0024437969061606
26,-0.9156782980617079,-1.4534879954136541,-1.7203590386091059,-1.3160320852012355
27,-1.196354797962412,-1.8931950918904297,-2.222694175917923,-1.7007015157188337
28,-1.5399980435477725,-2.42842967561644,-2.827756693643018,-2.1652089169163236
29,-1.9545284404364653,-3.0698500193675353,-3.544988527544665,-2.717655352671801
30,-2.44742427066338,-3.826922761756849,-4.381979476901595,-3.365029994404845
31,-3.025353237758134,-4.707298316818032,-5.343787427921206,-4.112730845959322
32,-3.693781023683573,-5.716168096330731,-6.432270713871859,-4.964085563759622
33,-4.4565741954978755,-6.85563719377059,-7.645472948259867,-5.919898484319589
34,-5.3156171473496565,-8.124149972052125,-8.977103024020082,-6.9780515771249965
35,-6.270464215297803,-9.516007723431539,-10.416152757972451,-8.1331871696605
36,-7.3180484921367634,-11.021016856470267,-11.946691440456142,-9.376498731800398
37,-8.452468100457303,-12.62430271558823,-13.547870349088287,-10.695652672571292
38,-9.664868642622643,-14.306318124128921,-15.194161115196119,-12.07485897316708
39,-10.943437122539448,-16.043067240717072,-16.85584019148008,-13.49510163819525
40,-12.273517724832296,-17.80655467756803,-18.499718055613123,-14.934531568065355
41,-13.637853563805253,-19.565457582832916,-20.090097047639862,-16.369014955159543
42,-15.016951285959708,-21.286005214446472,-21.589926799990504,-17.772820352153452
43,-16.38955789798203,-22.933037261012228,-22.96211206508341,-19.1194179754424
44,-17.73323210611544,-24.471199724495808,-24.17091556449569,-20.382356419524857
45,-19.024986366959872,-25.8662265215456,-25.183389190001606,-21.536175454613346
46,-20.241971183212264,-27.086246969148156,-25.970761457540902,-22.5573095486551
47,-21.362170202181513,-28.103054687428177,-26.509707985144917,-23.42493562797598
48,-22.365073577391072,-28.893272636940686,-26.783435263777868,-24.121720604887873
49,-23.232297859476926,-29.43935216992752,-26.782515852493884,-24.634429218484847
50,-23.9481233172866,-29.7303510101167,-26.505425055741092,-24.954360309860412
51,-24.499923913914316,-29.762445606045052,-25.95874435374465,-25.077589148105027
52,-24.878471079797833,-29.539146745044505,-25.15701460165945,-25.00500425587836
53,-25.078099758056382,-29.071202874403383,-24.122241173085065,-24.742138807449344
54,-25.096733572772425,-28.376192305690054,-22.883072598155685,-24.29880849274417
55,-24.935774716486442,-27.477822297289347,-21.473692590309163,-23.688579028485904
56,-24.599872458564054,-26.404968807273303,-19.93248130187918,-22.928096433230753
57,-24.09659132172382,-25.190504457487812,-18.300514214435935,-22.036321045220504
58,-23.43600544243408,-23.869973108118405,-16.61997530520889,-21.033711449268818
59,-22.63024910916849,-22.480176838387376,-14.932564671379009,-19.941406562975523
60,-21.693054723034003,-21.057744729228045,-13.27797937867858,-18.78045282512506
61,-20.639308343333347,-19.63775254909258,-11.692540252336832,-17.57111875702884
62,-19.484649626458506,-18.252458330509437,-10.208027023919698,-16.332331527656727
63,-18.245137648061,-16.93021117660465,-8.850770574945603,-15.081260326909769
64,-16.93699725162063,-15.694579926239902,-7.641034851537286,-13.83306024175934
65,-15.576452702955404,-14.563735232542767,-6.5927035483600696,-12.600778801628868
66,-14.179647102139507,-13.550104039269419,-5.713269040849372,-11.395416157633399
67,-12.762637852842722,-12.660300370075635,-5.004104384559435,-10.226119687677608
68,-11.341451238339872,-11.89532178950785,-4.4609846519430185,-9.100485387999548
69,-9.93217343139445,-11.250987764537273,-4.074812188512264,-8.024932302185714
70,-8.551051508436158,-10.718585178660641,-3.832492276841624,-7.005112821368576
71,-7.214576436196586,-10.285677887696723,-3.7179013820154383,-6.046321033169888
72,-5.939520654976221,-9.937031683639715,-3.712889739829643,-5.153863294792307
73,-4.7429058372172035,-9.655603352079584,-3.7982631444813486,-4.333359582055869
74,-3.6418816123524684,-9.4235425435794,-3.9546950417442077,-3.5909505389784613
75,-2.6535032164140158,-9.22315769897256,-4.1635286829129745,-2.933392969557432
76,-1.794404594224086,-9.037802000754443,-4.407439499097249,-2.3680351593380458
77,-1.0803727130928171,-8.852641920309823,-4.670939122328154,-1.90267225168153
78,-0.5258379789818822,-8.655278987984097,-4.940713780739189,-1.5452903430854783
79,-0.14330396441041454,-8.4362044360217,-5.205800411148589,-1.3037154406031655
80,0.05725350740383806,-8.189075813398354,-5.457613030690694,-1.1851893935401792
81,0.06898305805978497,-7.910814009001418,-5.689839348683216,-1.1958989873600951
82,-0.11128709261114064,-7.601527851083028,-5.898232864993755,-1.3404864359648394
83,-0.4825728642578005,-7.264281188652061,-6.080328777497058,-1.6215697217790543
84,-1.0393719729034712,-6.9047238086782405,-6.235112799757453,-2.039299926734882
85,-1.7714460251761,-6.530612530969634,-6.36267077312558,-2.590980184853791
86,-2.6637710215594934,-6.151252259028405,-6.463843952113121,-3.270767371706238
87,-3.6966719391618796,-5.776888648464768,-6.539910617437195,-4.069473367032226
88,-4.846147459670584,-5.418084412020932,-6.592309628566544,-4.974477984121879
89,-6.08438062954924,-5.085110185014223,-6.622416233572469,-5.96976081045709
90,-7.380420951290059,-4.7873784159837856,-6.631375340894718,-7.036054515017223
91,-8.701013729382167,-4.532945082036352,-6.619992821420374,-8.151117780478428
92,-10.011544045869947,-4.328099362952458,-6.58868158416817,-9.290121994145911
93,-11.277056096042822,-4.177056024389454,-6.537456154930324,-10.426142229124173
94,-12.463304276456672,-4.0817594581691825,-6.465967444894575,-11.53073991082407
95,-13.537790617394656,-4.041802417812608,-6.373568198212968,-12.574621812779194
96,-14.470743854896776,-4.054456750052766,-6.259399363367429,-13.528357541342316
97,-15.235998399653138,-4.114808100272733,-6.122488181785835,-14.363135371668234
98,-15.811736428382385,-4.215981888850784,-5.961850114381244,-15.051534302315039
99,-16.18106302157578,-4.349444016601137,-5.776588533278656,-15.56828869282967
100,-16.332392374029293,-4.50535696283996,-5.565988077090922,-15.891021002699482
101,-16.25963214010682,-4.672970333955554,-5.329599417052859,-16.00091797097924
102,-15.962162453374187,-4.8410245925390205,-5.067314541804607,-15.883326067781516
103,-15.44461565012628,-4.998147628106324,-4.77943252464956,-15.528243284742246
104,-14.716471898359032,-5.133225929853926,-4.46671596268036,-14.930686521690461
105,-13.791494446312836,-5.235735208281805,-4.1304380927637325,-14.09091713965113
106,-12.687035597826233,-5.296019158802358,-3.772420043405752,-13.014511757627185
107,-11.423250311413383,-5.305509379810262,-3.3950569886406643,-11.712270980103812
108,-10.022258102936338,-5.256883936844008,-3.001331236283851,-10.199965294712635
109,-8.507295525417803,-5.144166382123179,-2.594809546989486,-8.497924591753641
110,-6.901900851974709,-4.962770875238982,-2.1796214396365503,-6.630485187766902
111,-5.229169749505325,-4.709502139991922,-1.7604148972097777,-4.625315281642249
112,-3.511115803723743,-4.382521121157065,-1.342286014006283,-2.5126457832818523
113,-1.7681630055019668,-3.981288270716638,-0.9306797259056491,-0.3244379528827353
114,-0.018789120086879198,-3.506496375054314,-0.5312600464599085,1.9064780228093388
115,1.720670306260015,-2.960003812466148,-0.1497500769485748,4.147258637669599
116,3.4360572536016343,-2.344777229385537,0.2082555246200852,6.3658632313098815
117,5.115275565411716,-1.664850032929168,0.5375002111555475,8.531800255216021
118,6.748043208678967,-0.9253000274524482,0.8332891886197569,10.616777973639763
119,8.325539198463337,-0.13224622188511548,1.0917163155291467,12.595239828579352
120,9.839977764882798,0.7071384399882533,1.3098815718029908,14.444771183565615
121,11.284145795757444,1.5846046621527954,1.4860851657036476,16.146370826658003
122,12.650940567016217,2.49080336141705,1.6199841912647286,17.68458716861872
123,13.932943345531788,3.415271531649829,1.7126987169575076,19.047525212350422
124,15.122060665191976,4.346438388193267,1.7668564039122592,20.226735680450542
125,16.20925902914243,5.271662349101547,1.7865680374104227,21.217001744414333
126,17.184410716058416,6.177307879925872,1.7773305628453249,22.016041268529857
127,18.03625874820837,7.048868678175285,1.745859159934267,22.624143216438977
128,-6.380191666884987e-10,-2.8595651194036645e-10,3.3083886983546736e-11,-3.801824801137784e-10
129,-9.41289701287501e-09,-6.296198617552686e-09,7.309399231218859e-10,-7.0507174543239426e-09
130,-1.0943132579782941e-07,-7.01302510597128e-08,8.113877584234463e-09,-8.033272212009673e-08
131,-8.094919905843433e-07,-5.177467197780665e-07,6.002657786186191e-08,-5.955130010488098e-07
132,-4.4947216852629785e-06,-2.8651926174579224e-06,3.3451862517950147e-07,-3.306567069000847e-06
133,-1.999478657129946e-05,-1.2719222127348202e-05,1.5030251087768845e-06,-1.4699110169326687e-05
134,-7.445581533174242e-05,-4.733557899965419e-05,5.688342917042774e-06,-5.466905395803029e-05
135,-0.0002394802955866683,-0.00015237729642157436,1.869534530739204e-05,-0.00017553386654897772
136,-0.0006811364942120721,-0.00043436624242633833,5.456709098289242e-05,-0.0004982010127008335
137,-0.0017450086570821668,-0.0011167436833850897,0.00014387013264340355,-0.0012732797650538354
138,-0.004086983112108692,-0.00262779293553923,0.00034725253145933925,-0.002974458115162436
139,-0.008858064135308397,-0.005727683905568929,0.0007755680466116817,-0.006429641525809457
140,-0.01794743176368218,-0.011679678802121434,0.00161714217014867,-0.012992479578153438
141,-0.034283148778869926,-0.02246743434987962,0.0031716619004886508,-0.024753552560518855
142,-0.06218462726307547,-0.04105667741741261,0.005888931916039879,-0.044786842508917464
143,-0.10775548528218457,-0.0716954756520947,0.010409603309924825,-0.07742323263015535
144,-0.1792993229510738,-0.12024279482850743,0.017604091074972666,-0.12853840681120907
145,-0.2877340981472622,-0.19450986537668563,0.028605263109611444,-0.20583751830038424
146,-0.4469731503197843,-0.30459300865538114,0.04483006295253652,-0.31911336559923764
147,-0.6742328681302945,-0.463170258444763,0.06798502398644013,-0.48044890640324306
148,-0.9902198061116236,-0.6857280195271972,0.10005072336004427,-0.7043297091809184
149,-1.419145095440927,-0.9906791508164048,0.14324070188336452,-1.007628602046704
150,-1.9885132832550307,-1.399331435147644,0.19993128112284175,-1.4094247488714127
151,-2.7286374269428784,-1.935666479094416,0.2725600284013024,-1.9306235060149892
152,-3.671843240832905,-2.6258944146023286,0.36349235148377396,-2.593352018722053
153,-4.851341855169843,-3.4977595668118755,0.47485788647652594,-3.4201181558668985
154,-6.299772551960666,-4.579586188848559,0.6083610066565956,-4.432736367391283
155,-8.047442112541265,-5.8990706307620995,0.7650728402721209,-5.651042365858587
156,-10.120314411281063,-7.4818457658475355,0.9452153518280775,-7.091438036604081
157,-12.537830786256745,-9.349863816559097,1.1479508318304368,-8.765327375213978
158,-15.310666345039643,-11.519663530914869,1.3711920074598625,-10.677522048302208
159,-18.43854810993509,-14.000605599198877,1.6114485114543393,-12.824710059557702
160,-21.9082758208282,-16.793174920474225,1.8637244841751952,-15.194091584997905
161,-25.692093923911507,-19.887458501769757,2.1214797830191543,-17.762291127873166
162,-29.746561973429536,-23.26191209800854,2.3766639544673054,-20.494653421232407
163,-34.01205927866736,-26.88252602492482,2.6198281240467653,-23.345021030817836
164,-38.41303713090727,-30.702490040306422,2.840315554806398,-26.256073772898795
165,-42.85909875485582,-34.66243845735279,3.026527066397573,-29.160284148915494
166,-47.24694421922746,-38.691330073582456,3.1662530803322504,-31.981509962962683
167,-51.46316739927491,-42.707984208741934,3.2470600782435426,-34.637206947460996
168,-55.387837621592425,-46.62325601861206,3.256716001286584,-37.041203005010566
169,-58.89874376528793,-50.34279376951563,3.1836367469575855,-39.10693450578013
170,-61.87612748031095,-53.77028077065034,3.0173345112114194,-40.751007259257634
171,-64.20768880548908,-56.811028125664976,2.748848324689217,-41.89691336736734
172,-65.79361562966115,-59.375754199652924,2.371137787907912,-42.47871292713479
173,-66.55137071016757,-61.384365144389974,1.8794227268310073,-42.44447842535744
174,-66.41996848672909,-62.76953990084223,1.2714541669564354,-41.759301039117204
175,-65.36348934883863,-63.479924035367915,0.5477054285867949,-40.407672392646134
176,-63.3736113450597,-63.48275002677978,-0.28852403583441794,-38.39508240298933
177,-60.47098684048224,-62.765726797729805,-1.23109551785053,-35.74871235196286
178,-56.70535184095129,-61.338077108492165,-2.271108311860528,-32.51715017397434
179,-52.15432476970957,-59.23064581237972,-3.397063568136991,-28.76910923604787
180,-46.920925025717345,-56.495052160064425,-4.5951080190311595,-24.591189221091202
181,-41.12991497433448,-53.20191211271661,-5.849348670518254,-20.084774382040617
182,-34.92313698481902,-49.43820854358943,-7.14222828036614,-15.362216409782826
183,-28.45407527176356,-45.30393487648711,-8.454951083227662,-10.54249273605793
184,-21.88191635729184,-40.90817800996716,-9.76794851151099,-5.746562964826194
185,-15.365409286459286,-36.364836720295486,-11.06137512168406,-1.0926640680105777
186,-9.056835446446552,-31.788190228465567,-12.31562502144531,3.308212301086422
187,-3.0963878977906094,-27.288537202872018,-13.511858375073027,7.3564295679761615
188,2.392767843669649,-22.968117959172492,-14.632525891980322,10.967199211426637
189,7.308523366965625,-18.917512696707604,-15.661876789734968,14.07329240605351
190,11.572775671357842,-15.212677751391983,-16.586433117808518,16.626854654075704
191,15.133188003863017,-11.912742250976226,-17.395411276822237,18.600262570583254
192,17.963726680283656,-9.058642001611569,-18.081070779637113,19.98601898454681
193,20.06400671031395,-6.672619078107808,-18.638971214264977,20.795737897910616
194,21.457543389768325,-4.758567717038903,-19.068121020928597,21.058320957169386
195,22.189062480082423,-3.303162837499068,-19.371005755858633,20.817468817954452
196,22.321064573612556,-2.277669525194154,-19.55348847232039,20.128701476356397
197,21.929867737829753,-1.6403021383189216,-19.62458025134133,19.056079722658502
198,21.101365335658638,-1.3389816039582874,-19.596084532721026,17.668824668736015
199,19.9267335869289,-1.3143294589897696,-19.482124744401723,16.038024315625513
200,18.498307060569324,-1.5027370487356873,-19.298570914972792,14.233596555761745
201,16.90581225524069,-1.8393572303254042,-19.062387439137993,12.321648902529587
202,15.23311229015149,-2.260882681807138,-18.79093054428341,10.36233912433155
203,13.555572814699827,-2.707997860241284,-18.501229469433497,8.408300906167888
204,11.938113879645677,-3.127418896512199,-18.209288891644995,6.5036578381311045
205,10.43396775706071,-3.4734652212378365,-17.929450805768127,4.6836103580633255
206,9.084121506501166,-3.7091364542388505,-17.67385137983688,2.9745462955578272
207,7.9173874754050315,-3.8066962027249613,-17.452002343154547,1.3945982109103259
208,6.9510168779234975,-3.7477893555783903,-17.270517858245366,-0.045448778192867224
209,6.191752014118936,-3.523140108686096,-17.132997652284327,-1.3410058901613315
210,5.6372022402053386,-3.13189358589788,-17.04006670258414,-2.4923957031022046
211,5.277426853703838,-2.5806741794468264,-16.9895621347721,-3.5035370236986956
212,5.096613791532075,-1.8824385748389216,-16.976849943609317,-4.380690983749635
213,5.074754686519806,-1.05520116553254,-16.99524789682543,-5.131342587645026
214,5.18923289771665,-0.12070492414315563,-17.03652638384371,-5.763271758577022
215,5.416259810514694,0.896897094255548,-17.091455884697314,-6.283846594510462
216,5.732114468801885,1.9722942905581329,-17.15036834590516,-6.699550620169151
217,6.1141611989209155,3.0801604310330095,-17.203700603386547,-7.015736533361611
218,6.541637955195183,4.196151009987426,-17.242491685423705,-7.236582321035572
219,6.996223940916633,5.297732750834537,-17.258812506549926,-7.3652123461101615
220,7.4624076665673,6.3648323752497795,-17.246115416859315,-7.4039367516917505
221,7.92768586387269,7.380301916039482,-17.199500732836164,-7.354557517763551
222,8.382629373738464,8.330207146596402,-17.11590575420114,-7.2186886820839815
223,8.82085489264935,9.20395327895483,-16.994227061294964,-6.998040981883064
224,9.23894142151561,9.99426720476082,-16.835387984878373,-6.694626949392748
225,9.63632765477303,10.697058234525235,-16.6423599805038,-6.310850934455552
226,10.015220656238457,11.311180453560846,-16.420140274572727,-5.8494598552388775
227,10.380536803064635,11.838120778857506,-16.175680383806643,-5.313344737836175
228,10.739883300971698,12.281638390219733,-15.917752757009188,-4.705199786725382
229,11.103574239631314,12.647383302311253,-15.656737025914575,-4.027063215948738
230,11.484661408227984,12.942523594392954,-15.404303583636548,-3.279780196217849
231,11.898948989761765,13.175411234357448,-15.172970254136157,-2.4624410210901555
232,12.36495438539633,13.355314809110924,-14.975507068837379,-1.5718555706311172
233,12.903774815098735,13.492243664269242,-14.824163817239997,-0.6021281414766451
234,13.53882033718628,13.596882564046792,-14.729694776155345,0.4556045051125419
235,14.29537651622244,13.680650272671087,-14.700156067482745,1.613212646651416
236,15.19996273714625,13.75589068779943,-14.739456539399082,2.8853359083896755
237,16.279454693427475,13.836201633836696,-14.84565659547738,4.288818788819157
238,17.55994426216646,13.936903085508042,-15.009032856800086,5.841777940591792
239,19.065320323102714,14.075641610002098,-15.209958095941278,7.562274540638114
240,20.815573599920977,14.273119774311759,-15.416680216084453,9.4665897863821
241,22.824857635872853,14.553928037965917,-15.583114520407369,11.56713641631612
242,25.09937376356106,14.947443471367983,-15.646784826259545,13.870080922253726
243,27.63518450577983,15.488746626803959,-15.527058916714434,16.37279372874121
244,30.416090735293547,16.219497391110608,-15.123823420548224,19.06128133932857
245,33.41172799919004,17.188704450207183,-14.31673547500683,21.907779942309475
246,36.57604394413349,18.453321642374995,-12.965176483394478,24.86870145898165
247,39.84631241798682,20.07860707173472,-10.909018330924695,27.88312073708821
248,43.1428227431532,22.13818569768694,-7.97029373213646,30.87197850084635
249,46.36935790316505,24.713761753697742,-3.9558375343791163,33.73815116108559
250,49.41454449443801,27.894433395945562,1.3390677140368834,36.367506807399465
251,52.154120559047634,31.77556920987453,8.126051826453331,38.63102639840262
252,54.454123914792326,36.457216041198066,16.618084032652945,40.38801927148553
253,56.17495279382417,42.04202139839269,27.023084254439837,41.49040223973824
254,57.1761935493237,48.632671972370034,39.53689070676584,41.78794329774679
255,57.32205013054075,56.32887210906714,54.33580426194942,41.13429829436732
256,-6.948182383828072e-10,1.166879593692921e-09,3.3970666305410553e-09,-8.838211633101846e-10
257,-1.2995208592001496e-08,2.426294267752409e-08,6.232535729038004e-08,-1.3379708102279788e-08
258,-1.476324319294778e-07,2.7097377979842405e-07,7.088559081738868e-07,-1.5549705089754475e-07
259,-1.090131917274631e-06,1.992915415585129e-06,5.232848083182077e-06,-1.143656195223588e-06
260,-6.035433448356768e-06,1.0985913433125995e-05,2.8995456390808652e-05,-6.317590932252356e-06
261,-2.6776532035011695e-05,4.855593984524782e-05,0.00012888351929790472,-2.7968953367640408e-05
262,-9.947261033323573e-05,0.0001798227645552308,0.0004802225958239928,-0.0001036866006425009
263,-0.00031927625190448323,0.0005757605187840681,0.0015476561429378685,-0.0003321617364389784
264,-0.0009065012648844774,0.001631710729256379,0.0044166049700965675,-0.0009414299464711192
265,-0.002319128028099264,0.004168943296154922,0.011367123881163645,-0.0024047202368111314
266,-0.005426087213045089,0.009745224978242113,0.026776006442478295,-0.005618676687812368
267,-0.01175294329311419,0.021094892973413285,0.05842408359939344,-0.012155951071786707
268,-0.023806740481786236,0.04270946131638518,0.1192639440866416,-0.024599217104421936
269,-0.0454808404749513,0.08155809127031322,0.22967273098127403,-0.04695767130286279
270,-0.08253392509261215,0.1479345979886674,0.42017736070307665,-0.08516012939783534
271,-0.14313012216542415,0.25640456310662074,0.7345974022516899,-0.14761124120050184
272,-0.23841896908003662,0.42681195680303663,1.2335020725643238,-0.24578847923942426
273,-0.38312439052177377,0.6852886920331793,1.9978213670656262,-0.3948473281106354
274,-0.5961010319447351,1.0651925350261366,3.13238617284509,-0.6141906006096558
275,-0.9008047789083278,1.6078798561529566,4.769101839863455,-0.9279456818068639
276,-1.3256137432948338,2.363202532756404,7.069391432638564,-1.3652826523936812
277,-1.9039284257812952,3.3896065070242942,10.225489382444671,-1.9604984611610394
278,-2.67397764917458,4.753707126007245,14.460136737378564,-2.752790237014767
279,-3.6782618604621264,6.52922657799711,20.024236256833166,-3.7856458421993016
280,-4.962578511339402,8.795203322053348,27.1920778497576,-5.105793144263689
281,-6.5745950295094575,11.633422052425875,36.25384412834247,-6.761670768809411
282,-8.561962413371127,15.125063405988909,47.505250310514896,-8.801411785342955
283,-10.96999486423388,19.34663164096365,61.23435435703408,-11.27036596918736
284,-13.838976204550312,24.365281460040187,77.70578235278931,-14.20822424442327
285,-17.20118980182939,30.23372740498745,97.1428377640903,-17.645848013237323
286,-21.0778030163847,36.9849762231008,119.7081874597674,-21.60194370834509
287,-25.47576749908837,44.62717020163732,145.48402748994252,-26.07975648882874
288,-30.384920375746294,53.138863648607646,174.45281067968776,-31.063983414060505
289,-35.77548605056183,62.465071908374775,206.47975014520776,-36.518123198590374
290,-41.59618140351509,72.51442911082444,241.2983807718872,-42.38248370536601
291,-47.77311669827669,83.15776470668081,278.5004512338287,-48.573057907672855
292,-54.20965930743942,94.22835810998274,317.5313213463427,-54.98145255075045
293,-60.787387654449006,105.52405580330381,357.69184990990857,-61.47601153207743
294,-67.36820973808787,116.81133845010011,398.1474784941049,-67.90421892417632
295,-73.7976569110095,127.83131197901226,437.94485793630315,-74.09639742547648
296,-79.90929272952398,138.30747339427026,476.035943988075,-79.87064027064457
297,-85.5301034040095,147.95497816942174,511.3090319422025,-85.03883341497706
298,-90.4866659789981,156.4910211555711,542.6257374368457,-89.4135458978813
299,-94.61182827854813,163.6458464156478,568.8624948310485,-92.81549558834138
300,-97.75158602068059,169.1738317562891,588.9547694862586,-95.0812409932906
301,-99.77181127670667,172.86405737816884,601.9418953942126,-96.07071185910169
302,-100.56447568360223,174.54976920477293,607.0102803694497,-95.67417585929851
303,-100.0530228963737,174.1161872960783,603.532683783145,-93.81824751391912
304,-98.19657790690789,171.50618689074693,591.101375709823,-90.47057956218981
305,-94.99273440290517,166.72348968464192,569.5532292868052,-85.64293473307413
306,-90.47873251676957,159.8331393699372,538.9851699549662,-79.39241471544054
307,-84.73092382894058,150.95918954690632,499.7588851073227,-71.82071834715651
308,-77.86251340658563,140.2796938830792,452.4942580615997,-63.071407303922214
309,-70.01966411674903,128.0192471385968,398.0515963322025,-53.325268080513894
310,-61.3761402632972,114.43947054435516,337.50333763308714,-42.793966678592085
311,-52.12674964500021,99.8279560678975,272.0964986363276,-31.712290082710307
312,-42.47990972667043,84.48627265263687,203.20764255097154,-20.329349399810013
313,-32.64971050840596,68.71768732509021,132.29254936805185,-8.899178438233971
314,-22.847870794233494,52.81526148049557,60.83304987525045,2.3288056589009
315,-13.275984747190194,37.050947438612276,-9.716385170998551,13.11900796606335
316,-4.118432057365605,21.66623530017512,-77.97973377812272,23.25807883209793
317,4.4637200961784576,6.864791238392149,-142.70579695946734,32.56215492189149
318,12.337558478381803,-7.192606114078739,-202.80777758576636,40.882590808850104
319,19.401720566927448,-20.390674454217812,-257.394407589724,48.10994329612698
320,25.588243495690747,-32.65977952300337,-305.79147555735625,54.176072037941005
321,30.862849368104925,-43.9737756662353,-347.5531630676776,59.05432634301781
322,35.22373545360707,-54.34581291433384,-382.46316519580546,62.75789246214368
323,38.699013989064674,-63.822495281456995,-410.5261120349485,65.33647176559188
324,41.34300986133982,-72.47685095595114,-431.9502900486566,66.87154188233812
325,43.23167219005004,-80.40061641385446,-447.1230580881587,67.47051594686944
326,44.457385661616904,-87.69634216154567,-456.5806425714056,67.26015628230607
327,45.12347900205608,-94.46979960077174,-460.9741694691171,66.37961726538741
328,45.3387217744845,-100.82311037900764,-461.03384427764723,64.9734876851603
329,45.21207869876911,-106.84893769481603,-457.53313184050626,63.18517772827605
330,44.847955425675174,-112.6259807182292,-451.25462776518907,61.15095239171263
331,44.34212459511318,-118.21590680364116,-442.959071402979,58.99485596296738
332,43.77846948453159,-123.66174975713291,-433.3586481805932,56.82470541563513
333,43.226628185916574,-128.98770367936348,-423.0953908397743,54.72925902993684
334,42.74056729110363,-134.20015740460073,-412.7251389511106,52.776594795246524
335,42.35806345511845,-139.28974903609324,-402.70717647303786,51.013665308861064
336,42.101026748802404,-144.23417660546338,-393.3993589767356,49.46693606652986
337,41.97656337488057,-149.00148036725875,-385.05828066115794,48.14396488439507
338,41.9786485666085,-153.55351401710888,-377.8438280860711,47.03574400619856
339,42.09026352665054,-157.84934377705585,-371.82732702065067,46.11960364086553
340,42.285842819541614,-161.84835240785978,-367.00241178098963,45.3624664451082
341,42.533879578984276,-165.51287524923967,-363.29772783887665,44.724245516099096
342,42.799544134702195,-168.81025248017323,-360.5906118708826,44.16119267964511
343,43.04718564925976,-171.71424076416412,-358.7209685261075,43.62902687180416
344,43.24260483903033,-174.20578348303448,-357.5046701682953,43.08570227712416
345,43.35500739064476,-176.2731877732462,-356.7459326211726,42.493709829017725
346,43.35857128661381,-177.9117953314408,-356.2482562471565,41.821841763203
347,43.23358581218611,-179.1232606147871,-355.8236571916347,41.04638490589886
348,42.96714449051376,-179.91456382675162,-355.3000403216165,40.151742474772995
349,42.55339754518153,-180.29688755260545,-354.5266777918331,39.13051492915523
350,41.99339055761356,-180.28447645380606,-353.37785106323395,37.98309624917883
351,41.29453413592664,-179.89358133570911,-351.75478889713537,36.71686247965791
352,40.469763994191055,-179.1415646739776,-349.5860886412063,35.345043630854285
353,39.53646173414965,-178.04621713007467,-346.8268451458612,33.88537833879881
354,38.51521348636004,-176.6253063699445,-343.4567320837667,32.35865277742985
355,37.4284864765074,-174.89635299482129,-339.47728748986424,30.787221931787727
356,36.29930245527312,-172.8766057139004,-334.9086505298348,29.19360277258241
357,35.14998218076814,-170.5831704529494,-329.78598293393435,27.599216425101666
358,34.001026953806225,-168.03323697433592,-324.15578735986554,26.02334071027027
359,32.870192105581516,-165.24434204856445,-318.0723087764588,24.482316779629276
360,31.77179361607046,-162.23461018759647,-311.59417469341923,22.989034585436276
361,30.716273505595822,-159.02292061914133,-304.78139763878517,21.552702811672482
362,29.71003302879335,-155.62896152023225,-297.69282999372103,20.17889061258608
363,28.755526067771413,-152.07314803847754,-290.3841280119461,18.869811822799928
364,27.851589405603157,-148.37639768277936,-282.9062503654813,17.624808317998593
365,26.993972604534818,-144.5597736121321,-275.3044869969968,16.44097827173499
366,26.17601906371934,-140.64402149333364,-267.6179880214356,15.313888263603284
367,25.389442228491337,-136.6490376737542,-259.8797396885086,14.238305755172025
368,24.625137695403954,-132.59331431517194,-252.11691637703797,13.208890974663618
369,23.873973166297752,-128.49341043349654,-244.35152391832705,12.220794058203591
370,23.127503713020403,-124.36349632663664,-236.6012415829886,11.270114015542529
371,22.378568772849952,-120.21501315816674,-228.8803673643533,10.354189359876548
372,21.621738910700138,-116.05648012673181,-221.20077476930476,9.471705344897426
373,20.853593538586427,-111.89346975483045,-213.57279813697681,8.622618438080126
374,20.072824429871805,-107.72875834284574,-206.00597777168306,7.807913894425752
375,19.280173092068807,-103.56264470194691,-198.50961403366492,7.029226190708508
376,18.47822192585129,-99.39341696026455,-191.09310026505992,6.28836337050449
377,17.671069098200626,-95.21793548955374,-183.76602588731802,5.5867845972388155
378,16.863924475676416,-91.03229081430317,-176.538061673348,4.925084477323149
379,16.06266828738656,-86.83248937834526,-169.41865747456373,4.302537770515292
380,15.273414847981213,-82.61511787345106,-162.4165972195347,3.7167536688169993
381,14.502120435004153,-78.37793867097808,-155.53946586370424,3.1634800911359475
382,13.754267546945579,-74.12037469066033,-148.7930878172727,2.6365860834183557
383,13.03464802625309,-69.84385133595887,-142.1809963916436,2.128235497556151
384,-1.0479196130354281e-10,-2.7283065156658576e-10,-6.732444258829849e-10,-9.710992342693229e-11
385,-2.31540529887088e-09,-5.159213553611687e-09,-1.1066668117366754e-08,-2.170116966741787e-09
386,-2.5820581830024544e-08,-5.790453974042211e-08,-1.2555876404509835e-07,-2.43245141391984e-08
387,-1.9021991525297444e-07,-4.265026545315284e-07,-9.249451114186806e-07,-1.7988429366640275e-07
388,-1.045537028962027e-06,-2.3566106993251683e-06,-5.118433597739872e-06,-9.912194693174005e-07
389,-4.589240333981013e-06,-1.0445884485418033e-05,-2.273303013444914e-05,-4.356855707371692e-06
390,-1.6813298024266242e-05,-3.881940256688661e-05,-8.468096460278234e-05,-1.5970156850142247e-05
391,-5.306428657135381e-05,-0.0001248012531198991,-0.0002729805435465341,-5.0399394409572144e-05
392,-0.00014777887863440028,-0.0003553588244632185,-0.0007796112339092904,-0.000140302893786222
393,-0.00037011320232874744,-0.0009127798505554724,-0.002008986604715555,-0.00035123207133495486
394,-0.0008466129921209509,-0.002146367404293455,-0.004740199571495253,-0.0008031727287693292
395,-0.001791541826445332,-0.004676264001443389,-0.010364150629888472,-0.0016995197549127886
396,-0.0035450021424021424,-0.0095339059690892,-0.021207180107310368,-0.0033636905408526902
397,-0.006618640998399128,-0.01834138314492057,-0.040947357987130686,-0.006283079182933809
398,-0.011748475113468819,-0.0335293468792358,-0.07512235513796767,-0.011159491949202823
399,-0.01995407757303341,-0.0585901860827371,-0.1317193618396225,-0.018964581176715095
400,-0.032602933103470656,-0.09835979753907652,-0.22182789494165758,-0.030998162914437202
401,-0.05147810881068163,-0.15931722356357894,-0.360325865376217,-0.04894669412229077
402,-0.07884642766447722,-0.24988655542547336,-0.5665579764993771,-0.07493853180043249
403,-0.11752306510615793,-0.3807199969230805,-0.864953888387366,-0.11159181198581301
404,-0.17092706656849077,-0.564935401859247,-1.2855224474886207,-0.1620499182151815
405,-0.24312102721707787,-0.8182768118006652,-1.8641489672046498,-0.2299988038473176
406,-0.3388274381521157,-1.1591635917451846,-2.642617075088418,-0.31966021504763564
407,-0.4634141785585483,-1.6085935724215206,-3.6682769206143697,-0.43575532583019794
408,-0.622842310505212,-2.189868797787611,-4.993289574762659,-0.583434434909945
409,-0.8235705981454883,-2.928119162284039,-6.673394132473603,-0.7681700601352613
410,-1.0724129425829172,-3.8496091885279515,-8.76616943446531,-0.995612881412331
411,-1.3763471425212859,-4.980825832905436,-11.328794887123356,-1.2714124126026687
412,-1.7422759692799787,-6.347359808226138,-14.4153522135278,-1.6010068421676273
413,-2.176744330479014,-7.9726086441611725,-18.073748831327375,-1.9893889038906278
414,-2.6856191641027602,-9.876345719520755,-22.342380689850035,-2.44085666941652
415,-3.2737416205702523,-12.073214891230698,-27.246685111500415,-2.9587596649409487
416,-3.9445640736743792,-14.571224042762838,-32.79576024571712,-3.5452516952704833
417,-4.699787486771148,-17.370321770437748,-38.97924575838817,-4.201062243996274
418,-5.5390174102081815,-20.461148277134363,-45.76466769366814,-4.9252983231312655
419,-6.459459040038366,-23.824053263870905,-53.09544761479836,-5.715288179955846
420,-7.455672942853236,-27.428469253574296,-60.88976035114145,-6.566477341549666
421,-8.519412907956726,-31.232717867808244,-69.04039504071407,-7.472386054934591
422,-9.63956563122296,-35.184309057228624,-77.41573058566632,-8.424635136983783
423,-10.802208376831292,-39.22076979703212,-85.8618811179003,-9.413044440977473
424,-11.990795437433446,-43.27101046740788,-94.20600307723218,-10.425804584424025
425,-13.186477474267624,-47.257205800887796,-102.26068818112425,-11.449718558140333
426,-14.368550260967975,-51.09713500026956,-109.82930153560822,-12.4705058650393
427,-15.515021619522377,-54.70689468751012,-116.7120665490209,-13.473158444728771
428,-16.603277939380394,-58.0038710343645,-122.71265234174754,-14.442335167112068
429,-17.61082499013521,-60.909835752256726,-127.64498740052741,-15.3627802174305
430,-18.516072111801176,-63.35401630147719,-131.34000683461377,-16.219750165331245
431,-19.299124629950544,-65.2759848869459,-133.65204008317883,-16.99943473500716
432,-19.942546795766127,-66.62821426200796,-134.46456136156954,-17.689357061052736
433,-20.432056908843137,-67.37816112804526,-133.69505550023257,-18.278740325580472
434,-20.757117723860855,-67.50975955365563,-131.2987954919552,-18.758829016048086
435,-20.911388951277615,-67.02423621846445,-127.2713818679298,-19.12315462088243
436,-20.893014748596958,-65.94019478882205,-121.64995408379754,-19.367737435292927
437,-20.70472740881127,-64.29295616243132,-114.51304565515217,-19.491218241118432
438,-20.3537584567686,-62.13318213447635,-105.97911322466425,-19.49491579556579
439,-19.851559235840842,-59.52484953655254,-96.20382120306132,-19.382808150793576
440,-19.213343919444632,-56.54267739054005,-85.37620517356353,-19.16143778774506
441,-18.457477949513805,-53.26913879040893,-73.71386765180506,-18.839742466571543
442,-17.60474356182725,-49.791210181544955,-61.457378813958314,-18.42881563759121
443,-16.67752076319238,-46.19702226760921,-48.86406372002277,-17.941602164494597
444,-15.698926398894653,-42.5725783490799,-36.201358122683466,-17.392536838814486
445,-14.69195546996404,-38.998697647798195,-23.739909764755783,-16.797134615542806
446,-13.678667540479738,-35.5483237985292,-11.746593542701733,-16.171542698436465
447,-12.679457067147153,-32.28431354704286,-0.477599506590336,-15.53206565788638
448,-11.712440114751756,-29.257789568943846,9.828255775968433,-14.894675773414932
449,-10.792981689095622,-26.507106462932345,18.955850348861162,-14.274521824018224
450,-9.933378500766604,-24.057442838204846,26.71957014587691,-13.685450641579088
451,-9.142702190125599,-21.92099746954285,32.968475692261585,-13.139556880598406
452,-8.426798699064909,-20.097736021243936,37.59068391944294,-12.646777475696597
453,-7.788431178734355,-18.5766086302591,40.51682756851483,-12.214547807947044
454,-7.227546954165163,-17.337139031871732,41.722458187395915,-11.847536256296326
455,-6.7416438711462465,-16.351273613088004,41.22926741517296,-11.547472284579523
456,-6.326208046512452,-15.585374050435862,39.10501785379671,-11.313080481278995
457,-5.97519377897662,-15.0022397131331,35.46210125746939,-11.140129212316154
458,-5.681517120141565,-14.563055113362816,30.45467934812059,-11.021598002111366
459,-5.437537077706755,-14.229172224705872,24.274410994873506,-10.94796263785182
460,-5.235502207379185,-13.963656123370523,17.1448273886816,-10.9075915201919
461,-5.067945011344553,-13.732543562209008,9.314481169242052,-10.88724125172122
462,-4.9280116959164095,-13.5057861692871,1.0490621002269647,-10.872634173000032
463,-4.809720021963442,-13.257871456206784,-7.377264048616336,-10.849095762043994
464,-4.708142754475734,-12.968134331298835,-15.690980685584304,-10.802225669354067
465,-4.6195181969961645,-12.6207882835203,-23.62845367224771,-10.718572864860485
466,-4.541292277459086,-12.20471802622666,-30.944890699442205,-10.58628326174647
467,-4.472098626046562,-11.71308380438702,-37.422638920729725,-10.395687657807496
468,-4.411684144858129,-11.142791680450149,-42.87844923385423,-10.139799188554962
469,-4.360787853517569,-10.493884224275558,-47.169373945412985,-9.81469276066913
470,-4.320980514202226,-9.768902601648323,-50.19702376307732,-9.419743962445548
471,-4.294472024250318,-8.972264803275948,-51.90998690669467,-8.95771145695576
472,-4.283893198585111,-8.10969643217581,-52.30430325644069,-8.434654541262988
473,-4.292058629624722,-7.187740923899934,-51.42198413586886,-7.859686023333441
474,-4.321717874028728,-6.21336611155044,-49.34766731883657,-7.244569371556682
475,-4.37530313487351,-5.193674362199915,-46.2035909103152,-6.603177735248876
476,-4.454682655361111,-4.1357147138254495,-42.14315287481241,-5.95084042538984
477,-4.560929974279851,-3.0463879114622623,-37.34339032422405,-5.303609283463233
478,-4.694119763420166,-1.9324292999051857,-31.996760121073454,-4.677482509194797
479,-4.853160927172956,-0.800450305733551,-26.302627457486913,-4.0876264501321575
480,-5.035676814497294,0.34298314149157977,-20.458870525156165,-3.5476362620378223
481,-5.237940757186337,1.4912574874870745,-14.653987879130057,-3.068874269022746
482,-5.454872845754668,2.6376248223458942,-9.06005255633039,-2.659920630696116
483,-5.680101081785206,3.7751409967503746,-3.8267971687832296,-2.326164992346476
484,-5.906086927501247,4.896643174385293,0.9229584465426744,-2.06956045223508
485,-6.124311857571316,5.9947767191144035,5.096405470334054,-1.8885525759972208
486,-6.325517871719867,7.062076166418059,8.632320667664194,-1.7781864784366463
487,-6.499991245579158,8.091099842832586,11.50114660510709,-1.7303845525966262
488,-6.637875433816246,9.074612839807445,13.703678118840843,-1.7343769369142794
489,-6.7294964327875695,10.005808812931196,15.268516046817428,-1.7772571933431283
490,-6.765682502390844,10.878557724210149,16.24849625569903,-1.8446278970402439
491,-6.738060282242134,11.687664254310755,16.71633450543421,-1.921295712617146
492,-6.639311164792808,12.429120252694844,16.759745249090464,-1.9919735003602215
493,-6.463375149811723,13.100334202902129,16.47629588406424,-2.0419480570714734
494,-6.205593833525114,13.700321287770654,15.968248423737526,-2.057675869809539
495,-5.86278904354058,14.229839217373597,15.3376200375503,-2.027275182638085
496,-5.433278352491326,14.691457583037586,14.681664271187529,-1.94089023549224
497,-4.916832951519309,15.089552025524146,14.088938347715894,-1.7909123593019853
498,-4.314586985299691,15.430218818713273,13.636080900388336,-1.5720523751017172
499,-3.628910322676724,15.721110252262426,13.385381317945535,-1.2812689786589087
500,-2.8632586686683505,15.971196059963683,13.38317906190834,-0.9175678221705333
501,-2.022015711220739,16.190460677813437,13.65909111022241,-0.48169505035293353
502,-1.1103415280624889,16.389549907234873,14.226030168426641,0.02424362534912917
503,-0.13403978754139811,16.57938336939397,15.08094655355507,0.5972022279863292
504,0.9005465145477786,16.770750800772117,16.20620335066205,1.2336138973729238
505,1.9866047391828696,16.973910829815413,17.571477177470108,1.9297729412795068
506,3.1168859786918914,17.19821047726125,19.13606522349715,2.6821461457773337
507,4.283704873760394,17.45174243451529,20.8514724707378,3.4875867434562156
508,5.47891275165858,17.741055280985236,22.664150902534473,4.343433439404807
509,6.69385426649124,18.07092930276084,24.518265083786467,5.247487296106328
510,7.919319899237441,18.44422751713143,26.358365865233086,6.197870205401324
511,9.145507597927503,18.861827970525454,28.131866028911404,7.19277920840365
512,-1.7404161982453362e-10,-1.5999300858320376e-10,-3.5616068737190007e-10,-1.928389164771702e-10
513,-3.647983249106767e-09,-2.772530483995801e-09,-2.828807380286658e-09,-3.0625605298685386e-09
514,-4.0361303222463715e-08,-3.135180494269502e-08,-3.538529840092193e-08,-3.411560525842101e-08
515,-2.948442027969754e-07,-2.3105982602645785e-07,-2.605042296834149e-07,-2.4735815420929585e-07
516,-1.6092650435735198e-06,-1.278099445012218e-06,-1.4507044798402338e-06,-1.3374074089173287e-06
517,-7.027444129331373e-06,-5.6714635062221736e-06,-6.489205565133534e-06,-5.788958086107901e-06
518,-2.566246585610282e-05,-2.109889096163675e-05,-2.4354816737807462e-05,-2.0960010341310408e-05
519,-8.088443828825536e-05,-6.79028244566391e-05,-7.91485908927049e-05,-6.553788642077171e-05
520,-0.00022536664289710294,-0.00019354825630512034,-0.00022796377684521896,-0.00018129103553573178
521,-0.0005656679213527309,-0.0004976677448696199,-0.0005925852844545135,-0.0004521827430779029
522,-0.0012986839893371184,-0.001171471160348178,-0.0014105937643162896,-0.0010327384274024316
523,-0.0027616008423831297,-0.002554997422651706,-0.003111438522429969,-0.002187218213213609
524,-0.005496086139322792,-0.005214865598244636,-0.0064221268659321335,-0.004340636417405729
525,-0.01032645075548363,-0.010044012969331688,-0.01250568774771734,-0.008142011179802726
526,-0.018450360268067963,-0.018383446198119876,-0.02313341766593626,-0.014539267434465635
527,-0.031539331979909685,-0.03216432149022263,-0.04088946472373163,-0.02486399401451832
528,-0.051844686689681944,-0.054066605626150614,-0.06940332088301249,-0.04092278084285242
529,-0.08230285203394082,-0.08768811673030343,-0.11360242645447866,-0.06509024260419853
530,-0.12663197546719443,-0.13771488553707475,-0.1799730458653548,-0.10039710061490802
531,-0.1894098401702011,-0.21008069612462654,-0.27681300819573457,-0.1506048900432426
532,-0.27612142496386527,-0.3121006740107374,-0.41445508944259996,-0.2202572602760135
533,-0.3931635593533954,-0.4525613025152702,-0.6054352475537451,-0.31469674812202925
534,-0.5477944156052021,-0.6417477603106695,-0.8645766360374445,-0.44003575517999677
535,-0.7480172090438117,-0.8913893731462832,-1.2089589533094451,-0.6030713959150525
536,-1.0023903822919147,-1.2145056215790873,-1.6577441649386118,-0.8111359993579873
537,-1.319760531217962,-1.6251386917350796,-2.231834083149413,-1.0718782278897343
538,-1.708919219528992,-2.137964048982,-2.9533429342185693,-1.3929740057612878
539,-2.1781904190991894,-2.767777738204489,-3.8448783054828803,-1.781771505983791
540,-2.7349612975625335,-3.528867712747575,-4.92863632142182,-2.244880070395334
541,-3.3851750298156507,-4.4342858840343355,-6.225330632444944,-2.787718666818057
542,-4.132809767726791,-5.495047098613439,-7.752988990091079,-3.414044891801839
543,-4.979372470457778,-6.71929020714336,-9.525665117438644,-4.125490275563273
544,-5.9234395904375425,-8.11144408753006,-11.552126272576519,-4.921131340439747
545,-6.9602782238084115,-9.671447319129038,-13.834587715378543,-5.79712813267412
546,-8.081580808060561,-11.39407353297387,-16.367572971653477,-6.746462211283313
547,-9.275343449658289,-13.268414764090325,-19.136982456865148,-7.758803966285673
548,-10.52591237946741,-15.277571922145622,-22.119451348267688,-8.820534399153422
549,-11.814215061518745,-17.398594560696676,-25.28207002674581,-9.914939297034964
550,-13.118182516372528,-19.602701454618927,-28.582526423829737,-11.022584330888083
551,-14.413358042919445,-21.855799494688668,-31.969709821579027,-12.121868571575865
552,-15.673675469511512,-24.119301770088388,-35.38479091879892,-13.189741882476747
553,-16.872378218246133,-26.351227483637132,-38.76276503778479,-14.20255951815636
554,-17.983039757152486,-28.50754776884471,-42.03441611336703,-15.137035990934768
555,-18.980637231747405,-30.5437238755343,-45.12863049197082,-15.971250743124651
556,-19.84262382879189,-32.416368924725,-47.974963708710035,-16.685651214069313
557,-20.549942184876027,-34.08495270795069,-50.50634187853283,-17.263995116192735
558,-21.087921317036898,-35.51346191111569,-52.661764021506414,-17.694173744760246
559,-21.44700338121045,-36.67192640330526,-54.38886372319541,-17.968862214141108
560,-21.623254078693186,-37.53772625341652,-55.64618931172199,-18.08595068000497
561,-21.618621378054083,-38.09660380621024,-56.40507148926533,-18.04872237035612
562,-21.44092077157293,-38.34331997683703,-56.650966157995626,-17.865758901152265
563,-21.103540706637347,-38.28191295848667,-56.384186868901885,-17.550569915112952
564,-20.62487815716106,-37.92553958942899,-55.619974484120576,-17.12096149460787
565,-20.027530418975374,-37.29590323508436,-54.38788899418855,-16.598174900336222
566,-19.337283908740456,-36.422295652991934,-52.73054749770567,-16.005842663037892
567,-18.58195290483112,-35.340302365611336,-50.7017706120717,-15.36882177645381
568,-17.790129932498782,-34.090240062221596,-48.36423429200851,-14.711972673377105
569,-16.98991438538325,-32.71540925663421,-45.78675310732581,-14.058957183131577
570,-16.207686771780864,-31.26025484869315,-43.04134228193371,-13.431128252431199
571,-15.466992685200779,-29.768530834832124,-40.20021797229837,-12.846578731441351
572,-14.78759342528207,-28.281562992728734,-37.33289718814073,-12.319406099722633
573,-14.184729651222487,-26.8366952292706,-34.503550411175645,-11.859235380623133
574,-13.668631306505292,-25.46599205205325,-31.768741608326366,-11.471024774099648
575,-13.244292250662157,-24.19525234566792,-29.175663497552716,-11.155159197825508
576,-12.91151251407542,-23.043369568205268,-26.760942421586726,-10.907817450309533
577,-12.66519577218723,-22.022052140367805,-24.55004970311571,-10.721580506155039
578,-12.495875476360974,-21.13589673554354,-22.557317708754127,-10.586232919254286
579,-12.390431040398393,-20.382787853316028,-20.786521767520057,-10.489697538119522
580,-12.33294643181342,-19.754580737901215,-19.231956338037875,-10.419036573411715
581,-12.305657989476705,-19.238012237464837,-17.87990727639848,-10.361449716089254
582,-12.289936448109833,-18.815776115971953,-16.710403509606685,-10.305202398389891
583,-12.26724980022349,-18.46769570535379,-15.6991215636238,-10.240423970268665
584,-12.22005837632699,-18.171927461653173,-14.81931578241928,-10.159726100880375
585,-12.132600795795856,-17.906133478031553,-14.043655115801517,-10.058605388315305
586,-11.99153854449093,-17.648568692135026,-13.345863283272536,-9.935610104785567
587,-11.786437118079935,-17.379038555290578,-12.702081092368413,-9.792268025325342
588,-11.510072271534552,-17.079694426078195,-12.091895855779743,-9.632789149182031
589,-11.15856040729652,-16.735645963902076,-11.499010820149929,-9.463572655366233
590,-10.73132199378129,-16.33538146872133,-10.91155506275541,-9.292560446086096
591,-10.230895527044073,-15.8709977241526,-10.322059474357951,-9.12848911238299
592,-9.662626248224335,-15.338249874943635,-9.727145298507013,-8.980097200228476
593,-9.034258130486965,-14.736438911437897,-9.126987171267027,-8.855345004145208
594,-8.355459441328023,-14.068159297441193,-8.524621654346022,-8.760700061598527
595,-7.637311776782009,-13.338932282453973,-7.925174842515442,-8.70053403427037
596,-6.891790340759562,-12.556751672691219,-7.335078751323183,-8.676666791992767
597,-6.131259930521356,-11.731568652723286,-6.761336831182945,-8.688082350300386
598,-5.368007023640189,-10.874740981739462,-6.210885135644861,-8.730829618545872
599,-4.613823925499124,-9.998469942312225,-5.690079189143194,-8.79810935971044
600,-3.8796564160532467,-9.115246093953656,-5.204319388247643,-8.880537836560592
601,-3.175321892917695,-8.23732244795084,-4.757811725530092,-8.966567704853095
602,-2.5093007366844,-7.376231272821469,-4.35344767067683,-9.043038264948102
603,-1.8885996202859796,-6.542358415977922,-3.9927781204361206,-9.095820596224108
604,-1.3186819842201642,-5.744586764332664,-3.676052136631922,-9.110518926532388
605,-0.8034581828639105,-4.990018215963771,-3.402291244288712,-9.073188115745147
606,-0.3453260901668936,-4.283781169937747,-3.169373862264635,-8.971028436460946
607,0.05474777692175029,-3.628927989386948,-2.9741107987957913,-8.7930224731137
608,0.39711646277983825,-3.0264240299124214,-2.812300915480604,-8.530484359455151
609,0.6833192682129052,-2.4752266638857354,-2.6787650331236907,-8.177497979228884
610,0.9159350230016781,-1.9724493099409606,-2.5673650686472347,-7.7312276103210795
611,1.0984287470110774,-1.5136019671333507,-2.471023407032026,-7.192091270705785
612,1.2349972249567398,-1.0928963458832441,-2.38176340305994,-6.563793367310835
613,1.3304178607527029,-0.703600565205889,-2.2907949352795933,-5.853218994250373
614,1.3899041809027692,-0.33842576792848583,-2.188668126963672,-5.070197322405242
615,1.4189704325113237,0.010074949715853935,-2.0655136332543638,-4.227146136804191
616,1.4233068092756775,0.34911595392672035,-1.9113793103684542,-3.338613716706932
617,1.4086659476868872,0.6853174971865822,-1.7166615948425215,-2.420737923202338
618,1.3807605745729608,1.024392578141499,-1.4726168806632276,-1.490645346762683
619,1.3451716189674865,1.3708991668584993,-1.1719252125711033,-0.5658155870643704
620,1.3072657421321885,1.728070979863101,-0.8092676822652417,0.3365629779763574
621,1.2721210479434364,2.0977352265269245,-0.38187126678390215,1.2002192380626002
622,1.244459723203431,2.480320261869208,0.11002833111658089,2.0103812435809907
623,1.2285865286427577,2.8749503108716166,0.6628538984893259,2.754289696811429
624,1.2283324080450484,3.2796188271914115,1.269526038760015,3.421621439136252
625,1.2470029175084407,3.6914270199203805,1.9195068213047306,4.004804656758187
626,1.2873316418066958,4.1068699943148195,2.5990667776177947,4.499211491698656
627,1.3514392498982057,4.522150011476102,3.2917788357478193,4.903218344576417
628,1.440799374980712,4.933494766779249,3.9792258943562238,5.218129594255205
629,1.5562130508386625,5.337458366210957,4.641891652162627,5.447966698839539
630,1.697793838606536,5.731183909904136,5.260188292314928,5.599131522237356
631,1.8649658820964523,6.1126092034456025,5.815560962526028,5.679959794350803
632,2.0564768626332888,6.480601034395024,6.291599263816565,5.70018734668685
633,2.2704272766850258,6.835008432997553,6.6750810999317896,5.670357645206398
634,2.504316751087857,7.176631113146407,6.956875248752797,5.601203569540983
635,2.7551073484440094,7.507105461133601,7.1326358711720035,5.503038892365597
636,3.019303041373468,7.828716584596586,7.203234674736681,5.385195163510716
637,3.2930438132865425,8.144150612576851,7.174893496272203,5.255537676675971
638,3.5722122340326554,8.456206235052028,7.059000298204888,5.120090119557043
639,3.852549868223186,8.767488019284029,6.871613277484548,4.982791685215633
640,-1.9438339940068258e-10,-1.355160376744968e-10,-2.187771692477131e-10,-1.90781371449836e-10
641,-2.8055261470359463e-09,-2.4813087060985628e-09,-4.004376634467966e-09,-2.9298397262597624e-09
642,-3.267637006238879e-08,-2.8207919892636143e-08,-4.568156624078336e-08,-3.27606109024793e-08
643,-2.386844865051928e-07,-2.0810454105112516e-07,-3.378595957965756e-07,-2.3774772508196764e-07
644,-1.3074480285798503e-06,-1.1523300592975026e-06,-1.8742509329766678e-06,-1.28616839823018e-06
645,-5.728982361738935e-06,-5.1179872601352245e-06,-8.335225922727255e-06,-5.569810450611138e-06
646,-2.0985624995181653e-05,-1.9051683755177008e-05,-3.1057434099100515e-05,-2.0169587910413806e-05
647,-6.634060203161704e-05,-6.133028591173564e-05,-0.00010005568482382627,-6.305013071107292e-05
648,-0.00018538215492731037,-0.00017478826808857109,-0.000285360121057754,-0.0001742821812939887
649,-0.0004666794920527659,-0.0004491717755538251,-0.0007338757637035809,-0.00043416898790663114
650,-0.0010746832543137245,-0.0010562634977232521,-0.001727166936576546,-0.0009898985428375801
651,-0.002292497783848772,-0.002300546100037382,-0.003764884098256647,-0.0020919296382219715
652,-0.004577350515038092,-0.0046874702882849775,-0.007677001212795703,-0.004140753934393893
653,-0.008628612605026143,-0.009010359792628415,-0.014765941829478437,-0.0077440144783081505
654,-0.015467019550129961,-0.016455797389816722,-0.026977287159812534,-0.013783083955608134
655,-0.026522471310069753,-0.028726017325317137,-0.04709528715997983,-0.023487206644468926
656,-0.04372645985166338,-0.048175228459571305,-0.078956712786473,-0.03851219560973907
657,-0.06960387381023975,-0.0779548045267238,-0.12767355926184598,-0.06101955172926388
658,-0.1073574791130844,-0.12215982910811801,-0.19985158176388726,-0.09375060391250999
659,-0.16093673933939048,-0.1859667193097101,-0.3037877834371812,-0.14008883663592792
660,-0.23508096109049958,-0.27574888515751667,-0.4496261970917843,-0.20410208749699688
661,-0.33532543549175897,-0.3991550384898644,-0.6494482101966587,-0.29055510701108717
662,-0.46795897817126264,-0.5651333427556376,-0.9172720266858356,-0.4048826498393816
663,-0.6399224751362147,-0.7838844669346428,-1.2689362283433472,-0.5531141956519219
664,-0.8586410521398836,-1.0667280890195265,-1.7218453074296263,-0.7417438660833365
665,-1.1317871077094064,-1.4258705801907106,-2.2945606308992725,-0.9775429397760468
666,-1.466977348410103,-1.8740664773076736,-3.00622852967657,-1.2673172251756963
667,-1.871413456168029,-2.4241726627874094,-3.875847667298773,-1.6176167957179668
668,-2.3514823950171326,-3.088601570633693,-4.92138995612599,-2.0344106234259898
669,-2.912338047437978,-3.878687737495463,-6.1588021650054845,-2.5227430652183367
670,-3.557490379084372,-4.803990122558536,-7.600927953099903,-3.086392724457002
671,-4.288431535866335,-5.871560354195555,-9.256401270689317,-3.7275569576601417
672,-5.104329894643501,-7.085213906298638,-11.128570828469952,-4.446587032428482
673,-6.001822893916777,-8.444846663395595,-13.21452096510663,-5.241799390953992
674,-6.974936937402407,-9.945842769210024,-15.504256273236903,-6.109387038198719
675,-8.015157497240708,-11.578620474699203,-17.980115643212496,-7.043451338334267
676,-9.111664498063192,-13.328360324758815,-20.616475736588434,-8.036168151301561
677,-10.251737390186006,-15.174954145011107,-23.37979412010541,-9.078093431019843
678,-11.421321419182005,-17.093203863148823,-26.229028086021493,-10.158602499532256
679,-12.605732322042517,-19.053286607766474,-29.116446657425698,-11.266445004623579
680,-13.79046217993439,-21.021487434044545,-31.988831004072157,-12.39038515075849
681,-14.962035862504647,-22.96118440197839,-34.78903383998165,-13.519885458738518
682,-16.10885705162558,-24.834053697103837,-37.45784328280937,-14.645783434985285
683,-17.22197653113987,-26.601446219895692,-39.93607337604632,-15.760905119800253
684,-18.29571436443732,-28.225872808528322,-42.16678427710203,-16.860558327355754
685,-19.328072199924772,-29.67252411448493,-44.09752177463317,-17.9428518230354
686,-20.320882409763534,-30.910744176262796,-45.6824595700944,-19.008794904998133
687,-21.279656565654896,-31.915374699944984,-46.884329062321555,-20.06214458720934
688,-22.213116017090908,-32.667890458422285,-47.676030082688364,-21.10898426964415
689,-23.1324106182186,-33.15725507529844,-48.04183140850649,-22.157037344439114
690,-24.050056303037497,-33.38044039679937,-47.97809098408453,-23.214740412182287
691,-24.978646541739742,-33.34257083809586,-47.493451315956676,-24.290122216718657
692,-25.92941490319092,-33.05667542993755,-46.60849410149062,-25.38955451184433
693,-26.910744312370834,-32.5430534306117,-45.35486816993081,-26.516458191705283
694,-27.92673126690439,-31.828282826206248,-43.773934535704655,-27.670060351311673
695,-28.975918772605038,-30.943923272701102,-41.91499999687722,-28.84430400131509
696,-30.050308834890632,-29.92498445549699,-39.8332343706151,-30.027010739178092
697,-31.134753577228718,-28.808246052444495,-37.58738440656605,-31.19938729580485
698,-32.20680356367893,-27.630525262468296,-35.23740803622488,-32.335949531123205
699,-33.2370637534401,-26.426991417360316,-32.84215487928317,-33.40491294458607
700,-34.19007342568712,-25.229624136829575,-30.457212473940675,-34.36906848743661
701,-35.025688958200135,-24.065901998077308,-28.133023189987597,-35.187128585348
702,-35.70091051421641,-22.957793385008458,-25.913355600487137,-35.8154933970281
703,-36.17205853483683,-21.921101187603913,-23.834188268950385,-36.21035414862339
704,-36.39717635051202,-20.965189760601913,-21.92303561885065,-36.33002153183805
705,-36.33851349948151,-20.093097717001065,-20.198717009974445,-36.137344843245735
706,-35.96493239236824,-19.30201548180523,-18.671543367694206,-35.60207373157093
707,-35.254079865488166,-18.584083751803025,-17.343872432372468,-34.70301039650611
708,-34.19417537153036,-17.92744965009789,-16.21096536849682,-33.429806570787456
709,-32.785288444544264,-17.31750265525519,-15.262065009362761,-31.784276399437942
710,-31.04000840028213,-16.738203282925202,-14.481609933777408,-29.781122593986485
711,-28.98344691402443,-16.173414502514067,-13.850498787047892,-27.448007409167676
712,-26.65255671975186,-15.608149105174206,-13.347325361630382,-24.82494004510197
713,-24.094794179526353,-15.029655280451912,-12.94951610584801,-21.96299532775924
714,-21.36619659755829,-14.42827669812476,-12.634316957628842,-18.92242184534135
715,-18.528983619714772,-13.798041183403477,-12.379594440488466,-15.770237848227747
716,-15.648822844800426,-13.136952203010036,-12.164435352660417,-12.57744702923616
717,-12.791920723661356,-12.446978311435094,-11.969548473072832,-9.416031350552284
718,-10.0221094535736,-11.733755984624231,-11.777488674227246,-6.3558925218052655
719,-7.398098471859621,-11.006039593229866,-11.572737074194459,-3.4619166519713547
720,-4.971045606217749,-10.274947498814072,-11.341679109212564,-0.7913278170689654
721,-2.7825793102143512,-9.55306455660016,-11.072525208688576,1.6085233269967723
722,-0.8633716351384768,-8.853468059145255,-10.755216328625092,3.701818681263715
723,0.7676757159827751,-8.188746127647144,-10.381349920479868,5.465298394743701
724,2.103610061224184,-7.570074798916107,-9.944152184794703,6.888612572122545
725,3.148989096840833,-7.006413023089028,-9.438510987705222,7.974001004572177
726,3.918880280860488,-6.503864175294244,-8.861071739143663,8.73534447828349
727,4.437385661688364,-6.065239489689508,-8.210386826625939,9.196668901691641
728,4.735804116748156,-5.68984410934779,-7.4870988398271825,9.390214645914824
729,4.85055863815039,-5.373491332974226,-6.694129610642312,9.354206150614944
730,4.821022415603145,-5.108736152436243,-5.836841815719215,9.13046964272677
731,4.687374315259149,-4.88530618832598,-4.923138029848564,8.762049271424035
732,4.488602718522797,-4.690697383451148,-3.9634640405828305,8.290964197993372
733,4.260758105063324,-4.510893771403521,-2.9706889021020695,7.756232223880844
734,4.03553108120108,-4.33116558973315,-1.9598433360843566,7.192261018810338
735,3.839206005352939,-4.136897941291629,-0.9477098593100798,6.627678220457247
736,3.692013101434714,-3.9144029843172,0.04772870112239733,6.08463897480928
737,3.6078758346991258,-3.6516719172571706,1.0079623287501256,5.578616235337299
738,3.594526979167389,-3.3390284730410276,1.9147167009797714,5.118647473458448
739,3.65394739942499,-2.9696527735614904,2.750764651639454,4.707983311784914
740,3.7830671612979843,-2.539952737820089,3.5007390988338885,4.3450607707606075
741,3.9746596509256302,-2.04976921205626,4.151897987696908,4.0247075672782175
742,4.218356054334827,-1.5024100482206082,4.694793037781088,3.739475009644166
743,4.501709262067382,-0.904517023475535,5.123798615254613,3.4809955234922763
744,4.811242275353176,-0.2657773469386243,5.437464646369573,3.241266393293131
745,5.133425401782404,0.4015017213927158,5.638667742742323,3.0137730741470485
746,5.455537925205628,1.0829311490196343,5.734547126247296,2.794382372608031
747,5.766382337107081,1.7626632557430892,5.736225679884457,2.5819563705454067
748,6.056831561727533,2.4240690721315215,5.658330453250574,2.378660508976543
749,6.320201079657406,3.050438232007109,5.518340056921101,2.189961977450811
750,6.5524478376270965,3.6256700911393605,5.335797413206542,2.0243359247204236
751,6.752206130598411,4.134926520968254,5.13143441909897,1.8927157700431323
752,6.920677014176277,4.565219834152008,4.926259551760073,1.8077389746021424
753,7.061392279722356,4.905913305989853,4.740660116862723,1.782850354735567
754,7.1798765959852116,5.14911653368264,4.593567782993219,1.8313309189424156
755,7.2832324720260715,5.289963124149709,4.501729787379982,1.9653213568682846
756,7.379672562084627,5.3267637085001915,4.479119399500512,2.1949059483642435
757,7.478023015279339,5.261032822012219,4.536508777262692,2.527315392450657
758,7.5872202568781315,5.09739357814383,4.681216036691231,2.9662964918206085
759,7.71582201981302,4.843369131129501,4.917026985333217,3.5116837022510827
760,7.871551618127974,4.50907443690738,5.244281239266246,4.159193241324962
761,8.060892489800786,4.106825605482071,5.660102971778946,4.9004458612256965
762,8.288747784448905,3.6506869509643614,6.158748946628247,5.7232104460933915
763,8.558177196435826,3.1559775279043696,6.732041253720825,6.611848020945186
764,8.870220178794089,2.6387593767023207,7.3698497057964865,7.54792513224691
765,9.223811214427444,2.1153288857828296,8.060589387544917,8.51095738068358
766,9.615789103949867,1.601730742264671,8.791702306042676,9.479238543881674
767,10.040998415545921,1.1133111274249472,9.550098065117846,10.43070839471852
768,-9.245926077734703e-11,-1.0369784501500524e-10,-1.3440044593914125e-10,-9.774553176291683e-11
769,-1.9350958747249153e-09,-2.1874030747662626e-09,-2.76102615350781e-09,-2.08383074625298e-09
770,-2.0986293829409564e-08,-2.433727638071181e-08,-3.092820908043945e-08,-2.2957130399492998e-08
771,-1.5001952254896348e-07,-1.7860935925197617e-07,-2.2823560446618645e-07,-1.6672376002441782e-07
772,-7.994253832380745e-07,-9.823068732943746e-07,-1.2637808147328732e-06,-9.050364358347443e-07
773,-3.4007293204139856e-06,-4.33172167211589e-06,-5.616332093111657e-06,-3.93040134862135e-06
774,-1.2074716195622209e-05,-1.6007864775802733e-05,-2.0932149110550244e-05,-1.4278840083233546e-05
775,-3.695303754935102e-05,-5.115859421637016e-05,-6.749755314733525e-05,-4.480752424560724e-05
776,-9.990581493932922e-05,-0.00014477253386853116,-0.00019275692420255477,-0.0001244501211039679
777,-0.00024336189721721954,-0.00036955064987614407,-0.00049645971558219,-0.0003118780391471159
778,-0.00054282048708087,-0.0008636536185647406,-0.001170167060441399,-0.0007162442440536747
779,-0.0011236785780106143,-0.001870538862757364,-0.002554403356500209,-0.001526579859625602
780,-0.002183163463090998,-0.003792556149908603,-0.005215785767536184,-0.003051104532506206
781,-0.004018343658734338,-0.007259235877992586,-0.010045229795861843,-0.0057671461867675414
782,-0.007061219720405701,-0.013210308045560327,-0.018376961075893726,-0.010381554414117046
783,-0.01192168009413071,-0.022992409862915494,-0.03212656827199061,-0.01790055657682183
784,-0.019438648523641397,-0.03846710334497746,-0.053944523071371805,-0.029707062846029985
785,-0.030739090316346283,-0.062126195203328814,-0.08737928437616446,-0.04764247992652104
786,-0.04730368804118309,-0.09720845168897402,-0.13704122887991368,-0.07408901283519025
787,-0.07103695376149664,-0.1478097626323717,-0.2087554052529072,-0.1120471097413602
788,-0.10433836277597118,-0.2189768574082308,-0.30968790322854667,-0.16520117643700938
789,-0.1501698668704796,-0.3167730995639739,-0.44842798976844234,-0.23796515983770614
790,-0.21211395515601061,-0.4483039912512286,-0.6350066495362557,-0.33549837333228266
791,-0.2944153510999662,-0.6216900390291458,-0.8808322278120098,-0.46368133461287975
792,-0.4019985970109154,-0.8459757284664169,-1.1985258352952828,-0.6290417642162144
793,-0.5404533673359178,-1.1309655776739036,-1.6016431333057577,-0.8386225386186991
794,-0.715979529671268,-1.4869815766185164,-2.1042749956300324,-1.0997863600495486
795,-0.9352847362721963,-1.9245406625979844,-2.720527046056578,-1.4199558586280527
796,-1.20542855991535,-2.4539560480631812,-3.4638867455721547,-1.8062921804636587
797,-1.5336087973812438,-3.084871913333067,-4.346495894865062,-2.2653192956405053
798,-1.9268876668571475,-3.825746832800775,-5.378355363601135,-2.802505098593388
799,-2.3918584901469733,-4.68330689106522,-6.566496841994432,-3.4218140298959874
800,-2.9342573120269573,-5.661994297929075,-7.914162892721364,-4.1252496262688405
801,-3.558528732321477,-6.763440984438777,-9.420041251442662,-4.91240906288318
802,-4.267360635866029,-7.98599875582908,-11.077601903651196,-5.780074999560628
803,-5.061207879790621,-9.324357813489453,-12.874585593972602,-6.721872305523396
804,-5.937829655331629,-10.769283680348895,-14.792689567418726,-7.728017940625855
805,-6.891868640956347,-12.307498770489135,-16.807489999303005,-8.785190996062425
806,-7.914501877329151,-13.921729135008215,-18.88863048423238,-9.876546430354022
807,-8.993193420052876,-15.590929499256477,-21.000292414967163,-10.981890436321295
808,-10.111577277161482,-17.2906908568797,-23.101946981637273,-12.078027969786225
809,-11.249495947525396,-18.99382499584691,-25.149371302420708,-13.139284301851125
810,-12.383214985284225,-20.671109937077155,-27.095894532888355,-14.138193104921678
811,-13.485827312765048,-22.292170068948874,-28.893825233057328,-15.046334072266419
812,-14.527852449304138,-23.826455593901038,-30.4959999411254,-15.835293871575642
813,-15.478025649882255,-25.244278590295245,-31.857385441129445,-16.477715835939744
814,-16.304260707076672,-26.51785822553371,-32.93666390799346,-16.94839672099748
815,-16.974758629538105,-27.622325839380466,-33.69773101742119,-17.22538353785728
816,-17.45922335476748,-28.53664184693646,-34.111042132195045,-17.29102019511846
817,-17.730135800035825,-29.24438048170941,-34.15475046457241,-17.132892619252694
818,-17.764029600574382,-29.734344916183932,-33.815593002794934,-16.744622353684854
819,-17.542706529637172,-30.000983740168657,-33.089493970226734,-16.126462559447294
820,-17.054327486566386,-30.044589596477053,-31.981870469342358,-15.285656962729533
821,-16.294316499138397,-29.871271398597425,-30.5076395705072,-14.236531476217792
822,-15.2660205574702,-29.492702420479088,-28.690939400281728,-13.000299577095861
823,-13.981077154125607,-28.92565709690789,-26.564587972472584,-11.60457550716597
824,-12.459453829969787,-28.19135905346629,-24.169311969946722,-10.082603356503595
825,-10.729139258577117,-27.314671199044504,-21.552783013665053,-8.472224385395187
826,-8.82548261336114,-26.323165217820666,-18.768500902521687,-6.8146186892269105
827,-6.790196083397514,-25.24611217115259,-15.874561926416673,-5.152869633517534
828,-4.670053316911003,-24.113437969961,-12.932346044797976,-3.5304096226585404
829,-2.515333269987448,-22.954687196890657,-10.005150346600887,-1.9894132078345859
830,-0.3780735474983005,-21.79803630333946,-7.156789049297583,-0.569207957564606
831,1.6897909666702393,-20.669392925230547,-4.450173907224098,0.6952253435233909
832,3.6383203809731954,-19.591612410838437,-1.945884815011343,1.7745939511722186
833,5.421405511403428,-18.58385615852529,0.2992603077853483,2.64641254237327
834,6.998460696109642,-17.661109500177723,2.2336242107972497,3.295846596157869
835,8.33589327536053,-16.833870034326484,3.8121391230272965,3.7162377045947856
836,9.408279731454822,-16.108010789514932,4.997638728087862,3.909283070257601
837,10.199192864965891,-15.48481655148365,5.762097109479524,3.884857430563032
838,10.701641899570381,-14.96118620354896,6.087729823658071,3.660482632066839
839,10.918106992980578,-14.529989006512697,5.967905334099204,3.2604672669473933
840,10.860170094616844,-14.180558341958273,5.407810767802414,2.7147552765411245
841,10.54776427102151,-13.89930248209256,4.424815119718207,2.0575373013112195
842,10.008082471678042,-13.670408389241612,3.0484763723794424,1.3256909359706321
843,9.274203283599755,-13.476611403419707,1.3201471239841969,0.5571251194766865
844,8.383504593174875,-13.3000010786689,-0.7078533669447794,-0.21089108879151686
845,7.375945401145191,-13.122831584757241,-2.973514332062752,-0.9433346318064881
846,6.292300737710515,-12.92830426171967,-5.406846390998969,-1.608892965206622
847,5.172434550442822,-12.701290320139346,-7.931996437829891,-2.181218938188602
848,4.053690839813446,-12.428963478895175,-10.469701224154596,-2.639920102402876
849,2.9694747139986313,-12.101315567979505,-12.93999008901375,-2.9712413015267587
850,1.9480830564635467,-11.711532751901649,-15.26502489122453,-3.16841603688101
851,1.0118298982301643,-11.25621589149696,-17.371948886910754,-3.2316796776529344
852,0.17649524274761555,-10.735435438885174,-19.195607688865564,-3.167955113835117
853,-0.5488910266334825,-10.152618865865467,-20.681005427645573,-2.9902379686100082
854,-1.1619355043634036,-9.51427665599195,-21.785368038925757,-2.716723133467814
855,-1.6664592767624453,-8.829580995239285,-22.479702830097725,-2.3697264518013426
856,-2.0718033533890674,-8.109819079493027,-22.749768225820585,-1.974464207971722
857,-2.3919092377979743,-7.367749967720313,-22.596398439594797,-1.5577580905020922
858,-2.6442312279970928,-6.616899647771934,-22.03516294145008,-1.1467340595544337
859,-2.8485423769074525,-5.870832964787732,-21.095377776904186,-0.7675800002730294
860,-3.02569776366662,-5.142442850756547,-19.818522566137087,-0.4444195627479541
861,-3.196417037769962,-4.44329658232608,-18.256150830880365,-0.1983489190000318
862,-3.3801434249021645,-3.7830754412107477,-16.467409816441872,-0.046670226605978304
863,-3.5940289020188905,-3.1691382634912197,-14.516307377858235,-0.002341386601105221
864,-3.8520855184695093,-2.6062312858614516,-12.468876552803215,-0.07364728204579869
865,-4.164531478778622,-2.096357023315362,-10.39039251019964,-0.26408412900898715
866,-4.537348288481116,-1.6388043964307584,-8.342791455376638,-0.5724367261601272
867,-4.972052598985942,-1.2303318145035231,-6.382427085064657,-0.9930187584621168
868,-5.4656738913972855,-0.865485253906636,-4.558277981081313,-1.5160391186760465
869,-6.010917485811462,-0.5370253137884669,-2.910689849540214,-2.128052661824293
870,-6.596482589053517,-0.23643140533783982,-1.4707008574956715,-2.812452345938816
871,-7.2074984081784335,0.045552010519043507,-0.2599580371696799,-3.5499618859119417
872,-7.826038602053446,0.3183628423513566,0.7088098258314802,-4.319094084568755
873,-8.431675507047057,0.5910964280168646,1.4308389204394847,-5.096549423994976
874,-9.002039902809285,0.8720385686083417,1.9080094410199975,-5.8575412125305535
875,-9.513358646676844,1.168281703925888,2.147297652350815,-6.576046336791174
876,-9.940950707601148,1.4854430461152568,2.1591587548350026,-7.2249934357810925
877,-10.259671681620565,1.827496326771012,1.956003711917034,-7.776412275523187
878,-10.444307363519624,2.19672135740131,1.550928076994225,-8.201578366684895
879,-10.46992754047353,2.5937684834684522,0.9568372390783746,-8.471194365098917
880,-10.312220750943096,3.017828814389903,0.18609187369243585,-8.555653541610702
881,-9.94783845818435,3.4668962354714234,-0.7492303075979665,-8.425430226800968
882,-9.354782563553492,3.9381039419413835,-1.8363966502170828,-8.05163803672533
883,-8.512873250383059,4.42811684414284,-3.060391848166655,-7.40678964380091
884,-7.404334143055569,4.933561957448915,-4.401642525848671,-6.465782205136718
885,-6.014527286426232,5.451481925422381,-5.83319789473681,-5.207119724964574
886,-4.332859777377493,5.979801873004704,-7.317531656539548,-3.6143663698838995
887,-2.353866014472078,6.517806019869619,-8.803184129655342,-1.6778021762146154
888,-0.07844527002578378,7.066626551118122,-10.221503505463007,0.6037746443324927
889,2.4847933091916525,7.629751592280118,-11.483767270849665,3.221183534039217
890,5.318152543697713,8.213560554457546,-12.478967755275583,6.153046311046885
891,8.393531017291675,8.827893252045216,-13.072529843972122,9.364150122568924
892,11.671276791734734,9.486654636570618,-13.106195159630099,12.80412646728961
893,15.099323703052956,10.208450837265369,-12.399256461110802,16.40658238486176
894,18.612720620510014,11.017245323320836,-10.751259761103968,20.088809398933698
895,22.13365590348812,11.94301658781944,-7.946211671459205,23.752178189561093
896,-1.026532233339468e-09,1.7889285140295083e-09,2.9450173679677747e-09,-1.190918245405609e-09
897,-1.7036523757822576e-08,3.31401382980626e-08,6.33533420191917e-08,-1.913636075738788e-08
898,-1.9597026444873612e-07,3.783600743001539e-07,7.072643780588319e-07,-2.2064598552624437e-07
899,-1.4455463148853951e-06,2.8041287483484144e-06,5.2282595334898544e-06,-1.6229107075942558e-06
900,-8.005415669346908e-06,1.55895145238864e-05,2.8972273736761387e-05,-8.967062133635936e-06
901,-3.554637989923752e-05,6.947631759371777e-05,0.00012878261531198038,-3.973553760772037e-05
902,-0.00013223796367629678,0.00025933929157310315,0.0004798743465795657,-0.00014755910998343942
903,-0.00042531439552100173,0.0008365680816108826,0.0015466118195238078,-0.00047387408602633433
904,-0.0012108281600445685,0.002387331095086338,0.0044138829030040865,-0.0013473762687234326
905,-0.003108013353901586,0.006138543303183007,0.011360907346695657,-0.0034549564111532095
906,-0.007300372387324313,0.014433011592764059,0.026763822888292432,-0.008108532783193784
907,-0.01588317626439405,0.03140728480486272,0.05840501081362853,-0.017629463221641297
908,-0.032331656997921926,0.06389104170504838,0.11924696464211405,-0.03586607640566982
909,-0.06209695536907704,0.12252828970393266,0.22969998614001538,-0.06885172233227742
910,-0.11332806426747664,0.22309974289875212,0.4203789174518633,-0.1256008249998537
911,-0.1977078640726627,0.3880034019983126,0.7353054205652446,-0.21902915356154917
912,-0.3313789424830204,0.6478254155775638,1.2354674475781084,-0.3669707932723095
913,-0.5359199486093073,1.0429050871529577,2.002594456845381,-0.5932478046481829
914,-0.8393154463610958,1.6247666999065613,3.142944871083232,-0.9287288880668244
915,-1.2768429228560307,2.457258931653762,4.7908340954576065,-1.4122920332955973
916,-1.8917820704337733,3.6172149953327493,7.111563992368259,-2.091585724249306
917,-2.7358366148175826,5.194428837144878,10.303358138519892,-3.0234670680683986
918,-3.8691511856078744,7.290741298312195,14.597873005047843,-4.27398709056053
919,-5.359807175121717,10.018049533298257,20.258853668775657,-5.91779575523499
920,-7.282694141533458,13.495096221112547,27.578541247531685,-8.03685420465262
921,-9.717677309705666,17.842961622081663,36.87152094263661,-10.718369359590453
922,-12.747017061174992,23.17926878010666,48.46582305069256,-14.05190616184634
923,-16.452041287511012,29.611214673376328,62.691248830424456,-18.125683259726316
924,-20.909124163958428,37.227650946943584,79.86507973098865,-23.022116566648176
925,-26.18508211469607,46.09054916387928,100.27553060793109,-28.812738290197544
926,-32.33215598089115,56.22628836835665,124.16351213336688,-35.552682904928545
927,-39.38280385329281,67.61728890694961,151.70346097940865,-43.27499200917799
928,-47.34457712622885,80.19457705180969,182.9841646320622,-51.98504199828268
929,-56.19538900208114,93.83189272195226,217.99063749393406,-61.65543753766932
930,-65.87950534489136,108.34194058190401,256.58818322188387,-72.22173470519124
931,-76.30458913489427,123.47532887874246,298.5097934031804,-83.57935669147426
932,-87.34010872737643,138.92263822371615,343.3479751304775,-95.58203860507213
933,-98.81737558162398,154.31991604901305,390.5519643210622,-108.04208525468403
934,-110.53140895815072,169.25770669104793,439.4310675025578,-120.73264693519448
935,-122.24473586182168,183.2935116426662,489.1645889638434,-133.39211667546655
936,-133.69312835436276,195.9673426332219,538.818456284415,-145.73063314276246
937,-144.59316384578256,206.8197977798651,587.3682757502644,-157.43854411674286
938,-154.65137484358345,215.41187625656443,633.7281555440217,-168.1965548530834
939,-163.57464116850358,221.345567229629,676.784257138735,-177.6871628539574
940,-171.0813784975773,224.28412095433245,715.4317024697526,-185.6068750637372
941,-176.91299963503633,223.9708466074091,748.6132016806536,-191.67862323467835
942,-180.8450759574736,220.24529175218802,775.3575942590724,-195.6637455714659
943,-182.69761037823355,213.05574522454188,794.8164292117712,-197.37289226022338
944,-182.34385281553756,202.46716680393274,806.2967546047805,-196.67524204738535
945,-179.71714436019911,188.6638749263262,809.2884426049472,-193.50548595442325
946,-174.8153653129153,171.94660520301167,803.484635266594,-187.86813996851856
947,-167.70268020353927,152.72387004309925,788.7942437399576,-179.8388850427648
948,-158.50841349934873,131.49788277471782,765.3458485579592,-169.56279225947358
949,-147.42304429338134,108.8456362723819,733.4828054485462,-157.24946325090207
950,-134.6914671100931,85.39602351415266,693.7498308834735,-143.16528973842338
951,-120.60381896519749,61.80413533283204,646.8717942773922,-127.62320007365803
952,-105.48430973461119,38.72405083986006,593.7258501198282,-110.97040375071002
953,-89.67860511468601,16.781535999076787,535.3083773734929,-93.57475794651351
954,-73.54039126752183,-3.451922222293993,472.69843403261217,-75.81045517354134
955,-57.41779275124336,-21.482395517713254,407.0195675773514,-58.0437634299874
956,-41.64031756532576,-36.912917938340925,339.40184061412117,-40.619537275734274
957,-26.506965723444793,-49.45805704936878,270.94583741222203,-23.849161777535684
958,-12.276063401879771,-58.95298559098242,202.69022150131445,-8.000495275092819
959,0.8427208179570851,-65.35671226652225,135.58413455420992,6.709750925945261
960,12.693850782641181,-68.74946934096467,70.4653851363682,20.120908643674177
961,23.178706862547813,-69.32458444566682,8.04499852916912,32.130400383015086
962,32.255648473912785,-67.37546229164198,-51.101687510992356,42.69297824411083
963,39.937471779454846,-63.27855056628177,-106.53756591825908,51.817349041757815
964,46.28651432848504,-57.47334824515412,-157.96045740437734,59.56051653986955
965,51.4077734451079,-50.44062510928138,-205.19474841950222,66.02028153350672
966,55.440493801871376,-42.68005444467203,-248.17895714167142,71.3264179875927
967,58.548737990080234,-34.688419279699204,-286.9503357983326,75.63108557922448
968,60.911479633089,-26.939442976197782,-321.62765845857206,79.09904437517328
969,62.71275227253115,-19.866129623459138,-352.39330888684185,81.89820812471334
970,64.13235089400914,-13.846292952832155,-379.4756828349897,84.1910124085282
971,65.33752100742956,-9.191721291129749,-403.1327669695911,86.12698917446848
972,66.47598765213864,-6.141187503423793,-423.63756825912634,87.83683699977654
973,67.67058007483453,-4.857283053990236,-441.2658598983107,89.42816499289853
974,69.01560347945308,-5.4268488743174945,-456.286499058746,90.98297555337597
975,70.5750040908646,-7.86460357619183,-468.95437270365716,92.5568444791738
976,72.38227407221275,-12.119439881656588,-479.50585287576524,94.17966282384414
977,74.44195378747094,-18.08277650444305,-488.1565013653865,95.85772780871687
978,76.73251490834483,-25.598315910209138,-495.1006612464728,97.5769135785141
979,79.21035145991448,-34.47256511800484,-500.51251132166766,99.30661777478134
980,81.81456914074847,-44.485521876984976,-504.5481378814982,101.0041673909136
981,84.47224632595012,-55.40100408763906,-507.34819218452844,102.61937545238014
982,87.10384274310006,-66.97619755365328,-509.04074560724644,104.09896660316421
983,89.62845172122132,-78.97010616547969,-509.74401961574586,105.39063052720053
984,91.96862679852664,-91.15070007203433,-509.5687461132946,106.44651329667222
985,94.05455975917798,-103.30066315510541,-508.61999672707645,107.22601342429179
986,95.82744167355759,-115.22173422397393,-506.99839956218096,107.69780733512978
987,97.24189747163683,-126.73771270064833,-504.80073272756584,107.84108453582593
988,98.2674444481917,-137.69625639074278,-502.1199409872974,107.6460223918317
989,98.88898267646705,-147.96963631467037,-499.0446627280047,107.1135721520477
990,99.10637739449068,-157.4546323276606,-495.65837823950415,106.25465964337586
991,98.93323804586691,-166.0717562270537,-492.03829845282377,105.08892554697135
992,98.39503377307919,-173.76397890120055,-488.25410862240494,103.64314081103235
993,97.52671007578748,-180.4951186859583,-484.366668099179,101.94943360547458
994,96.36998525208423,-186.24802257641758,-480.426749243583,100.04345609054778
995,94.97050860304314,-191.0226438134949,-476.4738789673159,97.96260442105876
996,93.37505549007186,-194.8340914890064,-472.53532753243763,95.7443855548664
997,91.62891866976625,-197.71070234374278,-468.6252724489645,93.42500186762318
998,89.77363203162929,-199.69216388583698,-464.7441519324619,91.03820103856523
999,87.84513403395565,-200.82770185229435,-460.8782137597158,88.61441548122639
1000,85.87244539505531,-201.17433456306892,-456.99926332407335,86.18019441983809
1001,83.87690110834252,-200.79519108117574,-453.0646205682737,83.75791319533087
1002,81.87194249236893,-199.75788892417776,-449.0173096395943,81.36572975721802
1003,79.86344239558576,-198.13296888498454,-444.7865257346898,79.01774755243659
1004,77.85050775156596,-195.99238853424131,-440.2884466340235,76.7243377816545
1005,75.8266794827457,-193.4080808764761,-435.42747634760946,74.492571720003
1006,73.781431726205,-190.45058954101694,-430.0980194247836,72.32671561007969
1007,71.70186081880597,-187.1877962958238,-424.1868828417777,70.22874542877332
1008,69.57444995380229,-183.6837597483317,-417.5763860185847,68.19884606241875
1009,67.38679729025556,-179.99768598227058,-410.14822885423473,66.23586784397219
1010,65.12920335674123,-176.18305202604208,-401.7881242637352,64.33772218018623
1011,62.79602670187067,-172.28690191545218,-392.39114789724573,62.50170665805722
1012,60.38673424481618,-168.3493323771114,-381.8676957593696,60.724757649222944
1013,57.90659308156512,-164.40318142325225,-370.1498729825037,59.003634949340096
1014,55.36697255778115,-160.47392816825516,-357.1980674379859,57.33504751898919
1015,52.78524779069047,-156.5798065705415,-343.0073949096835,55.715732224189786
1016,50.184317498377794,-152.73212938592997,-327.61364455939275,54.142498296811034
1017,47.591769233516324,-148.9358118011673,-311.09831149146726,52.612249825285446
1018,45.038742874789264,-145.19007717770694,-293.5922846740774,51.12199692332386
1019,42.55855791845048,-141.48932020729976,-275.2777690985134,49.66886388031378
1020,40.185181009646975,-137.82409625115443,-256.388064617716,48.25009973903575
1021,37.951616840953946,-134.18219994262833,-237.20490118638565,46.86309366512532
1022,35.88830787386869,-130.5497918351796,-218.0531392434712,45.505394490629335
1023,34.02162636494362,-126.91252930868377,-199.2927800903759,44.17473125029878
1024,8.483869172933072e-11,-3.0462801203080827e-10,-7.616478824370786e-10,3.8695168811462716e-11
1025,-8.142120169411946e-10,-6.2067973898384325e-09,-1.4873486238908203e-08,-2.3156948454113928e-10
1026,-5.928941885380803e-09,-6.951429415237578e-08,-1.678763703925278e-07,-6.102809263769835e-10
1027,-3.822394708554978e-08,-5.116794895274204e-07,-1.2392338239857968e-06,1.5683143051081824e-09
1028,-1.7471509300916353e-07,-2.824468295928362e-06,-6.86027411784913e-06,4.413224884667269e-08
1029,-6.1503595738842e-07,-1.2506255165641287e-05,-3.0452112402344034e-05,3.4562265961439615e-07
1030,-1.7212813560347955e-06,-4.642225514609584e-05,-0.00011326427584028806,1.8003835009796235e-06
1031,-3.835578426776499e-06,-0.00014905769585977672,-0.00036422638803719774,7.287872942900799e-06
1032,-6.529699529714261e-06,-0.00042387123934531574,-0.001036727768137603,2.4496837464935074e-05
1033,-6.832017367766795e-06,-0.0010873009238513023,-0.002660493817631191,7.109921303621628e-05
1034,3.8682040871857e-06,-0.002553314366162748,-0.006247129917958114,0.0001829904403147279
1035,4.416209133174434e-05,-0.005555577365822326,-0.013585383506301419,0.00042599405066707396
1036,0.0001476675101986442,-0.01131243450483251,-0.027637035993550278,0.0009110499022182853
1037,0.0003678774109374816,-0.021737276859864613,-0.0530375429208884,0.001812642858990965
1038,0.0007819084446365709,-0.039693703271379825,-0.0966976426318169,0.0033901175092123275
1039,0.0014925442341114285,-0.06929122909948171,-0.1684934741595629,0.006011471097925958
1040,0.002628412406444853,-0.1162129845751231,-0.2820228642579363,0.010178987297039779
1041,0.004342577588602329,-0.1880617582777957,-0.455394033117437,0.01655561500204957
1042,0.006809979163342146,-0.2947048733254538,-0.7119997628102477,0.02599026157363044
1043,0.010224008550401738,-0.44859208831785863,-1.0812157371166253,0.03953928501076068
1044,0.014792013593036845,-0.6650146582674434,-1.598947855531698,0.05848058897011979
1045,0.020728911357186602,-0.9622687766293399,-2.307942203442814,0.08431605485307286
1046,0.02824772486964137,-1.361683886097335,-3.257765886675874,0.11875790774686397
1047,0.03754598862217908,-1.887476667382484,-4.50436939286327,0.16369512666045155
1048,0.04878771587241181,-2.56639557562439,-6.109153101967696,0.22113719190791
1049,0.06208161958807053,-3.427128828267488,-8.137482088367607,0.2931339939622298
1050,0.0774570736623006,-4.499460646427939,-10.656623583141807,0.38167238217940264
1051,0.09483960904832225,-5.81317573623001,-13.733118454981598,0.48855141884508607
1052,0.11402744105714983,-7.39672963336309,-17.42963966158492,0.6152400360532282
1053,0.13466991774365594,-9.275721510045496,-21.801434263520672,0.762722549282533
1054,0.1562481850062722,-11.471225126325946,-26.892488637757243,0.9313393875279193
1055,0.1780580140450314,-13.998051495491433,-32.73159615798309,1.120632372288431
1056,0.19919488616213818,-16.86303213673209,-39.3285396092038,1.3292056633929916
1057,0.21854199688833123,-20.063423181581634,-46.67062389552365,1.5546148609364976
1058,0.23476260305534027,-23.585536755124796,-54.71980500913051,1.793297253040049
1059,0.24629876896869093,-27.40370589869102,-63.41065633355004,2.0405554529931837
1060,0.25137861969302494,-31.47968202676863,-72.64939130422081,2.2906043153975353
1061,0.24803370549079598,-35.7625492494082,-82.31412182268038,2.536687143739273
1062,0.23412707390661794,-40.18921805566143,-92.25647537064422,2.771262114053332
1063,0.2073914832019372,-44.68553271031241,-102.30462309532226,2.986254119780464
1064,0.16547607060067024,-49.167993621790835,-112.26769011870313,3.173361423584571
1065,0.1059987421784255,-53.546059801675064,-121.94143324445463,3.3244010176578302
1066,0.026600733635561372,-57.72495965502306,-131.1149860436681,3.431671920703333
1067,-0.07500086008891263,-61.60890328451646,-139.57839311072163,3.488312129886872
1068,-0.20096707779623305,-65.10455895827369,-147.1305900970462,3.488623007993725
1069,-0.3533021617421073,-68.12463284409,-153.58743905324044,3.4283346828415944
1070,-0.5338339938984178,-70.59137664795401,-158.7894039886219,3.304787772580214
1071,-0.7442137031652432,-72.4398437656208,-162.60845213843086,3.1170105094608984
1072,-0.9859372668333771,-73.62072157807064,-164.95379354127454,2.8656763265319296
1073,-1.2603904258820733,-74.10258529079579,-165.77612429444224,2.5529351441789134
1074,-1.568916009950118,-73.87344622689027,-165.07011464104667,2.1821216930114757
1075,-1.91290004757188,-72.9415030128754,-162.87497710476475,1.7573555154997014
1076,-2.2938699039477473,-71.33504550314278,-159.2730562277517,1.283058807752461
1077,-2.7135944716143845,-69.1015060504645,-154.38649291567555,0.7634288370899481
1078,-3.1741734707092855,-66.3056981577081,-148.37212545667424,0.20191000219191385
1079,-3.678100603597748,-63.02732590919422,-141.41488872358443,-0.3992844117810664
1080,-4.2282842823411455,-59.357886180931686,-133.72005628237346,-1.0395500246075184
1081,-4.828010176787503,-55.39711706150088,-125.50473195819842,-1.7201218379104588
1082,-5.480832198634545,-51.249168111518784,-116.98903393449156,-2.444118950989139
1083,-6.190382517113843,-47.01867967200409,-108.38742370619914,-3.216377380048736
1084,-6.960096729857885,-42.806958745466666,-99.90061377526683,-4.0430603113707875
1085,-7.792857027441463,-38.708428318803556,-91.70844362805381,-4.93105275916381
1086,-8.690563899104424,-34.8075064387253,-83.9640465565164,-5.887166285527993
1087,-9.653655079330417,-31.17604270678852,-76.78954531453724,-6.917197856104793
1088,-10.680598382615928,-27.871405339566394,-70.2734183369186,-8.024903526328961
1089,-11.76739212460922,-24.935274016694684,-64.46957707490348,-9.210961078184129
1090,-12.907112123504046,-22.39315488035927,-59.39809590789975,-10.472004538599908
1091,-14.089547233203946,-20.2545965650119,-55.04744579571577,-11.79981656584477
1092,-15.300965205491526,-18.51405213792069,-51.37800737455005,-13.180760984617379
1093,-16.5240471116742,-17.15230304427262,-48.32658293026682,-14.59552691219772
1094,-17.738021365756484,-16.138338973980996,-45.811592368989984,-16.019238212345716
1095,-18.919018052428026,-15.431572852297322,-43.738626478893785,-17.42195865190766
1096,-20.04065129946207,-14.98426329163256,-42.00604039803096,-18.769595835309318
1097,-21.074822683279148,-14.744017583239858,-40.510298455897484,-20.02517786837436
1098,-21.99272293164323,-14.65625595552442,-39.15082481186525,-21.15044792421786
1099,-22.765993382493367,-14.666531168496137,-37.834168070696144,-22.10769560673078
1100,-23.36799402093432,-14.722615121936512,-36.47734786673046,-22.861722390756814
1101,-23.775112571783897,-14.77628441844123,-35.01031278015459,-23.381823256293575
1102,-23.968040408762455,-14.784758273185966,-33.37749779496535,-23.643659366839398
1103,-23.932936824203576,-14.711763483440254,-31.538522242255763,-23.630897975310226
1104,-23.662404361574488,-14.528221316172283,-29.468112671752703,-23.336505885123085
1105,-23.156204708505577,-14.21256932924872,-27.15536733656917,-22.763601232885943
1106,-22.42165712700008,-13.750746624829691,-24.60249876406627,-21.925794078915377
1107,-21.47367872525033,-13.135883368037224,-21.823198448478987,-20.846977521239417
1108,-20.33444688983444,-12.367744205666073,-18.840764061820664,-19.56056560440094
1109,-19.032687207541148,-11.451980383929536,-15.686116839786486,-18.108209615615504
1110,-17.602613538657778,-10.399246956066825,-12.395817347969047,-16.538057884193893
1111,-16.082569018709197,-9.224239880620644,-9.010164458273069,-14.902653517856573
1112,-14.513436080640655,-7.9447035722552135,-5.57143769189234,-13.256587413096957
1113,-12.936898922124868,-6.580453323880018,-2.1223193742681903,-11.654038739348662
1114,-11.393652015196263,-5.152449680387134,1.2954877284658464,-10.146340869145574
1115,-9.921652735766939,-3.6819539935568257,4.6424481983049,-8.77970731131185
1116,-8.55451455000563,-2.189786533908975,7.882199411906833,-7.593240125610991
1117,-7.320129568374041,-0.6957010035822168,10.98239268397926,-6.617323741182403
1118,-6.2395958014350565,0.7821176844277649,13.915388520069856,-5.8724815259103
1119,-5.32650591252419,2.2274318300782467,16.65882037317213,-5.368742757612674
1120,-4.58663172163916,3.6262105752764224,19.19603433538909,-5.105536010443069
1121,-4.018013912746688,4.966780350655465,21.516404282183167,-5.072093692964205
1122,-3.611441257098947,6.239879221681324,23.615514964541344,-5.248323787042926
1123,-3.351280045053973,7.43863043186572,25.495200726915158,-5.60608047161089
1124,-3.2165941251155337,8.558451325491673,27.16342570313488,-6.110746670870402
1125,-3.182480244301033,9.596913525001593,28.633992449503232,-6.7230294839330025
1126,-3.221533414736389,10.553568928386646,29.926069869110858,-7.400864446900399
1127,-3.3053531738812327,11.42975410780233,31.06353748539961,-8.101326500133407
1128,-3.4060039313115458,12.228383299170913,32.074151467213795,-8.782453777648977
1129,-3.4973503934378494,12.953737661741869,32.98854783255517,-9.404903681377025
1130,-3.556201560078687,13.611256083620193,33.83910952863204,-9.933377734531769
1131,-3.5632127771425606,14.20733069234538,34.65873563920374,-10.337770785560515
1132,-3.5035137035549275,14.749108576146872,35.47956160102522,-10.594019642447217
1133,-3.367049389164137,15.244300074226448,36.3316877099066,-10.68464468419008
1134,-3.1486405745313797,15.70099338217299,37.24197799730935,-10.598994163857853
1135,-2.8477865629536785,16.127475017013595,38.232991974682456,-10.33321406167784
1136,-2.468248380581043,16.5320557974947,39.32210724695264,-9.889976043982797
1137,-2.0174607290722784,16.92290224737801,40.52088189845263,-9.278002341501264
1138,-1.505827732023953,17.307873669608234,41.83469240710576,-8.51142925649391
1139,-0.9459595366046257,17.69436550074837,43.26266681364656,-7.609050935290507
1140,-0.35190441466538047,18.08915997635795,44.79791509390434,-6.593482493527294
1141,0.26157527464008085,18.49828559703354,46.42804055353415,-5.490277346677581
1142,0.8796443890219976,18.92688733648462,48.13589891203402,-4.327028368351117
1143,1.4879263959223683,19.379109903669036,49.900556770937364,-3.1324769222527182
1144,2.0729105350051116,19.85799654042816,51.698389561718734,-1.9356483872306138
1145,2.6222333277345813,20.36540578921122,53.50425154492154,-0.7650279949895264
1146,3.1248445669210128,20.90194836889944,55.2926476207581,0.3522127904654106
1147,3.571077123507728,21.466945836694542,57.03883877058146,1.3909311649562253
1148,3.9526459267720364,22.05841215174975,58.71981982638024,2.328661372867955
1149,4.262604209075768,22.673058746319228,60.31511950523022,3.146188042462877
1150,4.495284788242761,23.30632340838953,61.8073873596195,3.8280346258453877
1151,4.646251258284635,23.95242333983897,63.1827492124995,4.362855995075595
1152,-1.5132113136452801e-10,-1.415045647490197e-10,-2.4944784216529176e-10,-3.010501992928449e-12
1153,-1.7077870008510922e-09,-2.6660922359192247e-09,-4.8097049566306856e-09,-6.964046428015666e-10
1154,-1.9405764185780695e-08,-3.00503761455031e-08,-5.422659387562892e-08,-6.311681688680046e-09
1155,-1.3624928695648188e-07,-2.2225254525850343e-07,-4.017244028581721e-07,-3.822923850026393e-08
1156,-7.188763650222828e-07,-1.2336593984746097e-06,-2.2326645979681557e-06,-1.6908934162693517e-07
1157,-3.0394824185847113e-06,-5.495357553882481e-06,-9.95598248945672e-06,-5.741877920224088e-07
1158,-1.0769928159184833e-05,-2.0529267200840202e-05,-3.722986715802016e-05,-1.5473898828460133e-06
1159,-3.303998968939351e-05,-6.636092182034836e-05,-0.00012047377644112108,-3.33562817687247e-06
1160,-8.9929261470042e-05,-0.00019001415916386193,-0.00034540172946708614,-5.610099445870494e-06
1161,-0.0002213809000029652,-0.0004908283127044815,-0.0008936619344689609,-6.5034159195964875e-06
1162,-0.0005004957195297483,-0.0011606416076150236,-0.0021174925406140573,-1.4974175719479675e-06
1163,-0.00105202717395671,-0.0025426173376515873,-0.004650098262781645,1.704562130409696e-05
1164,-0.002076561391488036,-0.005211647005378181,-0.009558047224092203,5.843677310138328e-05
1165,-0.0038804081666144507,-0.010077991318389299,-0.01853949415033342,0.00012870921329946028
1166,-0.006910742142559885,-0.01851421584115686,-0.034168639033254046,0.0002204364757506648
1167,-0.011795137550885468,-0.03250361041477959,-0.06018279664712955,0.0002955047462369698
1168,-0.019384327618800358,-0.054806082003219625,-0.10180386102802155,0.00025895663920813685
1169,-0.030796686666180743,-0.08913492766429856,-0.1660808194800347,-7.798104266084266e-05
1170,-0.04746236973040982,-0.1403348990761624,-0.2622342617750834,-0.0010473511467592098
1171,-0.07116426680055915,-0.21454871051384108,-0.4019777561363868,-0.0031875745930365915
1172,-0.10407208186432056,-0.3193559294884019,-0.5997850462195115,-0.007320579665321224
1173,-0.14876512343958126,-0.4638654756914468,-0.8730670760862189,-0.014642206126507861
1174,-0.20823903341588487,-0.6587412925232043,-1.2422198895733645,-0.026823617967315087
1175,-0.2858917097631396,-0.916140633241393,-1.7305043995741878,-0.046119518246930134
1176,-0.3854842435389067,-1.2495462330723532,-2.363722668452944,-0.07547674156291259
1177,-0.5110737617502391,-1.673477592799547,-3.1696630503100893,-0.11863461889070306
1178,-0.666916650949721,-2.203072664489266,-4.1772983249997875,-0.18020675933100025
1179,-0.8573424713102478,-2.853539113558482,-5.41573628723042,-0.26573278803616673
1180,-1.0866006504662655,-3.639483584828325,-6.912940284765119,-0.3816882498183737
1181,-1.3586835643516622,-4.574137405260718,-8.694256698002244,-0.5354413342240129
1182,-1.6771307718005972,-5.668507232775343,-10.78080588842573,-0.7351463788754122
1183,-2.0448202001450424,-6.930488607573387,-13.18781118205275,-0.9895662804991561
1184,-2.4637531048823123,-8.36398844661518,-15.92295541665935,-1.307819037431512
1185,-2.934840809447705,-9.968108561606382,-18.984865060649945,-1.69904761287566
1186,-3.457702381886492,-11.736445582779343,-22.361826638013362,-2.1720171371818227
1187,-4.0304833281140136,-13.656562666122882,-26.030838273827452,-2.734649046108433
1188,-4.649705686417423,-15.709684580345222,-29.957090029954117,-3.393507813786316
1189,-5.310159459431623,-17.870660006497516,-34.093950276441966,-4.153261979538628
1190,-6.004844012500047,-20.108223175870187,-38.38351200798225,-5.016146467794815
1191,-6.724966141600936,-22.385571749220254,-42.75772372865169,-5.981457128041287
1192,-7.459999196149551,-24.661259859763717,-47.14009573054065,-7.045110480670083
1193,-8.197805282580635,-26.890385639388313,-51.447936302247584,-8.199301643159426
1194,-8.924820399600353,-29.02603271175684,-55.59503609156524,-9.432291214225684
1195,-9.626300448538274,-31.02090659078822,-59.494685309763675,-10.728347566007976
1196,-10.286624506217276,-32.82909120870018,-63.06288064601935,-12.067864646046322
1197,-10.889650430664522,-34.40783924798908,-66.22155929941889,-13.427667339699127
1198,-11.419116752238027,-35.71930364229657,-68.90168851240264,-14.781507047540327
1199,-11.859083673528627,-36.73211716567673,-71.0460414599299,-16.100739839940005
1200,-12.19440470731417,-37.42273265769963,-72.61150435369018,-17.355168850562126
1201,-12.411218956559553,-37.776447842375326,-73.57078412946731,-18.51402207090079
1202,-12.497452400221484,-37.7880552453902,-73.91341938157647,-19.547027206554404
1203,-12.443314969513912,-37.46207836713466,-73.64603700935463,-20.42553752492934
1204,-12.241778917761122,-36.81257875864133,-72.79184082261999,-21.123657365893422
1205,-11.889022979418266,-35.862543442393246,-71.3893633278618,-21.619313610924614
1206,-11.384826127349042,-34.642886545100446,-69.49055516899033,-21.89522017791448
1207,-10.732894271933548,-33.191121351759335,-67.15832529239972,-21.93968654186237
1208,-9.941103099725314,-31.549777610644473,-64.46367605312003,-21.74722822796368
1209,-9.021640392091749,-29.764652481347458,-61.482598903761065,-21.318946677216882
1210,-7.991031747089163,-27.882991039557385,-58.29290637514576,-20.66265714750803
1211,-6.870034739641751,-25.951693280141914,-54.971174095991834,-19.792755549564642
1212,-5.683388576303166,-24.01563910953146,-51.58995285745403,-18.72982757995034
1213,-4.459409505071325,-22.116211445922158,-48.21538651780552,-17.500015562499605
1214,-3.2294269168163736,-20.29008120540173,-44.90533898401841,-16.13416938431374
1215,-2.0270610838460272,-18.56829801522719,-41.70809541323768,-14.666817205674793
1216,-0.8873505960456619,-16.975708568798197,-38.661662272599095,-13.134998674522297
1217,0.15425461691568318,-15.530702404090064,-35.79365110861853,-11.577007965284809
1218,1.0630105506188139,-14.245264294113117,-33.12169472368174,-10.031096109371052
1219,1.806074204866036,-13.125294916394033,-30.654314328611715,-8.534182048574715
1220,2.353736101566357,-12.17114822141932,-28.392133992153,-7.120619823858439
1221,2.6806430040161864,-11.378325664920036,-26.32932542185639,-5.82106555272891
1222,2.766958575267269,-10.738264502170015,-24.455162196816143,-4.661482571423065
1223,2.599407070023055,-10.23915946822466,-22.755567648802195,-3.6623167100114182
1224,2.1721454095608355,-9.866763833953378,-21.21455370345808,-2.837866516914153
1225,1.4874122978892506,-9.605126100790068,-19.815467600904658,-2.195865794555718
1226,0.555909473838355,-9.43723134155984,-18.54198764170814,-1.737288471414746
1227,-0.6031205684437797,-9.345530107717899,-17.37883577143451,-1.4563790182461687
1228,-1.9621443550793518,-9.312351595897676,-16.312201660476504,-1.3409056417412535
1229,-3.4859250219786784,-9.320210189495855,-15.329897760409963,-1.3726283384006577
1230,-5.132442807833682,-9.352024518971364,-14.421285626949027,-1.5279692665886695
1231,-6.85412728421414,-9.391275083290173,-13.577029093635685,-1.7788682828847173
1232,-8.599363626362678,-9.422129780475823,-12.788738690881852,-2.0938015172357907
1233,-10.31421943191165,-9.42956631709362,-12.048573833568868,-2.4389354364516995
1234,-11.944324759244896,-9.399516584887484,-11.348865166725027,-2.779383145556537
1235,-13.436827182390418,-9.319051232006547,-10.681810122182199,-3.0805240206307474
1236,-14.742336691588534,-9.176613578651954,-10.039281561199534,-3.3093426274230398
1237,-15.816772787419092,-8.9623017669506,-9.412773909959276,-3.435738784010797
1238,-16.62302861484273,-8.668187768517456,-8.79349491628352,-3.4337582220119045
1239,-17.132374443838362,-8.28865278629842,-8.17259537610118,-3.2826930672091708
1240,-17.32553489761383,-7.820711741845039,-7.541515057726213,-2.9680035892269707
1241,-17.19339014867102,-7.264295650124395,-6.892411495173077,-2.482017335672089
1242,-16.73726983836994,-6.622460112177475,-6.218630109272592,-1.8243687915199687
1243,-15.968828560213856,-5.901490807740546,-5.515169744198913,-1.002151931048868
1244,-14.909512271176329,-5.110882358855991,-4.779097493126182,-0.029769321098659905
1245,-13.589644854684794,-4.263174609992386,-4.009870560236232,1.0715255652481261
1246,-12.047182051509665,-3.3736395241877273,-3.20953049604744,2.2743819577689015
1247,-10.326195155926369,-2.4598217847600576,-2.3827456182171436,3.5463757508728633
1248,-8.475158398422913,-1.540946125685093,-1.5366897115163223,4.851263853562956
1249,-6.545121381103169,-0.637213750478001,-0.6807579167825395,6.150415785119288
1250,-4.587850912649063,0.23098168706511454,0.17386711142385533,7.404358468466897
1251,-2.654025020645102,1.0438817127324893,1.0147751000875758,8.57436253535301
1252,-0.7915557717323278,1.783193356243439,1.8289820453576202,9.623994945737037
1253,0.955892739317878,2.4328797734492227,2.6036401461235745,10.52056376135534
1254,2.550138572040449,2.979870111030659,3.3267625848280256,11.236386583005938
1255,3.959431675286676,3.414651653445641,3.9879212841747593,11.749824118247146
1256,5.159099718588981,3.7317138415989275,4.57887762452379,12.046033977345534
1257,6.131887587609281,3.929822144605065,5.094110292559768,12.117416070104065
1258,6.86800367121133,4.012109244280545,5.531210704840243,11.96373862433085
1259,7.36489916169906,3.9859807238207154,5.891124352729084,11.591951443801596
1260,7.626816434846467,3.862841717716039,6.178225429203148,11.015709311626312
1261,7.664149004571419,3.6576592574576408,6.400221588551012,10.254642470121384
1262,7.492658622649821,3.388381990674667,6.567895046750751,9.33342214836141
1263,7.1325952538929664,3.0752444153737684,6.694694901916697,8.280676701495484
1264,6.607763278521401,2.739986671391054,6.796203014230627,7.127817760448643
1265,5.9445729563194245,2.4050232958035123,6.889501658750147,5.907835918092924
1266,5.1711104612118906,2.0925952075949272,6.99247512213528,4.65412218104638
1267,4.316253308544724,1.8239386504553647,7.123079343086684,3.399365209189087
1268,3.4088512784177456,1.6185029798438177,7.298613585305763,2.1745657158417195
1269,2.476986397129003,1.4932461851734076,7.535026220447848,1.00819887005383
1270,1.5473196527890298,1.4620330277241165,7.846283291505172,-0.07445620400907683
1271,0.6445272463169207,1.5351558819617392,8.243824050811778,-1.0518127209068884
1272,-0.2091742363628868,1.7189930355696896,8.736122445964586,-1.9063023170653224
1273,-0.9944162193817245,2.0158136274004903,9.32836786707761,-2.6245441214436864
1274,-1.6949829816768935,2.423732824863406,10.02227261273599,-3.1973765540751065
1275,-2.2980351903317535,2.9368154374361626,10.816007757607474,-3.619775142494313
1276,-2.7942530737909257,3.545321040521934,11.704263738295573,-3.8906802254386212
1277,-3.1778987585861924,4.236078933316251,12.678427346797903,-4.012756423728751
1278,-3.4467961588144322,4.992976988047687,13.726863186632572,-3.9921019430954274
1279,-3.602226398470258,5.797544811188744,14.835285124007882,-3.837921074244117
1280,-6.151324034547249e-11,-2.2179860301440427e-08,-3.3623130200943986e-10,-1.2383143206552824e-10
1281,-1.0149763821913923e-09,3.2023207344847896e-08,-3.3879324047082875e-09,-5.975148345790255e-10
1282,-1.1278584278888282e-08,-5.313509335435379e-08,-4.075855947427747e-08,-7.611319812772106e-09
1283,-8.165937338911716e-08,-1.857032314055098e-07,-3.0077489497530955e-07,-5.2153948073736403e-08
1284,-4.454273114224965e-07,-1.0501258887176764e-06,-1.6735829932509047e-06,-2.7382783505801545e-07
1285,-1.9579888065727747e-06,-4.875914430411326e-06,-7.4746455711788305e-06,-1.1623671324531688e-06
1286,-7.254511913053266e-06,-1.8270008956492838e-05,-2.7994425244637734e-05,-4.194996564459328e-06
1287,-2.3389593149456302e-05,-5.974169230100491e-05,-9.072744067838754e-05,-1.3308738749783384e-05
1288,-6.71844570503712e-05,-0.00017238221816113575,-0.00026044700737156996,-3.802617703932306e-05
1289,-0.00017502614092425358,-0.0004482979140438452,-0.0006744131093959904,-9.956437813620738e-05
1290,-0.0004192805373851097,-0.0010652663045696128,-0.001598377462849708,-0.00024180980374686654
1291,-0.0009336096122641789,-0.0023419054301641665,-0.0035086087025783816,-0.000549485054621327
1292,-0.001949153987679637,-0.004810473513159595,-0.007203690978660309,-0.0011759078650808398
1293,-0.0038427892155434577,-0.009311359138544514,-0.013947738718776791,-0.0023824949308321446
1294,-0.007197676389522416,-0.017105519798435064,-0.025644033811188925,-0.004591616955403081
1295,-0.012875366510422863,-0.03000592213353763,-0.045035368915494305,-0.008453812831152454
1296,-0.022097862073058742,-0.05052110222886865,-0.07592445630115668,-0.014929654748186878
1297,-0.03653718241167041,-0.08200741316356484,-0.12340471882542393,-0.025385679539782793
1298,-0.05840889383241805,-0.128820215305161,-0.19408831556143077,-0.04170248472191637
1299,-0.09056464147851223,-0.19645190490892586,-0.29631447637168995,-0.06639134251115207
1300,-0.13657702823775006,-0.2916446318697457,-0.44031740088843874,-0.10271352079183792
1301,-0.20080844413326715,-0.4224576757567452,-0.6383296225013992,-0.15479416904577886
1302,-0.2884539666306136,-0.5982743525308236,-0.9045947756580841,-0.22772037379389895
1303,-0.40554754379921354,-0.8297271579107827,-1.2552637399886917,-0.32761106403402823
1304,-0.5589206890683762,-1.1285280976183063,-1.7081509574756244,-0.4616452600792625
1305,-0.7561040980038027,-1.5071888150352086,-2.2823333885029338,-0.638034935596153
1306,-1.0051650193640116,-1.978627018335068,-2.9975831082360638,-0.8659298045124806
1307,-1.3144766886127546,-2.5556573602429995,-3.8736352219028465,-1.1552436132982136
1308,-1.6924203715501005,-3.2503769739852184,-4.9293049685336525,-1.5163950512640134
1309,-2.147025272656151,-4.0734641909082345,-6.181480593057515,-1.9599609869786745
1310,-2.68555651891014,-5.0334149584366195,-7.644030904171111,-2.4962453048453495
1311,-3.314066405406174,-6.135755211541733,-9.3266775809033,-3.1347728050299852
1312,-4.036928707151724,-7.382268276993478,-11.23389119416669,-3.8837240088610128
1313,-4.85637965086882,-8.770287937752302,-13.36387587862988,-4.7493328187941755
1314,-5.77209162073081,-10.292104445920266,-15.707709670077879,-5.73527430262696
1315,-6.780806570658381,-11.934536935184651,-18.248705376375128,-6.842074167023043
1316,-7.876055349904221,-13.678715874703645,-20.96205009768661,-8.066574383431151
1317,-9.047986793450802,-15.500118442528699,-23.814770493032487,-9.401490698601345
1318,-10.283326525459588,-17.368882713766546,-26.766055828139983,-10.835096909517121
1319,-11.56547998745846,-19.250417927020912,-29.76795253926667,-12.351067514814826
1320,-12.87478722460503,-21.10630743716399,-32.766423199169516,-13.928504362395795
1321,-14.188928614007068,-22.895482945003938,-35.70274062621434,-15.542164395288037
1322,-15.483471417025617,-24.57563258368021,-38.51516592503939,-17.162894972539405
1323,-16.732537531898355,-26.104782244655798,-41.140839234872935,-18.758271391564676
1324,-17.909564069960627,-27.4429806242291,-43.517796029972125,-20.29341917381571
1325,-18.98812134476173,-28.55400088900197,-45.58701163430164,-21.731992366982233
1326,-19.942748319160696,-29.40697159527001,-47.294373709535236,-23.037269476768277
1327,-20.74976388344584,-29.977842268303775,-48.59248715232704,-24.1733211825391
1328,-21.388013603509805,-30.250600176384584,-49.442227780317765,-25.106199220107932
1329,-21.839515596982565,-30.21815896644702,-49.81397885639888,-25.805093930008717
1330,-22.08997568813804,-29.882861775547514,-49.688506188945404,-26.24340922532544
1331,-22.1291505006065,-29.25655613219721,-49.05745115368944,-26.39970797492501
1332,-21.951047022287785,-28.360225318335043,-47.92344467112238,-26.258487779078038
1333,-21.553957572502842,-27.223185808994533,-46.29986740383588,-25.810756196617728
1334,-20.94033917370925,-25.88188324734046,-44.210300625617876,-25.054385141324616
1335,-20.11655539311993,-24.378349076706762,-41.687727201332564,-23.994235758519515
1336,-19.092506234162606,-22.75839472039377,-38.773551467887444,-22.642056967476563
1337,-17.881177186884646,-21.069642812137154,-35.5165097266113,-21.01617221429969
1338,-16.49814165882075,-19.359499204506943,-31.971538903109327,-19.140978780959678
1339,-14.961051425980338,-17.67317942712255,-28.198660194828125,-17.04629144656957
1340,-13.289147401070371,-16.051893552186094,-24.261918198362785,-14.766566732559184
1341,-11.502818144196414,-14.53128951503653,-20.228396057930357,-12.340045310645614
1342,-9.623226544750109,-13.140232287357712,-16.16730592216889,-9.8078485069831
1343,-7.67201655763565,-11.89998034081195,-12.149133869070678,-7.213060758981581
1344,-5.6711025096856655,-10.823792042975247,-8.244802031846715,-4.599824002385141
1345,-3.6425341824879336,-9.916968365281281,-4.524799844240005,-2.012463202484448
1346,-1.6084225763767563,-9.177314423646802,-1.0582328706218205,0.5053445487815834
1347,0.4090952267869768,-8.595972028279352,2.088257761582208,2.9113511168505957
1348,2.3878777511378164,-8.15856024473978,4.851739589254365,5.165467336793839
1349,4.30581432674231,-7.846538096878663,7.174411187543104,7.230444285436247
1350,6.140899185701997,-7.638699036668898,9.005191954310444,9.072509923979995
1351,7.871365527871056,-7.512696360673115,10.301440433021115,10.661965070961543
1352,9.475894050702035,-7.446507523137054,11.03073408502721,11.973740487687373
1353,10.933902382864638,-7.419747583511624,11.172618006329161,12.987913039462672
1354,12.225913256460997,-7.414762177761153,10.720210395706797,13.690173905375193
1355,13.333990940256692,-7.417442894617759,9.681540758852092,14.072236385945658
1356,14.242228087067897,-7.4177323693574255,8.080494736423859,14.132165743766619
1357,14.93725914886936,-7.409807660852679,5.957247779534979,13.87460943432475
1358,15.408772223816493,-7.391949068854034,3.3680889309420032,13.31090382211712
1359,15.649988846603646,-7.366126809952342,0.38456478168053615,12.459033449865327
1360,15.658080958514443,-7.337348681752549,-2.908089122124461,11.343421439351335
1361,15.434496067277886,-7.312831252291453,-6.4132189635751695,9.99453448169443
1362,14.985165324638416,-7.301059450606592,-10.025668790591581,8.448292967781816
1363,14.320574700533818,-7.310809199839252,-13.635239709544106,6.7452856862726
1364,13.455686322705132,-7.350199828345758,-17.13054829253542,4.929798791121219
1365,12.409704888343207,-7.425843033064058,-20.40310657995756,3.048679697273164
1366,11.205692200975536,-7.542138614803002,-23.351423153747962,1.150067362005948
1367,9.870040683916757,-7.700759340237859,-25.88491466236183,-0.7179697993908193
1368,8.431823620830803,-7.900348279433634,-27.92742115868281,-2.5088391857539607
1369,6.922045523987014,-8.136436726631565,-29.42013642150142,-4.178817753929519
1370,5.372820173762494,-8.401578580863093,-30.32379510551749,-5.688376948680761
1371,3.816506369547334,-8.685678179263313,-30.619999766061248,-7.003382172600033
1372,2.28483224754043,-8.976483811493832,-30.311619715376036,-8.096114179085156
1373,0.8080383468071312,-9.26020472173876,-29.42224664949392,-8.946066857773403
1374,-0.5859322374741478,-9.522210568196336,-27.994745291230988,-9.540485605439766
1375,-1.8721709073338364,-9.747764151717343,-26.0889873642758,-9.874622097230107
1376,-3.02944528264158,-9.922745626448181,-23.778900668478297,-9.951694196172316
1377,-4.040726565558393,-10.034323779516699,-21.14899943542273,-9.782553219627406
1378,-4.893587282702481,-10.071542138412683,-18.290585410615883,-9.385074098914895
1379,-5.580458032564977,-10.025789855646906,-15.297820276979124,-8.783296447679605
1380,-6.098735898184095,-9.891139991324224,-12.263868579608015,-8.006355516231672
1381,-6.450741412039827,-9.664546681782175,-9.277296941784426,-7.087251081935589
1382,-6.643525451773925,-9.345898997886922,-6.418891247921611,-6.061509024599901
1383,-6.6885321105904545,-8.937943034449138,-3.7590209115822013,-4.965794360623773
1384,-6.601128188255938,-8.446084316136096,-1.3556408762185728,-3.8365354347767338
1385,-6.400014228088079,-7.8780938732691626,0.7470192862126476,-2.708616781357774
1386,-6.106535818889311,-7.2437380969017315,2.519070910289893,-1.6141930031572986
1387,-5.743917184666417,-6.554359796815062,3.9449163713055273,-0.5816684828287757
1388,-5.336441891605759,-5.822430999442774,5.022596707994653,0.3651216267108294
1389,-4.908607761694011,-5.061102014043239,5.762625711182032,1.2075041674699838
1390,-4.48428464560361,-4.283763343182777,6.1864174498619455,1.9323205977633482
1391,-4.08590444755867,-3.503636591602392,6.324423878656293,2.53203659191391
1392,-3.733712567936366,-2.7334062399329726,6.214100557572909,3.0046162393340374
1393,-3.44510860001341,-1.984898084417027,5.897812637967739,3.3531781600224253
1394,-3.2341014950173412,-1.2688112803884304,5.420781291938912,3.585459478376331
1395,-3.1109004034906613,-0.594502115930944,4.8291546027110295,3.7131210200623084
1396,-3.081657072587826,0.030178524169771324,4.168268317777662,3.750932859510751
1397,-3.14836932350835,0.5990000569560161,3.4811426647314625,3.7158830957063285
1398,-3.3089481294499317,1.1074204042690485,2.807243055561196,3.6262540471988403
1399,-3.5574435749385516,1.5526149770751234,2.1815158818059746,3.5007089587640388
1400,-3.884417897426466,1.9334679418171627,1.6336965210482537,3.3574288969730786
1401,-4.277447293154562,2.250531782232346,1.1878753411976344,3.2133342306885666
1402,-4.721728607352309,2.5059556005090267,0.862299253945034,3.083418321563467
1403,-5.200762689768301,2.7033857428753687,0.6693811322623222,2.9802134589580027
1404,-5.697083196760009,2.847838646304231,0.6158870142568111,2.913401224074104
1405,-6.1929979797668215,2.945545787465082,0.7032710683598645,2.8895719734857255
1406,-6.671309966201751,3.0037734678629726,0.9281302173975612,2.9121313185039472
1407,-7.115985737879698,3.030616090966118,1.282753413551622,2.981345488571957
1408,-6.376511738572613e-11,-1.526753444193198e-10,-1.067563146732169e-10,-6.306945530890318e-11
1409,-1.2606117628798887e-09,-2.3542161724223495e-09,-2.259291309069793e-09,-1.2191187125834874e-09
1410,-1.3607316667425526e-08,-2.6978899315137732e-08,-2.5537885177325447e-08,-1.3465514886980795e-08
1411,-9.70732768574712e-08,-1.99899914429078e-07,-1.9076973874084827e-07,-9.802023529272874e-08
1412,-5.208168894306599e-07,-1.1135081539494264e-06,-1.0680695856850683e-06,-5.366915997782999e-07
1413,-2.2517953003530917e-06,-4.979445219795565e-06,-4.794454862678636e-06,-2.3664539430147376e-06
1414,-8.213408294478717e-06,-1.8677301634674768e-05,-1.8031776154472352e-05,-8.788836283063633e-06
1415,-2.6108682934312266e-05,-6.062373994426901e-05,-5.862466912562748e-05,-2.8380232582166653e-05
1416,-7.409464447226113e-05,-0.0001742935454358978,-0.00016868748954236017,-8.157190714058758e-05
1417,-0.00019118563077984418,-0.00045197974118087235,-0.0004375684800727648,-0.00021245342191491453
1418,-0.0004548291220622235,-0.0010726774397460676,-0.0010384871644291032,-0.0005084100270962958
1419,-0.0010084303080323189,-0.0023576954016413794,-0.0022825139159328304,-0.0011302452759928993
1420,-0.002101493406534975,-0.004846683896508514,-0.004692961062081949,-0.002355131837447141
1421,-0.004144435876802442,-0.009395384405968852,-0.009102263764791983,-0.004634015038011209
1422,-0.007779120252882033,-0.017294669737878875,-0.016772100535426274,-0.008664117681337668
1423,-0.013964927538261581,-0.030408518608108788,-0.029535847114917767,-0.015476122129811754
1424,-0.02407887011677914,-0.05132644946411886,-0.04996041762709433,-0.026534449114195023
1425,-0.04002679627699581,-0.0835236563993911,-0.08152208771209479,-0.0438477151390617
1426,-0.06436109738382903,-0.13151959800772686,-0.12878804241360364,-0.07008481602518705
1427,-0.10039847811558987,-0.2010231813722809,-0.19759229856651664,-0.10869015094004837
1428,-0.15232935932218908,-0.29905014597855395,-0.29519157229282733,-0.1639893765933701
1429,-0.22530849028895736,-0.43399609652623433,-0.430383926866051,-0.24127495352868275
1430,-0.32551458203950856,-0.6156473393951668,-0.6135710404116888,-0.34685890991904955
1431,-0.46016557973530064,-0.8551116773413359,-0.8567441023377647,-0.48807911079026883
1432,-0.6374760157991188,-1.164653065973042,-1.173374117289055,-0.6732453714174963
1433,-0.8665441023845311,-1.5574177168889725,-1.5781900832527236,-0.9115133440204236
1434,-1.1571589883130065,-2.047044881271638,-2.086833236749398,-1.2126772960938321
1435,-1.5195227875765343,-2.647162849376614,-2.715382166027412,-1.5868774039759324
1436,-1.9638872786254815,-3.3707792041867766,-3.479751706019397,-2.0442225723646033
1437,-2.5001112082623194,-4.229583402443533,-4.394977607089652,-2.5943356343872077
1438,-3.1371505271444566,-5.233188618942413,-5.474408410664372,-3.245833754696382
1439,-3.8825002063094454,-6.388347804508294,-6.728835166733742,-4.005762673593552
1440,-4.741612071517161,-7.698185401346388,-8.165598016005825,-4.879008839024399
1441,-5.7173179434078785,-9.161490623380713,-9.787715702728029,-5.8677182779243315
1442,-6.809290962150548,-10.772120129075677,-11.593089223618662,-6.970755034037264
1443,-8.013579991352882,-12.518556969106898,-13.573833450631321,-8.183234769435673
1444,-9.322252012107848,-14.383668590602422,-15.715790041656145,-9.496170030699355
1445,-10.7231749787344,-16.344699391304932,-17.99827073661849,-10.896261952300206
1446,-12.199968440973917,-18.373522917674606,-20.394071953345296,-12.365868272623617
