,TP9,AF7,AF8,TP10
0,-2.872756953601182,-0.4112045305924763,-2.4892891996720836,-2.3788818908417353
1,-3.7481833385036945,-0.43485981942856755,-2.8434114432316275,-2.990742872420017
2,-2.541316145812289,-0.15307898364654807,-1.2111289393622102,-1.8276502432148425
3,1.7151178754740277,0.5978644915382804,3.204437347914651,0.8839225673435658
4,5.391602443672521,1.1810506024473677,7.636877416298506,4.412732855358702
5,5.986924291251757,1.2655577967448541,7.969757649342968,5.543449641549263
6,2.9919331251779333,0.8018967339151345,4.076503252046319,3.8792242772018803
7,-0.669879287177541,0.05291079698785829,-2.646690239279309,0.6746132780904696
8,-1.1815488200873334,-0.14810608266833591,-6.234737714855619,-1.1718335098763248
9,1.2694013922032528,-0.2383110195609579,-6.546440502387988,-2.61964099938054
10,3.647925110235308,-0.24465917411029392,-3.708720455934204,-3.091257799069351
11,2.885042181142884,-0.6737210047324504,-1.047365485982664,-2.8863332898795595
12,-0.5169470489727718,-0.9779859357764278,0.7208841602182045,-4.827415933596735
13,-3.7552000160460848,-0.9929303858948315,1.70889955970851,-4.763335671102626
14,-4.009082303890189,-0.45476372192998527,2.0035381904290284,-2.4392690599403974
15,-2.0411768979508293,0.38444333896411853,2.5446824936677466,1.9112648896996631
16,0.8661706708350818,1.1470540838094732,2.3778974151853642,6.271841143985472
17,2.0451343927162173,1.70598960303581,1.2449873437836236,7.300248989449711
18,1.9507984122144295,1.5136494739295707,-0.11442522172793715,4.444948092331239
19,1.267502543186156,0.8174688464204558,-1.4958847296150313,-1.1394555005850076
20,0.7714807677258047,-0.07417261419524697,-2.369041015093809,-3.8696591327783874
21,-0.4439289771584439,-0.8737178469382841,-1.9770197578677629,-4.078661284292033
22,-2.839893638857995,-1.2846740958085627,-0.9869280602205298,-1.6952298766009792
23,-4.053240307073639,-1.0257147202279036,0.5357020011586453,0.777663427619977
24,-3.3194509061041546,-0.5063617145754883,1.62268568706158,2.0937792135566
25,-1.1803059583276718,-0.05042067942905545,1.5189341231637041,2.2271897522296658
26,1.3789585430806588,0.34119177500141934,0.30251007648341155,0.7467156418940797
27,2.3545549113333353,0.569586648161723,-1.1696273539573865,-0.4999757474319582
28,2.1028237398816945,0.626714013113116,-2.1235379758997857,-2.7555997408008635
29,1.1508989894957575,0.48615274089760124,-2.2774724913745543,-3.6757059978197884
30,0.9284421077668867,0.2305665934855694,-1.3812598023072997,-2.5385660877259832
31,0.8074666353811089,-0.6045175106118118,-0.15867865446993884,-0.3006223584018073
32,1.8083011436745495,-0.9843436915950201,1.0811335380255187,2.639430290688981
33,2.362978640192039,-0.6260655295404111,2.1318699463031745,3.7230753754952195
34,2.880965905948466,0.5560127610225952,2.7306982529560706,2.4518219252330176
35,2.0874602818904275,1.5943680416696429,2.608423789782131,-0.6219875184823398
36,0.3186585789646581,1.8783998026524629,1.6247654889014664,-2.435090777506098
37,-3.0617872419447467,1.4356757012352084,0.2323791977879026,-3.314409567497575
38,-4.35610970706773,0.6454935782001611,-1.2206379512694563,-2.633571678743153
39,-3.3360176567929956,0.43028727190965965,-2.0741608160558775,-1.4478422699879279
40,-0.06493255660383437,0.159216875080097,-2.0020707650644582,-0.9894405379406184
41,3.14105692505945,-0.06610808958271569,-1.4425861467671461,-0.3259083773049862
42,3.476478132948365,-0.7488647569379866,-0.9664972043935812,0.1903099966844667
43,1.5852670701985236,-1.3502398191200071,-0.6600271981613538,1.1500610379277125
44,-1.187160520371163,-2.3482241922099103,0.07020554214116381,1.3653232251497374
45,-2.5191320765968412,-2.897802220064986,0.9835281599020348,0.7764051297584418
46,-2.4901896621212507,-2.2000791894983713,2.7220826359962387,-0.5205261043858928
47,-1.1971774204373402,-0.5857600085739383,3.925904476277778,-1.3960842695945284
48,-0.11274070473155134,1.9176631209717916,3.3186518037611044,-1.7528874934067509
49,1.371738338104754,3.51043673154682,1.2603297668455662,-1.3138994129284407
50,2.7958643238921295,3.1353956353639156,-1.8736163595981092,-0.3004002712699778
51,3.6014859569446562,1.118950299300724,-3.6169585803987685,0.287207801994559
52,2.7444065062185032,-1.0210339490330156,-3.3897375885693815,1.2784441471424524
53,2.0289717265926903,-2.257622236331016,-1.3161192608366057,1.5052183832312056
54,0.21198016240018414,-2.247760842847367,0.5787885834884373,0.9778802654467665
55,-2.7206409794514053,-1.2774624132482935,1.87755701181481,-0.34106666681429154
56,-4.775169616509571,-0.680447353576135,2.1566917533952563,-1.4881311427629071
57,-5.450108458761402,-0.18173175178756557,2.0827829671877716,-2.0855922383161927
58,-4.8165311403058055,0.20289313732054118,2.0475727991220793,-1.8245503683783584
59,-2.607772717468418,0.3973730513726795,1.043176750702655,-1.2268084843203013
60,0.22114258332558107,1.0107094869047488,-0.24839714187844764,-0.7401789743842713
61,3.235293581119435,0.9982440060842108,-1.976952057777346,0.1029440761095195
62,4.121182289883289,0.414630364289578,-3.1322871441200304,1.5133751387358054
63,3.0063455993305226,-0.6130184083914183,-2.5821411528510745,2.3829405061770426
64,-1.5187517311268612,-1.5213615913664797,-0.5076802797111033,2.015924516892644
65,-5.057174368146031,-1.6272738813600642,1.5700340032460993,1.048187921285891
66,-5.636450665273931,-0.9221480288239452,3.2775805988158835,-0.30801234415008133
67,-3.3952546144698412,0.5620635885562991,3.805002527032629,-1.1754752616669992
68,0.23459881174727829,1.188453132374736,2.743004035134278,-1.6564410529323097
69,1.6877709074047902,0.9348269842967598,1.0250939518392386,-1.595945934889425
70,1.582627347546715,-0.23082385593616844,-0.6783397232334505,-2.3315932732570666
71,0.23465727118777724,-1.4576248901281859,-2.6479543366861247,-2.487020796620552
72,-1.8505028214418617,-1.6945131584935647,-3.6762684544302173,-1.5857144262539415
73,-2.8412703395819427,-0.8987893626924665,-2.9296863006086955,-0.1150268185541804
74,-1.8261110621670325,0.5754097867413598,-0.9833449912000964,1.6444746848709346
75,2.3558730053061847,1.5775018411511557,1.4631237511888815,2.8925026962054576
76,5.5928189049349974,1.842180230856021,3.2494013368080075,3.504407517272738
77,5.657875613662522,1.1589043207748948,3.40772105897384,2.8275378621862965
78,2.5370250981282183,0.2536517887209605,1.8623206021983532,1.7591714252253843
79,-1.4337760327712357,-0.44661937168484867,0.08960379987151781,0.5501079778266795
80,-2.4032994771039298,-0.7575423969284195,-1.2872822055635458,-1.1933262246239098
81,-1.8138046400134946,-0.545630306281677,-2.308886843920965,-1.8324360193461662
82,-0.20837861807923252,0.09520164575707,-2.87134506193814,-1.161993927207519
83,0.5643254850558181,0.3730017050026277,-2.3686715874849726,0.8511099230601008
84,1.019383339442526,0.29536553779700864,-1.0036060848314934,2.53608072682672
85,-0.4316283238884205,-0.20063012733091376,1.8163461632766005,2.473563543176458
86,-1.6966747368266284,-1.1183793309100023,3.527472615509839,0.5832537789096699
87,-2.1822694035599315,-1.1953315544029648,3.1644890001415833,-3.1090930803471077
88,-2.153411642606194,-0.46910672119126484,0.6261333626455141,-5.621169672813171
89,-0.5480111033178247,1.1211228986976118,-1.8700309405451445,-5.029286027721092
90,1.6942791443070497,2.1137641228854007,-2.5690747206634663,-1.2751748676012746
91,3.6092555193163,2.2174998633700453,-1.8449556334677581,2.8524940002547376
92,4.45098539887138,1.4399102029523823,-0.2963427288295934,6.205235707939414
93,4.571105775388632,0.2849047458031806,0.10226873584875437,7.758115316279867
94,3.094177360213223,-0.080075080999537,0.006862631564780869,6.476975012625918
95,0.6957559370919103,-0.06379906574081595,-0.20729801327382674,3.424201328602642
96,1.2331950056231553,1.0521020431259642,0.1294010620333976,-0.44995794095772534
97,1.0531056735708684,1.2933310364309045,0.8958866101876313,-4.506357937489356
98,-0.03320210662527168,0.6270735170262585,1.565026902324973,-7.253740070768893
99,-6.486217804579377,-0.7350953795866002,1.605136030059949,-7.536237072425063
100,-10.146926550066453,-3.0972350209460875,0.8573053519551187,-5.933516788576245
101,-8.577381001408256,-3.7056557755171804,-0.2413938457589978,-2.8185593961491993
102,-0.27864484230318953,-2.1454093756972132,-1.0791582291793678,0.6321907659672912
103,8.054091100241202,1.0297600612302404,-1.4589700601430802,3.7053480035388833
104,9.688331843960487,3.5074646573632955,-1.049287267530554,5.3334262592673936
105,6.132152061903343,4.5519521863164965,-0.4263013750480004,5.427572019428662
106,-0.2196465276866792,3.355375456452087,0.31408602401135277,4.525347731893813
107,-1.7749265991521224,0.8770472659188702,0.9211425617484325,2.9002411951879625
108,-1.31628290031912,-0.6190875768570848,0.9264317657248076,0.7916625169120488
109,1.0738856897414082,-1.7220817585119852,0.3703685431028504,-1.3117630540376886
110,1.345388729961543,-1.8874467303161357,-0.25510215907303124,-2.894489872442249
111,1.9934209943111005,-1.8074438410578673,-0.7190197564701355,-3.463173633954733
112,0.9761657877460449,-1.652701784799795,-0.9431025918632104,-3.192775919853538
113,-0.7962143704941632,-1.4906806394911847,-0.5175163952262534,-2.437557901403976
114,-5.599928381951033,-1.3969219406830653,0.17157205519226212,-1.7603690385735784
115,-7.410034309491252,-0.7980945555666945,1.1888464475920746,-1.2329948056373352
116,-5.005158888650588,0.09995873779799724,1.9067466791577987,-0.5205812458899566
117,2.4500186661501826,1.7330282443982201,1.537947383369,0.30168088017551375
118,9.761983947737829,2.5853624896877023,0.4355308124266817,1.369516224332418
119,10.959773614553226,2.3030666585992097,-1.5231420038907408,2.0466379919866644
120,6.567631883433969,0.5600450886867783,-2.455932983295108,2.3533357886438395
121,-0.9255407352282501,-0.9373405788303976,-1.998204833877661,2.142865874685724
122,-4.260329847567178,-1.234537269318414,-0.40983994277628943,1.7766893167807534
123,-5.5654213222344895,-0.3638435413123208,1.1064456172515205,1.5949072381236293
124,-4.559832391841176,0.8725413241719387,1.944077998122703,1.2603540929435568
125,-4.600666494357951,0.99760347353366,1.925049634069974,0.8529132550290885
126,-4.6736836700933315,0.674697957020965,1.2880933130622194,0.46174724243712834
127,-4.535668161993098,0.05879792100156453,1.1860292512729307,0.19380656562038667
128,-0.021051543116368497,-1.004923868437757,-1.3506155874389039,0.272468733160744
129,-0.005641672008626267,-1.5960691724751706,-0.9328679834305433,0.2548015691362271
130,0.2041162092813628,-1.3796021006204735,0.08474471327776545,-0.15003251589712957
131,-0.0697485415913065,-0.32142294222570317,3.0358364768315993,-2.027037169866936
132,-0.759300412491162,1.2127644410822584,4.553609479845308,-3.0597384369218457
133,-1.9827563283990906,2.454252479476695,3.3822949411460277,-2.4317373455028877
134,-3.9111237490848794,2.627926498837774,-0.13497052903682566,0.20870396280808848
135,-3.451557037074795,1.6767020889863196,-3.7093768573452213,2.8628331078656237
136,-0.6261521474964323,0.4375552399064955,-5.36951577596792,3.4584073190517177
137,5.30228769839999,-0.36735599804895924,-5.261977497380062,2.6163128523310673
138,8.942032171830848,-0.6345499302241869,-4.1731485755424025,0.8073867398755477
139,8.611930661828945,-0.25088906918660825,-3.3448273108263633,0.006131965282587283
140,3.681216927619823,0.19531139941895598,-1.1184046725744312,-0.45629714599431537
141,-1.1041883590701238,0.28202206352051773,1.9563982980800103,-0.28812339964534883
142,-2.2411062759830336,0.08575400926374771,4.461923476767472,-0.2612496724562578
143,-0.8788872271918582,-0.06222584377491107,4.903656340837547,0.06499095458027057
144,4.4974089105562385,0.10347405401458493,2.9167661516287016,0.534203402354896
145,4.118536239087323,0.6137910613319972,0.042714867751902086,0.9340063988846454
146,-0.6135868727286731,1.2175500099795857,-2.206977768705423,0.3444437449128427
147,-10.858064981712293,1.0946696405749774,-3.612773130467418,-0.8620261248679735
148,-20.251947942252283,0.24732671701390965,-3.4385993522117166,-3.5152562307740847
149,-20.274971088090904,-1.1331478903224301,-2.0614016583897175,-5.605167888876604
150,-9.876156834075642,-2.2746758401060654,-0.0672093165580892,-5.056007615527131
151,5.812794946093588,-2.306216310453839,2.2954233215837587,-2.128512976786571
152,16.03012212140647,-1.2279217582127542,3.5382327122915793,2.2657639797953237
153,19.326706584179174,0.5571922551112086,3.0232252350683777,4.586839806723018
154,13.021843871289438,1.5747723558421727,1.6040963118068148,4.279692130772912
155,4.881248157995203,1.5508480685319097,0.175151434544898,1.7078885969428144
156,-1.360441578435693,0.2842750821299248,-0.5952852481098492,-0.24065922178792035
157,-5.837031730377526,-0.9256300913234418,-0.3718357710097425,-1.0806404611103029
158,-6.001162935043639,-1.0804083483147386,0.023987359170355604,-1.1496853527460988
159,-4.157353519677896,-0.5557684335702859,-0.3698905684707876,-0.3623901898204608
160,-1.4312333789081937,0.8870918393728073,-1.8418203009778211,-0.26024510992251365
161,0.45854563208275056,1.293314305001686,-2.5640986864415467,0.21173394960110975
162,2.9674028117629025,0.8809424499986023,-1.8314672948748871,0.6795377174968897
163,3.585510712869337,-0.6991402023532325,-0.03927655805016178,1.3275310601517878
164,2.6100966018343397,-1.7692942530598994,3.266044697857919,1.6589964018531698
165,-0.0656716604546018,-1.8585321196891857,4.131927559702918,1.251146094077328
166,-2.4550293652108404,-0.8833778228035526,2.1865221188089716,0.554146833953642
167,-2.8814683424302685,0.41639083906304014,-2.0584717369583196,-0.7834156370023497
168,-1.5328218521778538,0.7547477792337413,-5.703261801017733,-1.5081514578787947
169,0.6112595182028728,0.5543722891998016,-6.649767422024788,-1.3073446914397313
170,1.186437545306657,0.03723353819095605,-4.059173616945011,-0.2669059981641784
171,1.175643810294368,0.055768111260791606,0.5807784813871052,0.5659434913527518
172,0.720100634195965,0.1252359649074235,3.2796346521187085,1.0024056886148867
173,0.6310719202524162,0.33822428242739405,4.229484749589569,0.873470354295576
174,0.4539281011067234,0.3707685301292398,2.9244968039011727,0.31209365733701033
175,1.4463771834596422,0.12012165246525754,1.177700001867925,-0.0970312000613349
176,2.0638585904073947,-0.3541072427405404,0.42210954809701035,-0.44761666262617994
177,1.4541556767930364,-0.8881767013665547,-0.011501275355267376,-1.5625827907186802
178,0.08895201527762558,-1.3397909752392383,-0.014662752478233732,-1.8025919904888044
179,-1.2085397630932027,-1.4510736919321794,-0.1929974809645173,-0.8670086682677333
180,-2.479681758792889,-0.8697686834275009,-0.43594566018562547,1.766534713907244
181,-1.9424261217648797,0.05966642261223151,-0.6520444940106516,3.8068642888434745
182,-0.4455158909613901,1.2069462771334405,-0.7249664317780468,3.661612862565044
183,1.4578279032707073,2.136101133765334,-0.8453319053691083,1.558732721310438
184,2.6146678469756996,2.0178262217732716,-0.7699953336847787,-1.962031886314888
185,2.237452037414686,1.0148129895152427,-0.48900722201945895,-3.4853574851239175
186,0.19261099218205777,-0.21831853815492877,0.03483778879679806,-2.8488357095585863
187,-2.1795723431235334,-1.0163015216353481,0.4929126543313813,-0.4596428477503668
188,-3.8465389585149823,-1.5722985172486699,0.7180010724259958,1.5063269208101115
189,-3.695972987761032,-1.392655935356966,0.47607273577342424,3.0388326253758833
190,-2.5010237465580483,-0.9159267324505922,0.21551181775570669,3.0059365346260294
191,-1.054108996844219,-0.454915263048904,0.28706967837575526,1.618841960176695
192,1.0492319149962495,0.09649661782555241,0.9172723916595906,0.28906451896853047
193,4.855186077959421,0.37800728565616204,1.2639600793413073,-0.5874886677668953
194,6.271412692584051,0.7583058890640628,0.9139647586494087,-0.7208236538888005
195,4.474628629678048,0.6167017986620027,0.05740898537738334,-0.14947097393789174
196,0.01348873264465593,0.2997148875557059,-1.1603837076058483,0.32245675168817023
197,-4.314377085427729,-0.88225692215078,-1.6534256280650275,0.5883877958331769
198,-5.338199290130371,-1.8347845869098314,-1.1294858081180927,0.6004742870051474
199,-3.2367725038177153,-1.7298470258518694,0.012925133783744241,0.2726222777143652
200,0.5784121476874741,-0.6753655720702826,1.2479557491325872,0.024779429390845226
201,1.908147982244716,1.1183778732700185,1.8680342100615481,-0.2155239079898044
202,2.033152688979565,2.105848703348423,1.3827464702001764,-0.2544713884876151
203,2.4372586785434116,1.743013488742413,0.286282752034032,-0.14112198232341472
204,2.538035982580681,0.17991759408560598,-1.3074858897638422,-0.25609948029786306
205,1.2511318744388849,-1.4548906054340054,-1.7445391435550541,-0.6189461168342731
206,-3.532534063138204,-2.7650803400369766,-0.8127603750816453,-1.8953423689623001
207,-6.196344256510615,-3.0823608076846996,2.234586043832449,-2.29975281909331
208,-4.881615069411938,-1.8561954913605763,3.900670631634664,-1.3709406125591364
209,2.32748599203333,-0.20032220809293944,3.495278912105331,0.4383336568714758
210,8.982499394044321,1.5774639682032248,1.1611905439852461,3.125875055678069
211,9.54879770498829,2.6424148786778225,-2.1436659639436577,3.9233185365648398
212,5.352409734846441,2.519124365795551,-3.4856794567090366,2.311419853264856
213,-0.8612458865287655,1.7682482074370653,-3.058551784082883,-1.292912257545623
214,-3.2693883506376302,0.8567860191444588,-1.3807375113162697,-3.6130089101359224
215,-3.233921736216227,1.0008547152228087,-0.19520435514119786,-4.353084287793861
216,-1.5184277561736939,0.9358962201114387,1.367200098378908,-3.581168502207666
217,-0.8417808974148355,0.39422395802346705,2.6582311732978052,-1.667851976080915
218,0.7677437924398923,-1.0818844744915095,3.375432348449758,-0.5256476349450359
219,3.671784570801325,-2.804029298858576,3.7393422821855444,0.6280917002416488
220,4.917456602593003,-3.1961746865291403,3.1237528079533603,1.7071529675595545
221,3.676825107670971,-1.9230213937456355,1.5252310473890696,2.2045752014091398
222,1.0834380849768372,0.4780535082401936,-0.29560231413710447,1.3442389976299416
223,-2.1801129371846573,2.1151478515291795,-1.8766705099458056,-0.29579067750062604
224,-3.9017479797632393,2.551440040989015,-3.2369657324967176,-1.3950428445217056
225,-3.328093419443561,1.5706198991836142,-3.426088399158048,-2.019996616165591
226,-1.2755562030477932,-0.04112297720921412,-2.4454991943917688,-1.91794475582874
227,0.11579329290522827,-0.7876113358894562,-1.2160764501163355,-1.354089937265219
228,1.6047479676936527,-0.8461707549779489,-0.025688002870522475,-1.945502078576001
229,3.719094328881297,-0.16510200855124862,1.030165084620505,-1.8924345298441296
230,4.216957941291373,0.4957871270015367,1.5627232192703335,-1.0921084665337895
231,2.929979404966447,0.7371955955156103,1.602937345031835,0.787577192796506
232,0.235787592032894,0.7335028376384879,2.2115029729465125,2.2429801235566407
233,-2.5208527927268918,0.44903604915149076,2.222990783948427,2.6381952844382175
234,-3.481558695863966,0.7613952232280066,1.8698698940294602,1.7458260249435487
235,-2.723083530698355,0.7339740991142738,1.2233302000456554,-0.01374555750512163
236,-0.9297553602388126,0.33666588981206397,0.11831364686576112,-1.021978876805025
237,-1.0014718972445733,-0.7235857893248953,-0.8261941707443217,-1.6910874468825616
238,-0.942938254963644,-1.4994586551431102,-1.4806571138353848,-1.925915336752397
239,-0.7838161108553308,-1.5358733615829059,-1.5850392294764173,-2.6588726193317624
240,0.5751013637649932,-0.7621794199273565,-2.537311580813616,-2.2467371864921333
241,1.452523043455692,0.32536931542645353,-2.6400719667408348,-1.0070482720557894
242,1.4308836528558775,0.6091434517572025,-1.7685388987335944,0.7008001732392396
243,0.22997139976520434,0.49237572121636175,0.12241943781323816,2.4110662038299178
244,-1.1930386184473607,-0.4140462756568676,2.4764325370966227,3.317009236114756
245,-1.3616852694172763,-0.5556194427305307,3.323685527628143,3.67969403011616
246,-0.6865214438996892,-0.1393760625014769,2.3325928260584674,3.7913779071559897
247,0.6012159535548565,1.1211956137684573,0.1775896498477366,3.1317863929564593
248,1.127178905008181,2.2085316201154033,-0.9949754608865533,1.1736754621760195
249,1.233613068866986,2.3565448771064608,-1.6983663617329063,-1.3141431499488687
250,0.469067685728591,1.4838918639086358,-1.2909227872827136,-3.364672724460178
251,-0.5349739184869211,0.06108972630187973,-0.46667731459900463,-3.9259665487524797
252,-1.5558585473484021,-0.6289902036640868,-0.11824223451548341,-2.921571536887598
253,-2.272499701886653,-0.8459346725254436,0.1440774693614162,-1.7913161504956097
254,-2.4765514370082458,-0.5721717927412543,0.13552898641170175,-1.214855304115447
255,-2.4333188629207245,-0.4893825429662619,0.011090208082203793,-0.8950095156559235
256,-2.6083458101494013,-1.2694162029355103,-2.128878039698343,-2.678540592690071
257,-2.9206961671617284,-1.3638841629537395,-2.260749263959582,-3.5248816532425447
258,-1.038789878058793,-0.4140033434968785,-0.6157440781106114,-2.246899753552114
259,4.61367537461811,1.8612413005881254,3.332377540316884,0.41757779410196627
260,9.430499176184721,4.255690665098299,7.403831986352504,4.862620393309883
261,9.274141826565549,4.54852384641861,8.009050511799781,7.1899144677606355
262,4.331335008400743,2.512539177988163,4.304598773925744,5.2244829813860285
263,-3.5227197771710226,-0.8035257110224447,-1.7330514564961452,0.0440364613261196
264,-7.306590221835522,-2.8891389572432375,-5.349039718432893,-5.334838346040709
265,-7.063245742620512,-3.8362343473763136,-7.422110517958643,-9.655836310148338
266,-3.6055091411534517,-4.0115805099897965,-7.4586319739254785,-9.219821054771181
267,-0.9835287728804099,-3.411754804554281,-6.247386261289472,-4.478126900950244
268,1.267636380961133,-2.07952029455818,-3.7098933408886388,0.18934460242327023
269,2.5913621358314676,-0.11995015902620604,-0.15174114861357818,3.6735314674744832
270,3.4001129258059,1.8955392822515118,3.5054893386921715,4.879460147072758
271,3.70878952724439,2.971194016151198,5.379117940477071,3.6510732318027515
272,2.57373760187776,2.363531160898391,4.770916302615575,2.6215641185831937
273,0.48407708598871824,0.5851592972366545,3.2152380826430464,1.9560577741519
274,-1.0212547665667904,-0.6741778092460188,1.4501998535791614,0.7058319208336341
275,-2.325993404681658,-1.9951426219577344,-0.4637732705556538,-0.4792290037414419
276,-2.069649855783599,-2.4658214485894443,-2.1688158013676277,-1.9166621688001306
277,-1.5153253407422436,-1.6504473979362924,-3.1912296851900943,-2.762666703390846
278,-0.6013675427050351,-0.5667802552207001,-3.211187984607844,-2.2355243684889086
279,1.02984127274719,0.8413793616369485,-1.9920441978232455,-0.7941635851307001
280,4.674897394279879,1.742964085947936,-0.11848838057333835,0.7674383237272633
281,6.278005714650873,1.631234806252436,1.0375832970378172,1.8013334113137158
282,4.7873301916644495,0.7056537346208231,1.3987514812854889,1.8247990867207762
283,0.3393330188772913,-0.09119527740990449,0.8224588401850059,1.229551003906879
284,-4.0989260426064345,-0.39408390162375534,0.07992760461071802,0.7347670560031155
285,-4.991823004363258,-0.251843631230782,-0.24988807091172247,0.20670276197815207
286,-3.553344903505586,0.18480186691844377,-0.31569912532898725,-0.29385959209010126
287,0.19604097483037897,0.312474854419223,-0.053778628330625584,-0.5484567125943451
288,1.6586414028342014,0.37654911375122946,0.16668279772877356,-1.0073103084443853
289,2.1401983210573174,0.2421147737203249,0.3317496641421341,-1.013388904203317
290,1.3887367630035414,0.18528572329963663,0.7053534957002694,-0.5441239486959205
291,1.1172112251361073,0.07159823879538481,0.6377918005801905,0.000918629792412147
292,0.24072574805139707,-0.09291836214716356,0.2003265106962825,0.5503098881942028
293,-0.17642547440066497,-0.589320630205963,-1.1055676513609722,0.8155296135271705
294,0.35387545992261277,-0.8121593151221507,-1.9756580756303297,0.7146007997793088
295,1.2374290855883654,-0.6777575018560172,-1.862935944808969,0.4035723120434449
296,1.5966130489460844,0.2482607314543756,-0.39998792866714267,0.36804868849615296
297,0.95266145528755,0.9666930752907752,1.1102099227389568,0.4988595345621346
298,-1.0182741291798012,0.8853349812221254,1.3323655195506594,0.48537156686083194
299,-2.6664160469109217,-0.07450326236095589,0.45613266502125754,0.29314479040775054
300,-3.359321429765452,-1.2738025984032892,-0.720909824216333,-0.5931330554021772
301,-2.3860577118063926,-1.350773254741547,-0.8321896955117276,-1.002499498526567
302,-0.22224585845336234,-0.6105941087560945,-0.3726602218856526,-0.672756507770069
303,1.2131824305235734,0.950561510696484,0.2929257279095802,1.0259283718034968
304,1.9850929883929782,1.756082891913191,0.32072848394333553,2.489253893911504
305,3.0891439162743586,1.557381462980581,0.13136863205348176,2.2468032450134205
306,3.1516123538491634,0.36107744374982786,-0.22546305770320263,0.628411776114175
307,1.6314570835498308,-0.8786217357397976,-0.3393981298288685,-2.1604806130757086
308,-1.6565802514521397,-1.6126199916070798,-0.39045213555649755,-3.5402247849952975
309,-4.014612565187837,-2.304194757460314,-0.31119970402273583,-3.0328285793683065
310,-4.096019395695833,-1.8297388341275538,-0.5135791965218091,-0.9390558333105025
311,-0.37566667615388705,-0.7635783137320425,-0.4998967388917007,1.0593241807527318
312,3.188830739376781,0.9036121925985777,-0.3354269267590382,2.3204979192773934
313,3.101789535084878,2.9979351761401296,0.4971930445627263,2.353030363635768
314,-0.1980750586507415,3.360959785098529,0.9131417310083968,1.4996134522764324
315,-4.273212117657787,1.8226812712575553,0.49915108877330017,0.7640695295603713
316,-4.546930333080019,-1.8081618738666783,-0.6381436882898767,1.0250647211016113
317,-2.295022976480501,-3.738629563845733,-1.931093991670931,0.7292640264151061
318,1.683674492675799,-3.5285379198190445,-2.6582276289372135,-0.13398387012965784
319,3.462261614422928,-0.8825183896982451,-2.8268417980183997,-3.2976804886903897
320,3.677931469433373,2.3291338807254345,-1.5085884359134272,-5.145299172143963
321,2.404700620013567,2.895354761581082,0.21847918240028186,-4.275996191024811
322,0.8823453753148057,1.2370023311959237,2.6189490263816753,-1.3517584429360865
323,-0.4858674537269558,-1.9764849535039,5.00819135272408,3.3533288080211983
324,-3.144113523361664,-3.790092617094166,5.040937952016478,5.294773277671522
325,-3.9845431501489608,-4.453098487632456,2.7323540868201732,3.9682654389200245
326,-2.6473449251433645,-3.348918318395657,-0.41437087630478164,0.18323212292562363
327,0.7107767222892823,-1.1384835375057214,-3.1559834633185244,-2.348585911712716
328,4.23422447138965,1.01877173086868,-4.805578081977941,-4.597374727149119
329,5.681219547695901,3.2125346367718053,-4.632327634986184,-5.000191205369633
330,5.894263132702846,4.716006490433391,-4.54603807766027,-3.51574504052626
331,3.0052434903332235,4.506498333147039,-3.892972878883143,-2.3621113618646605
332,-0.0791494551742924,2.659565655674245,-1.635536651984452,-1.0819937828820396
333,-5.5948293341119,0.3840749975275602,0.969944221632278,-0.17108607057071223
334,-9.401149851072418,-1.8746781954728797,3.518148732019503,0.15494973893913652
335,-9.07801812583284,-2.7877563266677807,4.814562820942567,-0.5614404868038312
336,-4.909836531669727,-1.9814365002595355,3.758919778188945,-0.5024707066001822
337,0.5140830664252924,-0.28226154597114844,1.296249807484335,0.24284383886614708
338,3.204183268318628,0.7271851053433853,-0.3660204992701652,1.863911160784995
339,4.235556524149687,1.1613529725694995,-1.7294197533989504,3.1787472877383856
340,2.7373378708352205,0.24618510268309424,-2.1071785221623154,3.385700227661816
341,3.361306698478451,-0.7069717134566627,-2.0534251090614686,2.2532682046928287
342,2.537112864687852,-0.38065721895278576,-2.2739061982247075,0.9733755068343289
343,0.3650388753776095,0.7813349878625335,-2.046732527801331,0.04857047907285872
344,-5.481093094524504,2.1895008809520387,-1.4719714138976219,-0.9267125744457806
345,-8.610051383193477,2.3703841127789755,-0.3996659433906359,-2.6261465151264023
346,-6.992243938521427,1.477392172634496,0.7787869954623309,-4.050872453004187
347,0.012194491927290371,-0.07667861000946116,1.8772548581603727,-3.5934734204853322
348,7.007096408388123,-0.8795604074380787,2.9339773787878562,-1.5228944857262592
349,8.636431043542549,-1.1486345628094994,2.8385020027340895,1.3593116964653795
350,5.495109742665838,-0.8261348478329672,1.3582303181446447,2.823610959571206
351,-0.39261864333240665,-0.5648263353238605,-1.1298595357926564,2.772364092087626
352,-2.6218134178496877,-0.4843038695480079,-3.025573611947361,1.4175575801688909
353,-3.4849886481142702,-0.5887410395892334,-3.5595839497704267,0.6629129892119527
354,-3.303725406287771,-0.6537442547390004,-2.6098917644923993,0.1493562553625396
355,-3.6629291164193254,-0.3725814513661698,-1.4355807470078308,-0.06798710298535293
356,-2.662680898474815,0.10088721393506153,-0.8760341130066006,0.0030992558683408666
357,-1.60442788003808,0.6541138067511649,0.037439162312107976,-0.33869857391568553
358,-0.3626950759915714,1.1963235648567827,1.0056521555461289,-0.9560317892393877
359,0.16529874498770747,1.1565317682859693,2.2709518495491365,-1.8003910244241306
360,-0.005044522800238482,0.6410103216768019,3.589739886157638,-2.4507100562867614
361,0.10369886908027709,-0.3604125030041223,3.431673184058929,-3.536341452228454
362,1.3967736766839614,-0.9158948789787558,1.9168513650997177,-3.4943579937917386
363,2.7478731577610955,-0.8091776077601596,0.15627937289694632,-1.950203535660039
364,4.184405662559095,0.7698160475228133,-1.9545222342633832,-0.24819395534399719
365,5.622759104008983,1.826611544672195,-2.6979830055868175,3.7456626146288032
366,3.681869176396634,1.4526539272878503,-1.7015085992427674,4.828873311714711
367,-0.12301914181031481,-0.5073032972317831,0.6757620551745069,2.2499550341858536
368,-9.099848912099821,-2.4713363781388717,2.0632013033464234,-5.833852090241478
369,-13.809831926325025,-2.811576219751967,2.313460283744259,-10.914264390568706
370,-11.036434654672494,-1.8620809804622969,1.0839997999910138,-10.489345374274226
371,0.3619432891029215,-0.3473495667245423,-0.591052298483305,-4.552356465192711
372,10.362232605018024,-0.024915800026686245,-1.2725612640919932,3.0999876519856944
373,12.394757657795465,-0.12308669826601776,-0.20407002668474095,7.080748195436411
374,7.552073981103828,-0.6854379301744774,0.3528589259670937,7.0551920544359845
375,-0.9296626126776166,-0.3236068798866873,-0.6573793823612456,3.681674168205613
376,-2.2108038046439766,-0.36140281575336336,-4.840825031087581,2.4240403813099007
377,-2.4671603224255096,-0.9310919540617717,-7.334827976171952,-0.9780420339893232
378,-1.9522071668094676,-1.8182610322753154,-6.10432718921927,-4.586730553875345
379,-6.126036667899828,-3.216840850892332,-0.7506879975790175,-9.215554320841816
380,-8.563013641105442,-3.7893591896076244,4.906460326855187,-10.975711410448515
381,-8.175538465524513,-3.0964767199020553,6.523033909533079,-10.103866562877894
382,-5.083376195427521,-1.574751189254885,4.94019302814101,-5.833706670265621
383,-1.0588266215163946,-0.49993146493354446,1.5761585714274169,-1.4312101224543103
384,-5.769431311217447,-2.5301990152105978,-11.330145114389559,-5.117563148153192
385,-8.029105613312124,-5.043134052172225,-15.078650171756692,-7.3301759981362755
386,-5.29794021166878,-4.085025093891074,-12.13973790413522,-5.140701155062564
387,1.130993198569177,0.48699378729608145,-2.041469101363166,0.7283846422123756
388,11.028051070117568,8.433782016786795,10.71752022025395,9.034732518574097
389,17.171371172135245,16.37484997828859,13.548717895866083,13.540716270610519
390,14.720199397327374,16.014796249098733,6.982908767009663,14.27441129239237
391,3.0984833615403753,7.1592492910746035,-6.427970359709582,7.896078582804266
392,-8.262946182685695,-8.384896588747798,-16.540144818240258,-0.3074503887087805
393,-20.908511448715625,-17.650203337196412,-18.622375285781743,-8.120202988794489
394,-28.713811676112474,-17.615957492127038,-5.186508013853412,-18.566878991862755
395,-22.65649569338675,-8.16992597519502,13.318775561717139,-20.084960711470927
396,-8.668181615531365,1.4406990406186175,41.10877821423689,-12.297893924144855
397,7.885789759164934,4.533502763926201,56.941289737211875,0.4905566325002013
398,23.981135250873667,3.574406798499547,41.59822861770586,14.511258203585607
399,27.695153131234637,-1.3197517173363331,6.08500651375892,22.485432170487847
400,16.798171598639694,-1.4226302683725032,-40.92006197805581,17.37708883511018
401,2.8821099163951223,-0.2826751359209924,-71.46031263769898,3.958741931513372
402,-9.246824054509332,2.555801226027426,-64.74503794670063,-9.323395350046962
403,-16.551882718114392,4.997068290374329,-27.024223536155784,-17.35828404188755
404,-14.141325473201405,6.566719400652908,8.555508044317722,-14.570171645812225
405,-5.134921272771958,4.905514768326216,33.911689691675804,-2.1867821386471955
406,1.864762292198147,0.7883258061190458,36.5089752920499,7.494698459355403
407,8.896680466737859,-3.27264339427642,16.74495478488689,10.272463710840364
408,14.131347837718584,-7.234557287952139,1.208925544488618,5.238035400572082
409,11.5751642948848,-7.196135572629452,-15.413908499640003,-4.58590128520758
410,5.063403069531681,-3.4547137090138955,-22.38291205636552,-8.779312508146926
411,-5.6426427255502425,1.4647030311691256,-13.443919853665564,-13.092665230441458
412,-15.739892598471615,6.2834565930410475,1.1083628483217254,-12.176409227207763
413,-15.785707332453892,7.711938562436581,18.564564986699494,-7.3462572002744135
414,-5.116044157380472,4.765088185207374,29.122219712963165,-0.6095910240094483
415,10.228517244221926,-0.0930213687535208,24.49931793515931,7.919299495151648
416,21.13006778638086,-3.543050090780367,8.38052978927956,13.260363858975591
417,25.032972784729573,-5.223011514486326,-5.633936613904368,12.56166476899391
418,16.493321248559916,-4.335552513835481,-15.513957719469078,5.0389782736351645
419,3.5116441777154987,-2.2929138069257364,-15.93224031435688,-2.302039421623997
420,-8.985120601198686,-1.6657137167945093,-7.759506193588661,-10.96325068127905
421,-18.926908052316918,-2.4522247505554122,-1.6003196522501941,-15.999032540864723
422,-18.747250288251273,-2.575494469492726,2.585240775403469,-13.769710916362019
423,-10.792499268102697,-1.3430222313547677,5.298409306937653,-7.409854004850471
424,-1.525754584343098,3.2060417034926707,5.690852008592239,0.380405326402393
425,5.4783652880874945,5.9578261761913955,10.01733556067353,6.126486993477726
426,9.23050207039995,4.906478911091297,12.693553846502073,8.505456023330389
427,8.042579371791032,0.16122037069881606,9.615811401036996,8.063801798099707
428,9.335229931098773,-6.3677628925677565,1.832175085871575,10.682410211416398
429,8.764554617488606,-8.873246924146727,-9.397481717517065,8.826573240375556
430,3.5992464941309703,-6.145181093603508,-15.144982892602085,2.20532223584119
431,-5.648048443486654,0.33217355097015666,-13.869315606192176,-12.990771549207874
432,-14.338955569683261,5.537493073233127,-6.787741937675096,-22.744542868225622
433,-15.974446124172687,10.098482745189637,-2.294313097884501,-20.23688178734398
434,-8.459608970000318,9.76116888678844,2.3443845463546342,-7.472666147793468
435,4.014828741642831,5.123183618371243,5.878052429042896,9.830407327262323
436,11.030118935296557,-0.07316196998640068,9.796391978524932,17.95148690412204
437,13.681930997198325,-5.234178298934715,13.773603747026566,14.777821727196018
438,12.086541230164908,-7.39108443166229,12.597470466534292,2.0309438998462226
439,7.5628852915100975,-5.425166976353272,7.81309245318499,-6.62189952239092
440,2.204670658783178,-2.2510825613947367,1.9920598637446865,-15.036627906788576
441,-5.322112529037625,0.13759324359971892,-1.5110462141601309,-19.322120334471094
442,-11.591634558779488,2.0061471556476196,-1.657621701017756,-15.085881493625138
443,-13.206928963185428,2.606893404732209,-0.44849959215640967,-8.062315966996735
444,-7.71154811441192,2.212164822266876,-1.7726042822404693,0.7415776025713074
445,0.9291844512971925,2.6321821129267966,-3.4025384648922934,8.477964853960716
446,7.0486387803382975,2.999134240432792,-7.298150137735889,11.140710530586325
447,13.374660532712248,3.4003485719926765,-8.416462089047336,8.172512037252766
448,13.018961996826775,2.0233925869063114,-5.2677710787495835,4.183489003636253
449,7.615645406705563,-1.0750030343080967,0.435983306283536,2.8203152004968386
450,-0.5255819576301457,-5.9723127584101565,6.914067090411679,0.7215878716702346
451,-8.27597304310355,-10.667986406169295,10.17925658728576,-0.9235070048851429
452,-10.858552760237759,-9.90330199834159,7.193662642392523,-5.469491125891782
453,-6.843748966039524,-3.9329180400124244,0.558960744031029,-7.950981150017766
454,0.32170962587879104,4.995140469604654,-6.861736671960531,-6.118144495232431
455,3.389076631631581,11.377998840592298,-10.540279081806789,0.42367054276138716
456,6.029758171888736,11.9155120184583,-7.492022833665786,6.753644766645578
457,5.246666820272109,6.729611575041463,0.4308728452688797,8.43133715766996
458,2.9219586566788966,0.6724072330920866,8.093156761867547,5.463716829640849
459,0.4551883919596312,-2.832846355945139,11.179598529360023,0.008517224434634096
460,-2.336037147661877,-4.369220115842949,6.975345190877546,-2.677269687705689
461,-3.9475214880743925,-3.394080784460826,-1.6980969017202372,-3.6804405647486105
462,-4.139048377295168,-4.332527212129569,-8.410248827752069,-2.6089672983323564
463,-3.0863385703231248,-4.442120821517716,-13.488389689705217,-0.6172647709742771
464,-3.6559681689174797,-2.741759047350998,-11.778840831353667,0.6607652827479015
465,-3.954946260503548,0.29259646189836375,-5.091337327171997,0.4961563860267598
466,-6.13339381548658,3.01147404054936,1.600926500465726,-3.5723638212683744
467,-7.153804134486815,4.099534137407257,7.410798491709848,-6.209102263426454
468,-5.130412802879494,3.2192993526006264,9.608779069786072,-4.524820638438269
469,-1.054109521898768,1.276642078819048,8.594649679547704,0.6746352076109459
470,5.3460393468310405,1.064871520211326,6.91674231697191,7.721265334397696
471,8.476470758193388,1.2673032056190976,5.286417256870607,9.624430269967007
472,7.204031350214042,1.272799655250633,4.416554054983738,6.291981281854861
473,2.370468897542478,0.26745246460339206,1.5640362675087387,-0.2478459793269041
474,-2.6143833505464347,-1.093091388764364,-3.0553799904483396,-3.883044982604899
475,-6.301746645835289,-2.077771172449288,-9.978697489285663,-6.161207703862657
476,-6.798307463138273,-2.4644581046096077,-14.758717806805329,-5.439615552496269
477,-6.30100461740388,-1.9312237264204348,-16.810298635568277,-5.10689600732074
478,-5.3351798002212565,-0.9437273564016334,-12.709703128959243,-4.858149583775114
479,-2.0386642715626695,-0.7763310927800068,-3.0411084520586447,-2.596713539953366
480,1.3262359344137051,-0.2856045718891581,3.870883021288091,0.3717300820019349
481,4.4705285643826125,0.48661920123018776,20.079410721010134,4.192967313541353
482,6.730317380961733,2.118288840814694,23.28319370766939,5.566967009454399
483,5.853790852612878,3.460950549688543,11.301389947346152,3.922606482927859
484,4.500265069086198,3.506964380835174,-16.236155565849927,-0.399048437050974
485,3.508992304548329,1.8431730626895424,-46.65188643428484,-3.0287005515484555
486,0.9528989050199261,-0.6254960841137398,-51.99242210517835,-4.033179275833653
487,-2.300198998599493,-2.033859945833041,-27.593966415011014,-2.8237002306218173
488,-4.508686092147334,-2.5168007789027387,16.111564992689672,-0.44090332098193774
489,-6.9315682627629105,-2.113410095741665,43.463820390082226,0.15147116525236368
490,-6.2313356717457244,-1.9849715939231165,52.29274736773627,0.11377282670615069
491,-3.276327754593317,-1.7574269973406667,37.37054731578598,-0.39303302193811906
492,-0.31984961533016554,-0.7740073468430168,16.36131907751179,-1.6466304809908308
493,2.8508836948192338,0.513846713339708,2.8749100777664696,-1.6391247987137911
494,6.719596895602016,2.1577604843549487,-10.571838532989725,-0.050272638736243325
495,7.868285793289962,3.233713393349622,-18.356683747555792,3.8175364525480076
496,5.399279685172986,2.6766390044689117,-28.05894260406837,7.147614864675229
497,2.0795330260906124,0.9450606237600943,-39.13201251987129,7.113220016875435
498,-1.8958110231292729,-1.309137990667376,-33.72960020322003,3.3724259005573414
499,-3.5437867262059126,-2.9441544602228054,-12.670219729334626,-1.9214616319089257
500,-4.436032016766868,-3.0558064707524513,19.104821543894552,-4.961945233312175
501,-3.0372628343677754,-1.6845627795768938,48.707001357397075,-6.004279971232611
502,-1.283251508898717,-0.1638128523179276,51.789319720502775,-5.679800848085957
503,1.5814875008605689,0.9119356741234302,26.634487676099578,-4.8399091288997935
504,3.8545103709373194,1.498885459232324,-11.410562601643438,-2.711246143152782
505,4.867326103411586,1.7076835410914462,-36.35093176297647,0.4478351563864382
506,4.358029188536604,1.6039385909780388,-40.83558712158773,3.910275836376596
507,2.6236065871176906,1.0510478924310145,-23.02603361393116,5.678168612269466
508,2.0878559377366224,0.1829956639380358,-2.0489863183438897,4.954881096722572
509,1.26095525276116,-0.5721993645460826,8.135943062530938,2.712265949775831
510,0.22173467378468928,-0.9904648694055945,11.86696671368288,1.1562031113512423
511,-0.22154181784851767,-0.9606899325641584,8.419098725938106,0.0342781239985232
512,0.2523016544997324,-0.9620528335453961,20.850494660541948,0.24009967193653187
513,0.5892671504298871,-1.1962595534364304,20.193619585405415,0.09838030623237126
514,0.6471681618798248,-0.7401569691193478,1.0783109289918542,-0.21286779840262557
515,0.28886066136007926,0.931791644113069,-47.14246459872581,-0.5826146048427681
516,-0.30629056197068444,2.236068841207616,-91.61791069124679,-0.8311381443725294
517,-1.4454892123640533,2.2932526674517,-92.23406416391651,-1.1287114047701452
518,-1.6477567994413038,0.7489516572033041,-45.92630086351357,-0.9729570007296053
519,-0.7252211749099222,-0.9173865622153251,27.691688896562972,-0.4726004568454296
520,1.8706175378613044,-1.1326404729909032,67.7517627143797,0.21132006451507326
521,3.386572199582308,0.15687805445644837,74.25478389721654,0.986412017479407
522,3.1501906259924124,1.4641909071428385,47.1303441572492,1.3494048948219322
523,1.2141395660635996,1.2307185583456084,24.625302158251795,1.1741699674199142
524,-1.0862788109733448,-0.2270202930476164,5.582214916035234,0.6173641764918864
525,-2.338841376852202,-1.833393680912857,-11.100265070098562,-0.027601012052791474
526,-2.3770453287679656,-1.9397550484835784,-21.700832719651466,-0.8334645682129406
527,-1.2752202499403833,-1.0075028105152426,-32.0333701758566,-1.7123406337418547
528,-0.7251215236957393,0.8047457263002302,-33.75309425943401,-2.408923281980095
529,-0.10380719969616901,1.4559659755705878,-25.070332476594547,-2.1584033696253666
530,0.7090059796902968,1.2647710442852897,-11.200372442885303,-0.8660440367385412
531,0.9182620256299825,0.309162565879599,1.3415498973040119,0.7612229732946654
532,-0.13285306336308567,-0.48771973689390724,10.958956467055485,2.4375419234775992
533,-1.405435441140153,-1.0953343869525265,14.395782965371115,2.791869523083925
534,-4.148384240738082,-1.294578934563813,15.220938364063885,1.6250809928082814
535,-5.984936400412297,-1.3953028123475422,16.26970767432808,-0.2706861597309343
536,-4.746876338008898,-1.7986081707762362,16.87185219648135,-1.5347437055382906
537,-0.44221248920956113,-1.3091698571777457,12.037688092313513,-1.9610387754073677
538,4.208530779105151,-0.16630899839392269,2.563192951247523,-1.3417607651673167
539,8.027592315443654,1.385439021341426,-8.691490715029165,-0.4055886726741964
540,11.021717099724292,3.0410843703176136,-17.86411120444549,-0.2654412995881096
541,9.083062234656571,3.1469054468622617,-20.175229586063924,-0.3934854461249395
542,4.531248830051514,1.595098992561621,-13.305915712662282,-0.7072986263713472
543,-2.9626005809729006,-0.6131970092200663,-2.6365726814845405,-1.0684275929668061
544,-8.526163515506243,-2.4888353551525966,8.423218934685485,-1.0445986736321755
545,-9.753177837980472,-2.9339358348637585,16.522620921209956,-0.5072359238936208
546,-6.573390223828612,-1.658927031286323,15.420186790174169,0.6678962014435439
547,-1.6628912209392268,0.18571945855401434,7.958603393282463,1.504105764625605
548,1.087007848948597,1.2603822704887913,-1.6388695931819122,1.5036195688085643
549,2.800997625826978,1.7960614673343087,-7.5831029536181465,0.8811376733696248
550,3.808347483549388,1.9413944140772026,-8.242462957573991,-0.09006088908882934
551,4.904763549474594,1.4280238129663654,-3.0640094175844395,-0.8062793125486069
552,3.581019963126572,0.6596267006672669,2.0651768255860814,-1.0967073852151052
553,1.2563406008530735,-1.063643043338366,6.019319237380019,-1.2280924854725772
554,-0.9239137801907606,-2.508023720734105,9.142523016777233,-1.1153868135334613
555,-2.2650816238250373,-2.4006402686301063,7.00458042796339,-0.2792224419531307
556,-3.4619849396411047,-0.8207443991697589,2.2456101811822946,0.6618901348995322
557,-2.8156376670551575,1.751205681460929,-6.379859212232867,2.0400395892632335
558,-1.348361196217314,3.2299212609523957,-12.568507692009735,2.2541948614154994
559,1.0159435171254185,2.9613718520515286,-12.211319292995508,1.1709461068970488
560,3.2268362563227995,1.0405576284323153,-5.79999499738429,-1.4838412591644528
561,5.020433531030834,-0.8210741430764921,2.5911913687384422,-3.353519495812395
562,6.0225025670706565,-2.066815598413897,6.585302256503962,-3.857045051560651
563,3.9416588578854634,-2.5126504907880434,6.361895249072705,-2.7747602333293617
564,0.6990571736595497,-2.083333469045225,2.616650142753018,-0.9232253671646995
565,-4.622985527614731,-1.933220866817163,0.4548887660745719,-0.6645856347558949
566,-8.991376748505278,-1.90904988487438,-0.4112500226828767,-0.8899050042136176
567,-10.5290997042338,-1.0774592081567196,-0.3043559277070135,-0.6718391870074651
568,-6.8386413959986285,0.2137187263432931,-0.23178109244508893,0.8550492629613331
569,-0.7507978161604753,2.4893861548178737,-1.4093897759217449,2.720302951780319
570,4.362230429536829,3.755582228124603,-4.380818935764751,4.23633219006858
571,10.344052790457916,3.137614994248474,-5.491717059207641,4.977946348520491
572,10.521766118900969,0.9907534092163809,-3.6080007094215567,3.7608233804808178
573,5.655765534945907,-1.3388333628725384,0.984232919495837,1.4119397746459397
574,-3.6961665267585535,-2.5500792798833394,5.4946128235340534,-0.9307053923414381
575,-10.413081704254997,-2.826771408848757,7.189071355646851,-3.651858250533457
576,-12.138136197963743,-2.004657489565407,5.230568565578894,-4.495037028149437
577,-7.768858790052336,-1.3515272936495608,0.4718450542893541,-3.4034588226346916
578,-0.6986758711531469,-0.25900293222732795,-2.4847251671250943,-1.198768617753553
579,2.855381907066548,1.2307558928021962,-5.355402115083798,0.6230338540035674
580,4.362218412950984,1.9130115192991737,-6.934647839766264,2.0994123174323525
581,4.3714714783944775,1.5419567270335874,-5.745164618216433,2.5120772918476315
582,4.356725838121897,0.22317922709256705,-2.4698191282508737,2.779418217046931
583,2.6186384214829865,-0.7373363359472641,2.9087678014045286,3.651319680677082
584,0.4161269737374877,-1.0283029514731645,6.692994074189016,2.62114544635694
585,-1.4808457192885323,-0.46409527367650466,6.779085558419479,0.32712360938031354
586,-2.6105965619504996,0.3238366282139997,3.498682435206338,-3.249747329315306
587,-2.7084819897000716,0.3394561812362317,-0.730241638663955,-6.131417208964962
588,-1.7279153581103044,-0.06686543885343982,-2.5735213756231894,-5.789589663455917
589,-2.7431910538291904,-0.633558521642805,-2.330006258495315,-2.334323047004929
590,-2.5945213463869123,-0.6158592208813105,0.1602631324180794,1.5498143840599732
591,-1.1456797707277548,-0.13992624690604782,1.686976436945846,4.443939861424922
592,1.8515834282058707,0.5021316826267938,1.7727889349761652,5.428544367660393
593,4.418932301450561,1.38394666810557,0.5373463433475729,4.408144227812955
594,5.596527413028701,1.620216154130449,-2.311696128433521,2.8606310159223947
595,3.7130957202944765,0.9255336614388916,-3.539448444903721,0.5773818698331326
596,-0.06116723249082523,-0.13249243727592352,-2.7528300749837102,-1.8450364975197844
597,-3.397841674894041,-1.341729530905078,-0.3150240224215909,-6.165728156349365
598,-6.266611217211966,-2.174927530705128,2.3626363273705495,-7.41119520424631
599,-5.344385136766363,-1.8302626112280576,4.04396391684808,-4.786682280128978
600,-2.2780226395531002,-0.5438462608720996,3.8241969588873257,1.1221813326803247
601,5.202925031237305,0.6164624609904372,1.690538346827621,7.854099816430986
602,8.776889085205369,1.7212372544459613,-0.17302222415336416,9.755116482080517
603,6.928852767247911,1.9130472124878763,-1.9402453307758083,5.769801009572678
604,-1.9418530390467734,1.106147240126629,-3.1222275388484118,-1.8448080840835668
605,-9.07346851708486,0.16934809735581088,-2.870180546680593,-6.438939097844868
606,-10.006618235189423,-0.6752979898394194,-1.7126122936306611,-8.903134660083348
607,-5.272610870364749,-1.023477637278309,-0.2935941614353555,-7.106204204177589
608,1.6770344010407467,-0.702286716883431,1.7174277997788379,-3.043496641358355
609,3.471486124883676,0.038477316928319724,2.627516679561211,0.10951830401071805
610,3.0222990062106043,0.5127971219425699,1.676363291053009,3.5721168157957526
611,0.822841543175964,0.6160059807382574,-0.2147766990159552,5.427297952211494
612,1.001997325490973,0.12808361981202912,-2.531122329376986,4.550373524132469
613,0.821129737923906,-0.41711100648062743,-3.7191597591991448,1.9063932470524723
614,1.4310424643827657,-0.4133970050657678,-2.9836794021821733,-1.1597331626043164
615,1.3428747348352577,0.01775194201973766,-0.8859326075417022,-3.2990754594198397
616,0.3559177980346793,0.489438465149985,0.7086334664203077,-3.677295289814366
617,-1.2536670493861741,0.52727549765004,1.9151090118750413,-2.4422937194577363
618,-2.2710075760639366,0.15610434204323265,1.8548279653061606,-1.631561367978275
619,-4.967990733559644,-0.22760763781734183,0.7787749571776743,-0.9984914337416377
620,-4.874935894501393,-0.22220281561654562,-0.02927677596841401,0.18176164220451024
621,-1.709138898108863,0.2612747184994173,-0.621161392469926,1.5132636756047175
622,5.046678169561429,0.6536220917250379,-0.7548315250209836,3.1977112538263976
623,9.994005313547857,0.5623747213264679,-0.5574726883530043,4.356068141356204
624,9.987810155714687,-0.15272268680650955,-0.07462771775089311,4.513232308986941
625,5.869910562272072,-0.7641457822570894,-0.13477830018659454,2.6580264191671272
626,-0.6884494160034221,-0.7122617221132652,-0.4712629712815632,-0.07113353247479859
627,-5.008021127157764,-0.12083479309327103,-1.7139309128844553,-3.9486679984156305
628,-6.901941459850656,0.8811074758243701,-2.764109377867125,-6.7245032324237854
629,-6.455687914208152,1.006369718395676,-2.127186821890761,-6.241064396374735
630,-6.806365498946386,0.45717521366549113,0.27764009724563476,-3.0204052749682635
631,-3.7743370316123475,-1.0710883812662433,3.810229870514086,0.8516213250965625
632,0.48720099596425737,-1.8575001568491574,6.660229447684521,3.4798442136999728
633,5.242178258971412,-1.6172053756325948,7.2216960343294065,4.437738055064624
634,7.383232607593793,-0.4196810258720238,4.116405021835073,4.350819731712197
635,6.380425704488312,1.0317226596133713,-0.39638940106381804,4.072053559014404
636,1.9495598127997853,1.6994265487783606,-4.570563970346032,3.2632488238103834
637,-2.3425750791324904,1.6688336774085077,-7.3626270204555375,1.8809013939679535
638,-4.519611777936009,1.1165429106511533,-7.914765191649442,0.539576832931216
639,-4.64929868257671,1.0297794703165903,-7.404392217645807,-0.25341049345257
640,-1.0024978314684936,-1.7936312017976983,-0.24170138736346725,-1.9469893219086172
641,-0.6112071284411267,-2.235858097250572,-0.28842438990920544,-2.28514080320826
642,0.06636916581141566,-1.2879606124419873,0.0014201037041239872,-1.068400478711422
643,1.3130076757040114,0.6657211273564867,0.030544960662928944,2.066721897492845
644,1.83383412896748,3.6799712542915954,-0.19907982787519826,5.857243520571072
645,1.690697127401225,4.700140146632474,-1.4262474681085615,6.191306741594752
646,0.5222094532248795,3.0911155388912057,-2.10312240594483,2.864135457315287
647,-1.3891925526683755,-0.10549196864691368,-1.7311159458290428,-3.5176330646302563
648,-2.8808251972778347,-2.8323225586968364,0.2451108633299993,-7.7399259409950325
649,-3.218252488658162,-4.302250626742289,1.9911232689145582,-7.854465474895777
650,-2.8513087812300517,-3.5974221732231713,2.0433313699823024,-3.6154525746322745
651,-1.7815846202185628,-1.7100636723649876,0.7562078485550882,1.670849204919291
652,0.08428602288315029,-0.698746451015728,-1.0343259598144194,4.770432125799171
653,1.8729009129982426,0.3315235930591167,-1.8786809216167886,5.720204701743369
654,2.9119243084555437,0.9048021354010006,-1.9034356336418832,4.747914725135653
655,3.1774073723121132,1.1535547194320155,-1.0920027622078625,3.0404667518815995
656,2.1933538286200154,1.8624626867002927,-0.6467275508638886,0.9555973075409487
657,0.8260892480617927,1.7970885822407112,-0.05023523723731363,-2.324545096168014
658,0.312010089493209,1.4145736099584445,0.3182337948577893,-4.527540575384113
659,0.196276412461387,0.6917441125163692,0.34478911731929895,-4.438449076925178
660,0.5078985767670552,-0.12772922781832913,0.08783893394574765,-2.2029870668182765
661,0.39640229578432984,-0.9246590110387644,0.3527930306604816,1.1359726653016613
662,0.34769543250618806,-1.3984834196230023,0.32057520279163076,2.7945754514781376
663,0.22136440158623666,-1.7779215398967887,-0.10161604444887679,2.3668749743655817
664,0.22687247237176922,-2.136092267447407,-0.3823359821982082,0.1319122152211495
665,-0.2173516960228232,-1.6989403429802439,-1.0682064911794704,-1.7595968524430456
666,-0.18411527803358765,-0.8804337777785584,-1.479778224387485,-3.166167887152296
667,0.47705265116408735,0.20008209816580658,-4.405634618405391,-3.816665103988064
668,1.759504347341322,1.5306833606790633,-5.014198296747159,-2.3099837538747865
669,2.8570289581120996,1.9139781354849352,-2.893064565668547,-0.08498944146685794
670,3.2085981403853787,1.2105295632302902,4.762013425784904,3.442855828979822
671,2.7055450560039684,-0.46315079009472493,10.464007186076547,5.946665463125431
672,1.706259581136947,-1.4478893762222933,10.153177099325697,5.617668233752698
673,1.6994750327890795,-1.5132928114574684,4.553132210503938,2.9033654839164376
674,1.8419025511564495,-0.22264153697809744,-5.17020158122219,-0.2826954948086676
675,1.4990347248985114,1.4661592384515856,-7.594395729398663,-2.0146560075458053
676,0.38607979963011635,1.503260683107821,-4.164036126351808,-2.500685974395359
677,-0.9659440323256832,0.4703674145031488,4.7875161129037185,-1.6946669809949306
678,-2.141020126422101,-2.0470329099318993,11.559562644030414,-2.0971700481171207
679,-2.7312730555039697,-3.1286273045156494,12.200951632627808,-2.0947436629672986
680,-2.2739615304762792,-2.4997657511648192,5.472239749630914,-1.368014691911231
681,-3.6193078263010294,-0.5432287287157306,-7.293461555962097,0.10792677230376585
682,-3.5579992615182703,1.9575444206909722,-14.425340528854994,1.334483548929914
683,-1.425782571230132,3.0251807144179317,-14.298952013995782,1.7207884309232233
684,3.5020244521927313,2.2816597827560217,-7.3985175860775145,1.0850016594691771
685,7.202094201853499,0.437962286003888,0.04145172037771905,0.04958295099900931
686,8.053099503811868,-0.8351242669183001,3.7311654550167668,-0.16949987735294827
687,5.357821002568484,-1.852130017138241,4.77493407020942,0.20817770631262608
688,-0.19740398003524262,-1.8784970968854937,3.235529893068295,0.5603747106909852
689,-2.952764709420768,-1.6861427781765261,4.413934510605371,0.18543431680941505
690,-3.7005004709467575,-1.5653870329329231,5.105132309396984,-0.5397400377431886
691,-2.3336147431438072,-0.6908367781829003,3.6551925805831997,-1.3004440771747348
692,-1.617289564654907,0.4811155555487134,0.7350000378813488,-1.6672952771416696
693,-0.14252400977500573,1.9238911420721883,-3.8026752269630437,-1.556369955502754
694,-0.11517429775725868,2.2402650003897824,-7.61481950553116,-0.8112557249828047
695,-0.7461733995255219,1.0985886091841193,-7.505419419555935,-0.13410027783289757
696,-2.3540233629972453,-1.7393768613897747,-3.9781339914662244,0.6056617535299826
697,-2.9976836831321227,-3.5956618213782576,1.9958496093626432,1.1599824382926602
698,-1.9714000850953604,-3.5406694408458876,4.913912120295071,1.5266149198768786
699,2.2242161274351053,-1.580070527676658,4.20922584908723,1.4735896058417906
700,5.4095740036186175,1.5586849632982345,-2.274824709937051,2.231052108370334
701,5.0808425995956785,2.925219017951154,-6.625226593183747,2.3225496312330964
702,1.7046509333164235,2.5683565364828067,-6.165035800591665,1.1761093997923733
703,-2.8362471077481826,0.7919861349452427,-0.2531347203665515,-0.5704180428024426
704,-4.697098756099328,-0.552688994922325,6.040244509100166,-3.1595796399922835
705,-4.316221540150206,-1.20235417112832,6.933537872558749,-4.196816915359917
706,-4.836941926836467,-1.0365844079797804,4.339573824077987,-2.8010430979369993
707,-5.027613739062909,-0.21451879919412253,-0.5764140497597275,0.16607501974020267
708,-2.578702381962197,0.06491854744520982,-2.613153577962159,2.3800772642515238
709,4.40801083905648,0.3080889570500287,-3.237110393684461,3.828428905649142
710,9.20006052964996,0.29653044664155453,-4.659890077828751,3.9705467519982176
711,8.821290556513166,0.15437017691217897,-5.233672792438462,2.8334318154523817
712,2.644667303467589,0.07075915947822747,-2.783125157608138,1.95421261270124
713,-5.313403233433592,0.010559322418051575,3.2452710013591655,0.8406017044194587
714,-7.286589029312385,0.10598700872174968,8.062418053559362,-0.1929902261549552
715,-5.026824297862911,0.12480272120039418,8.233367289630255,-0.9155676357964599
716,0.07081261232410058,0.5608155627554289,3.6215731578306336,-1.2654149459078026
717,1.7479565929626875,0.6283714135972509,-4.2573845710223885,-1.4491538848069507
718,2.373385499471074,0.24842839190557733,-7.623485970324451,-1.5720630112105944
719,1.4172913208134832,-1.113565134275936,-6.928796460755999,-2.600036772483348
720,0.7571020232152672,-1.9730281151678328,-3.223714779104075,-2.5857664467845822
721,0.5032349491707553,-1.7653111337438623,-0.9103124482567424,-1.3365970489787067
722,0.35950604484071613,-0.40306241165091006,1.5081747484992702,1.1269029510406714
723,-0.22890741900737852,1.189468325395399,3.4582622167911916,4.113514691231075
724,-0.44100308241628916,1.6424879296570092,5.734284939604739,5.1099666544170494
725,-0.25982745632445214,1.476470047017205,8.418459764306023,3.6395783216021464
726,2.5032488678093587,0.6704922374982658,7.908053480330009,0.6097243208231555
727,3.6944702759616246,0.35450352524236467,3.6758480813956242,-1.132125286901908
728,2.186715164518093,-0.15651327819649674,-1.8435821488308854,-2.3066951753898213
729,-3.4376525392499753,-0.47479201125236203,-6.184172653791523,-2.215548403297771
730,-8.569460533280218,-0.5930351742354052,-8.82357883667554,-1.4752650047275988
731,-8.628282444356417,-0.3729492468846406,-9.69678161474048,-1.0472514210286716
732,-4.200106860057033,0.23128130854707601,-7.746065583505938,-0.39173329898433307
733,3.114736711130347,0.3979854270912845,-3.502925924535554,-0.008644512815104618
734,6.219335444886262,0.21646178171222577,3.1270578627259478,0.207344826932548
735,6.043626092107632,-0.4152989158213368,8.465987241773886,-0.24907465980380442
736,2.7502290302166097,-0.9959429385767924,8.766867376482963,-0.22947028578948964
737,1.0330610912116924,-1.0133389923368554,4.445335612549051,0.3367479157247692
738,0.12958157452764726,-0.45923028980610103,-1.9014606157486444,1.432017181832422
739,1.491713108545539,0.6740689702169612,-4.7948997422538495,2.9366298391348593
740,2.5700070392622654,1.2367256777446647,-4.398331466043344,3.0714235028121983
741,1.4549486988038471,1.1243478504276037,-1.1881470432221362,1.4656932514011543
742,-2.0131601124624474,0.41487496543690777,1.4154301582813844,-0.987944935170828
743,-4.676755120454004,-0.29515551661239975,2.672216070494482,-3.0668633691651714
744,-4.495554938633672,-0.6152019635062088,2.5839363045769628,-4.4862824250699616
745,-1.8207151887891428,-0.7181929183720378,0.9423999600304782,-3.4154751278468014
746,1.7833539009489239,-0.31735935513585906,-0.22949656215162656,-0.891507700007684
747,3.220908069739811,0.006949632082787774,-1.340960334254859,2.3959580216325147
748,3.3093366694775304,0.32732180179404574,-3.3181189840528305,5.138780505299844
749,2.3152076355102293,0.3809756941097318,-3.441456345196082,4.917226956230081
750,2.539198126001742,0.2739124213517618,-1.7404255695084436,2.1305901543704957
751,2.3746537592413572,-0.02315015501869902,1.8694460976297835,-2.2763769139429297
752,2.4269804863326776,-0.07625536382721267,5.889328230944077,-4.414913888847232
753,2.3325721029445767,0.2945080655068709,6.448405856244708,-3.954514540857898
754,1.9940993370061195,0.8260994478621881,2.8379197886557996,-0.041399119000049334
755,1.445973987154863,1.4019949695836913,-3.944417050095823,2.5552594109343474
756,1.1765249418716357,1.2481793334021065,-8.444676382958095,2.832770410415311
757,0.2303918160651608,0.3905536616019941,-9.3492380300328,-0.45356603934316175
758,0.27287231994255323,-1.127674215652924,-5.41724852424234,-3.837750827196342
759,1.1557510012704189,-2.2738849086854658,-0.007151540920461108,-3.0657403230152998
760,4.64764151892943,-2.296768953490678,3.678900672756643,-0.03656099138718849
761,6.507641224437228,-1.1504667121372523,6.352583111618545,6.2964220931352335
762,5.184873292058702,0.24545956753622114,5.941357469163303,8.579728140959322
763,-0.11999073016020283,1.1457315937175458,4.173748020810959,6.239053942593623
764,-5.313124901529208,1.4640501605123832,1.9386825651831672,0.43246914381928897
765,-6.483533946385151,1.1510335586793257,0.07291812497261572,-4.250232175848208
766,-4.31881646583224,0.9028563174541367,-0.997769835887699,-7.083346069664714
767,-0.4676895229779212,0.8382207218261536,-0.9249631038946291,-7.24256889483101
768,-1.765865645485156,-1.904515278629215,-1.7280745471818633,-2.102269952778971
769,-1.257894146354848,-2.1406597451000002,-2.268832510972876,-2.7246139551010344
770,0.08954872322779217,-0.8715684269697613,-1.572550771827201,-1.777107522609337
771,4.5827228394877295,2.123013776125026,0.4174107113700968,0.10572066024689497
772,6.83892774931933,5.772004546786775,2.5353902976699376,3.80404838233232
773,4.970392304027625,6.248072453904505,3.313200448994846,4.924343071690871
774,-0.914940437285146,3.18304468686083,2.396217028581492,2.9398223709566156
775,-6.9769653365755175,-2.5128984610564693,1.1446793572813667,-2.289912439759353
776,-9.084146277659054,-6.331706855435185,0.315539607386199,-5.610544222138497
777,-7.871238774937451,-6.894792945013442,-0.8860003067208457,-6.4877946248527945
778,-4.353868122844083,-3.8315011201550764,-2.7184348355973174,-4.285478142940821
779,-2.1887913843898894,0.012687852213139977,-4.431017289947625,-0.7000060937230214
780,0.3855196803153941,2.6194626404964336,-4.222232701227509,0.48681099608736755
781,4.920335065942951,3.2953459938399194,-1.998284950645182,0.7162831532062215
782,7.08425135537819,1.6946468856741004,1.258381851300779,0.19899645886284295
783,5.014506380443802,-0.18378000348047302,3.1266716668506813,0.4463186203539003
784,-1.486260528752537,-1.8999723562280275,4.010820256065952,0.2598909519732243
785,-7.510443647749245,-2.3697740171979738,3.781944349981891,-0.4016006961993034
786,-9.008238587803582,-1.1523490265250405,2.504521517294568,-0.7400763392242298
787,-5.837552983142129,1.0343678294110148,0.27934580191505914,-0.4593482639899059
788,-0.05509111295283259,2.7927091019742196,-2.653353299262136,0.6448657733595353
789,2.5015648196751727,3.1665643096777076,-5.872889993576483,1.7555826424884966
790,3.1285288776494617,1.7621035362471493,-6.238361379860608,1.9131962517781553
791,1.7283196379632064,-0.31931604595864516,-3.4079897840350517,1.2762305458273553
792,-0.4181508176385782,-1.7711468352853568,0.47920059396495124,0.04415879023575564
793,-1.152501263029765,-2.62728518780737,4.635515451700153,-0.6977403744559548
794,-0.4470360786501501,-2.0076530423116994,5.855570226648813,-1.2604543312610978
795,3.2719295586428627,-0.7671104900359447,3.2779018976284293,-1.5886339519470098
796,6.006346381429113,0.7379268255245692,-1.9474263755088435,-1.5550645173248239
797,5.341231871362624,1.7509655295061257,-5.317781604625185,-0.9310544577390921
798,1.9971979710520231,1.6241174875481486,-6.150832392167618,0.07432590755191405
799,-3.6821073022800004,0.38007260371470525,-3.989589597825721,0.8263647896014691
800,-5.894577366867462,-0.7333577775713531,-0.38410636906793827,1.1744599408922223
801,-4.628580749476788,-1.0248705601028798,1.2836961971534249,0.8235249300313183
802,-0.7373553358992057,-0.6985370169634242,3.176924346176639,0.21158264898426893
803,1.7550664328156493,0.030235278237131916,3.164035282270322,-0.27278562580379917
804,3.656675036771488,0.012235725773193068,2.3457131712494412,-0.9071945547334734
805,3.6889272991775535,-0.022236442774969972,-0.33261331624596796,-0.7422767646146033
806,2.634160210652791,0.14086935223608799,-2.614020951059935,-0.06634713668145936
807,1.9749010005800378,0.565507273800707,-3.0358409892756395,2.082260227528154
808,0.4461989907320259,1.7342096544302352,-1.5993409910273624,3.0872669395430177
809,-1.7057401821094307,2.167245934912395,0.6164266507052324,2.202886717960732
810,-2.892050413175617,1.301235255234882,1.1057026152716203,-0.45599132492235533
811,-2.5464863097166823,-0.37771445214064026,0.9479051306700883,-2.9619074023932352
812,-1.381485050613646,-2.405184820294787,-0.29214241113427997,-4.526826466162106
813,0.3201392824855028,-3.6882512237864558,-0.3881629375376823,-4.125605962542839
814,1.1095013484062606,-3.016592203238404,-0.08521096568931791,-2.101213514085067
815,0.923303066955879,-0.8106497560421992,1.9412807399884389,-1.0079040632627045
816,0.07697573177328079,1.2254022667806623,2.9932635170767705,0.4681328640148196
817,-1.1248658535421228,2.8361473268759956,2.2603462763229496,1.4923298255222566
818,-1.6757733005182536,3.0768993488458896,-0.3971168735665759,3.1386940815563986
819,-0.9465339927362919,1.9966958011102052,-3.958716390360694,3.3927916956310673
820,0.6677021325202545,1.2606902548864658,-4.531200162650935,2.6283726296154732
821,3.409514084711785,0.8350684604234042,-2.2364506993996205,0.4434738773618206
822,3.99623421532486,0.2920718309442341,2.524943264945364,-1.779739624500743
823,2.0014223736983268,-0.20853128365157664,5.253416241792017,-3.3200176077712906
824,-2.8900410874060656,-1.1432569548854612,5.663218535056724,-3.3607024502429534
825,-5.812047474284786,-1.749493557487604,3.3889877464889198,-1.9173884001047004
826,-6.4933375012935395,-1.543399964057089,-0.07796861199898664,-1.7533436143973018
827,-4.031632828260908,-0.8589586674319768,-2.467184350803758,-0.786033095939123
828,0.1279153806465516,-0.10647512124812739,-5.3052651849246795,0.4800094018840283
829,2.692225963365985,0.6521233078368407,-6.083554303373507,2.7506416467700436
830,3.8102190554487896,1.052899397467138,-4.830029490030652,3.9584946332779958
831,5.532856364145738,1.8797794193532613,-1.7046477205561912,3.6538405905431075
832,5.93347575335456,2.111331226645787,2.493465406419881,1.6457205550063538
833,3.222047782917459,1.2025840702452417,4.682654556738099,-1.1613274798130953
834,-2.2616200068142214,-0.6380617323129769,4.061559830121015,-2.7165649113239243
835,-6.548478419578698,-2.4325456513961474,1.451667633334002,-3.061753936973742
836,-7.210536786739445,-3.1506560808127406,-0.27057603187745743,-2.7321090935249384
837,-4.319711745201387,-2.3121854810386537,-1.2015542942948354,-2.813905054762791
838,0.37488473306830605,-0.4080569076457965,-1.464592765006071,-1.8377246407886985
839,2.423742123688479,0.36038515464764387,-1.3663525860634707,-0.32896790800086273
840,3.3608808015115605,1.0577331444473022,-2.1346616533053773,0.967591841824029
841,2.6955929508667866,1.3952322891998183,-3.3073302880005415,1.838773398348633
842,2.324214794833853,2.3212472590991977,-3.4990028354169365,2.038680148640046
843,0.8588081260622711,3.378642543582173,-1.8834349710243092,1.598701793723923
844,-1.6297570487111477,2.9984885640820167,0.9124307145241148,1.2403368473316665
845,-2.5103014730835507,1.1965448050678926,4.232232902219429,0.9787447503070685
846,-1.7488563032570608,-1.4926139999448578,6.500324896254549,0.46269338640628765
847,0.9006604672098254,-3.275088476618941,5.729851293649753,-0.14852463840501548
848,2.765738158780792,-3.619382759577665,2.3665316941116883,-1.1069140999633085
849,2.6708477802261235,-2.493090141787452,-1.0386687336559701,-1.6160781957700898
850,0.7677327222472682,-1.0148766103580855,-3.8011169191412475,-1.6146786806319477
851,-1.8772303132281065,0.32437374594856433,-5.105909893793143,-0.5267761110051252
852,-2.985753666092041,1.4758877448245717,-4.810290221921998,0.2740172398463555
853,-2.6141912991585823,2.068288866523063,-4.2872110010672095,0.18836309762207187
854,-3.686652400791616,2.2536922608095176,-2.5220246646207176,-1.9454101413008589
855,-3.742764621076516,1.8983222215199023,0.2789451105888988,-3.3114738394584506
856,-1.5020937863883246,0.8768952997420597,3.7794750593040405,-2.468653483646088
857,5.951954136321481,-0.3494622620065777,6.692768464485981,0.6080583455779333
858,10.66923338945125,-1.5992757370160569,6.133766985308521,4.294359421476313
859,9.433639641848629,-2.7109644004107545,2.7163286139079093,4.8304423785762
860,1.1661058620695974,-2.7261405006423765,-2.907291093258727,2.579021642617725
861,-7.894967601322591,-1.5333921222761955,-6.402089644828272,-2.3534380074304937
862,-10.212660917488623,0.12186405022453772,-6.40897140915832,-4.597647156585224
863,-7.659580801485761,2.031880216937348,-2.928212831009137,-4.266670802383656
864,-2.2826362020124726,3.091907442174593,1.0502202261107034,-1.5049955526585976
865,-1.6258189483510244,2.3603109309520027,3.37242305974955,1.1647852873338693
866,-1.5100888053717725,0.4186934791997975,4.107771141432735,2.371959472060739
867,-2.0356839892353404,-1.4195507815026818,3.5978025770251096,2.449003159206298
868,-1.055369790979221,-2.7141007413387093,4.6326216934956115,1.5619764546740011
869,-0.4046519574756937,-3.326292065208176,3.523903772082236,2.250085053571043
870,0.05854195291850933,-3.243729315515585,0.7557112219820732,2.2308050564606363
871,0.075393186471983,-2.3749457102424802,-3.88411540233988,1.467280028294382
872,-0.2473737776432698,-0.5799387986976112,-7.873064578779211,0.29820883214657146
873,-0.3363838260309979,2.020517622544187,-8.032645952534539,-0.9722937233910354
874,-0.4928222989859174,4.31166162081397,-4.096986632153198,-1.7818348186584123
875,-0.6133039893995927,4.402342033664532,1.0224184404277556,-2.026404241892489
876,-0.580949539741093,2.271186659931386,4.112605943602629,-1.7696709287892272
877,-0.48725209295289224,-0.4887770329793111,5.334834581706161,-2.5620976052374558
878,-0.7583358633288678,-2.6317560664455493,4.261441465173715,-3.1029866999497107
879,-0.4672351278724205,-3.0891217979142853,3.728281908626326,-2.24394204865515
880,0.48929838925672364,-1.672796984690799,2.5883710264955386,-0.27183519742560003
881,1.4234433829811701,0.44350680145132776,0.4546299350839249,2.6908183698137775
882,3.6758048242148575,1.7062777970460903,-2.7159819714264106,4.960621369500146
883,4.180516284570435,1.901911334328336,-4.508527085915785,5.154307825718772
884,2.457772766349855,0.9812217904415379,-4.442992630095722,2.7709073765402246
885,-2.233658196865235,-0.4318630757169736,-2.533405066383172,-0.34763827198472497
886,-5.313339016581249,-0.9143354536291366,0.28677665606008984,-2.74012399754764
887,-5.4086127403345206,-0.6651523787788505,1.9133053070101662,-5.008892929430035
888,-1.9816173024423378,0.24414213979799765,2.369876561451684,-5.48670629855013
889,2.6266092020018803,0.8700277866043222,2.3558733056652392,-3.9762061903087815
890,3.7003427246996257,1.3813013729378334,2.3085155441008225,-1.2039540049843889
891,2.4739602721256437,1.4131935408073721,1.1440418019482073,2.4769828048449716
892,-0.23437010525251642,0.9632500745075498,-0.11543120360984252,4.753432092715861
893,-1.1164581881910718,0.6158604259998831,-1.2794559569990251,4.476234310794374
894,-1.5691616586522512,0.2054190149446855,-2.094181949822428,2.205471668036317
895,-1.2873727943052466,-0.03416042852293966,-2.1367829219948216,0.5515782873580846
896,-0.8016210973659097,-2.082617108991648,-0.9570318025834876,-1.663355984010899
897,-0.6363462985476953,-2.9139895150878656,-0.49402333224589207,-2.220635956030236
898,-0.11258275401358814,-2.0491419196724125,0.5679813244097724,-1.603961929261009
899,0.8898747848543708,0.07042408692673519,1.7390717117752978,-0.16327268987247087
900,1.5453842996202543,3.603807448474889,1.7808198795010552,2.182312247488251
901,1.6748229117546516,5.714485784573712,0.7661782455824449,3.08195918321928
902,1.063280329473358,4.487630078492264,-2.0581449826361,2.2433525396328013
903,-0.028161498092975246,0.4996393916696525,-3.2432123150718324,0.20181321595153712
904,-0.6839049093336262,-3.6509794359451524,-2.330012573717444,-1.1339221843824403
905,-0.8627864151515137,-7.157175395431378,0.6120433768765667,-2.1576357683817426
906,-0.5439200970353912,-7.348290890612613,3.4867432768719944,-2.1220895524174197
907,-0.3605916102917677,-4.2686537704501895,4.604110659178862,-1.7125262615200159
908,0.27478270913076963,-1.1056139248866594,3.7570102245514754,-1.5795700539881086
909,0.21558694426000505,1.3218625778487343,1.5975784968901094,-0.9290136744558788
910,-0.4337373307375597,2.366876022555698,0.4154071201363577,0.2829935502782456
911,-1.277896918233966,2.082770437032977,-1.0129386553415163,1.0273909199740368
912,-2.150255332323766,1.367499269734281,-2.020768592196504,1.084642441691042
913,-2.6648554717092185,0.8871547816442872,-3.1310857679916366,-0.30142155749169197
914,-2.662639111489369,0.16992193258211657,-3.9374068959369497,-1.3604770699324784
915,-2.244175241209342,-0.47386448533077663,-3.9462148869015765,-0.8490831442780469
916,-2.610073526370589,-0.761055567748585,-2.131806942870016,1.1651333173800011
917,-2.580229248617196,-1.400522520863269,0.6437307431014754,3.2649703471376124
918,-2.062673397761342,-1.3477785040685664,4.425097529395558,3.545555065681726
919,-1.1951937628439704,-0.8779698300809489,7.180989658455577,2.4598178038859073
920,-0.42335957327946466,0.44025506285082433,6.213010766985754,0.856659623536721
921,0.38113261363497325,1.7774311683019133,2.4228273060117362,-0.24784337657242428
922,0.4640029867523583,2.1863994107365863,-2.5162077904279903,-1.4604475062205553
923,-0.5760596858421907,1.4183187880855619,-5.96860258006744,-2.8600914315211297
924,-1.2850231517979567,-0.038160017120887624,-6.926573053763024,-4.886869570275634
925,-1.6576605308413253,-0.7936805014974246,-4.352283607048276,-4.629436773840235
926,-1.4512369446051334,-1.452146574477972,-1.1364125156128395,-1.857637903021046
927,-0.7411936908481849,-1.3497785545018863,2.0296402267021296,2.105174847484654
928,0.02536623488082837,-0.7976625030946751,3.963847679148799,6.024697786879964
929,0.024167809558754902,-0.01145600855486617,3.7112115147184013,6.661225771991706
930,-0.09532453829415434,0.8046311183131424,2.6453993426069684,3.528156697845987
931,-0.15064694213849583,1.4010862625547542,1.2996977981698514,-1.3990375512289348
932,-0.1306668941893107,1.2778059074124777,0.4025153615846493,-5.252662269907364
933,0.04982765954843732,0.6108727238493075,0.08375342823816886,-6.136829454707395
934,0.9593063547568977,0.018827437300539613,-0.12430701253301824,-3.429562635594025
935,1.4553433855072577,-0.47841398328212753,-0.8207663243217882,0.4907791692787155
936,1.1888803442768978,-0.6451061618523103,-2.1309521135813516,2.943903849934931
937,-0.1348355293463765,-0.5103204054645333,-2.639727110800515,3.873271839338647
938,-1.4506843806681118,-0.3355509588625597,-2.093055542326782,2.640593889011456
939,-1.5800960453204198,-0.28281348266476336,-0.5499360292728549,1.8857219766956874
940,-0.8249912890942548,-0.22127408749586472,1.6412416711907205,1.180174586254512
941,0.5090080430091032,-0.18395883737123075,2.897136654470131,-0.1250088689596096
942,1.1774780548124224,-0.12830082840241347,3.4352228652404864,-2.1400620244016775
943,1.558933383924587,-0.09912916044693362,3.190249677406977,-3.750077237639309
944,1.7867214120111838,-0.10460855173559139,2.492465365171265,-3.966642775147227
945,1.9636400223264496,-0.04943599166907526,0.8779710350752392,-2.2387275550812467
946,1.2087084197030171,-0.24169622228597457,-2.35521195148206,0.38142130313872463
947,-0.014129713670769595,-0.27630610132031674,-3.73273644079127,1.7549584165072178
948,-2.177730085442081,0.016754224830349496,-2.873115425879451,2.1307895172717273
949,-3.5343445686973904,0.5402017324824336,1.4286585942760515,1.449645181188954
950,-2.318779849235951,1.0942514584747192,4.6376938600158,1.0740107625343345
951,0.8201966228999704,1.4643721411457626,4.738908659896864,0.9208028240658673
952,4.576219316241555,1.6671858945949445,1.6063219207023562,0.6489784685612233
953,8.080693552306379,1.2612566934272647,-2.254359052489201,1.0718559710104403
954,7.81034171523568,0.5304785404019083,-3.083520044113414,0.9022915078456799
955,3.75780275974568,-0.38256572683894957,-2.1884494864205535,0.02407998608195905
956,-1.1552292551210996,-1.7367378291727098,-0.10079173406821591,-2.1507265252407777
957,-5.634226067210375,-2.1826544185071026,0.4347887602490832,-3.6975001404112846
958,-6.745191446450908,-1.4248038965195162,0.7122718595482876,-3.3676668928876627
959,-4.300822352071441,0.02368831808973959,0.698242962557414,-1.3884405737676675
960,-0.5188675985684365,1.2584395404146231,0.8892768843369622,1.7842761009581818
961,2.2685048979732096,1.9342670162131785,0.6561012458476045,3.1569572447579106
962,4.198007852261763,1.8281902845093823,0.2947067563872823,2.760256844501712
963,3.9891063408280134,1.3483637563826572,-0.03524282102240482,0.9771074176151939
964,3.453653036975837,1.2499786116658114,-0.19452832909836876,-0.13584433248439973
965,2.6181771361953357,0.6002642640408349,-0.09866493835955273,-0.7310041006696676
966,0.8518368289850589,-0.31815074379009334,0.08867356045324834,-0.7768215838931897
967,-0.5914316249862963,-1.2583208780056108,0.37990083473318875,-0.47888370807657843
968,-1.5364641785676483,-1.8804509744315692,0.35199661797525794,-0.9185045624424877
969,-2.654168004212858,-2.212443129922579,-0.07040164019466677,-1.1437338810423843
970,-2.6980909904334207,-1.8400410106343645,-0.9417963335646846,-1.1258302499561088
971,-1.5818977615030385,-1.0435381204629395,-2.1025154173081524,-0.6962506596136597
972,-0.5973699965204389,-0.10708679234918428,-1.9845035910736495,0.026236261301831043
973,0.3948737191769307,1.076823365548675,-0.5587776278042232,0.6377758662816229
974,1.4879190959629829,1.5334039228339487,2.555310748660291,1.038456498771131
975,1.4850548673704207,1.068507273806222,4.418967320505482,1.051748987820474
976,0.5281030517781147,0.03689200283063927,4.06835696999961,1.275175864885237
977,-1.0395013487332134,-0.6253760102515008,1.599504075173618,1.1749971665930545
978,-2.204454604052155,-0.9857213518300848,-1.4442408580678898,0.6605821592850852
979,-2.0032633327889604,-0.8578023779161076,-3.248080457928291,0.3840998385693306
980,-0.7919609645146589,-0.40797549391563004,-3.6074260677635466,-0.2805679567668374
981,1.0056359911208168,-0.5421688401379278,-3.540035060300394,-1.056720363704496
982,2.1941451006397554,-0.5226121920526039,-3.7480465084936383,-2.90143366733589
983,2.9890201610947758,-0.3192557686776992,-2.4496620604095956,-3.7677124300491904
984,2.9464629122236934,0.13875193689845355,-0.4008077085488364,-3.0688262555157415
985,2.3073305117510197,0.6375801617254172,2.858937073115114,-0.8709959667299767
986,0.4535546433631722,0.8595822218120903,4.623153632705833,2.7313169789905243
987,-1.851498871939022,0.6295655927842815,3.852539259414928,4.195888178879859
988,-3.3345571826942972,0.10655625148745398,0.3123889426182136,3.2849124526472133
989,-3.2863206558294977,-0.14661383945220452,-2.0803286359669833,0.05771414607535724
990,-2.1135211393476916,-0.4053137882384437,-2.687617142211304,-1.7912339987153525
991,-0.7055696805736988,-0.5562314431279438,-0.35787288714087456,-2.348175750046748
992,0.4081848639438613,-0.8576532489687465,2.047326002967944,-1.1074961386304742
993,0.3345320560627546,-1.1030017111960575,1.6975853415426563,0.7517216035439291
994,0.2252645344392359,-1.073873924490708,-1.1537072719629435,1.012086433913149
995,0.7123393354005961,-0.5451681558506134,-3.840490908731319,0.6707978472941745
996,3.153774000075873,0.23486556656694854,-3.7095467552772474,-0.07116755935859073
997,4.741883665830732,0.9653625835641494,-1.7624875168173493,-0.2713500495173395
998,4.091170214217698,1.457046602360775,1.5060358649013912,-0.1453654224372998
999,1.3997065707351861,1.3280437572923571,2.4600260953046957,-0.2234230227639384
1000,-2.211367398675024,0.8739631995741319,1.6822239284714646,0.06971817130021835
1001,-4.374701357183809,0.23458466453018045,-0.33812786110749216,0.82343935791547
1002,-4.203134567035571,-0.23709689671848985,-1.4081834999814673,2.881579171075413
1003,-1.917254737332137,-0.32310984080052957,-2.486278816077152,4.084379378729059
1004,-0.13927727399535017,-0.25722710075074745,-2.1646161725639788,3.3001964069322085
1005,1.595429008030506,-0.3065729652656515,-0.6859600101956229,1.0213708446348806
1006,2.1819500607560105,-0.8562162065258537,0.5754424282511521,-2.1954652204084093
1007,1.4545417218899128,-1.2917633659135157,2.587492357847113,-3.926622210741259
1008,0.4433117526756287,-1.1069660852895862,2.974649646775401,-3.8786570414839425
1009,-0.07866937516417125,-0.12521656000750603,1.314514365887284,-1.5580994054430108
1010,-0.2787623430861861,1.1886620615738133,-1.338350609030457,0.5758824792722621
1011,-0.230591429318826,2.3240979607205956,-3.8781446736812684,3.513927023080157
1012,-0.3244202553174055,3.128146285621012,-5.251708258338563,5.265652877148487
1013,-0.553132950992903,2.6808740686863253,-3.995777184511905,4.415154293753171
1014,-0.9023019519007032,1.2630239977272146,-1.0037300311852624,2.002018777347314
1015,-1.2324653712545421,-0.5937369720788803,1.305048303637211,-0.9801949636071006
1016,-1.641082292692169,-2.606123334000811,3.320217409880234,-2.8570131363327538
1017,-1.984241784933963,-3.97172166156542,3.9695823994347306,-3.1935372330600544
1018,-2.887015139043835,-3.2992182801799275,3.2170778683351426,-2.0248056159867045
1019,-3.1468073916300185,-1.248670009545962,2.219178534226243,-1.12539040228195
1020,-2.5487861091996686,0.9536525963987702,1.2168532296755399,-0.45323167662645997
1021,-1.5532814060266,2.7418457076289005,0.2824951214092558,-0.024268867377821537
1022,-0.41123523070019685,3.502297833838791,-0.14849474320363362,0.016012547359596896
1023,0.19797932228558232,3.1960819645380787,-0.059149382645428655,0.024226433007593674
1024,-2.281707447812445,-1.8233470214568024,-2.4176277002732793,-1.7571006318011706
1025,-3.3130324306061527,-2.182789098048353,-3.2833510228439744,-1.6323881800531963
1026,-2.2452952773590455,-1.1553577326378783,-2.3329294323739163,-0.17707484621123581
1027,1.0212457298925344,1.2484670806907225,0.03292903607997133,3.7341886418266332
1028,5.010285873113048,4.371721285396352,3.3816314018824403,6.515770316422409
1029,8.050091202370721,5.026488681416577,5.215298244431729,6.4026402352870315
1030,10.518101326380771,2.887434147111583,4.7696400025463825,3.4724983955140543
1031,8.800935537444076,-1.3932867678664271,1.8415732299723109,-0.5047023561368564
1032,4.560825333009093,-3.836732114961149,-0.8408780097076463,-2.1650386364560994
1033,-0.9005659987867924,-4.558852861222753,-3.7892598205258974,-2.062182764171487
1034,-6.688740910228121,-3.1471585272106375,-5.426508908809117,-1.1402565677802876
1035,-8.918788123267896,-1.6947644709094218,-4.759899205773823,-1.71020669954536
1036,-7.210020347589788,-0.9485994997293371,-3.054633905787218,-3.3793798734940768
1037,-3.160391686202392,-0.021377395661438647,-1.2364394057608155,-4.067498830731049
1038,-0.5576929174560521,1.0476189165422036,0.13199298157258507,-3.0426596392335328
1039,2.5017171692789453,2.4891750364011433,0.8574802470461134,-0.23811260792989206
1040,4.3470886805888735,2.603235214625588,1.4303725331267438,2.6834937641683316
1041,7.329922193284858,1.5495504110501361,1.7898841474825091,3.688534957997783
1042,8.728908396897493,-0.4001677588144591,1.6836141667803404,3.1165620745417613
1043,6.380091685787955,-1.4135860557976663,0.037506509311993175,1.3124812604931337
1044,2.100261877252062,-1.5424298965150633,-1.1552813208998802,0.5709100115218781
1045,-2.6661590679173885,-0.47514635810937633,-0.8832918527265112,0.09523295931907977
1046,-5.137384093651454,0.33733923579663205,1.1092583626443604,-0.22893724896432388
1047,-5.290607732382286,0.33327458598166904,3.6493988013548684,-0.6954707087295507
1048,-3.7732922889091145,-0.2996503855702193,3.623249169131936,-2.103516543361229
1049,-5.055275774692163,-1.2257350627343173,1.4397213738742505,-2.4653325235103667
1050,-5.216862670194885,-1.4066156020132072,-2.6656940431994705,-1.644178880119284
1051,-4.294150689268476,-0.8145537372505618,-4.870265494937611,0.8704173149730692
1052,-2.572341716926559,0.27833373140014706,-5.003349458457832,3.565939086279351
1053,-0.6746173336099719,1.3018009624885494,-2.9118142972703556,4.173365881256291
1054,0.07110699080655691,2.142996226491775,-0.5546615104730037,2.646606309538728
1055,0.1574041767266156,1.810580437742401,0.5641725914486797,0.019976137376556374
1056,0.07744025114546788,0.5894823543987416,1.1447128460646896,-1.2181321862077759
1057,1.2164371833261516,-0.8407352918384834,1.1774443791463471,-1.882934906371214
1058,1.9186581487420316,-2.4825767336625657,2.256993378930786,-1.568491390956414
1059,2.731068132691897,-2.8304142559250627,2.958578321046541,-1.7955683242777645
1060,2.60271641591481,-1.4520001087581125,2.7216934322008033,-1.8552923465152864
1061,0.8032132289334477,0.47082511282869177,1.323291138934683,-1.1257032912427503
1062,-0.6031059178019197,2.446914715903492,-0.5776548454011101,-0.06247578894060024
1063,-1.1110971350885122,3.838699523840463,-1.8208345723674468,1.4175377333348966
1064,-0.42928303293149256,3.1644901824665754,-2.406713172108822,2.089110561434918
1065,0.8633235172715734,0.9353025368114635,-2.039124687740205,1.5674651816892116
1066,2.3932537759420383,-1.1339785913403446,-1.6187166494715446,0.15925274006065232
1067,2.2353033222890546,-3.008436851425074,-1.2504950417367757,-0.8512010727192056
1068,1.57535373534411,-3.8286938125930314,-0.734546834753158,-1.55371418956777
1069,1.0822537463493638,-2.907221604796688,-0.711283822515703,-1.3312534279953536
1070,0.2189314357528288,-1.3007352092465931,-0.9840802152437618,-0.9705139914947368
1071,-0.6543014524181426,0.20846184433129397,-0.41139908437791545,-1.3750609958735884
1072,-0.90045718812658,1.7941349692041337,1.010468593808309,-2.262945525644573
1073,-1.8739577567570738,2.4511854642471604,3.483800901331507,-3.4821884430121166
1074,-1.8701998546114176,1.9163922317432522,5.584644593317836,-3.162398886367514
1075,-0.4724032187613948,0.9694077690321095,4.884490999830978,-1.1326527356735876
1076,3.054831247501344,0.08924905102039368,1.5619726563977157,1.8777592944850392
1077,5.5172583846111145,-0.6964636527421303,-2.9186223585697175,4.861955371650373
1078,5.3608662443508495,-1.0345447082706718,-6.107976248801082,5.380072859023228
1079,1.9495303633871595,-1.2312608703218824,-6.439067275664726,3.054961661131498
1080,-1.920571828697296,-1.4488707736247528,-3.826250567113411,-0.6723110539392501
1081,-2.7025543932131586,-1.122007336675621,-0.8801892132799622,-3.148827248166107
1082,-1.4913081046146168,-0.20860014939220822,1.3162474527226005,-3.989660787256984
1083,0.9230473349496151,0.7519311285718846,2.5765778024065358,-2.7516347907343293
1084,1.141327986826721,1.6981078641369949,3.1275692565705606,-1.1398142511185432
1085,1.2095360856071788,2.260447113563417,3.677335307289708,-0.8204186256631032
1086,0.9919873539628008,1.7688947901873786,2.961425499041981,-1.627619236692023
1087,2.5542419158937526,0.7891101027690224,1.0394619576657846,-2.2105354858825876
1088,3.218937919827615,-0.5765804766685032,-1.6319104201456256,-1.4161152331881346
1089,2.505129105545998,-1.7135729795644818,-3.65817648614568,0.37652984802411116
1090,0.2067019408157665,-1.9469583219414397,-3.864170666230748,2.0328255196060327
1091,-2.038782681419638,-1.1209893144498384,-2.3270711489365423,2.498371476268301
1092,-2.774254042319951,-0.043910183159060936,-0.39770812934609295,1.9622649209095357
1093,-2.0173771994060736,0.6688120014016018,1.1388108762556333,0.6521426058607847
1094,-0.3970084689171685,1.0752375484896213,2.2357464319384963,-0.14703076088101058
1095,0.06915065330489444,1.1279645103063918,2.773378978357313,-0.9786865600440697
1096,0.27947349246992537,0.970086052242822,2.897458611658586,-1.7588028063324994
1097,0.15650053883211062,0.6233253718425834,2.106057110521008,-2.5551433801102186
1098,0.2507613723927179,0.1490035165599794,0.26563037254594524,-2.388666381256411
1099,0.12821569106307207,-0.3207892347322601,-1.7252987876695691,-1.263187628179905
1100,0.05478431056308613,-0.6608673342491618,-3.6962079843770064,0.10207356169785076
1101,-0.11365521076761992,-0.619418913535309,-4.98689153246034,1.3737255429607347
1102,0.035847719441816334,-0.33035225442722577,-4.331485920073731,2.1319179663540684
1103,0.04956069820310752,-0.013542277009450411,-2.173786317238168,2.0294984995639287
1104,-0.3269312370615726,0.3983985266492193,0.48381176422026934,3.045898055675162
1105,-0.9821067695704018,0.39385328777062356,3.0669007116668463,2.7791451565003387
1106,-2.016973014133714,-0.026267891268963173,4.491344147339035,0.9321583893512968
1107,-2.4920757736993684,-0.9168361065437093,3.484066003835712,-3.223238561713834
1108,-2.0281649023975663,-1.7621357180122093,1.3139648099300802,-7.102843132869369
1109,-1.5626226018464076,-1.5241804573772475,-1.0090941230592396,-7.133658686726009
1110,-0.4289765230246429,-0.2653209674690292,-2.8816236036427325,-3.0104636688449484
1111,1.2214905820227004,2.0781217854468097,-3.1144986138151625,3.1189586015315567
1112,4.678150496718001,3.6096388655343503,-1.9144533683161409,7.438860630778491
1113,6.347165045561471,3.2232235082077185,-0.6742194259665212,8.483609439025184
1114,5.512775742138066,1.1113051442389974,0.06417129262087626,4.815365466639737
1115,1.4465775712538396,-1.4656658430669511,0.5750917015063582,0.3281857287987828
1116,-2.6153559885293096,-3.0651154727678938,0.6880720453922068,-5.081792140066689
1117,-3.7487464999070457,-3.043817226461102,1.1812465247184485,-7.82040083856065
1118,-2.5022186302044633,-1.5182329719868,1.401833371427831,-6.202164897670522
1119,0.16673815790858915,-0.3901088104306678,1.090800285472746,-2.1711388684454804
1120,0.242376915193671,0.47702504526938827,0.5552037953702518,1.6127185771597032
1121,0.3242856597350501,0.9847420979038882,-0.04004313455051749,3.5022074259048295
1122,0.5486987728077909,0.8892297278691739,-0.28547764492522615,3.0927304920598147
1123,1.7575964718683645,1.0264118451050732,-0.30998898955342424,0.7626684982427883
1124,2.6691693625752184,1.2038980711792446,-0.11990889620773147,0.18799962301439255
1125,3.9409921672796866,2.1899955624709464,-0.778970078621458,0.05553746645146229
1126,4.068345931020789,2.380528878858489,-0.9384307142450117,0.49814918238687483
1127,2.7033793743333465,1.4396272934072751,-0.44269672649085606,2.2491402425406424
1128,1.4195479043972397,-0.4743340940029047,1.0982203323941153,3.160368093024699
1129,-0.4435474428938166,-2.8036079728731313,2.330129263937356,1.5635760939397407
1130,-1.8652934500255411,-3.746833540699232,2.4518044507734436,-2.110618310343555
1131,-2.936954254280899,-3.252346776631411,1.3076466223923147,-6.775255533041072
1132,-3.529380379211742,-1.5402919343231931,-0.12042762900901872,-11.783004434113593
1133,-4.02492722077789,-0.4949061093568519,-0.5170599927173953,-11.245342695241547
1134,-5.349323976481147,0.5091416045514691,0.33397779713962417,-4.9019782238706275
1135,-4.130009476494958,0.9335633839585231,1.0612327011325664,2.6391299531997534
1136,-1.0308275114712244,0.9285392387469972,0.549473543729324,11.283014946517907
1137,6.182350396963862,1.345838946735905,-1.3771945483878978,13.567336589162577
1138,10.520877516840097,1.0461104764961515,-2.8428416502896336,7.972404516105875
1139,10.015395531066765,0.4200607074849133,-2.798588092871485,-2.268244928972619
1140,3.545319833405014,-0.9046194506759889,-0.5960464000553525,-9.06294015712223
1141,-3.4779231476873216,-1.9320287847695417,1.4905256815657597,-11.468522087587969
1142,-4.96600064534795,-2.1307876900016147,1.6692952732378865,-8.419487000745479
1143,-2.7444026522626173,-1.4779852877778699,-0.9906018259372271,-2.9519639242876385
1144,1.7635294358601719,-0.5462742491553895,-3.1457537519121095,-3.1453507016035416
1145,2.0745176365126783,-0.2961457426319158,-2.3443830212714483,-2.926097266107621
1146,2.2553503551453127,-0.286025598881729,1.3158300061728236,-1.701503197867123
1147,2.529410343370602,-0.43366612324239445,4.875243124007251,2.4073023816870682
1148,4.5258141875237525,-0.24072398278519805,5.352140183900063,6.05659858368803
1149,6.22772171095777,-0.1010158880552639,3.483137159192589,8.068401175558414
1150,7.252457932249328,0.0007055132159017145,0.4922254410612895,7.820880265265567
1151,7.313952117878294,0.02964530907878659,-0.37229900344292954,6.230767056114509
1152,-6.066015095395011,-3.9214873289092242,-14.977293820136442,-7.395539984778536
1153,-8.34530068011888,-5.09733813035675,-20.027852464032264,-9.095703582284228
1154,-5.542386885510982,-3.084068549420662,-15.751528973678475,-4.966456841080078
1155,0.5353017977134136,2.489620161965064,-5.190623863735919,5.6587421589296625
1156,12.620336399897601,10.236183721869725,8.577268811397914,19.211268572513628
1157,17.23549715140871,11.063725073040244,17.226757163376163,21.13447370604792
1158,11.697579172248549,5.08488894964548,20.92252824272937,10.302166378366564
1159,-0.6432388296287022,-9.744266762771286,19.867345586209694,-9.660169224278158
1160,-13.842882814390732,-17.330161378002146,22.938372464344567,-22.86179109894198
1161,-19.37849583278075,-15.686522112037567,25.934797038744836,-26.376449841137237
1162,-13.829721429005465,-4.231233089864449,26.50536630333184,-17.068917605035278
1163,0.1833209641779277,8.419242786220217,14.574442119039333,-4.171208251119549
1164,8.003230548894773,11.792823906012552,-9.383354668597617,4.254589612736784
1165,11.450471598286507,7.718757196574507,-39.11093289092473,8.830935255469951
1166,8.901992879474705,-3.404357194426017,-66.78105697297411,7.814792171285206
1167,3.416643199089096,-7.128579111874051,-68.46901139622246,6.022453592510532
1168,2.149018699142342,-6.551408196371925,-41.806838439246235,4.425380986548766
1169,1.419948475692678,0.5839287633421121,-6.718296201784474,5.489172157073726
1170,1.5354487237243424,6.105413768527502,26.5805663473748,5.310432037085013
1171,0.47772650889403767,6.660043429500597,43.821602254224274,3.1431999003733155
1172,0.06549357542943687,2.2693424300100316,36.27680060852569,-1.7225178784310475
1173,-0.08046508962579628,-3.158440802669094,18.659390881477478,-6.460581944810385
1174,-1.066647481070439,-3.7853583279770544,6.6046231029028775,-8.430485037469149
1175,-0.9063907422664567,-1.53913074475129,-2.6916944382533865,-5.914515830904234
1176,1.600836659384665,2.0771939136386774,-5.8105557171022,-0.8005452633298324
1177,3.7558222285940213,2.301999234667216,-3.8831209732799303,3.1163774340227772
1178,5.425287741385398,0.8623511550600713,-4.928561254980335,5.138645021797051
1179,4.631875672806803,-1.7205952305304613,-8.192123351998296,4.281672165586734
1180,1.6256504048431837,-2.787412643279717,-7.476047730776319,0.7688610103128837
1181,-2.2949119550654427,-3.771201790848496,-3.3603179593225923,-1.511853874637532
1182,-3.8827980733560556,-3.5911147496924674,7.52624336985912,-1.3688239970103542
1183,-3.531007739211475,-2.4091448396159785,15.889150463161483,2.957794352283162
1184,-2.974012215259525,-0.7656019912141319,16.80832896315241,6.554828453420372
1185,-1.3301037440233192,2.312445494924584,10.076784459800335,5.673688531380132
1186,-0.07380774626038558,3.8100654082123904,-0.33098480818011283,1.665306044343496
1187,1.4401877468392283,2.8348228255583527,-3.4293581266365387,-4.44823366823802
1188,0.6633623457011181,-0.6897723954527931,-2.8846252744407,-6.391797447221331
1189,-0.4698177173372737,-3.5046053606690317,2.8912206030167935,-3.7647752517006623
1190,-1.0404471023332376,-4.113401977021773,3.697775183649457,1.4990132661478732
1191,-0.7238619256096475,-2.7134974275140014,2.2538097928571474,7.638471663002724
1192,0.46940475743346466,1.3282435155119208,-3.7028967833332445,10.334247763913645
1193,2.8576497205012528,2.4552605632854676,-8.64957415291814,7.402254865217456
1194,2.7204838633208883,1.175998562421996,-8.895238453806964,-0.09735793811743036
1195,0.5074372948583521,-3.0285193392401717,-5.359052049741299,-7.571268958000848
1196,-4.937661324762643,-7.111909516447478,0.03511816259478023,-9.079691971372442
1197,-7.469429655246736,-7.479233728678905,2.3307476265542215,-3.8534011649429516
1198,-5.743106464452524,-3.7516975054847883,2.3882549797351724,7.477915041703976
1199,4.376454277019969,2.6018693382298608,1.621097023953094,14.341087932083582
1200,12.581778427808716,6.818311252934618,2.676247567025069,13.906938442135441
1201,12.342723954200299,7.601607044533666,6.056839061306888,6.050203497221423
1202,2.6098568258216592,4.630566788713189,7.646050058961536,-4.833886203844026
1203,-7.95988819700092,1.104630082216341,5.185150601804004,-11.524398309165498
1204,-9.34059371470654,-1.258740302893769,-0.5358156931604556,-11.236991223403217
1205,-3.4163020755623728,-2.466683027348769,-8.801126201566523,-4.742478423236775
1206,4.420728233742497,-2.504455200977584,-14.159436556044767,3.6306124388538104
1207,5.308264184492802,-2.4316565640129726,-12.129901651553709,7.889453076583329
1208,0.9751947801256446,-4.198663405661069,-4.040423820005252,7.288192450030921
1209,-3.6431238996162207,-4.586938474727997,5.080944858543571,-1.0961897612158142
1210,-2.6624640148393874,-3.1127323161839486,11.21128266286573,-6.121165693277315
1211,2.769415429890378,-0.5764826267539638,11.191424529323573,-5.299447787814803
1212,8.603077483877113,3.744423542656856,5.898345889820341,3.283447327478347
1213,8.514270204276245,5.443019368435329,1.1643868203479977,12.372905855860832
1214,3.8780237253988394,3.661193001409706,-0.8588994481021948,12.163658777287973
1215,-3.232131793497518,-1.2137728597966513,-0.2860388148798435,5.084811126528221
1216,-7.559139674700413,-4.395053935977511,0.555897635192711,-6.4256968191308825
1217,-7.9104814132799035,-5.555085719556421,-1.4240780777046966,-12.406848790829905
1218,-4.093376644750581,-4.151973385965497,-5.384636232353965,-12.475163396025158
1219,-0.1694385982243947,-1.3136173550108046,-8.3650929005343,-5.892027064577424
1220,3.113359709042612,-0.3171506714345472,-7.256734502384329,0.2137303289661524
1221,4.136713983616412,-0.2554482112484615,-2.515748750440556,5.732138000321516
1222,2.4563391619139625,-0.4566044617561055,4.668667961163359,9.0716484718833
1223,0.013492940132891679,0.40178565912542485,8.347944867277619,7.8907947968386765
1224,-1.0077251640019254,1.4799669923291887,7.650047047640759,4.662463091118744
1225,-1.8998853002065401,2.8920480388441203,3.5030682424075894,1.147283852045438
1226,-1.4802977771002839,3.64337133522595,0.4572821989272174,-1.8094782266502019
1227,-1.1004157715836875,2.180105491432585,-1.5519417292031614,-3.2032599823555974
1228,-0.19981933847484595,-0.8283565003303429,-0.9232636858617138,-3.14077382699934
1229,1.2427160060376545,-4.07018624635649,-0.18940813498568532,-2.9139003965622137
1230,3.8564304610705347,-6.975415934640326,-2.228277822196456,-2.425646337159602
1231,5.03645510729144,-6.571928540849729,-4.000106119986831,-1.0984704481470002
1232,4.001050980437149,-3.242075614170666,-8.233479678775815,1.1896967289289635
1233,1.7490640234295391,0.8668100874614395,-12.814739359917473,2.428085708645596
1234,-0.9171154538032037,4.442416819222018,-7.5434600528981015,2.198359255740912
1235,-2.674822826936385,5.373908467009585,5.242762190285476,0.028071526371840516
1236,-2.6907526584215877,3.3615151818143274,27.43225686069341,-1.6742650657394327
1237,-1.1703837335641216,0.5419364577850903,48.099991742450996,-1.7277168503055436
1238,-0.14710924677740017,-1.2724593532307538,41.23809899597131,-0.4676110198857868
1239,1.1219719964381474,-2.418591816390561,8.27761600385093,1.5558575785262843
1240,2.491923723551032,-2.3984336410875327,-38.11897680302044,2.7719595219798583
1241,2.6867033023542564,-2.0049936176558703,-72.78503329959526,2.512997362779664
1242,1.6531869845332539,-2.7559396656657875,-78.05015374866316,0.8343554351456364
1243,0.6196459170907387,-2.485462747797623,-45.46976397192145,-1.4755954879645008
1244,-0.6414067243419733,-1.092939568529896,-3.3344545429595285,-3.089228547222613
1245,-1.2986507923011892,0.8580946911529416,29.533908283273956,-3.120511327945899
1246,-1.3424831858055584,3.706515595781511,50.79831352418846,-1.4252242814224056
1247,-0.9376373930005572,4.937808547673049,52.15184783436883,0.2930709315693599
1248,-1.4762795471934222,3.623085270554027,43.87151100537654,0.7785925284521347
1249,-1.5368431162576428,0.9114125888114124,26.565457796735235,0.08611974246758444
1250,-1.2155180310099276,-1.7771083776625471,5.73660706666433,-0.8250288469433021
1251,-0.47705965155627916,-3.2721610060554607,-14.240953881280339,-0.4932411540392524
1252,0.6451764020577749,-2.553061111336624,-25.271318942450968,0.2646966240967812
1253,1.7077724151029803,-0.2809065242009786,-26.37069231646304,1.1024333826495716
1254,2.138412938394282,1.0822927216134604,-25.477647947260103,1.8108360291659318
1255,3.2354692844325577,2.163353576129647,-27.125977971344778,1.7454299786515386
1256,3.430024530083714,2.5346359191566905,-21.053671973818453,1.1449773339377367
1257,1.8611016712789794,1.7556430679847068,-5.416523993630314,0.34590535831628433
1258,-0.8280009774081022,0.9859134157506452,18.91662129483104,-0.746318762682788
1259,-3.870753315886467,-0.20942746312583316,38.22176179977327,-2.0723298930933445
1260,-4.768706706426276,-1.3504570477074584,38.43790410210009,-2.972540103767839
1261,-3.008629700865214,-1.7614212070129631,20.497051419827795,-2.348860948453252
1262,0.4373145300326781,-1.2334691978998407,-1.3342323922768136,-0.8943319521616233
1263,2.660398467342556,-0.13922457287918347,-13.625584298517932,1.5919153694451391
1264,4.253810728477586,0.8224431188599681,-19.358891543056302,3.5896429326096753
1265,4.448906837717004,1.8189861098877689,-14.984702746827109,3.576965649069011
1266,3.2761057160041567,2.6295627743483343,-12.39431593672652,1.585456351224245
1267,1.766481708258912,2.269064549740412,-9.567602367044284,-1.278079708206753
1268,-0.76850291902003,0.9615227950514782,-3.7631410943880095,-3.1776783014466314
1269,-2.244315222844622,-0.9478231735494621,2.4852973014087993,-3.2264154839276054
1270,-2.1706356578130754,-2.6732429629963392,7.0516503991924235,-1.4711842424247976
1271,-0.8884079842713793,-3.082655858928251,9.078120401865036,0.6617160057775167
1272,0.3584321658618497,-1.9913054931142662,10.885514776783962,1.8680986053946271
1273,0.7743432328223712,-0.56932458173848,10.134193909651463,1.8884527622668108
1274,0.6577526394120362,0.38296057384279963,8.7186039260729,0.776508528453693
1275,0.16950143451577182,1.1218920160352828,6.051159856043835,-0.20094081103365996
1276,0.19022824340546912,1.3884045601730972,2.7510258742535623,-0.8301370390045414
1277,0.18521564601456125,1.565993477794194,0.24328609554608638,-0.9852881693856831
1278,0.23534161992364,1.840803660186012,-0.6222799492631478,-0.6768945316552718
1279,0.21863296195394716,1.8259102340539852,-0.09553561019837467,-0.4618584914359626
1280,-0.6763224744241586,-0.8162854372741787,11.064743894864234,-0.8747439080092817
1281,-0.9231005544443709,-0.9285853757734766,11.900260622722934,-0.6554576883801528
1282,-1.1336263986421176,-0.42264553851567654,3.599938423459575,0.02959041687381081
1283,-0.6623648790538618,0.989018306653428,-14.280801529095022,1.2994018198512367
1284,0.407717422268228,2.117466285492567,-34.4296671353762,2.135859851125642
1285,1.1792774631387788,2.324512217868446,-40.02792167914985,2.345989484306659
1286,3.348242515346791,1.5779839604228385,-25.124423429135653,1.5625738315845057
1287,3.47473966302507,0.20737938113323096,2.0295981388918785,0.3395621883004186
1288,1.4115105645693165,-0.5653641431312928,20.57006765061296,-0.4877962344419543
1289,-4.212467501071595,-1.0500656540532631,31.812997585022448,-1.0410223910629102
1290,-7.925366327452411,-1.1770857180344894,30.941147882981365,-1.0176101468243572
1291,-7.686966128349577,-1.6897689913361393,24.833285632054658,-1.7763787147152685
1292,-3.6404316702895603,-1.4508438998549686,18.217204748138183,-1.6556909527648702
1293,1.7453143309335362,-0.7041891966590229,9.17232286017262,-0.8545825506781433
1294,4.221458096106419,0.3402288923703582,-1.9095355695235896,1.0769289771446928
1295,4.29399200353083,1.2672608120808082,-11.336963234805005,2.726978590859967
1296,3.5354896568806584,1.5970555150317143,-18.86290941450343,3.3089831798848173
1297,3.434279809875004,1.3007452753341697,-23.72892429528401,2.545521269738542
1298,1.6330201344510282,0.7844076309945627,-24.287918471699026,0.9995812204170167
1299,-2.0413217233675414,0.5132647872552815,-16.83687005384277,0.6062806716219403
1300,-4.349200196967403,0.10509223448238394,-4.210343800898556,0.34655835109237787
1301,-4.120616726799288,-0.43827537212235007,8.711786558381025,0.2393702167541253
1302,-1.691976756283307,-0.9892497258087121,18.530347963574243,-0.24942157484419994
1303,1.4497156067323855,-1.9291021856757509,20.66176198900368,-0.6540487777791684
1304,2.9105735396778702,-2.236702868149033,16.633139698038434,-1.0733940595389244
1305,2.6675685398687246,-1.5572127652852337,8.673598692994311,-0.6734771422139504
1306,0.8459542676287153,-0.25875658810682833,0.2634023578471145,0.1979749540427468
1307,-0.21103237669917915,1.4294607564364576,-7.782332432778718,0.7054063538056565
1308,-1.2887798484801234,2.4344416783191227,-13.413324565425055,0.7971154002578468
1309,-2.167503476420838,2.126710515294102,-14.274867553919297,0.5012699307299657
1310,-2.2112614866798683,0.8222455808656569,-9.685359992169015,-0.3335217056251931
1311,-1.335585558893348,-0.253724807596187,-1.9521401675337426,-0.5535153893868324
1312,-0.6624738294633621,-1.1607881514815765,6.045878405592266,0.016507711628343635
1313,0.14748183330973091,-1.6770699172650927,11.854550152179472,1.069448255426173
1314,0.6219278345304721,-1.7121257851194565,12.446692348110926,2.0400338723208042
1315,0.6232234767076235,-1.7593810855261833,7.575253792981253,1.9342563287933179
1316,0.40421376572133616,-1.2684647110553637,1.631880036039235,0.7258936628818575
1317,0.490256881339756,-0.4115367037263299,-3.353371635727506,-1.4222798664680278
1318,0.9746252285444742,0.6927459086830453,-7.863332409625979,-2.7866576114870183
1319,1.1338238152611348,1.2946673142405458,-8.498727433630576,-2.5780931798176225
1320,0.8986719649651195,1.1322858239756413,-5.61565195836617,-0.9045000755007431
1321,-0.9620882386837817,0.3152503039068661,-1.1708835206200492,1.2046696594424469
1322,-3.244649877463867,-0.424756405444376,4.361349513085963,2.431190453791129
1323,-4.362646629920569,-0.4776303792867831,7.643087099468006,2.4445911498212523
1324,-6.238437710093167,-0.07136296130570971,6.0894047134924145,1.4974180109090438
1325,-5.337408828952363,1.0471635279734857,1.1843217496976481,0.5725916266817022
1326,-2.442053692338807,1.3648102112520257,-3.484192558749856,-0.10373034055537542
1327,3.8532508253075837,0.9441943730754436,-6.708631674251883,-0.5271470706398189
1328,7.793754028782618,-0.37335046202878874,-6.167016733027772,-0.8058779705177536
1329,7.955980889590377,-1.3219049182168625,-2.434579395276926,-1.088026265112788
1330,3.7504545766395165,-1.5228938758266917,0.7000391345020811,-0.8835531589803006
1331,-2.042505586408658,-0.9562600866388944,3.2433033417397903,-0.30438110962167414
1332,-4.6707946411280785,0.00537096454980441,3.8811118772646522,0.012553667511186667
1333,-4.789794176606734,0.29357214746795673,2.6059907667793594,0.12935587801351303
1334,-3.1689449733323567,0.26432915126656564,1.4768646945009298,-0.503500160379824
1335,-2.62284565399635,-0.05838637415979068,0.8257053112326228,-0.9668859464824276
1336,-1.0181043641398053,-0.13201052824764964,0.6549178508815223,-0.5602119837450427
1337,1.265832402750493,-0.1271692193914683,0.6630808673886487,0.36409431815852245
1338,2.360195269302754,0.052407936686958936,0.258955467092067,1.6038375628407766
1339,1.841964862446968,0.2878962761839144,-0.4270597148627281,2.434161604579388
1340,0.6070337712716268,0.6373947562321304,-1.495843361214682,2.1832379969950866
1341,-1.1486692820004307,0.6755082418973901,-1.8780313437975105,0.9301818853967148
1342,-1.853942188054693,0.36727659748176866,-1.410297007179737,-0.06911359562156671
1343,-1.8741578676050301,-0.21437451001335828,0.21317831078221014,-1.1068397350575327
1344,-1.2632406719903801,-0.6729814576031792,1.207445863030674,-1.707642317805067
1345,-1.772700032799004,-0.8449425370493483,1.4763799612724475,-1.6703584106339413
1346,-1.7346799813086446,-0.6943732594929868,-0.2166275069968523,-1.863394563150738
1347,-1.0301714199289511,-0.36347023404241724,-1.5169781424947042,-2.0169964290882
1348,-0.008399880319226949,-0.15516518334370388,-1.121934755415092,-1.4540924199745966
1349,1.1158819753872873,-0.45763718985000107,2.241975079742022,-0.43641278674996803
1350,1.9727351152726977,-0.42780814339538004,4.601239700565674,0.5120757125695087
1351,2.297314023372425,0.19425861846839632,3.7397709107464077,1.2846319089496014
1352,2.1481617761472487,1.4449136894092631,-0.509258304598681,1.3938508919156172
1353,2.6426865971034887,2.8039011948777044,-5.303085566172228,1.1556567466051348
1354,2.4788181603445834,2.937811172358114,-6.037347837887032,1.1243200512553735
1355,2.428732002591003,1.5809741228352663,-3.4070390820954874,1.8892655188523377
1356,1.9907377369397443,-0.5573737662382842,1.2818491408787982,2.0886833921864114
1357,0.5846365138967002,-2.0359160089479222,3.423200267070102,1.2931849529077555
1358,-1.484935216142305,-2.6353935953610588,3.8704853994522734,-0.21179305808641374
1359,-3.0831328550571677,-1.9133119151232025,2.3580454857973487,-2.0293690454308124
1360,-5.631741534526013,-0.9031235047192131,1.322882174117701,-2.913946868608169
1361,-6.070861749823044,-0.1505180918005819,0.6455277163852147,-2.8344700668667766
1362,-3.8878876498722237,0.5432207109673396,0.04796142475807621,-2.103717473090592
1363,1.2153486441979233,0.8138591730448411,-0.014953196285477893,-1.3488738950608143
1364,4.7833440603395685,0.7280230484553282,-0.3483439784376132,-0.040547155526632184
1365,5.113589913055845,0.6511989654748277,-0.635032694795403,1.884530767276393
1366,-0.5863569521647054,0.411128376161367,-1.9453402924451968,2.912611175155412
1367,-5.751267215377163,0.012327774851220129,-2.2481703569952574,2.713700727106265
1368,-4.855533393919959,-0.32055415718906266,-1.4199644090518329,1.260634577859995
1369,0.5724725324466646,-0.5927148037840446,1.7056723861956213,-0.17140695921706078
1370,7.3813017523100575,-0.6483199813432992,4.131429649530212,-0.9826499912994203
1371,9.247610898970022,-0.3656150667448948,4.131047463487417,-1.012086427182698
1372,7.593155214542691,0.01557606889053921,1.863090662213014,-0.3535984576677821
1373,2.1143475670340584,0.6627720303565809,-1.3583473327801412,-0.10901533585238546
1374,-1.631412229374404,0.886891822993028,-2.940003453415811,0.12749879078335072
1375,-6.807835631324662,0.45017870709270474,-3.025820655045508,0.8101937458372409
1376,-8.865795276688699,-0.37850972271535416,-2.0898633782408083,0.7783366114000642
1377,-7.725402395761846,-1.1855696130969664,-1.1456588686143276,0.05321244397213465
1378,-3.891901076737532,-1.6821438480432904,0.4120221371562691,-1.9143468877100513
1379,0.10736310285981276,-1.6848695599843544,3.9478240656645536,-3.1886894950491937
1380,1.7874481735064875,-0.879812595605302,5.219328862806893,-2.9115534046752627
1381,1.3840294700815723,0.026466199079829222,3.1045697625286497,-0.5589446589123964
1382,-0.21858744868084878,1.0823377271886812,-1.132036130725485,1.856573559382832
1383,0.041197041841491075,2.010132550751494,-7.0101611615819355,2.272919662532536
1384,0.2578312805588736,2.381583906641775,-9.63232024572987,1.0411834710462775
1385,0.43750537109898,1.8716681926793097,-6.7377974493379815,-0.8755400303379419
1386,1.1278916971302237,0.6352977179613992,-0.1340198727574542,-1.064074365359116
1387,1.1620883426643052,-0.6687784238417532,6.498169703175267,-0.5126531790527216
1388,-0.2706517705657213,-2.060743067800888,10.424148805646649,0.8276470415439555
1389,-2.0136446541434254,-2.752533798494113,9.149930150851334,1.2545089473687778
1390,-3.0049870807248276,-2.302724760938503,4.815445040071769,1.0984101166715774
1391,-4.310713001874072,-1.3525173967687378,0.8110830301953246,0.38409443146239447
1392,-3.495229254524847,-0.6059986057581725,-1.915062557087051,-0.2243248251104026
1393,-0.9142599538995477,0.29159639251902875,-3.4430298764204164,-0.7046267548245003
1394,2.744577952005544,1.1533374091836817,-3.524029080888308,-0.18253195429531444
1395,5.36394206990363,2.149582260082809,-6.425442834376969,-0.07360371440594671
1396,5.725160353988116,3.3913272602270927,-7.091831572500272,-0.7427506997007756
1397,3.1385656788599947,3.351059160376704,-4.8672855719149855,-3.6934206669345095
1398,-1.0628171395197619,1.5352768437598936,-1.274136055140514,-5.216380227328062
1399,-3.2375571418235145,-0.9798332059726356,3.8653430314697976,-4.098185073441959
1400,-4.319870409526193,-3.206834685476252,6.944026834353914,0.4312464333190791
1401,-5.398212782392415,-4.5713764763758045,5.868690334937653,4.748013988300508
1402,-5.1564724031094205,-3.8428006600903832,1.455904079640658,5.615762212082005
1403,-1.68539156679958,-1.983918771721764,-2.10195889656613,3.545146360384634
1404,3.2102778785822847,-0.1257953778603068,-4.784907424912911,0.10787774217558826
1405,7.564072331563213,1.418174625282403,-5.52102410046295,-0.7072510654850979
1406,9.902043950257205,2.064186843270005,-4.565498981808352,-0.6554555823738976
1407,9.682255868009484,1.790955771221973,-4.252295300350163,0.18751158525596778
1408,-0.4026412380119138,-0.9051830623509858,-0.733074573271048,-1.2923498623620673
1409,-0.5438721831604025,-1.5496201765787179,-0.3819735120585015,-1.5993579785051266
1410,-2.1520124905963094,-1.2520036857631587,0.27981439537160935,-0.9135392327235283
1411,-2.227452636283526,-0.041477289873720735,2.472390105181616,1.1559231708128006
1412,-0.3945433152821529,2.105364997096354,3.424507067549138,3.3058569464894134
1413,4.085459224394608,3.643291050238918,2.2032042544442016,3.4542339543571776
1414,8.450558307027947,3.4901745203943033,-0.7345153512593863,1.5959604607016213
1415,8.337900445212153,1.6460926295752474,-4.115103399871726,-1.5365433495868863
1416,3.629005291145601,-0.6628042360471817,-5.648795117997945,-3.291759428083931
1417,-5.674664907183216,-2.2873405226092345,-4.527186242990515,-3.6309028233476908
1418,-10.26249566128462,-3.442407533896204,-1.7062229938358806,-2.3178665080224423
1419,-9.325982233747558,-3.8753389152366253,0.6847304383851336,-0.7093067016959028
1420,-3.359011551693201,-3.1763122871888503,3.331156706059722,0.6366750759967357
1421,2.316812848530776,-1.4064665348947802,5.232198240908577,1.6070660391828542
1422,5.230506604222189,1.8722538415902958,7.301888681091215,2.380295140048681
1423,5.422825627872635,3.9256542493955155,7.300833856162377,2.2647001617378075
1424,4.638647692756205,3.777859307404537,4.089248919754807,1.3350043573563144
1425,5.0875011668861525,1.2269030281438875,-0.6507838323295291,-1.0892104302342882
1426,3.7510034734699054,-1.0337339026747654,-5.708745385224282,-2.5002959654246717
1427,1.9553484884428667,-1.5788950948500446,-8.605175326342401,-2.1688495189700343
1428,-0.27716290150844836,-0.5077261896806851,-7.148984486533291,0.613678002388122
1429,-2.3579081243130338,1.0100134318689045,-2.648021567358829,3.452572298520479
1430,-3.274349361108956,0.9566342102899965,1.2919131594353728,3.550008004198643
1431,-4.8947421940080265,0.15813998201514587,4.883929170018771,1.4089565145221687
1432,-5.681331292009926,-0.8881144169517478,6.541145561133016,-1.8499126384412126
1433,-3.8478229586859607,-0.9682978836010155,5.4719799506373965,-3.865069010232187
1434,0.5145438544781695,-0.5503891732032873,3.9629625784710187,-4.180566715571502
1435,3.829198399628709,0.4179076631808373,2.3304385256936926,-2.5186607675300685
1436,4.512195485196414,0.7218086087479527,0.7981000428009182,-0.8344587255253503
1437,2.7771705963082907,0.5260062497337114,1.0113968856550197,0.6057015452758308
1438,-0.4267729538061293,-0.1450155645617765,1.181122215667361,1.3791841540918046
1439,-2.118019605737739,-0.6971235499086063,0.07631375696595555,1.5833587786972452
1440,-2.989215761559292,-1.0589015584415797,-2.423124471125737,1.177062662526074
1441,-2.4845387047083145,-0.7629649598155975,-4.757139211036446,0.7349589880323972
1442,-2.822615198100749,-0.03405031917724402,-5.94706105533394,0.48461031069212357
1443,-2.0076592874242456,1.1018641136389693,-5.175190377422259,-0.24232729252983165
1444,-0.5097167862175215,1.6930891366421146,-2.121565003161342,-1.1692255244286096
1445,0.5642723593655834,1.263346215082521,0.6144022600057992,-3.2888453547649883
1446,1.6560143612644087,0.08196209330825684,4.060464621442261,-4.266308380612774
1447,2.4982716369282767,-1.471597105884958,6.018206263900642,-3.620551574406925
1448,2.1704216512380228,-1.9586798345407173,5.5055030640498455,-1.3580125213251062
1449,1.3059073751610333,-1.2592506072679381,2.826098693326056,2.057947931281626
1450,0.7850767128282812,0.1906698519330357,-0.4025824317837786,3.3918594411644674
1451,0.10946542687304861,1.0118858775422648,-2.6903497650203305,2.5644416740885534
1452,-0.3697650459266938,1.6314528931417687,-3.8886155115649794,0.22955797929284086
1453,-0.6212803497294167,1.5474403245778223,-3.7730857321404425,-1.047890308408049
1454,-0.7839040836449298,1.1232275853149283,-3.7468954481463053,-2.009504718426944
1455,-0.8194141333803454,1.1598227808217656,-2.9067542441196674,-1.8886646530182474
1456,-0.7307326175184522,0.6903367899307781,-1.1671497285227814,-1.1701979992534326
1457,-1.4616251272950656,-0.1408618260850436,0.642915971743938,-1.0945409260664611
1458,-1.7081408987737379,-1.1331642856130275,2.4758194968378042,-0.57523259758299
1459,-1.1825621967619384,-2.1979421501271394,3.124280329786859,0.12014987056615406
1460,0.11325557956755747,-2.518778298921266,2.3950645396968095,0.8211697914359495
1461,1.4011841445041857,-1.4730213659448022,0.9042934097055243,1.455995440332709
1462,1.9160048309802562,0.12183853563627017,-0.6571014440152623,1.778953254033505
1463,1.6479730284301408,2.020127732573071,-1.6287524858151587,1.2762713684768012
1464,0.9177310690798134,2.929282749204001,-1.576832891926414,0.4258192450701833
1465,0.9267641547937749,2.157954273589313,-0.7959014741436903,-0.6113612249235275
1466,0.8895765653590909,0.4563930438625395,-0.36339405720281814,-1.308268139957071
1467,0.8793631419694693,-1.203930818939111,-0.0969752532607609,-1.3087632898781532
1468,0.8211998198153037,-2.1605115294634203,0.011733593308813704,-0.7904066619465207
1469,0.49975920715206673,-1.9697929858758296,-0.1805885718677756,-0.18315203944305142
1470,-0.11972730432182288,-0.9723232668020794,0.5487631051238693,-0.27124452858013953
1471,-0.8446619142698721,-0.2850982850469227,0.5732918257817685,-0.22895707019809927
1472,-1.3730674914781797,0.5150463716932748,-0.05832874307836522,0.017321667361381132
1473,-1.7285718888060693,1.1698781736351538,-2.760243534495092,1.268740350380202
1474,-1.7405597085303537,1.5841550968270075,-4.3225800866296415,2.347977448652935
1475,-1.7123683630282454,1.550931686990865,-3.4793981147727147,2.055659907893165
1476,-1.7670015070385487,0.9285330157955993,-0.13560751185264708,0.5120659478198444
