,TP9,AF7,AF8,TP10
0,-0.0774815521284864,-0.07247330786337616,-0.12005654766644491,-0.08433379080564055
1,-0.37488608319608957,-0.30933570392559867,-0.4623674983335288,-0.3130795013367035
2,-0.9924494206059793,-0.8001128305686848,-1.1265189825433493,-0.7776901872985904
3,-1.9134709785906274,-1.5750446015209074,-2.118168699422148,-1.5324364440799325
4,-3.0162777120640185,-2.5710434845820953,-3.3580633855306736,-2.537466559661966
5,-4.13622222123856,-3.7812143652448396,-4.71421773644773,-3.8436947810699973
6,-5.041050349574434,-5.061641942126397,-6.245711027803819,-5.167908905937871
7,-5.604754077796565,-6.148176606950404,-7.7054292517084635,-6.18954577061394
8,-5.842242721714706,-6.849120787249991,-8.813599077968886,-6.739997734130164
9,-5.845299784306084,-7.135590574805297,-9.423723470661416,-6.850212265467945
10,-5.832590344257949,-7.097905538409322,-9.53804348354806,-6.777320912527575
11,-5.8540733674598755,-7.091575898057677,-9.50750117878922,-6.787041054847239
12,-5.803990951300775,-7.16425203909986,-9.544942932483545,-6.810391229161447
13,-5.539650271223191,-7.051192411262661,-9.49258130769299,-6.47163651198351
14,-5.034817078301955,-6.541091606025576,-8.842924733988307,-5.671687685151042
15,-4.313912196786071,-5.586853958386862,-7.455219756054139,-4.427286019972256
16,-3.4615752926759757,-4.274863197606762,-5.38413645052842,-2.908330424235507
17,-2.5713563625265614,-2.7969248631990453,-2.912687140996699,-1.3511736571063826
18,-1.6099769266436978,-1.3185685040326924,-0.3877634457220598,0.13345551676067685
19,-0.5972321800518894,0.2468307404978214,2.1297644458302867,1.5102427454165723
20,0.5236887529964582,1.809094452372203,4.5482817476985495,2.692819871508237
21,1.8458654801929317,3.295304275121528,6.758959827935264,3.6763307596926094
22,3.377342183823393,4.63921667687892,8.674672164858654,4.512649148509128
23,5.388801459074722,5.805389366989992,10.381250252810451,5.269222941014228
24,7.514443918324776,6.7860410778856295,11.761069041433622,5.976949245173444
25,9.242990361484694,7.633723372447427,12.694846578778979,6.723275062488866
26,10.247496738013089,8.332775855045158,13.164025121681044,7.419170138275832
27,10.497838582994003,8.829851527680956,13.24054635642554,7.9467059991553795
28,10.362750685840783,9.102421962147618,13.21301822680185,8.240109925806891
29,10.374150850006133,9.18836573697788,13.227686487400831,8.287819671361836
30,10.442708758503692,9.150761020144154,13.190151983648665,8.297961777243103
31,9.841975182514297,9.159170215683284,12.764182798404748,8.31617970706855
32,8.394849864090824,9.208456204951354,11.865037286796772,8.24420856953452
33,6.227306509868008,9.148078373765685,10.518649544084761,7.850040672438286
34,3.493548648508589,8.866567655732014,8.89172539270081,7.096663377687279
35,0.9659714440258316,8.304026708618938,7.1923056815986115,6.079574257292498
36,-0.8193371825815959,7.470658280108344,5.473296326036375,4.860849499520642
37,-1.8018339567867097,6.4511884121799845,3.7656434037607704,3.7482515409071806
38,-2.0154343251417206,5.3526637004078195,2.2205464781605317,2.8829663811412347
39,-1.8894248875494728,4.173857236493978,1.0498156054200074,2.4109845634441616
40,-1.8777354016041121,3.0091151827637126,0.36368156752709063,2.297519681961229
41,-1.9083374791563779,1.935895522819285,0.1150941600400567,2.3797876164136547
42,-1.3991335341845905,0.9990426709168674,0.14956447763875935,2.391680218293106
43,-0.3307073475947675,0.22582288261715378,0.18335192565667902,2.3321124743658763
44,1.2931520087993822,-0.329491026838353,0.14294001515388188,2.48530547438754
45,2.981102761619262,-0.6510616718487,0.2137312091847609,2.888212416834899
46,4.186461533431333,-0.7783719213459727,0.463976016699764,3.4186714812948296
47,4.774867628853815,-0.7724001629142297,0.8037917207285221,3.8777052014802784
48,4.933636104582364,-0.791384959531113,1.1039139333627357,4.107274726304119
49,4.813378410300738,-0.7792258967733233,1.2554920622684438,4.087129551187294
50,4.799245829746752,-0.7032476067984592,1.229855164789192,4.082179871328689
51,4.921425357953108,-0.5647099720490166,1.2239799735709431,4.1091152496698
52,4.809344114232749,-0.42617233729957393,1.2447042286302668,4.063962518077765
53,4.287956988056457,-0.34379335333390537,1.2136865027870596,3.7975053118624698
54,3.264089072501937,-0.3468590972621007,1.0483474250050175,3.239190959354714
55,1.8282691624083454,-0.36618600243019417,0.7146956285080961,2.369685371705516
56,0.23882096210957643,-0.33839908372428223,0.21329913209259008,1.244637336492439
57,-1.2174914008894857,-0.4091347563034655,-0.4242776695535283,-0.04018907653734716
58,-2.510004354091044,-0.6122015938107555,-1.1817114333223184,-1.468376341178368
59,-3.536731671711462,-0.962093315690771,-2.1271578628763157,-2.930358947388985
60,-4.297442758001049,-1.4355501042945908,-3.2566566370405807,-4.3477506621753585
61,-4.955060257806869,-1.9683978298316869,-4.52030768171605,-5.7120602852285405
62,-5.532356505554617,-2.583461381494496,-5.868709722005419,-6.983742405842702
63,-5.981355459547595,-3.211230993150013,-7.202096576532879,-8.004943031240977
64,-6.247501350514312,-3.6978260869544384,-8.29889602831944,-8.654358134651641
65,-6.311422231350319,-3.965198130312878,-9.00790304080653,-8.929039984838237
66,-6.298365027051369,-4.014160557434537,-9.318794708851287,-8.923911481070697
67,-6.302362784416989,-4.007624264879526,-9.327565336609668,-8.91429581187749
68,-6.2776619628705825,-4.007575266058715,-9.303601568487117,-8.939628883435866
69,-6.041435931075304,-3.9638840676057905,-9.321223070083038,-8.852400989719253
70,-5.590935471758824,-3.7205190223143085,-9.254200486329662,-8.541677832733074
71,-4.995378375277335,-3.294522677781337,-8.976395022395828,-8.058708004512528
72,-4.379378815392702,-2.768769624829947,-8.524141725047118,-7.511783927774229
73,-3.839681741491856,-2.2713975158410067,-7.974595972780598,-7.031020447886445
74,-3.32655326942862,-1.896625720362579,-7.406281343930303,-6.685926364666462
75,-2.7996953186385687,-1.5608806518085396,-6.822914481082215,-6.359661897317458
76,-2.266168289719614,-1.2874397023327768,-6.06504886828896,-6.061892462151788
77,-1.6891201153201096,-1.0977001268029034,-5.117170289297913,-5.753190227296381
78,-1.086185283701664,-0.9996112774174288,-3.9998407842948076,-5.3697935524370735
79,-0.5606416146028683,-0.9820819046504032,-2.802065858270747,-4.864845331628825
80,-0.20395179803725064,-0.992444801406501,-1.505309185564904,-4.241640778565145
81,-0.04397903375971022,-0.9867447372481852,-0.3079873077725328,-3.536736366246214
82,-0.05729663670873643,-0.9857495000010259,0.5783935784611656,-2.7788230782465217
83,-0.035599871540698005,-1.06825304216259,1.059720943011541,-1.9776429889249705
84,-0.014714892910483113,-1.2574229255798959,1.1919158274759452,-1.1504962115144943
85,-0.142501297916576,-1.5793239345899965,1.0822657375912532,-0.34526435501439395
86,-0.4203915496495776,-1.9491400818338473,1.0405110966144477,0.3801824190309254
87,-0.7359619016906491,-2.2556091141164503,1.185578851408388,0.9920692942167276
88,-1.0069820094479653,-2.43085929567137,1.3572407331374066,1.6123392445123126
89,-1.1495822881463265,-2.504056723569038,1.5322648436939688,2.213848667836415
90,-1.145958164210958,-2.5280472334183277,1.6164846932733907,2.704418669651605
91,-1.2308123388874113,-2.54607614360003,1.543244441817584,2.99995703878869
92,-1.3419572822162338,-2.602198812884988,1.5025791651074636,3.0679592344013455
93,-1.3866224537846334,-2.6372794186943214,1.7799180756825903,3.0536328561914754
94,-1.4435963625124075,-2.6438250827786662,2.4286865395540174,3.06662602952829
95,-1.600394355090382,-2.6443148152644382,3.5246197051812684,3.043594847140544
96,-2.1005638258234045,-2.796667880979242,4.7340532166911915,2.7656699464393255
97,-2.8760200045107167,-3.089662640357125,5.6482448551500015,2.1047963156227083
98,-3.681117135514789,-3.429930422786194,6.101647140076499,1.2451327308529385
99,-4.196749138119008,-3.7041563972862104,6.150010664812142,0.49973738874512696
100,-4.299320285110822,-3.8135953286269304,6.1616252269152945,0.1047341402966521
101,-4.303229281467225,-3.759806197514342,6.212807806508745,0.03504971502689097
102,-4.336812435468353,-3.780951003243919,6.079101558451271,0.05609950062275651
103,-4.255696968546151,-3.864329672663163,5.390537026154769,0.06562122891045635
104,-3.611167229454663,-3.7556648892655455,4.143405361632212,0.11018430381163877
105,-2.2935556247341884,-3.2833325292658317,2.3318540170972972,0.398594645857165
106,-0.38023380929435624,-2.376358866022631,0.500311828199791,0.9223622785997481
107,1.8455761190888134,-1.1117010929758548,-0.7940702705414899,1.623139830342081
108,4.05073762283385,0.3161910879352565,-1.5189785303056742,2.4098328906220106
109,6.194146699767408,1.725569147926389,-1.672004381340288,3.22899394657183
110,8.140114923951492,3.181160952622589,-1.601083064670282,4.163627049787453
111,9.998905963432247,4.635943248328317,-1.579745422312139,5.175969928416904
112,11.617818472147496,6.04695744098791,-1.5600949098557702,6.213911950841083
113,12.80293097443103,7.579806664891592,-1.1546105418364585,7.210896246291054
114,13.4559598623319,9.042578608774255,-0.367347860964999,8.274731047265453
115,13.635086829383154,10.169001332221843,0.6644454764703551,9.28634392428958
116,13.510336037098876,10.801766014823272,1.7721130005091867,10.071575767510536
117,13.489968123458459,10.969210322684242,2.6579135877572706,10.517196222386312
118,13.606416185505633,10.837321005790283,3.2545610092506996,10.619439553124737
119,13.47660225271322,10.844203512336717,3.562657280630686,10.537272807093974
120,12.982009809096757,10.971012288921793,3.608174265325332,10.595715791468333
121,12.080343015165463,10.753458593191104,3.5981359248174183,10.68187043939233
122,10.849636127981677,10.034184798227002,3.6118577278804764,10.289409800473612
123,9.49991459516068,8.845735578499076,3.6240691263364675,9.229831205627635
124,7.678235961001738,7.1319374733687875,3.201327965131002,6.957417446149635
125,5.5217571566101995,5.381591787457166,2.427444835742201,4.071113462481714
126,3.6081711920011283,4.095876139752284,1.5840757000610135,1.5731377311170571
127,2.39328134960775,3.3249019058738,0.9886121803573272,0.12759365150417923
128,-0.09266646795140349,-0.11208709805581923,-0.10577163513018578,-0.062218241843359
129,-0.46130247103624433,-0.46293094089932385,-0.45828758169985795,-0.2411484994208294
130,-1.22438969490993,-1.1685610935068067,-1.1992770156397876,-0.6439303825562459
131,-2.35017590460695,-2.2243765357827296,-2.378980323184444,-1.3383832248103438
132,-3.8033015598893325,-3.677925458730222,-3.8799965418677056,-2.2863240640203664
133,-5.380840981595097,-5.297049368675668,-5.77283508847642,-3.559385335777445
134,-6.7299337586986825,-6.688284109165743,-7.667419524481024,-4.873206983477399
135,-7.611512327811111,-7.5730101386228705,-9.135671134710531,-5.902251374083925
136,-7.986131333147057,-7.907305966106679,-9.949550985507914,-6.472697665479294
137,-7.943132279519347,-7.828083817535428,-10.127362351378121,-6.607006515210307
138,-7.945084799908116,-7.8117730162568275,-10.038963637786782,-6.5087629638414235
139,-8.050320361652844,-7.917017891517949,-10.035434447799558,-6.523073071547461
140,-7.888816663259706,-7.766789280406252,-10.048445066013358,-6.593264663583459
141,-7.1456025930778555,-7.137915837375636,-9.53730090870855,-6.298338196707868
142,-5.759719091980888,-5.987744059284782,-8.34700581358562,-5.515556089238068
143,-3.898774744261229,-4.434415596579514,-6.44844503373528,-4.253835998833707
144,-1.9134109539189532,-2.7038412859379704,-4.0302021250569915,-2.6928599535810958
145,-0.11773128301376928,-0.97311898566644,-1.3986581901129211,-1.0936877915630454
146,1.5774358196343097,0.8845470129607601,1.313186803876893,0.3879124805534908
147,3.0745152950732395,2.729550666580431,4.005095260491881,1.821096725133015
148,4.342674758659229,4.487186062609579,6.485964563226847,3.1254423188004585
149,5.39003433056948,6.005361258865726,8.936200256355775,4.147440351543262
150,6.265702507499081,7.1045324937626075,11.11567865888256,4.791765926104877
151,7.031644540789305,7.7230391747906095,12.718459380672384,5.075223555378056
152,7.746138183623026,7.940825167352393,13.590165563747378,5.109062932199692
153,8.492148687063832,7.918024130067876,13.794308208924535,5.05444932644431
154,9.175813704265412,7.882344466258024,13.677783869118091,5.0325463011398845
155,9.677510541917627,7.8991262035394545,13.665543718687804,5.046923861406956
156,9.943200281071942,7.8639424911505715,13.716686975394351,5.039023986982659
157,9.952946910675202,7.72957153682216,13.284874839902745,5.031124112558365
158,9.999509887500668,7.5270772066801594,12.281352872808016,5.032876440566135
159,10.077482482419166,7.304583292917139,10.7934402787199,5.018986860952866
160,9.941742557422018,7.108621338596931,9.140428899962652,5.0145416977607695
161,9.237385762287136,6.940880619891713,7.7062742637306245,5.023821104805475
162,7.864463129801496,6.7128917082456825,6.610982313735742,5.119454181874795
163,5.994048780634939,6.411507860796775,5.721476703580022,5.284788729739186
164,4.072285188750672,6.031242904310557,4.959554781611365,5.4596048391371825
165,2.55994810926185,5.5823108250126054,4.215906714114915,5.578806369161466
166,1.4667154291821543,5.0812868751344595,3.445051261302412,5.5906210351260155
167,0.7914998304319105,4.546648511392642,2.670796495715615,5.56985108458253
168,0.308766825236978,3.9933296251811243,1.9377696767248205,5.669504141546404
169,-0.2969223405592548,3.4134010249012396,1.3010400520562242,5.716106616704556
170,-1.2851183762430733,2.7583582795395056,0.3819376420537515,5.3039392506374625
171,-2.776124734968598,1.9552234711397536,-0.752649903115566,4.112546373268661
172,-4.764326894141498,0.9550838476773286,-1.8258741009074315,1.9939428171571798
173,-7.184050896072665,-0.22612236874162983,-2.5577382892376646,-0.9385230874521384
174,-9.982680697480056,-1.514215977841284,-2.75971092518716,-4.354155279572226
175,-13.03139549828295,-2.8284544664546374,-2.7441561368906617,-7.872441031151123
176,-16.729246635630293,-4.107156296440742,-2.843634869409344,-11.822408348216229
177,-20.47625270895649,-5.399806260641853,-2.7806347674694694,-15.56171803141813
178,-23.44806510328711,-6.635021847213166,-1.7963126213101823,-18.39658237701489
179,-25.137482969071417,-7.626576618931472,0.6621215204955176,-19.968240546078455
180,-25.477457758816445,-8.239638553572368,3.9187328797974836,-20.345757802384256
181,-25.364514803590996,-8.47505919659084,6.78428528653953,-20.078189393171677
182,-25.490223129454,-8.432327614010404,8.330730528831428,-20.14552177100059
183,-25.414481639797145,-8.422225741331864,8.659572508203789,-20.377754794295146
184,-23.620695211756857,-8.491510850323825,8.366859717926774,-19.432241048381712
185,-19.581951832983126,-8.40591096208288,8.321899366680677,-16.71075144818817
186,-13.35675635965592,-7.971126495988807,8.56161860714043,-12.030711595048837
187,-5.723772187331434,-7.100141093227961,8.210278305360774,-5.8764515138405855
188,2.273160578106113,-5.8130715947506975,7.021088881655192,0.8427255115176138
189,10.323541704422162,-4.244480454672119,4.915478138279453,7.488390041604253
190,18.15743423856587,-2.5532208872356064,2.148500164745232,13.93990220574049
191,25.254768320438473,-0.7157176112739599,-0.8152957105408478,20.19235850851635
192,31.713993967924793,1.161091356891811,-3.6267098658296333,25.57435798950557
193,36.94293214870653,3.011406265932586,-6.461990218805834,29.389692032541667
194,40.445423167676985,4.791946025132975,-9.153841121685154,31.394875627982415
195,42.172050382253765,6.473296483371685,-11.584950566997401,31.914108408423296
196,42.460974719782016,8.015552078094395,-13.62570578210915,31.566444406070993
197,42.32469893824124,9.442870301407632,-15.173408195447317,31.516491133418125
198,42.31278185836312,10.710184949606605,-16.318430114326954,31.825495962855197
199,42.20495037313698,11.68120230240686,-17.109258722675918,31.46875307667721
200,41.0074917757383,12.270354974747448,-17.60067426116105,30.120425427374677
201,38.649963237746014,12.502937470120496,-17.848872955896503,27.72659289899346
202,35.36859906704649,12.464846913430975,-17.911119675846486,24.623590433761237
203,31.70501173724573,12.477731268953956,-17.83717240702008,21.381550214368623
204,28.115319274011625,12.556217380439268,-17.887734288431613,18.42812306501659
205,24.382475235726925,12.440188479138781,-17.996337286581607,15.442742166732508
206,20.479546541386842,11.896007421858714,-17.80919113324881,12.527945561132727
207,16.48350926878537,10.860576479577192,-17.084587679371356,9.67990704961584
208,12.528153449955271,9.431134516339053,-15.730123091347526,6.890717024681527
209,8.72372438657994,7.832571407170051,-13.906062434883864,4.174439354403225
210,5.067883088159673,6.262869165908011,-11.96526991205003,1.571110412000445
211,1.4580921103198403,4.631625243808585,-10.213409136978061,-0.8826229631118254
212,-2.2066080528978436,2.989076997688002,-8.57935039923517,-3.1877386124968723
213,-5.942026394514578,1.3580347024626271,-7.0361090009030125,-5.380094047407133
214,-9.673899112069032,-0.2183588570634748,-5.475662940167741,-7.489670691853871
215,-13.279624851027272,-1.6754167050499662,-3.840407187138283,-9.510576696519083
216,-16.632088421359228,-2.954288313611307,-2.1850163547247394,-11.418896671890558
217,-19.631683943504203,-4.03259062502778,-0.649589404036315,-13.21434645715967
218,-22.22945415422848,-4.931195721459964,0.6230651463120176,-14.932471452356493
219,-24.43489970470174,-5.698248535856473,1.5588701488285142,-16.616834323713878
220,-26.279335580840833,-6.38665025786337,2.175525715520783,-18.290282182070875
221,-27.87820367507979,-7.040912943208117,2.559827074438152,-19.91388223629106
222,-29.14994297842811,-7.680553248864637,2.831206339365712,-21.648000443741495
223,-29.99353235959674,-8.377352423918806,3.120488069835424,-23.333880058652394
224,-30.39910891018715,-9.042129915605353,3.553832953743065,-24.68520688263841
225,-30.47863938144255,-9.549464414317686,4.228040801779309,-25.501952695393832
226,-30.385511504522068,-9.826773872077986,5.194446074363122,-25.77954447543005
227,-30.38872629766369,-9.89552416126654,6.463699557177014,-25.65130782023097
228,-30.479011020957458,-9.844445243918983,8.017307875418853,-25.65742210134407
229,-30.398644642426884,-9.828682256545072,9.758540583032651,-25.82302052308649
230,-30.004622403949604,-9.867070240241691,11.816656669200764,-25.627478852168597
231,-29.17919813497388,-9.82786710573346,13.836780893088484,-24.762044467705113
232,-27.910366843531648,-9.69109526895431,15.392904717074178,-23.09921899497742
233,-26.301724703696188,-9.456557174642096,16.251934653070837,-20.771182308290246
234,-24.48393570732079,-9.151634437135016,16.439046236871288,-18.1075974800095
235,-22.411302529487607,-8.80495486209516,16.335185002242305,-15.396749224640804
236,-20.120483981511814,-8.41849225128827,16.349954405387503,-12.481665890289943
237,-17.596785748270403,-7.927062552121613,16.376185810721225,-9.456394748950443
238,-14.83306520364207,-7.330734387370004,15.81188218222282,-6.401515184983604
239,-11.881477758711915,-6.63258606388831,14.515744023459074,-3.437068088617869
240,-8.850150528035783,-5.832341418069432,12.529860292924628,-0.7190386451611016
241,-5.857774567656991,-4.927882643215308,10.146800216887918,1.8012683842984956
242,-2.98775602353487,-3.9373135435555544,7.776186384807159,3.8797348679512473
243,-0.2614890071305158,-2.9138695918347777,5.617837125024533,5.295390754009299
244,2.344613561342096,-1.93301410447218,3.683700314653112,6.000966392056128
245,4.839741951115913,-1.0628966827480038,2.2016424639270915,6.147756393560478
246,7.150484701196017,-0.3547847591001576,1.2861104346809997,6.036342513837133
247,9.232519091616414,0.26092698241725887,0.8727767287952363,5.977255212829136
248,10.856241785782277,0.7690810857656016,0.7490995585218572,6.0227243141279185
249,11.872534412532996,1.1335892103340166,0.7159697564852695,5.919297524582583
250,12.318539980306081,1.3355290144568386,0.6604589676955027,5.741762899315963
251,12.385340563241257,1.3933953856633734,0.5472291288562772,5.550713862824998
252,12.308592326586366,1.3665073862173531,0.48240049332336565,5.416209075722301
253,12.262434056483237,1.3355512927989355,0.45425324746240014,5.376456171072165
254,12.295513706745439,1.3516660782707322,0.4338393239369688,5.39469365779621
255,12.295513706745439,1.3516660782707322,0.4111328549334803,5.397095637413975
256,-0.023981082770506562,-0.10145958105920055,-0.08983492674307858,-0.013551546397910397
257,-0.18100466301912438,-0.38280283280676364,-0.5720863460877663,-0.13392836645580913
258,-0.5513018932792033,-0.9144858956630131,-1.6555982189558864,-0.44561639454016827
259,-1.1570835437594786,-1.6996769074196219,-3.6432161107824435,-0.9918130920250356
260,-1.9345028030691793,-2.660506039274487,-6.211680151374254,-1.742075248173991
261,-2.7874607509813076,-3.8403469275096263,-8.602839941041514,-2.620814464580743
262,-3.6224403277034636,-5.01143699926604,-10.190985530775713,-3.518576373772403
263,-4.530970957819465,-5.916924703708071,-10.816901407996056,-4.570045707178261
264,-5.410888560423645,-6.413700710515865,-10.680418160026736,-5.640360396183247
265,-6.105070391623757,-6.527096132838535,-10.685428463021175,-6.514547593889844
266,-6.504198554264434,-6.441827598912149,-10.8958437202473,-7.036248123565429
267,-6.608327603786439,-6.437302716034714,-10.569131760667421,-7.139212483996582
268,-6.569877665373772,-6.494174314733216,-9.21987888539826,-7.1666995986699895
269,-6.509940086390941,-6.300281167761781,-6.798193255013938,-7.19381787760526
270,-6.5072257707150865,-5.762812331655386,-3.631270389181672,-7.12402842871017
271,-6.453133664237679,-4.868000760041112,-0.2931106987971487,-6.265271947405438
272,-6.39904155776027,-3.7350215045851543,2.780908436719894,-4.826169461611882
273,-6.3980391759398145,-2.5270088739984815,5.900107335428731,-3.336415566755339
274,-6.448745062577899,-1.268267600538683,8.548851230210856,-2.351754154351181
275,-6.217244473302451,0.19933245835395086,10.333004930172939,-2.1573583111634873
276,-6.0707943359604615,1.9233162961523633,11.161260807065311,-2.2803876387184796
277,-6.7229441150273015,3.930150280295105,11.28188300040758,-2.172902287070908
278,-9.175502685998339,6.191787487105866,11.126598828484639,-2.102139029532637
279,-13.554105984669778,8.58138695756634,11.051739076796064,-2.9998887169275052
280,-18.15927234065475,10.850145755081039,11.108473205706805,-4.994930707560319
281,-21.74305895688828,12.669145990200581,11.108473205706805,-7.5562465780796595
282,-23.594294732786253,13.744438795184408,11.145142826146346,-9.726300755288541
283,-24.620788322636326,13.892977161749672,11.147868828765054,-10.82154573569616
284,-24.50679448447594,14.128060814508242,10.960963952098359,-11.342055928630707
285,-24.1519644828755,14.87085953790169,10.921646552544967,-13.069641784381734
286,-27.877077581222423,15.994028996454663,11.475577389195472,-17.24544255560499
287,-35.49853960300474,17.038039546359663,13.63568402292765,-26.587536309812677
288,-44.827157115151806,17.52606772547187,16.91808660928726,-38.7966869192471
289,-52.14519294444749,17.219172890606973,20.126500151189433,-49.84840295451959
290,-54.51083498958175,17.616849811596303,22.136636751619992,-56.65320972507198
291,-54.40615488154331,18.15358327257472,22.627745504782496,-58.071413389083155
292,-55.048066096301596,16.596754885795953,22.244923738168517,-57.88687292469641
293,-53.99135323346663,11.766182609648205,22.474223387685612,-58.33232970501522
294,-43.92015283450624,3.6275740538823578,22.83694695453355,-57.50910962290439
295,-22.974047219094704,-6.431031904077608,21.318915531183556,-49.56610656098018
296,7.277893721793513,-17.001710118417382,17.204816708254622,-32.94541312697669
297,41.79543534513105,-26.800694612400722,10.73265204377923,-8.482941853310722
298,74.34313241700846,-35.33234265232583,3.1414284164335373,20.431387946043422
299,107.23374949037239,-41.038439407741606,-4.040492589408874,49.933325724024826
300,136.74539947328705,-43.58164330008564,-10.192918683999864,79.22840091759753
301,158.18607014402565,-43.48228085180835,-16.09316819988033,109.14029912848713
302,169.60482471397694,-43.442650458090974,-21.92127064962368,135.48186399366853
303,172.38952217353813,-43.90140182864184,-27.00129496628444,154.19895266324917
304,170.11110846711424,-43.024576698815046,-30.577010793834077,163.80363366071
305,169.8638502477524,-39.09004761080601,-32.37693795853936,165.38682753233408
306,171.9107124357306,-31.89972007087092,-32.75526074380949,164.88503420522784
307,169.03651034554773,-22.33400004617585,-32.38249799405693,164.83944158581366
308,158.77747008301128,-12.15553562229217,-32.32039865424738,163.76750199024244
309,140.15993574029247,-2.942303766764049,-32.63579943907841,156.13531049739896
310,115.20636115614006,5.7862857059872566,-32.328389798982755,141.38969523877955
311,88.03878255230339,13.379526512949566,-31.10315227377758,120.48202268168644
312,62.055071956716745,19.67091549369573,-28.96226307949725,96.24907456556986
313,35.87231390934396,25.186606477165917,-26.297721999318597,71.32398529669129
314,10.050903946591738,29.698772357444234,-23.51521145432298,44.28886722253806
315,-15.527922710849388,32.844194231716294,-20.665277631493904,15.98999580687099
316,-40.250653813249755,34.48487681796605,-17.15161435544895,-12.103955352864807
317,-62.41406953039703,34.826213860163335,-12.928337307626478,-37.86624642576543
318,-81.2507498219508,34.623449802460506,-8.288460739980902,-59.28121799468579
319,-95.0803843650802,34.56860320945277,-3.7555161765010103,-75.4632221744109
320,-103.40712317918337,34.64539135232728,0.26431301051866574,-87.5104719354809
321,-107.1424803412423,33.88487087206295,3.622929197769496,-96.1065655300508
322,-107.72018576566948,31.981152685303982,6.590695052756462,-101.55349884670792
323,-107.3383041487019,28.891623771786367,9.04691271708235,-104.11487869831566
324,-107.32352803633898,24.990517475212968,10.794668695874423,-104.44215316235824
325,-107.19197638670627,20.797748828879385,11.748457803874645,-104.21499126104376
326,-104.90215601307905,16.55236667178222,12.009399486568404,-104.20812957482514
327,-100.44560465696678,12.458835368844944,11.8694856550341,-104.11064342143845
328,-94.12646668349433,8.689382933239592,11.790118037773432,-102.44275181377495
329,-86.63431570912012,5.394197891201298,11.859660002170274,-98.53017495182684
330,-78.73673022480857,2.0235311072679965,11.770554981800935,-91.9928724008333
331,-69.4781400515296,-1.2705512652003477,11.606602092270318,-83.33127177379554
332,-59.6386751790058,-4.001769862996552,11.404371183407829,-73.8185922749071
333,-51.58199327061327,-5.705813474086917,11.10518017832365,-64.51087901612179
334,-46.58834839351334,-6.280746894725277,10.578805504310019,-56.7577062235678
335,-44.682727859023885,-6.046030232280134,9.767388396305963,-50.839465762490654
336,-44.30955381359965,-5.92653148544085,8.742323963458292,-46.82864368233171
337,-44.02648627145046,-6.162245715722041,7.864954658178209,-44.54733853676591
338,-42.95987421831173,-5.96504434172796,7.394857217508606,-43.47723715435603
339,-41.939860743876515,-4.923976850946706,7.1918494908617445,-43.2982569968579
340,-41.74723621970645,-3.2909009066979946,7.06167569136637,-43.37954553300422
341,-41.80565504989498,-1.6727103922328679,6.896129937135786,-42.94956183654876
342,-41.46579497812779,-0.6686438269136572,6.7307653726976895,-41.39347381757694
343,-39.82716359412274,-0.6004617974794877,6.623627613178556,-38.35199106947221
344,-36.526144130618874,-0.521664667877739,6.7056202051772855,-33.24605350081346
345,-31.12714394194478,-0.4618669526350597,6.734072810589604,-25.94456884401398
346,-24.111082668455367,-0.8212318641633087,6.58347887667684,-17.015389878358135
347,-16.274763169947764,-2.16326733020563,6.342830000809109,-7.343230842844033
348,-8.029656050038227,-4.249473548766111,6.116122055520264,1.7753124612805236
349,-0.3579982961220842,-6.4860969703861295,6.022445701254025,9.41704551782248
350,6.244976865936865,-8.163734158759972,6.057643114938665,15.298590481833218
351,11.795839542091876,-9.117166444132916,6.146256884564676,19.76114897521483
352,16.61329401536907,-9.886981122023679,6.137167875546253,23.458562937947864
353,21.591361591192904,-10.449153228187273,6.0739340072357315,26.919182344599925
354,26.368902866450334,-10.792644715476026,5.920674855821132,30.26808722017731
355,30.146918000542737,-10.87921068835301,5.847166066963641,33.78061209248785
356,32.31640021163012,-10.884193592475242,5.777579171924987,37.00119529822011
357,32.90046662005773,-10.90519144859294,5.53964705227138,39.37292198223124
358,32.568517305950046,-10.874230335706807,5.02345733580605,40.664718939821405
359,32.363264859170854,-10.404771091498521,4.153368123412977,41.02829492448125
360,32.550616949789635,-9.44626321954277,2.9609454178038397,40.79409766505656
361,32.39565651004102,-8.302950968987775,1.6923930765177813,40.77063745868765
362,31.975393618987574,-7.392008595436178,0.507859533624061,40.99092013666767
363,31.390129033811043,-6.992268775791317,-0.6318361715407438,40.71061165498083
364,30.815163349138455,-6.988434381760146,-1.695235751575189,39.69424226108436
365,30.32525122315394,-7.056951558567826,-2.683382474038157,37.787645964560824
366,29.770110730185817,-6.98173513272628,-3.6227615824814197,34.98302826632955
367,28.743570911430762,-6.8213178380702155,-4.554232027457728,31.412251818692454
368,27.191242288544316,-6.688381151571538,-5.675515592650044,27.216316482275182
369,25.17911411338107,-6.628397687238888,-6.840962320396267,22.209266269373348
370,22.89650706872137,-6.680260870673004,-7.802836358069203,16.874411683065127
371,20.544562932158396,-6.7019901474875825,-8.374276147025952,11.558494171107148
372,18.279855624707466,-6.5181313496219015,-8.486625230072544,6.759056785580281
373,16.25011748281845,-6.127953298819708,-8.501532438944082,3.1357909637914343
374,14.589425228415807,-5.555549118486199,-8.504972351320424,0.9943201598882005
375,13.369597435045318,-4.907384660163416,-8.343642693138177,0.2394554494223295
376,12.584559703286255,-4.29113959244247,-7.7167458658100685,0.23756530073847487
377,12.15601968479582,-3.704382662489791,-6.759723756987442,0.3547716493937222
378,11.93750335399453,-3.1019314447556714,-5.728875688038064,0.2382170383705479
379,11.766501041158664,-2.353478359562486,-4.913809380839641,0.05647061393162038
380,11.416131721857337,-1.493604314895015,-4.483015732500597,-0.025263169390461554
381,10.921042361073976,-0.7062815378940108,-4.203882661594121,-0.029721375753484273
382,10.440784842502001,-0.1658866929988997,-4.067690172467975,0.014860687876742152
383,10.128006325379701,0.06293584460752602,-4.03571307949587,0.0
384,-0.07520217512564845,-0.08306407087063442,-0.04679501198359787,-0.0355652369303224
385,-0.2876261210582268,-0.31693760113328234,-0.34591899402349613,-0.1419366097765236
386,-0.6978110700099002,-0.7847221041149149,-1.0006207239912914,-0.37907039110964996
387,-1.2747568552023583,-1.5134343682665268,-1.9991202876544936,-0.8018149853257838
388,-1.9196450147011537,-2.454159813094173,-3.1838905676277744,-1.4492259387613415
389,-2.5675511795511725,-3.6278199762338597,-4.34407650458328,-2.3384294525929916
390,-3.100290382246627,-4.905372316777052,-5.407920941895627,-3.430977527659024
391,-3.4502764166196593,-6.013043845688609,-6.4010253645817805,-4.73545514334948
392,-3.6188119806233736,-6.739327594315048,-7.242432985229575,-6.155187121386033
393,-3.6468402026113047,-7.040256710642196,-7.8320330344524685,-7.406115072745373
394,-3.6178613996964684,-6.99139362549573,-8.123319602408436,-8.253228768740374
395,-3.6231021364486726,-7.002046257044738,-8.132628839928087,-8.631345003364716
396,-3.6384681111642365,-7.102539577243508,-8.133289852612577,-8.591699639962105
397,-3.5448467396384227,-6.957227064630041,-8.172618922743874,-8.624436291773312
398,-3.2932011419165725,-6.275033103702817,-8.081147306102515,-8.750824879995282
399,-2.852540776958265,-4.967666961028733,-7.650835053172057,-8.557263532429712
400,-2.220895425161168,-3.1489306775538592,-6.794793189152245,-7.62765250256591
401,-1.4136575929392934,-1.110958127784692,-5.478505874083645,-5.85136384837036
402,-0.44433283385109434,0.8321885128509535,-3.749397249372613,-3.406366112800731
403,0.746076861142856,2.792541100555538,-1.6892465729776551,-0.754667060375029
404,2.0497757743230265,4.54964631133603,0.7293101415916162,1.8622713113797125
405,3.1886143532347617,5.864275536526922,3.2521097287862313,4.240395512213459
406,3.943569698484334,6.621974081573075,5.582270586593342,5.940860830809584
407,4.265993147565934,6.8864359958248915,7.5715215917447996,6.814797510546995
408,4.252765817187135,6.837216066039717,9.025887858648883,6.984112475802346
409,4.22531372203117,6.802644982891479,9.887503947711137,6.920310596364868
410,4.264982796415708,6.8542849424372365,10.257005438270747,6.802711590468428
411,4.187952064399321,6.783378950654591,10.303498781745992,6.731824391045146
412,3.8537146851634954,6.480100832168013,10.246296128807707,6.509572977591041
413,3.1869768860196817,5.9683555440934395,10.297215974990127,6.287321564136935
414,2.241003437498127,5.2940455058567695,10.328270028593096,6.186632854428643
415,1.3171228067581273,4.6326033218209925,9.93331467891473,6.115772605505858
416,0.697311066188548,4.166412366028294,9.22075684911861,6.123911267690005
417,0.37677580200833705,3.873780093564911,8.435845033601968,6.2106023106359265
418,0.3614693310158693,3.766121999360615,7.879510707124616,6.663241806404347
419,0.37687326297083223,3.7956126670019814,7.712325039305167,7.534348584421165
420,0.3481634459744486,3.7941475897410912,7.74315253334302,8.723478891361943
421,0.4377630119302556,3.7536106490511596,7.692647592796735,10.189813665817965
422,0.7996988637783456,3.80424194575361,7.501615301675706,11.56657930536987
423,1.39848946082894,4.084767617234654,7.4416168079997345,12.659990302660873
424,2.108808246087665,4.526132841804529,7.446421034769738,13.263125710453576
425,2.7752177663275237,4.964544972493378,7.352749378998283,13.369085201686222
426,3.306443634860283,5.2377300963273035,6.8890029346429245,13.339092505138613
427,3.941207555947597,5.268931437002848,5.89188684456526,13.392594938652197
428,4.59171036806436,5.248400073219774,4.471205362323694,13.340383513530139
429,5.127522833837798,5.274159149215017,2.9272247236233824,12.640880288947722
430,5.445548908789213,5.274854272461985,1.6794388154249227,11.105201671689182
431,5.492818595541776,5.005703929457427,0.8487257101650764,8.745786137736662
432,5.504209434318546,4.361388872305041,0.45502186255460514,5.841777360291149
433,5.578677608314017,3.3431522766005783,0.3297017422529116,2.7937869873394954
434,5.517432756900833,2.0775989208888324,0.24686533561139418,-0.26201091925412623
435,4.883734816696674,0.7360862853016754,0.04077850222428253,-3.1427794079761684
436,3.480380152070726,-0.6257284151930307,-0.34619082080880487,-5.857269430398579
437,1.3785598635453091,-1.967316349393382,-0.894403161393319,-8.282315472719185
438,-1.1715380940508133,-3.3416081416996457,-1.5574089848865083,-10.150465228742224
439,-3.615725122573053,-4.568773011688937,-2.2937185141165424,-11.285436564867215
440,-5.538008546566828,-5.453800321023242,-3.091520000452098,-11.718804249773253
441,-6.686773600748685,-5.917515035936647,-4.059230917018137,-11.663596321790106
442,-7.102147169443457,-6.010298926803376,-5.038770713616065,-11.606015263035808
443,-7.0460635013622435,-5.968255104328843,-5.815538257706636,-11.671486732391871
444,-6.985256980123647,-5.951810973892234,-6.258549848864795,-11.559817947417502
445,-7.044527701423321,-5.934120732776422,-6.349030020289662,-11.127973956808775
446,-6.969013791790998,-5.676057307276417,-6.332929348088348,-10.416136726298811
447,-6.583423362169328,-5.18267223381731,-6.342509833807676,-9.567192924500679
448,-5.844454367990309,-4.522958108864441,-6.223667583550136,-8.76339109964882
449,-4.780763457764616,-3.8295379716367837,-5.8477224230488805,-8.078629650900794
450,-3.5269500876872915,-3.2110292996152765,-5.382141590848326,-7.29841993379013
451,-2.1853826865224697,-2.6230975640775807,-5.00623573138828,-6.407607462897867
452,-0.7348174597721,-2.051231568306728,-4.85796184824852,-5.303838953773137
453,0.521476391341045,-1.5110136507856191,-4.9425989403239265,-4.142772469196186
454,1.3613992024423085,-1.0518051874435062,-4.982243211439647,-3.189767551763304
455,1.7396073364306281,-0.7275289268604624,-4.914346150796095,-2.619593745485404
456,1.7555118391109958,-0.5523552154775735,-4.855163982802942,-2.4170701319890417
457,1.726965052904947,-0.5002094625468936,-4.761042120126471,-2.5054201018191433
458,1.7478926357881532,-0.5062155792200687,-4.809916074430768,-2.5650114391552625
459,1.6723028863824523,-0.5049503958307048,-4.894091479970271,-2.4513429163337195
460,1.3334988865471968,-0.46665932644409897,-4.76541389497694,-2.2923570056673377
461,0.7657326204526618,-0.4015018287259798,-4.218599627875467,-2.137815252201328
462,0.08857619163548944,-0.3312388498866817,-3.2377593078955074,-2.0333376804034033
463,-0.515775732374961,-0.26856908297212706,-1.9620975189627228,-2.081666511356762
464,-0.9139222018789064,-0.22611392184914159,-0.5663322390260703,-2.163926538343488
465,-1.1961831125146063,-0.1989000194169374,0.593346998863027,-2.0278417832528772
466,-1.3620382386261471,-0.18402299495503702,1.4484937109105716,-1.5532103613153878
467,-1.512224297176563,-0.187369535407258,1.8869552489756627,-0.8380892460132928
468,-1.6771573082498736,-0.1795644600559892,1.978264169838194,-0.13718160150698594
469,-1.8355583224294072,-0.1558940381554325,1.8900462475455797,0.2644133453653573
470,-1.9454990485037842,-0.16790570084593465,1.8762731591807937,0.32562528307187266
471,-1.9726049345870422,-0.29668804457236403,1.9347013212312167,0.3204010979655592
472,-1.9663733854565373,-0.5836542530898504,1.852495952808085,0.39151884923062297
473,-1.994934948181274,-1.0738247284588898,1.619575863530299,0.5841255845014113
474,-1.9952296356437307,-1.6949863212096496,1.2880402170165541,0.7590680858471152
475,-1.7961712987248422,-2.2592914754504516,0.9796701454469665,0.789510621334927
476,-1.3025320592377105,-2.64671444383291,0.7939410421478392,0.72453903255943
477,-0.4793044477055339,-2.8210500608836964,0.737956403849116,0.8036732183103508
478,0.6395917304828668,-2.805227399830195,0.352521036788696,1.1988580705836762
479,1.9909907614297957,-2.8087514928326316,-0.34054287307357023,1.9476117733356997
480,3.5865750489110875,-2.850549760441764,-1.1076440493072124,2.9943106005278293
481,5.115338622253318,-2.769909883804277,-1.6713340489646924,4.130812984488365
482,6.252059738697164,-2.442690300918387,-1.8822508417615662,5.135247434884467
483,6.845521013875457,-1.8635533540957814,-1.7621196950867382,5.978491706117722
484,6.982392249436806,-1.1078518204684544,-1.7762068181382638,6.561531275342377
485,6.915331806366156,-0.30254089595768724,-1.922423117091964,6.868893897732576
486,6.891306725800808,0.45625703633979536,-1.6927295698222877,6.969977038850097
487,6.918875381877563,1.2447212877345166,-0.9318675545896695,6.9671993927989515
488,6.882966658359924,2.0071085771976183,0.47562411497882423,6.94186261055419
489,6.881684274334144,2.813545099416387,2.096801176444691,6.94925362326559
490,6.849683163681121,3.566247764825635,3.348968611577442,6.965786134617892
491,6.7006803421148735,4.139344670679663,3.898335339374048,6.9342486416415765
492,6.353959809324049,4.460321219470708,4.022515933926498,6.81428430189597
493,5.775580497420439,4.529166460733182,3.9387840404312717,6.555087648513141
494,4.986385031425945,4.497737525613063,3.904317558608075,6.132466431723824
495,4.069395130677458,4.516998097650004,3.9359609881543425,5.572225087334589
496,3.036571769705181,4.519523653860006,3.743216706317399,4.933424717117642
497,1.8786866524437262,4.2318122501775015,3.2560590824432536,4.2671312036493205
498,0.6642251587461042,3.5673986910641364,2.4286343627263065,3.643609873262914
499,-0.4967153724008968,2.5627024433632912,1.3505334094269288,3.0996236898456933
500,-1.520519499495036,1.3585104485723218,0.020944811472061953,2.653884340186279
501,-2.4043217406717847,0.18559185480000867,-1.3736754706359533,2.317243070669661
502,-3.180952913501757,-0.7509265438575652,-2.5396158720448128,2.082553266637393
503,-3.904678373761521,-1.354287531242925,-3.2600598136179615,1.9397909955173929
504,-4.51000260252698,-1.6085580309567309,-3.5203276528157277,1.7126625259439616
505,-4.913365244564978,-1.6158384002932245,-3.4245722963517276,1.2810914152484099
506,-5.09564655999188,-1.5814300556142242,-3.440614946669199,0.7360077924878381
507,-5.1223198981617,-1.5908221575243984,-3.6449602549928994,0.25390198664161634
508,-5.09184482421547,-1.546762044177501,-3.314332304342585,-0.02143794359149989
509,-5.072878910437871,-1.4058130411954122,-2.421650128814466,-0.06651814352003198
510,-5.086031269053138,-1.234923074062403,-1.2940137320218135,0.0012517807551924234
511,-5.086031269053138,-1.1005493522190881,-0.3699483793839913,0.014266961747843676
512,-0.14870512135209168,-0.07611366184112686,-0.09696140117260083,-0.07167134072500103
513,-0.4235293394329369,-0.3097062557256427,-0.3937302347835684,-0.3489242483330012
514,-0.8325734421269119,-0.7905215666337316,-1.0030937799655453,-0.9702524123144829
515,-1.3085966255577217,-1.558788945337512,-1.9717874209639943,-1.976507112481464
516,-1.7929594902686672,-2.597147613488572,-3.216239629436349,-3.3053973836584847
517,-2.2913443105488405,-3.817901137988188,-4.845910396929832,-4.9540494849498256
518,-2.7881308616200666,-5.284359407452216,-6.527892756539431,-6.559257379546086
519,-3.36945375662708,-6.725971541375934,-7.863513784727551,-7.7639759767527
520,-3.949579438602031,-7.833761913442087,-8.618890483384629,-8.404515588575746
521,-4.408196784123367,-8.443409100266475,-8.807947586139406,-8.495758488299822
522,-4.676609003392732,-8.582205320179124,-8.661713467460954,-8.486578234109068
523,-4.743121472627701,-8.480527558445068,-8.686101103482322,-8.511864049265808
524,-4.726924412354245,-8.502529555710518,-8.818635955018886,-8.378527587487048
525,-4.745735843768724,-8.580003101903573,-8.456955192117176,-7.680123876467388
526,-4.735179739144761,-8.224958106387689,-7.376364515092505,-6.40216409416581
527,-4.448592630954126,-7.235829573461402,-5.556225382973025,-4.707693407999777
528,-3.83391877527558,-5.555214495968566,-3.255556870275288,-2.921663365308303
529,-2.9630518109629236,-3.3501145593323542,-0.8697099430210475,-1.3580187782383204
530,-1.955533669374079,-0.9187765064201076,1.3677889812095887,0.17546099953160993
531,-1.0947825003505562,1.5525379075192671,3.5831808844342294,1.462693544016181
532,-0.5121991491518089,4.028145464523437,5.666442512915927,2.3492408945716163
533,-0.21167925283240044,6.5778733432599585,7.459404222515453,2.798491608228741
534,-0.14335545948534098,8.864353548111476,8.749793912583952,2.9104151910551663
535,-0.20705453561663897,10.524577745977524,9.46284264554892,2.8146943916128127
536,-0.24208833732711602,11.401824929768559,9.705033274813443,2.758577489904914
537,-0.19205130200972714,11.566524722240882,9.680610187326637,2.8426687666193757
538,-0.14643445672491912,11.517763433760402,9.646019966713155,2.9241336712948094
539,-0.10081761144011116,11.498679413106808,9.66487618605703,3.014106848038516
540,-0.014781606750560328,11.409379395374048,9.630215631092693,3.1138029034557597
541,-0.1080511153904415,10.775041255215207,9.464085958274318,2.984621420192832
542,-0.24897886318327841,9.626470814581458,9.194731495974139,2.8513508141933634
543,-0.08289286297212917,8.085004722244943,8.87400126508812,3.1817021215043813
544,0.6985288441603137,6.444097246731202,8.541405763822247,4.264491529568238
545,2.2817162024362627,5.147849592007556,8.17456155919042,6.189151681380734
546,4.583036097011402,4.261033695121143,7.662908157889348,8.692085860667621
547,7.260793605513836,3.8526414400530253,7.015711514252677,11.49251924918377
548,9.92827045295792,3.8423663350678607,6.312436973845547,14.16489580931869
549,12.531576945372535,3.849949209493309,5.65545605127232,16.426058789980228
550,15.198921741801577,3.7892386677124974,5.0940278370006915,17.88146387586468
551,17.620307816986635,3.9582524234330623,4.599149636242273,18.48057038445584
552,19.425482307535162,4.506550999663437,4.116513606745714,18.398548335765728
553,20.41740722201025,5.228824504180681,3.6242356183503994,18.39937611836609
554,20.627506758555654,5.848105735225279,3.135967879512559,18.570649672927146
555,20.52629230408784,6.140394945966508,2.679323198289833,18.315671803056937
556,20.5524808490055,6.040348810792181,2.273347885306279,17.131287266300262
557,20.558063216361855,6.044444701095037,1.9112242014609273,14.897704953413523
558,19.804173395985995,6.148312526007734,1.5771000807761635,11.817253441248898
559,18.073026186482213,6.035934385271737,1.2800222248089963,8.340985482196151
560,15.38276379009746,5.443860988869959,1.0490137071644436,4.869078203455235
561,12.071844753159496,4.214531543127106,0.9041447533186137,1.2253292252302441
562,8.587348071264469,2.344734101699188,0.8391547390030724,-2.3474058912338007
563,5.0172803964314,0.008053118630803047,0.7984538389329594,-5.821457514525541
564,1.311894036539848,-2.490208176696748,0.6710568329500867,-8.871799463748145
565,-2.5178539783004905,-5.352790483671333,0.34591068561262034,-11.102194902507856
566,-6.508408717002819,-8.05180369755769,-0.21998512424403227,-12.347150293203944
567,-10.647848656426063,-10.059694761210617,-0.9881641078574788,-12.749996729848913
568,-14.75317524601886,-11.132353697897079,-1.8662455572836538,-12.635322722639406
569,-18.920150394509584,-11.365968333027316,-2.7494712599054947,-12.584049067646909
570,-22.580304182359278,-11.209875105793847,-3.5669976606678206,-12.698146054561908
571,-25.17080330330416,-11.193767509725546,-4.301859773998428,-12.563190042265864
572,-26.49466335759586,-11.268932281745283,-4.976078323412834,-11.975466939882036
573,-26.783162762069647,-10.78291743362207,-5.629595621159459,-10.912618484368114
574,-26.510210336755073,-9.589072921944751,-6.29933040232314,-9.506288122168296
575,-26.506815388472692,-7.717764742883053,-6.992102321786223,-7.991179090547998
576,-26.742165087907317,-5.512452631841345,-7.652425440508319,-6.549957526782381
577,-26.357620179061698,-3.227051279576725,-8.340527425564598,-5.058999308037045
578,-25.03381395659055,-1.2637530342852523,-8.976882343407095,-3.6050917291879947
579,-22.61911204727625,0.1652537064488937,-9.464348431293965,-2.2785984770927463
580,-19.302254513644577,0.9043411097234442,-9.747665105193441,-1.1758871097248949
581,-15.525693610430453,1.0733699263778982,-9.819707224622135,-0.21706905183138958
582,-11.671780619968574,0.9324207588185571,-9.779621731797855,0.5622315470349915
583,-7.640427069076189,0.9003730468713382,-9.813360517772168,1.1133334778869561
584,-3.6754161818150806,1.0062287806597743,-9.851911737478762,1.4189199792430747
585,0.042074185979814605,0.8652426252649159,-9.568814646796408,1.4934952332088391
586,3.3474040972001107,0.4119435353704201,-8.783368428057582,1.4598130616656493
587,6.1378436513432835,-0.33196876277202847,-7.410819386537236,1.466715639638036
588,8.418810292891495,-1.3247679677603283,-5.51797466246216,1.484132763698656
589,10.310463449977581,-2.2679312883797444,-3.3291459184735857,1.2611528317410037
590,11.990743952189106,-2.9012916883372584,-0.7932102485376806,0.6839713515776209
591,13.561011005372357,-3.2612804625859995,1.691674738277148,-0.2991644662964884
592,15.244928793064052,-3.350505675592706,3.571601551045271,-1.5906539630914316
593,16.836466263973097,-3.2724509798955674,4.57782890726756,-2.982305134025482
594,18.04835208596666,-3.2808680099681258,4.793567156579973,-4.309612684840728
595,18.720001819824194,-3.3573423717545916,4.659296138293275,-5.743564998013429
596,18.87445043747974,-3.2263298100981155,4.5943862984542525,-7.110339549106959
597,18.758426246182683,-2.7845885228314944,4.6360577545072506,-8.189968184820696
598,18.79692721546853,-2.0197809652959045,4.286634346972474,-8.831675967885094
599,18.904776760166595,-1.045776645799283,3.6889549933426267,-8.993956682663509
600,18.465407626960737,-0.043371922590381584,3.0639615413457615,-8.937040341802748
601,17.126267508470356,0.8475235317744669,2.6466430892986783,-8.951177725748488
602,14.674330958602912,1.7395054278353193,2.5636366282272016,-8.951584733483337
603,11.180682528456167,2.504385980509265,2.60764409683219,-8.436642764542036
604,6.954951753119042,3.0341460816164045,2.6202538031094904,-7.298998294311543
605,2.264027661546947,3.295502986931641,2.637998572789939,-5.654576063204787
606,-2.7395899386438405,3.3326340940470582,2.844930248893338,-3.8648518197592163
607,-8.214971773042148,3.3170765295843885,3.2619274606674638,-2.332394564771213
608,-13.722137875062042,3.316728753689384,3.861602465795785,-1.1509502439137158
609,-18.29596361920581,3.2878978237125245,4.45366950443456,-0.25249051535744654
610,-21.212487522075424,3.0868765859475267,4.853850222086848,0.41851857160310385
611,-22.37159134888722,2.721201087909859,5.052779092476538,0.967644010478903
612,-22.164068031017226,2.191728821668971,5.065245793239058,1.5235040186393531
613,-22.134166702728358,1.6582812699366318,5.067232911075856,2.234648078896791
614,-22.47817873220033,1.2831814747497758,5.076110284659853,3.2148190352010038
615,-21.967826224287943,1.0747916061533396,5.004453154023011,4.472377002825822
616,-19.76414431290492,1.019926317829647,4.7746686653322765,5.87354119278188
617,-15.767249086470468,1.064627164309101,4.451085801982088,7.339392027329969
618,-10.564108470515304,1.091319431113966,4.108036908491435,8.605757347224216
619,-5.233344192882843,1.051654902345541,3.751360087763849,9.475231704689085
620,-0.6613697128788552,1.012166873741748,3.2722814679620003,9.907570638949792
621,3.5410373774614436,0.972678845137955,2.461226337279225,9.971801179585297
622,7.166320309599349,0.9291343765314414,1.3613759612812335,9.949647399426851
623,10.449113077607311,0.9614021608431478,0.13110867782586944,9.968116264904083
624,13.162207060927482,1.0156449889685073,-1.0762472041029776,9.921467510562145
625,15.029647764060062,0.9527496714780985,-2.21741332838261,9.496964018513534
626,15.972143419130834,0.7014262549462904,-3.3364910769856175,8.646543579014983
627,16.12423540384604,0.1766806382349033,-4.469825930494554,7.4510022083063125
628,16.07883928390259,-0.5387162252563624,-5.567488382981364,6.109579624224015
629,16.079380045444985,-1.2053308838579384,-6.738365924587922,4.820616062482653
630,15.958541468430274,-1.6180414292127743,-7.837551642650226,3.5817791438853614
631,15.192817387192846,-1.797011537858718,-8.687377242490719,2.4645330841082544
632,13.793373870046173,-1.7745232070204082,-9.180272049609627,1.5066771967897727
633,11.90307348242525,-1.7766657438035993,-9.286606843965497,0.7696714292274871
634,9.800709520788944,-1.8348438661439739,-9.282998054206042,0.29130770888819074
635,7.787547599894945,-1.7407650489911917,-9.353373993815458,0.04742221410455942
636,5.583107823679538,-1.35210861181646,-9.16336790663889,-0.02793833784197572
637,3.5435328727554865,-0.7865395991230373,-8.526033071626452,-0.01558350873448471
638,2.05643607888465,-0.2573297410144379,-7.704666874194238,0.008666148401015733
639,1.2797908834032259,0.04094822619230358,-7.018689502232555,0.003824768671450072
640,-0.15479666006519727,-0.10043027535698928,8.862522897189196e-06,-0.10935068265125875
641,-0.6368261339828089,-0.39028084530774015,0.02166204013632604,-0.4235029322302555
642,-1.608373891122628,-0.9728019567715143,0.007415644138506816,-1.027159551085789
643,-3.1233392531245325,-1.8920291124287274,-0.14258085914609842,-1.9296891068545943
644,-5.110138438943422,-3.0886777322449492,-0.5578131867635785,-3.1098257208895888
645,-7.4255126360241475,-4.581073615475324,-1.3493174298077832,-4.583395852721304
646,-9.88210635142871,-6.158490115334818,-2.4799598173835573,-6.3590870675293125
647,-12.319340917601533,-7.475262454820754,-4.201235630149212,-8.37183666209881
648,-14.628995900377163,-8.294213407467018,-6.156172115768835,-10.448284536952638
649,-16.725609985663883,-8.600699093877937,-7.8154316068459,-12.391042662506964
650,-18.795787513493135,-8.529618752274473,-8.814641715144344,-14.11705731783623
651,-20.641284186692776,-8.52164835739551,-9.007276038424486,-15.650824900838217
652,-21.991985499318044,-8.625817951567024,-9.076866803350638,-17.423764819649396
653,-22.718218835167438,-8.49109944399154,-9.123913727475296,-19.28342007124545
654,-22.892082038411505,-7.858424128534543,-8.805608759041041,-20.841034790766663
655,-22.740833856138284,-6.624720568768537,-7.393195354503244,-21.77897938209535
656,-22.76320352115878,-4.841020096125788,-4.998646047211982,-21.99162863142535
657,-22.918930412393344,-2.705960252622716,-2.079150657438827,-21.92344806579787
658,-22.606095134365415,-0.45397526801957894,0.7548378227381354,-21.991245132194884
659,-21.47819477996844,1.9011837393155995,3.1614851310464935,-21.97034700846667
660,-19.28622801958767,4.08937072224037,5.5708360994828015,-20.988896842944733
661,-16.034488202862445,5.897427419368072,8.270924408147069,-18.70198294135479
662,-11.94839207562853,7.214117484114366,10.894168706750916,-15.048227366857194
663,-7.256477451546308,8.051555941089417,12.915723632848827,-10.334044605205838
664,-1.9181879735749405,8.513044449620974,14.040407409210044,-5.0186843983132805
665,3.8786209201028803,8.737591721045716,14.31084933843072,0.8021242845900893
666,10.03255291672378,8.839565724121067,14.134038762601186,7.037390507822046
667,16.49428549937229,8.963429203783457,14.140971905242967,13.432306183469755
668,23.247573566443855,9.136357642397808,14.251255244226796,19.81066183760842
669,30.259274947467524,9.314996541212816,13.692236000569268,26.085984327216796
670,37.26494933747736,9.440338872216499,12.271373919211312,32.21359643732264
671,44.77786455287851,9.481834755803296,10.01097515603455,38.01759199760808
672,51.76965394744487,9.452927467671813,7.2115907023986745,43.80267553497814
673,57.007239312662755,9.481983097035574,4.2860288623978535,48.88180045719918
674,59.856326157334045,9.519785793885768,1.446083155421899,52.50964793304933
675,60.507723342727296,9.382937036445222,-1.5537313506624544,54.401072535546554
676,60.09212553038074,8.988480754240639,-4.45059869173395,54.72921990882414
677,60.05544451311321,8.35090885699858,-6.781502622105213,54.62183015171617
678,60.281875955617444,7.588371287423602,-8.23486677273076,54.66537056223747
679,58.95629098990567,6.847998771656804,-8.815021762544198,54.50111459942565
680,55.5992039637913,6.183858484273937,-8.801353907369313,52.81563280896325
681,50.18320007896608,5.4792284507465405,-8.685135873476407,49.3187358066524
682,43.389430433506526,4.715082789559009,-8.688643169216327,44.135715862021
683,36.226748191211556,3.8881611301240944,-8.643730079647607,37.905627894343745
684,29.171943356625572,3.045753965531174,-8.490767782741393,31.37891024482277
685,22.16394369315627,2.262716343559003,-8.29731597605353,24.55453914497662
686,15.537796247630796,1.6002552508649575,-8.05562021088184,17.67279050006847
687,9.470067635234681,1.0815261180967768,-7.675016343542186,10.949697270411487
688,4.030806276197671,0.6833700473674852,-7.020782926462618,4.543710949437327
689,-0.8372978719941511,0.3335051094643377,-5.964364113905228,-1.3931955086022092
690,-5.269925000291186,-0.08131413448811392,-4.625702295346566,-6.703028325503052
691,-9.368959172344574,-0.6492782729140176,-3.1478256703516694,-11.257377921646093
692,-13.130290998438404,-1.5653629307758425,-1.6573041938127457,-14.998764153346892
693,-16.48875650116611,-2.6414246261497234,-0.22156200272435617,-17.939272875960384
694,-19.419117326774067,-3.565203980681394,1.1342097425640856,-20.13902731905997
695,-21.9848503178723,-4.110772659672763,2.53771234506752,-21.692342243385262
696,-24.297923439179858,-4.244742836332904,3.827930296813026,-22.725348503603616
697,-26.434955409762054,-4.164409501730949,4.80125234374583,-23.40043929073027
698,-28.395606298192785,-4.164674893360667,5.339184505460217,-23.894843866772312
699,-30.14112821049602,-4.207156697853231,5.470517745009403,-24.350731763939102
700,-31.64209931291754,-3.9580580615559153,5.394681231065949,-24.847417160148538
701,-32.92286636918395,-3.2256907282710743,5.325312925529467,-25.411929427141175
702,-33.99142940137854,-2.2021279380514143,5.354272672037918,-26.04298522509233
703,-34.78047097784244,-1.2633315617190877,5.321704101219936,-26.722721940435648
704,-35.253518347949736,-0.7292068719714763,5.2432060660207425,-27.406476643586256
705,-35.44602159567253,-0.6344712786484618,5.0638731560161725,-28.02047062579211
706,-35.449474368600264,-0.72666607653802,4.711989242607812,-28.51286306355916
707,-35.42209716068081,-0.7099959514902758,3.9800518652697296,-28.889856564711526
708,-35.42769362125818,-0.6270661292630202,3.007629595859986,-29.156724118812004
709,-35.410579644251825,-0.8794630027478111,2.0594645607749027,-29.32847145515053
710,-35.29758890806562,-1.658876384546412,1.4486001666084187,-29.417572455719903
711,-35.080947425699556,-3.008056499846365,1.1796343271680199,-29.409459253697516
712,-34.746540900742204,-4.897603168869602,1.1065794297951146,-29.428468904823774
713,-34.23640127468486,-6.948204862516732,1.0472336740506383,-29.48727857353412
714,-33.41536319653434,-8.636693460779979,0.8544762183791725,-29.445835405809326
715,-32.08918437509422,-9.743210885544803,0.7117207188756479,-29.067558419507293
716,-30.18070755143699,-10.190532599429,0.627712603079859,-28.167539709004977
717,-27.708873719484377,-10.14330385410017,0.5684370457153163,-26.663943591705753
718,-24.781938627067397,-10.104720729967674,0.4306610288082373,-24.629856612047593
719,-21.55042261036966,-10.186444768151441,0.06163578350787928,-22.244014711888653
720,-18.161288546605327,-10.057896703135652,-0.5020440636799833,-19.591000088979072
721,-14.731532226727296,-9.477384039428616,-1.09305703620868,-16.832477370342932
722,-11.3269852164522,-8.41947416070923,-1.4743364003058157,-14.118538949445716
723,-7.966803821952268,-7.0059855627368375,-1.5878898461791429,-11.572176546839149
724,-4.687007117068514,-5.46958524532595,-1.5371309511735438,-9.248184659879705
725,-1.5987776644257687,-4.017336861729168,-1.5778471866138213,-7.117674808574523
726,1.1374780059161127,-2.5886109396011268,-1.62008008965929,-5.092470375304364
727,3.400479936927294,-1.325181018272327,-1.2601627249838625,-3.081758184420742
728,5.179950143182813,-0.2891872751744675,-0.4586323617424808,-1.0509447535975052
729,6.56565290380369,0.5278925002327999,0.7061211725912822,0.9609593960237471
730,7.672287979415342,1.1849617229364213,1.8922940683732001,2.870097061250994
731,8.585973986071568,1.740803088096992,2.71398728822751,4.58713172519357
732,9.36253804117684,2.220200542935812,3.069602412392457,6.043838756581927
733,10.044079324078005,2.629017955796414,3.195223898335046,7.21105332746418
734,10.674036712349947,2.9721095295266493,3.1310103451823927,8.114744971427417
735,11.287261318027742,3.3623172487141417,3.160969557186445,8.835731389064625
736,12.056017733449949,3.775487518097721,3.2719571644352743,9.474808013463242
737,12.942126265741688,4.127678706761269,3.1450295383918374,10.096148094547543
738,13.753207614680335,4.346103484445615,2.5221676293749185,10.69437796491626
739,14.304565467025135,4.395891328275918,1.312015014394805,11.197564621953086
740,14.527444326142344,4.407068852306205,-0.3308038296998249,11.534668550167325
741,14.490188666068686,4.413757551984001,-2.253318699764968,11.691670654300914
742,14.452256645637377,4.354056858095157,-3.9556271134595047,11.718255320017215
743,14.494324761764465,4.0609156746892525,-5.228702170545401,11.70545054347988
744,14.434855092538099,3.6279690993607883,-5.905426272412336,11.745693250209829
745,14.209375766086584,3.229851309206496,-6.027063440430617,11.905429821298945
746,13.830804666917883,3.004424635681057,-5.991824084699521,12.205088149204492
747,13.38584419914266,2.964852498516353,-5.987038785396555,12.609587711806007
748,13.005042034598032,2.9797986319621392,-5.919222985616946,13.046370530804914
749,12.773260532249816,2.9470017369082107,-5.42519277429159,13.414540040766223
750,12.604234931326921,2.8615147940345507,-4.244358510491796,13.658363106551576
751,12.46801030016588,2.7921509317352333,-2.667674402919141,13.782478655881476
752,12.242674979424356,2.7632880384011407,-1.2574676841403636,13.838287935175368
753,11.946567706482904,2.731693805176162,-0.4556555933671068,13.87452205130101
754,11.668581222540888,2.6751748680279026,-0.19196235923566166,13.92180640429844
755,11.487822607109493,2.594266451202576,-0.3227501743599021,13.950213746860978
756,11.43703551144923,2.4857191884316396,-0.33636107147226657,13.99743553662171
757,11.4796402676839,2.4081447997925562,-0.2867517904255169,14.076705938683988
758,11.495876523189178,2.3693064769724312,-0.48627410257994663,14.171346583846253
759,11.409179621822155,2.381933637784882,-0.833392045825865,14.25357682909071
760,11.263407633137586,2.3885803712199065,-1.1913442578337448,14.289748065286744
761,11.158339570058953,2.343620424123559,-1.4209271006005217,14.259622872511283
762,11.192527572772388,2.1929729479409463,-1.4155479959532944,14.317801385532622
763,11.272196283519648,1.9289570047683677,-1.4066681784077315,14.461756080482363
764,10.644582211847865,1.4475599554983705,-1.424036383089644,14.118447173877964
765,9.310215471006567,0.8788397534419213,-1.2433907873769787,13.283316793026048
766,7.7596138276966435,0.40009027616290527,-0.9427235310753366,12.253916690256295
767,6.592529584967151,0.10151949135809885,-0.6420562747736944,11.427708760598998
768,-0.10251088984922549,-0.10428959930930404,-0.12042009121406644,-0.06774493954012026
769,-0.36830189238848793,-0.4062432211128362,-0.49938774001486474,-0.2579798704812712
770,-0.8676577488028011,-1.005205783529029,-1.2384698965664587,-0.6111006535182717
771,-1.5969977925961607,-1.9304107003912105,-2.321141101572578,-1.1207520904868649
772,-2.4937849887892485,-3.1020323754379673,-3.616115469243625,-1.756686209140653
773,-3.460493055129186,-4.561205634054917,-4.98036077953838,-2.4759296126222576
774,-4.611285967827918,-6.137347804399038,-6.272886601306957,-3.384894429846751
775,-5.7699621389255356,-7.493289439641731,-7.535969484456133,-4.333458983234073
776,-6.697048034953716,-8.372538710445701,-8.63390002521501,-5.103043697412751
777,-7.239241492090585,-8.72726199331117,-9.421693420190728,-5.548406315422178
778,-7.347474316342161,-8.655325924915605,-9.838317446315333,-5.65373346400936
779,-7.346438470065028,-8.669338527294828,-9.867435625529282,-5.587611211016908
780,-7.394180534246687,-8.795457005408354,-9.931915304621153,-5.620373848935569
781,-7.308391972323984,-8.596972941692137,-10.030589246077588,-5.667027958652545
782,-6.5846615322890205,-7.763978284848565,-9.837465479370824,-5.315931249094897
783,-5.0992364521945,-6.242712366119989,-8.846164641731763,-4.411341903158498
784,-2.9471400508127488,-4.2119420733550665,-6.9490443208659975,-2.963258602575682
785,-0.4403231253519684,-2.0116310274373266,-4.349767444550874,-1.1791371749372663
786,2.0335817551156112,0.07895549305338911,-1.5133074723925959,0.6520970345888405
787,4.658782388369515,2.2066934594027243,1.1379981733103814,2.3953650866022795
788,7.152884572176465,4.241881754605515,3.740350550709595,4.064352698500727
789,9.079377744950719,6.086996887937561,6.204919702988276,5.662098976232698
790,10.19315535070711,7.787032560261178,8.785112939945947,7.000741257847633
791,10.551030380155531,9.265402481052245,11.184786066955798,7.912420835427028
792,10.407334639278009,10.372587967775429,12.99475834953408,8.362180551140153
793,10.385190899112072,11.024770517195746,13.984391898526841,8.451468119780799
794,10.529788629858976,11.260617343451253,14.195230058366965,8.367933960898691
795,10.328621818034753,11.208108365238282,14.102633210471566,8.353634381161484
796,9.578687241214244,11.191096895800301,14.081432803341931,8.414523940241263
797,8.257720408600534,11.253833003889682,14.053370536246014,8.303935399664244
798,6.541185735464835,11.15599361779845,13.456893018558034,7.909030570333133
799,4.7455534600720535,10.778998449326801,12.296899800241167,7.095758287258961
800,3.1376056644663315,10.126556885890082,10.79262144602239,5.805161132616759
801,1.5291579008985465,9.288870677670442,9.34223939642222,4.104023308044722
802,-0.017141172817481787,8.401044016169164,8.265543807065383,2.1427155016617787
803,-1.3100805956117871,7.547406795672526,7.47857324313893,0.04896864421503544
804,-2.1881186136769246,6.610941410698904,6.869234790785668,-1.9547823225606304
805,-2.6101139671614697,5.633965951270243,6.374616999378548,-3.972399248144609
806,-2.656211526214364,4.66047528171657,5.893344390352471,-5.784075756862109
807,-2.6362692483333463,3.743349563441798,5.2761474628625455,-7.127053507970618
808,-2.593742512507349,2.918245101750995,4.393368611633664,-7.861925203008927
809,-2.5070993619831152,2.190830024319293,3.242811382066273,-8.042117688676607
810,-2.3191243304640414,1.5395548931457284,1.9732831480207735,-7.881687262025726
811,-2.1311492989449676,0.9362724483420938,0.7834698518323349,-7.9261207952350246
812,-2.025170830251733,0.37159405547267726,-0.2042010415811881,-8.090462499756509
813,-2.0117651599744137,-0.14828888915892574,-0.9701394880672982,-7.728625875914473
814,-2.037700105442597,-0.624421182837673,-1.5316649521301122,-6.552982557064487
815,-2.0138660731292473,-1.074262662858843,-1.9040013858776004,-4.503512702311383
816,-2.2071970987120118,-1.5286949290997467,-2.13669821312726,-1.8684718327592513
817,-2.5690118992170854,-2.0031954871985995,-2.33604194068537,0.8143967237501321
818,-2.9670511358051046,-2.5733410203410876,-2.622377038312503,3.1817132067048366
819,-3.250425759651189,-3.150089378307107,-3.024651342316043,5.264964879496248
820,-3.317317981165843,-3.608996328967757,-3.4484121766880214,6.78420257468244
821,-3.298029432852911,-3.8713039189639695,-3.7764665400319624,7.654061064903703
822,-3.305707977841426,-3.93914444847428,-3.945508927923865,7.975822643214863
823,-3.2865551894209966,-3.886450288387036,-3.9722377076046804,7.9485387268600105
824,-3.0309881191914396,-3.890359399431012,-3.9367452912467997,7.910863001813928
825,-2.472376437063246,-3.9390039958067753,-4.0119554885096935,7.954912784045537
826,-1.6157609786753513,-3.8381179537482377,-4.1986172319150965,7.902701718969528
827,-0.5428225961205724,-3.524275345098433,-4.416565753884828,7.573704631643828
828,0.6337685751859947,-2.994351393825918,-4.6018681665365015,6.90252960230325
829,1.9312385082943788,-2.3063602283314673,-4.692505763230857,5.910225031905468
830,3.1165085606449505,-1.6731580424006216,-4.7030830637702845,4.733263790952989
831,3.962762975896384,-1.2634841391465363,-4.69380050206456,3.549154098743992
832,4.379027410037036,-1.0520896588832904,-4.710707730504982,2.4007696400512524
833,4.450551825760721,-1.0349920743221381,-4.693555838853759,1.4058159767313136
834,4.3702433910329646,-1.030661835663633,-4.674266371413994,0.5931949869171795
835,4.334943434473919,-1.003843270552328,-4.662981481135449,-0.07546205595178543
836,4.384922234964693,-1.0632556378551208,-4.667936871237998,-0.6575995808162042
837,4.374423619777409,-1.3856862774599799,-4.658759388571632,-1.1703648109325668
838,4.249863691133922,-1.9904819062381767,-4.680312122959711,-1.5720687490725038
839,3.9266282527794703,-2.784300873675407,-4.748596478649475,-1.815263158740587
840,3.363710806903353,-3.6458302129734914,-4.838858662081853,-1.920590323902789
841,2.5852138351783145,-4.504927536736312,-4.91674347122898,-1.991970320261101
842,1.672098629289493,-5.30212946499837,-4.904590534839922,-2.1490567998639594
843,0.6092597501014387,-5.887930393045946,-5.000404814799465,-2.471236023346331
844,-0.49459631533945125,-6.195202107602975,-5.079749805525971,-2.883590459484113
845,-1.4257701199736548,-6.21469212620999,-4.9096987256142075,-3.244770946485068
846,-2.023428270812741,-6.228444621812633,-4.225096511582647,-3.462978156005267
847,-2.2616340107380806,-6.281122486834362,-3.0041246895929303,-3.5345530413606268
848,-2.2155111298316683,-6.174391886838476,-1.443109633811297,-3.5198789959183916
849,-2.220363145602773,-5.629900176657403,0.22783548316477403,-3.4924097727020325
850,-2.307839041525519,-4.567126980365237,1.5852082885121763,-3.498580410538964
851,-2.192557192635061,-3.0359942800126096,2.5767571614565496,-3.516328711181785
852,-1.6687022392026498,-1.2739388450508482,3.0868289605179995,-3.5209203307291435
853,-0.5776214956499971,0.7511077515436052,3.195433936810217,-3.441421934952015
854,0.7611646689494034,2.81327109486909,3.101844905483882,-3.1860677858071638
855,1.862668355689267,4.43141608251718,3.0744744031445217,-2.7151421512091627
856,2.4010527206893686,5.341521715832612,3.106699632535923,-2.0798278377337676
857,2.5123962897389305,5.581759685614105,3.042883916530764,-1.380640519118892
858,2.482617845025751,5.392474106034241,2.913553804310134,-0.7046785414452448
859,2.419841205941564,5.382358162368699,2.7768731408856717,0.021011871467722376
860,2.3547945468847895,5.558318015437103,2.664888822392985,0.7236157547876593
861,2.1086102743520434,5.317780317320189,2.603964873424468,1.2826510352890628
862,1.8331721550979503,4.495629972003292,2.5613421253757847,1.6057169332087966
863,1.5788153601174888,3.10959770724234,2.5149670292422224,1.6895471680525496
864,1.4490582562237377,1.455962859449191,2.4817038006113985,1.623613855957796
865,1.377890136715191,-0.16927122976118403,2.377472602889302,1.6412371971174768
866,1.1878119246486605,-1.3809579810186396,2.166538353548262,1.7085311877148077
867,1.099678806989434,-2.2493813392636883,1.8240640684543725,1.522533592577883
868,1.047006331548564,-2.692113467850686,1.407671245496602,1.0666405273446118
869,0.8816690365023081,-2.7882692957420647,0.9820990371972271,0.4913026843310526
870,0.4169002816111764,-2.707658780664726,0.6013640685645405,0.015350364216635111
871,-0.34893991802492647,-2.703032102344674,0.22373057383908795,-0.1969087308124275
872,-1.3416469985066322,-2.7680660687371943,-0.19452128511168568,-0.1451037246337652
873,-2.2646581673339012,-2.612673454895586,-0.598294982482098,-0.1382866866390994
874,-3.0239206260285747,-2.1307337330432246,-0.9132098535624109,-0.13836939847845126
875,-3.6629911697799495,-1.3246138691564706,-1.0941580731867948,-0.07169416341408547
876,-4.102632865174918,-0.19597789163352275,-1.1289689123033622,0.049697650159565385
877,-4.331410858514198,0.9294747676665991,-1.1340788070392933,0.1710894637332162
878,-4.38358515718236,1.7482038633723775,-1.1512243480535653,0.2349443531777458
879,-4.362955163047654,2.2021616933980637,-1.0735811654427756,0.2506421562427766
880,-4.35303052912882,2.3042962344017752,-0.8437293850792484,0.24528568638816403
881,-4.343416314468003,2.234758747896903,-0.5577792861545566,0.2353663699831052
882,-4.2229010355144965,2.2473406425685565,-0.32243120351024307,0.06988000985505916
883,-4.032734850636798,2.2899254582252877,-0.24236511410124698,-0.2699611273117054
884,-3.772346369025243,2.0225878349432933,-0.28552574008749215,-0.7530529499168677
885,-3.5093198062784308,1.3555427657636328,-0.2928934860928797,-1.3025413533231913
886,-3.3074983378013276,0.351273970151362,-0.23251621535140277,-1.833836486534286
887,-3.219027772642697,-0.8706883449923553,-0.18573176931556012,-2.3769098378854414
888,-3.172689523926309,-1.9523497416501512,-0.14846709323639795,-2.87464337553771
889,-3.1273242003167927,-2.6677976093179145,-0.16200624665576618,-3.231723259443734
890,-3.023342693197912,-3.0427871242955966,-0.17343327927387636,-3.4121796313333537
891,-2.835438006411198,-3.1271621366100435,-0.13670413666934741,-3.449311023794566
892,-2.64533647572209,-3.068989827714894,-0.07985811158578239,-3.4198646910421155
893,-2.5116488515909525,-3.020378129766234,-0.023707876877029188,-3.3984481610135995
894,-2.4588038011813573,-3.048683965782109,0.010606155444986663,-3.4115632643296143
895,-2.423199524794331,-3.048683965782109,0.012477829935278465,-3.4115632643296143
896,-0.13406053794396394,-0.07049606745120501,-0.16292576707342288,-0.13513077157731335
897,-0.5599617681627452,-0.3314817256958082,-0.6219892349862906,-0.5432573708980245
898,-1.4479779170417715,-0.9298007296670229,-1.5162389960834801,-1.388800971687343
899,-2.844555841098728,-1.9575524417253525,-2.837419668781502,-2.7165268652315215
900,-4.890062835186809,-3.359506586023243,-4.73576077551056,-4.574051754479943
901,-7.308090449590838,-5.137057720688956,-6.907518574942779,-6.888464030625775
902,-9.48584770323414,-6.9946103627940595,-8.807938170257414,-9.118810082388425
903,-10.931294316311561,-8.51414206643692,-10.02611966776604,-10.742860067146125
904,-11.51383648355064,-9.437881045949752,-10.473855838813613,-11.536103626584222
905,-11.405134170606603,-9.771069086285614,-10.34094351331289,-11.54770981546514
906,-11.39154062268423,-9.668459042114257,-10.308132299782015,-11.555164742257858
907,-11.573346467805061,-9.677849253204121,-10.4637232298598,-11.706328249440102
908,-11.323731463836474,-9.827627822094204,-10.248493349969651,-11.454675181132401
909,-10.172723709574562,-9.636148580993106,-9.398090426057268,-10.102546682639483
910,-7.975367971366787,-8.756926627799336,-7.862199087812826,-7.474907805626634
911,-4.899749520035304,-7.065039415577689,-5.773606251246469,-3.816798074092642
912,-1.3852005818390862,-4.687195204356916,-3.3650121404464954,0.24768566601295183
913,2.1019397980685044,-1.9613980888018565,-0.7850558528992146,4.0401917022751945
914,5.792114469084479,0.7766092937226505,2.2015539695199946,7.829656151495137
915,9.401567443231823,3.5602394679508533,5.355437530407013,11.05903749077078
916,12.363910236607019,6.332195825268245,8.671361373216616,13.296774739225242
917,14.268918719991353,8.743985558962466,11.61751203209569,14.418702211535152
918,15.081808178608165,10.451244928837477,13.706058686983223,14.632324763930306
919,15.073928678731976,11.338738180611564,14.771904233608389,14.487768234719852
920,15.00725251881351,11.562391106542513,14.97925514383033,14.423962625683991
921,15.079711622335166,11.428919398407274,14.829758581797435,14.4408584310975
922,14.899274756593147,11.376612168692262,14.839762214530076,14.059107188431263
923,14.102567744240154,11.471869547261642,14.888062427170066,13.312332544125898
924,12.726846260520775,11.37934221790232,14.305853553254266,12.314621204271251
925,11.00436640728263,11.04079406156552,13.018260621733742,11.287695999325575
926,9.317490319346682,10.4634254304641,11.22748275964101,10.412991567977963
927,7.9632709368250305,9.748409162902036,9.435270014098709,9.621289754462886
928,6.780334040591994,9.041611057770126,8.163283628926795,8.820750253038964
929,5.860666031421155,8.428905298615424,7.49408414314065,7.9651288944895136
930,5.171882028740486,7.783577858952962,7.140290684507799,7.011442328805822
931,4.623336082134971,7.085014166536003,6.903669868889945,5.931783445887267
932,4.104372681435726,6.304528368179802,6.595013945773696,4.71154047569501
933,3.5268102799047907,5.45258800520023,6.133670819026564,3.3609279808922228
934,2.851047039415359,4.58230424266409,5.527302346896754,1.9192239064242989
935,2.08946555050752,3.765846868998346,4.8103967074149026,0.4303949369788418
936,1.2778117824518518,3.0532026707965016,4.009360998511505,-1.0925393040184241
937,0.4221612616375377,2.443465632500406,3.1448661142413084,-2.6330261218176823
938,-0.5235739343566923,1.8877579579030146,2.229479447338826,-4.367409503565639
939,-1.601220736351996,1.3146025011818745,1.244659233572752,-6.051539749120837
940,-2.922658007271665,0.6636232926375838,0.12766297167086532,-7.3502346328816985
941,-4.4149895959151335,-0.06238248230255311,-1.1961615231958986,-8.067278217635318
942,-5.757645279829859,-0.9074208225582414,-2.74111792538352,-8.234946852820102
943,-6.667612288488629,-1.719679114133327,-4.38840595969515,-8.115678487042645
944,-7.064024685528729,-2.3289930619086374,-5.981108480962883,-8.109482156736972
945,-7.035347687567127,-2.654171165600742,-7.244259269177769,-8.187838445413734
946,-7.0278847103329625,-2.7209341119003674,-8.019846183810136,-7.894557638476849
947,-7.110471261393808,-2.682433034818124,-8.34201779434663,-7.11979060386281
948,-6.964915557816017,-2.6856042521185928,-8.355219425162893,-5.888562280624705
949,-6.317306702991921,-2.6971115987415186,-8.337434161172283,-4.406729387722917
950,-5.132496327467636,-2.493664618972518,-8.356929253150314,-2.9535601880770255
951,-3.534359585251232,-2.013287082564672,-8.307266719340735,-1.6766076595503054
952,-1.800866112645471,-1.3977405695050658,-7.992742771515143,-0.515884700656361
953,0.03332556726886449,-0.8738515294361676,-7.368849985029641,0.4657741884989212
954,1.845178780760651,-0.6103811374620234,-6.4332547490136385,1.3089455516751871
955,3.2357880257654372,-0.5928022959189321,-5.251807153184169,1.9697045391184407
956,3.999748165613071,-0.6030868198688928,-3.872317246535825,2.4105412030623428
957,4.151575048827403,-0.5992272371797178,-2.506355798129012,2.63210063868695
958,4.0981783479000775,-0.6499485116157959,-1.4835036314618217,2.6713812301910496
959,4.085290274432557,-0.8719823112274772,-0.9637462285629181,2.6406856217867496
960,4.025205418054021,-1.2606096700071654,-0.8806761211952061,2.6538476480805167
961,3.487428834613452,-1.784466195948764,-0.9445893427097632,2.6680739326650587
962,2.465862020368201,-2.373067001900136,-0.9728294154793431,2.50421851950063
963,1.0555922148156502,-3.0298787897497848,-0.9902347678941424,2.073461965216123
964,-0.5756460679007736,-3.7809928401835995,-1.179139738596267,1.3320952283716758
965,-2.285037327392012,-4.445207411962914,-1.4880935376059645,0.3418049273652288
966,-4.290774883809202,-4.886548052145354,-1.8178661271883256,-0.7528348331424686
967,-6.418102886207217,-5.072763420511215,-2.0418255568936625,-1.8574702303698203
968,-8.220120205831224,-5.05027235016597,-2.106771999174546,-2.944278462611135
969,-9.358116199976774,-5.051752910392114,-2.1073855962038577,-3.972167546783623
970,-9.796649360168221,-5.101360524822391,-2.1594488839685186,-4.921089530807766
971,-9.766972264461081,-5.013783555258015,-2.2905356016175262,-5.788498769804833
972,-9.676288281468851,-4.656434598739212,-2.451069742986692,-6.55415919432705
973,-9.712218189678989,-4.051507491794165,-2.5696891418831527,-7.42030854007645
974,-9.657701285214216,-3.3368830267375236,-2.6116691734296342,-8.32467759124628
975,-9.45500688950711,-2.6572961390669274,-2.567419802676104,-9.094062153048771
976,-9.11253836605481,-2.165417793164555,-2.613235364001796,-9.569501753174107
977,-9.07041679663618,-1.7986539083031021,-2.683605426944354,-9.71836933915404
978,-8.85504986339239,-1.5586347155590377,-2.5444178830308046,-9.655043452633233
979,-8.357554632034079,-1.4190585146180619,-2.064912532351257,-9.578985488726614
980,-7.617998366353946,-1.3678178906173364,-1.2512948667051076,-9.620200386650232
981,-6.892600730975693,-1.419505388380359,-0.2689907133065428,-9.627132903656008
982,-6.918057757563081,-1.422682025131927,0.6038978138153667,-9.709443146650635
983,-6.153274629799293,-1.0495646313993758,1.115370598757787,-9.762593178863833
984,-5.38490706768594,0.19376928721728115,1.3194407591172308,-9.275498008477054
985,-6.647619875456677,2.491519302146749,1.3391166579593035,-9.115585858251338
986,-12.538623204977377,6.4845156955643155,1.5550818137959463,-10.756095889139566
987,-24.734754122981222,11.158251014052324,2.427743840626784,-15.236544337474855
988,-39.616723059698174,15.10396632235996,4.111793463338909,-22.073365160132774
989,-51.78069269145703,17.447348622343505,7.06388948712398,-30.36663544844832
990,-57.626481539630866,18.05562969837495,10.51335624729393,-37.63854035648959
991,-58.555944891852285,17.66249999105427,13.426033095248334,-42.298082681097526
992,-57.974514027769914,17.767707591448016,15.150664413952665,-44.63592678514318
993,-58.45855665189487,18.088262255541785,15.607475861629819,-45.07554040623813
994,-58.332143233657405,16.638733775830158,15.221166667817748,-44.295127221951866
995,-52.394261609192384,12.69969422704099,15.507330199015657,-45.24360668905134
996,-38.57423325275052,6.20985042501645,15.902712563813003,-46.38148501005471
997,-17.01157807084264,-1.9587708955292786,14.411707240032014,-43.12164505178866
998,9.316349959938115,-10.357318467534274,10.361299365337775,-32.55199737490821
999,36.37799310330965,-18.44639429017049,4.085941577289102,-14.085499002857166
1000,62.3239246995115,-26.432672206390237,-3.098683018798679,10.004215878492245
1001,89.44326411078612,-33.00913184624582,-9.694858750846784,35.8995432739019
1002,114.42688666059735,-37.285674554962505,-15.259044464275972,60.60076874623406
1003,133.23411378366777,-39.16723309223821,-20.135889009909516,88.12094793880189
1004,143.61763619484265,-39.15673279666502,-23.53730540793668,114.41277300929963
1005,146.256327449693,-39.05517603303367,-25.216138266887267,134.55981090487117
1006,144.23873403118714,-39.2981445474872,-25.39102182465466,145.7577460769472
1007,144.06455806911922,-38.85159201851295,-25.328267266802552,148.71207650708155
1008,145.95007654184317,-36.5195491717081,-25.392036097962404,146.362343653688
1009,142.84384043567832,-32.01916228589206,-25.070649607940265,146.26290633466553
1010,132.0801877221643,-25.738534817869276,-23.441856762395297,148.60697134856412
1011,112.73157541455804,-18.763405266412825,-20.3986176719593,146.14940128738363
1012,86.7881074029563,-12.098469769512986,-16.155042400165367,135.68884433744194
1013,57.973850492230504,-5.420200438929247,-11.40673170717199,115.60371444441023
1014,29.82840543185117,0.8395393559864504,-7.0015565148851,88.6013963558412
1015,-1.0125079488711881,7.009672675845146,-2.5370350084577287,55.459558198619504
1016,-29.643403678884006,12.415458378479041,1.2314394523680612,24.383898768517593
1017,-50.85043537275505,16.238874056127457,3.8089145903239205,-0.3471155488150921
1018,-62.09733213492391,18.16726687498202,5.136861550852771,-14.237887213801534
1019,-64.763898996266,18.59233247784019,5.47319880440643,-17.98869493675273
1020,-63.06068401862253,18.30194203605563,5.278408550468779,-16.01796369183279
1021,-61.568147250519466,18.05049011436931,5.0905917001271135,-13.99063944217012
1022,-62.409595577458454,18.196501245639034,5.19522299912762,-15.052845102096606
1023,-62.409595577458454,18.196501245639034,5.19522299912762,-15.052845102096606
1024,-0.11866680037906463,-0.23714182314243448,0.06342443158745437,0.016304044773605253
1025,0.21235748322546066,-1.0243929407899757,0.024051510655940245,-0.31960429504010746
1026,1.9047677315275566,-2.5473669226420865,-0.3284871398346626,-0.20597421486787248
1027,4.579694878530706,-4.9795006200047585,-1.1082944557432834,1.2435606636319279
1028,7.392267107634233,-7.640973510387976,-2.2539876542357837,4.033052920138615
1029,9.239555193881936,-9.762036795999359,-3.6062567695424064,7.167083938754895
1030,9.960382730702994,-10.914479429701087,-5.042311515516913,9.565230602666524
1031,10.031842793833674,-11.170990824510817,-6.5367626309140245,10.549237345567615
1032,10.17162110056097,-10.965639856885065,-8.20870976724928,10.470826851849411
1033,10.975311906729303,-10.88534709038048,-9.792341108971838,10.43276978986957
1034,11.562263482895874,-11.023587485032083,-10.95138702674265,10.672525951453016
1035,11.783415231530533,-10.854466707337247,-11.538521318433114,10.9550390732298
1036,11.542265444143345,-10.193189071117299,-11.60153105037052,11.151291344394485
1037,11.12860806121818,-8.826414079103264,-11.581689633702048,11.244290295559864
1038,10.710878901995153,-6.7234564119359055,-11.700083875703482,11.169631252819949
1039,11.008938490536957,-4.081758261778681,-11.632136916344164,11.489987457502451
1040,11.258288260597993,-1.2358034064781354,-10.682431621269387,11.702909413939922
1041,9.901503137680198,1.5426706383730544,-8.604482862056694,10.507682614230989
1042,6.415300399172959,3.937170414417496,-5.609422912190789,7.048934167672522
1043,-0.14014661355200708,6.524582449802844,-2.3250742143603436,0.7069471016946678
1044,-7.913078930411441,9.15667140696511,0.6641579858379942,-7.763216420415543
1045,-14.226410805860402,11.394579234911483,3.378256307843018,-15.715741151822165
1046,-17.603891109059084,12.827887638686478,6.42953079845312,-21.04097482268407
1047,-18.524311705703298,13.301774298080847,9.646108396018253,-23.561757067345738
1048,-17.919596304257183,13.077456385171626,12.407749344594192,-23.586582920716232
1049,-17.99023637707889,12.991392792168106,14.144684831451217,-23.481682339326262
1050,-18.212372564635054,13.168725138688126,14.7448082317278,-23.807362562347024
1051,-16.579853104860273,12.786696280025414,14.543077977660838,-23.236177454048637
1052,-13.724017608701331,11.698962291330236,14.484066062191099,-19.62052510771484
1053,-10.71868597713092,10.209068798957434,14.674327806701887,-13.956844904535508
1054,-8.714561837904768,8.861549048221843,14.338927308401308,-8.349986267659508
1055,-8.49845836393514,8.171229869240035,13.3600393047974,-4.875576100422576
1056,-8.709787865163344,8.10726570024555,12.03913919621583,-4.2967841440328165
1057,-8.413482941494527,8.167575435612617,10.868482307775308,-4.825858843827198
1058,-9.031127810633421,8.145325115990765,10.28198201609442,-5.005014335096117
1059,-11.705142392283909,7.9832916215827785,10.30339509028406,-4.759513970243622
1060,-15.648010015360265,7.839679232323044,10.347495971320757,-5.295298769616054
1061,-19.383345336122197,7.807672974960598,10.306294120457386,-6.27238484189243
1062,-21.541493909162533,7.880445848261802,10.194911700088472,-7.322253872597553
1063,-21.647602134915203,7.818804223500347,10.043701854444063,-8.038956311492866
1064,-21.493663917993032,7.4237870007908855,9.800270614888774,-8.131448884555665
1065,-21.523854146220256,6.488318483623883,9.389220355102626,-8.004010360813638
1066,-21.430046948689355,5.086076248035135,8.714495504949209,-8.124632825663578
1067,-20.09157714747024,3.4440203763759882,7.703357085902776,-7.912859436425997
1068,-17.333480987535637,1.8612232513085434,6.262005000374184,-7.104952752127704
1069,-13.392179526486634,0.43587066138573327,4.421485425434771,-5.766142943705996
1070,-8.954491199174916,-0.7759360803004142,2.302162039334584,-4.148831770778558
1071,-4.746519167700461,-1.736109034748997,0.1103695999163179,-2.5440088107063885
1072,-0.8723715012426361,-2.4432509160312676,-1.9959499761627832,-1.0594631394379757
1073,2.824056093308891,-2.9286834567496673,-3.833214758934747,0.6017686922023762
1074,5.93973919548722,-3.2668905279049616,-5.194672452163629,2.520091576176849
1075,8.100684825991477,-3.5659916710624717,-5.992216088264638,4.352835531051709
1076,9.194734232624505,-3.923833745157923,-6.292066080225065,5.706027801412914
1077,9.41921010548657,-4.378783237302804,-6.283478151543609,6.4067964845125625
1078,9.26049987636023,-4.899843778641317,-6.220673684460098,6.542491715491301
1079,9.217450161827536,-5.423177407498747,-6.2182294574207075,6.448700475884267
1080,9.28095779900988,-5.890110829490117,-6.213576507981238,6.4437906958553945
1081,8.94376070108377,-6.3343009648597075,-6.163663721141176,6.481891871194812
1082,7.9767864816844085,-6.7261920704579214,-6.083950559518436,6.072569815850972
1083,6.607138033825475,-7.020876212107037,-5.900057490175529,5.336147637985423
1084,5.32910623110352,-7.1875215756948485,-5.649882331420677,4.543037854864485
1085,4.573527109401811,-7.22842450351208,-5.412550959964345,3.993133982054227
1086,4.37713904859417,-7.199616778655421,-5.23736801807578,3.8435709007000614
1087,4.532940547593622,-7.2096763401878015,-5.183931448683472,3.975762841122624
1088,4.500315398289166,-7.234268574573536,-5.213514147857692,3.9675111971038928
1089,4.295174168700126,-7.125369088258828,-5.201604672520345,3.8566135065785803
1090,4.53258959880724,-6.8187619245662585,-5.1646750858627435,3.9837331366525355
1091,5.580711084168005,-6.296971161033965,-5.269849746871609,4.501454555065214
1092,7.582326336564351,-5.609478381426294,-5.718372095372097,5.472107521108734
1093,10.314279463077776,-4.844273383285184,-6.480312740803008,6.787264429186015
1094,13.285840261866888,-4.062210248660904,-7.296663887762898,8.195382295837463
1095,16.046597544239642,-3.235597186630861,-7.8773784828008235,9.441953767399879
1096,18.753262451489462,-2.414654727395603,-8.099409361207076,10.539877417836383
1097,20.999846956981003,-1.7298008048115576,-8.06569025323011,11.391964550378486
1098,22.503149092973054,-1.2816485657151855,-8.032010106692992,11.99914613561878
1099,23.20773344288937,-1.0841820402990303,-8.075737591661344,12.393738498466327
1100,23.27565647257945,-1.0812686940043366,-8.01799364057459,12.741195218643881
1101,23.21655130424912,-1.095497652294405,-7.760168633764932,13.077684530781335
1102,23.234011568761787,-1.0743640273088721,-7.261309459450018,13.367663100423693
1103,23.165810562174922,-1.1114968153783629,-6.522363904254028,13.56030681311004
1104,22.61328507109216,-1.318225906664354,-5.593859287968708,13.586440505622493
1105,21.480845660232912,-1.749910433233676,-4.534801956705053,13.630348072214966
1106,19.756062132059828,-2.372960966088202,-3.2925397010827258,13.715987688045606
1107,17.51972861108624,-2.987581388329091,-1.8056091815490842,13.62636412845548
1108,14.84907246008707,-3.402066956406161,-0.34132510048405235,12.964897643227195
1109,11.65891041076897,-3.607102361367249,0.7878196171515277,11.553453371135326
1110,8.19216294149506,-3.6046233560387813,1.4097539541523347,9.448852897490534
1111,4.794580016357682,-3.612204375760153,1.5452449957331709,6.970540162363414
1112,1.816800187525002,-3.6501439128833697,1.4460955129460247,4.536499904120245
1113,-0.6049114989171205,-3.5626431985611595,1.3893885152126555,2.2736183435514774
1114,-2.336831981602566,-3.204428482942534,1.4671591715792376,0.3083139585327482
1115,-3.3530866387452973,-2.5839755921870124,1.5004500141540045,-1.318227360864573
1116,-3.8281675061871434,-1.8151145997862796,1.5476120783791414,-2.6544246389566064
1117,-3.980140140442439,-1.085271413908301,1.4925200204168847,-3.7853489123854835
1118,-3.9673983294056776,-0.5479964031981721,1.4345539191757186,-4.659346783979358
1119,-3.971175589703274,-0.14482700553498398,1.553486479498607,-5.217144951114583
1120,-4.115033898067521,0.0995655448287287,1.907364238607785,-5.459645387710012
1121,-4.3952161932490394,0.22713518175147251,2.442771425191777,-5.501003053966167
1122,-4.947614443968776,0.3037773887446322,3.013279418587942,-5.442914319993925
1123,-5.858390652819582,0.38839861166880674,3.484313574169026,-5.442690702432242
1124,-7.0791189620381205,0.5125101165969601,3.8457363743827204,-5.52557697101287
1125,-8.556718717579226,0.6850392477643028,4.289160449175194,-5.623915150680417
1126,-10.242649925151706,0.9136587478159821,4.896160342117675,-5.689536604216686
1127,-12.079333482608517,1.2166047020425945,5.5426510855191715,-5.68472375463723
1128,-13.878837110068263,1.6128034298402205,6.054826148750989,-5.7007965953872715
1129,-15.333334459097573,2.097826300813271,6.335706825721216,-5.865704823003386
1130,-16.249607158101824,2.6620824331221864,6.380258619456445,-6.324784815818729
1131,-16.62554456173372,3.2439856385817003,6.371219873913297,-7.026160350551018
1132,-16.61909866789043,3.7272829274476456,6.404413424985665,-8.092173637950031
1133,-16.54847901109894,4.032974012923918,6.36081900423075,-9.253702181022922
1134,-16.572713232780508,4.157262885583638,5.994761671848666,-10.219643592550858
1135,-16.56496224909431,4.147129699989421,5.276617833107968,-10.80681170020562
1136,-16.35598661662721,4.142265391077769,4.295405121421552,-10.952181018021763
1137,-15.832213135071145,4.167153005036051,3.232249545111934,-10.891076047552898
1138,-14.896750822224796,4.130840287731044,2.252925739501857,-10.916833194464154
1139,-13.533328372211361,3.9406008702922293,1.343571646316907,-10.924504529583688
1140,-11.773867406820758,3.5876441405435493,0.4753446958079227,-10.437647840237782
1141,-9.596096899821696,3.0342204459594293,-0.23181092917816273,-9.353758666239635
1142,-7.155842026260391,2.432623221302647,-0.6925248806874791,-7.778466216002904
1143,-4.242242652034632,1.994272699695689,-0.9043685813843644,-5.8999232591846855
1144,-1.3540229702751054,1.7502967973164067,-0.9251031961395259,-3.8905204242820677
1145,0.8879761798396915,1.6430273988679345,-0.9144837781457307,-2.072543747043249
1146,2.1335059955749562,1.5846217334926398,-0.9468262297132789,-0.699380199204768
1147,2.4588012922355666,1.4638734682784929,-0.8734745553467373,0.019524696195926006
1148,2.2791179337804737,1.2650753330624052,-0.627994133330292,0.1579222737044837
1149,2.1018050083933035,1.1284197095422797,-0.3126862685986842,0.020863863446282674
1150,2.1962186173832485,1.0688439977178077,-0.050170686325317,-0.04763402879598892
1151,2.1962186173832485,1.0479017386756713,0.06408320500921613,0.0
1152,-0.0002509903620624421,-0.09744501384353293,-0.1529437918184326,-0.10020337082926606
1153,-0.12376861228629843,-0.42186837421727175,-0.5603745916711683,-0.3737086931280985
1154,-0.5260439056725013,-1.11954022353747,-1.3402680711270247,-0.9094700558484636
1155,-1.3735246772743492,-2.2582530992345022,-2.4865631548982368,-1.7425726893444176
1156,-2.686692830158167,-3.743247784378063,-3.8621395019764444,-2.8169096899459154
1157,-4.686491978903621,-5.679140508856379,-5.499518518846696,-4.198335945449194
1158,-6.90261175355136,-7.658561948948294,-7.221745990520284,-5.601302463292895
1159,-8.727039760403432,-9.214088204857593,-8.68884560782579,-6.69418276716273
1160,-9.782005148528604,-10.08568280890169,-9.643280310037138,-7.292586176038758
1161,-9.981185148430267,-10.256527216639839,-10.032326172060527,-7.421467029440195
1162,-9.993903137658005,-10.219604361699245,-9.950227119405818,-7.33277741383127
1163,-10.020028264472064,-10.239125033753574,-9.957635105430878,-7.338183161188089
1164,-9.791136369947786,-10.142655450360916,-10.1152619694884,-7.376333897881171
1165,-8.59217059391483,-9.316867522867378,-9.92640651093092,-7.055989280607507
1166,-6.464360590715102,-7.68045986433494,-8.961177220818133,-6.299779792041502
1167,-3.791924980883571,-5.387924312809253,-7.0212645535454605,-5.144087943583333
1168,-1.1859603133157277,-2.8205192849186673,-4.191557438712826,-3.7408512426461513
1169,0.9278761521238946,-0.3380635864033359,-0.8337341190932175,-2.252236064605402
1170,2.860586280013341,2.1335014999933604,2.600208233074655,-0.6869191106422443
1171,4.849350239991189,4.547856181325979,6.2255058831524055,1.0380708307114919
1172,6.925099210675866,6.791209282650729,9.610797229019905,2.7953491387570604
1173,8.754090827175002,8.899578933951622,12.219088722323413,4.721127702800836
1174,9.995510973973946,10.644154628962948,13.755293810270025,6.561543248917192
1175,10.534554148251015,11.826331175026096,14.305569949067625,7.989970813689916
1176,10.495727689976716,12.411514985506647,14.21704592979054,8.812765273344041
1177,10.453773047165601,12.526213616986535,14.145271340981434,9.056990143335216
1178,10.55111185383423,12.44248626331521,14.243531758927766,8.902926200500952
1179,10.39413975263532,12.415020466917623,14.118861042678596,8.89589614077216
1180,9.68023404184775,12.442068474219301,13.514160361319322,9.049545489387611
1181,8.392709826286977,12.248326370913196,12.372568897363148,8.838657951780892
1182,6.731772618631296,11.823249674352978,10.766831663184092,8.112942983644395
1183,5.071778249274845,11.187690235547445,8.916145483450554,6.905618409757129
1184,3.5062149440177803,10.411407300032865,7.080294798707291,5.482245590989388
1185,2.0451050711737975,9.554044077820512,5.267166480207579,4.203865055341234
1186,0.9544694920035561,8.57670332624989,3.6116562153968523,3.2770301264793966
1187,0.34804204380438075,7.4285274323332855,2.3036065630980778,2.3837390574695765
1188,0.18791436071961745,6.151387153919656,1.4734630111417704,1.565635162338344
1189,0.26371174850124873,4.7914298569641955,1.0615579562443798,0.9050072501193311
1190,0.3521002417553059,3.4007690422197547,0.948641503135723,0.47774719362502316
1191,0.3267907451179415,2.0560486011374906,0.9130316167930065,0.27244532805215754
1192,0.3616304864162788,0.8617774884968059,0.8245471304585192,0.21931637112505756
1193,0.39647022771461615,-0.08268819409285044,0.6844747640587366,0.19208846723626014
1194,0.38800019915500966,-0.7308588661938707,0.5821579678577032,0.1585142988629158
1195,0.3631751179573765,-1.114682864913561,0.47281006245464496,0.11174382507814465
1196,0.5489161859678431,-1.3188672001704371,0.33103761191043435,-0.07286570482463611
1197,0.6154539020868897,-1.429007960341938,0.19634713542881915,-0.5395626333516372
1198,-0.022618169157515133,-1.5106686996736807,0.08960359989595386,-1.3769488085180046
1199,-1.8089412731401973,-1.6250462288510215,0.05433329505241352,-2.59528099455149
1200,-4.8402298494273905,-1.8393640288572954,0.04601858797966265,-4.20726592099522
1201,-8.791482648934792,-2.2093303350353697,0.023347348545751753,-6.255427217875452
1202,-13.08462275523295,-2.7543643176985793,-0.0034919908686035965,-8.862125045938964
1203,-17.24444112018459,-3.4491487822342464,0.008208993705006024,-12.039073307711178
1204,-21.74435213225609,-4.234344768809632,-0.042089346187403065,-15.594109129896196
1205,-25.907771512718845,-5.034621547053801,-0.08569662705172473,-19.860461518526943
1206,-29.022768340367776,-5.883871349900264,0.012487455167664252,-24.102497422926874
1207,-30.727358238999408,-6.819732469824893,0.36520429791203984,-27.421635633461758
1208,-31.05021667055449,-7.698075163176293,0.9265499459638961,-29.302330123880008
1209,-30.967298461284955,-8.349051541054983,1.6562583965203412,-29.683647310068093
1210,-31.03899845399487,-8.681619756492982,2.3324580221308246,-29.598953461103573
1211,-30.889765758020197,-8.700754182535457,2.7661194683805594,-29.658043509636723
1212,-29.18030396726009,-8.687862811441196,3.015503551573952,-29.49252512556028
1213,-25.55044030597229,-8.722132306525557,3.0831653120496427,-27.645212462024787
1214,-20.11122218904473,-8.645870161817001,2.9780130641451277,-23.686954775242306
1215,-13.494311804880054,-8.235140028246809,3.0961697314372354,-17.644370041654277
1216,-6.377785114516679,-7.37471297315868,3.2806224952523277,-10.140676457889064
1217,1.402032680148578,-6.0023624504610185,2.9310492097141707,-1.984947016781628
1218,9.851972918018635,-4.176038989333391,1.6166119045156018,6.758778052217676
1219,18.82388474900347,-2.0412155976242436,-0.7425512218808845,15.74772136965379
1220,28.00364265613538,0.34548016330368214,-3.7614090395293664,24.626459960630445
1221,36.927338144325084,2.6905507226496326,-6.7793730705815936,33.13272019001011
1222,45.15370048155922,4.978090008121017,-9.34225108208016,41.06852607852889
1223,52.297739994836654,6.926718413390199,-11.737783147389456,48.174572496019174
1224,58.77690783600079,8.286342836944014,-14.254146140268693,55.01448389891426
1225,64.157907983618,8.981626715511133,-17.048956074152148,60.98181882154912
1226,67.91912669343586,9.125351599924736,-19.66084949366736,65.30793300402678
1227,69.87613505631899,9.015315398305837,-21.542738405252237,67.63668721358492
1228,70.24117229186557,9.008834156192753,-22.4427586087993,68.20084159378436
1229,70.0581049453179,9.077239546499754,-22.45064589913273,67.7509515838989
1230,70.14232349877554,8.781138151318336,-22.438194536531608,67.782556296709
1231,70.11835718079347,7.969888128692283,-22.58308411755945,68.19967857368009
1232,68.47341693818308,6.589320233592376,-22.311998901159157,67.24957992735851
1233,64.71973884075123,4.822250739312094,-20.968291512633254,64.1598093929602
1234,58.82305051440991,2.948210635667535,-18.443227128376222,58.5494287657665
1235,51.356768968789304,1.355741940687852,-14.995419557416374,50.79341207788185
1236,43.12168891892362,0.22367311323505376,-11.201191961808455,41.80542033363823
1237,34.271629927338786,-0.3346601486038541,-7.593302075217038,32.29630409564326
1238,24.928119557399338,-0.4724414793379886,-4.039791089347604,22.085844669694502
1239,15.430277378414326,-0.4663299017759068,-0.8211307489917705,11.670094362461825
1240,6.01526729240692,-0.5056130723402256,1.8638979798815185,1.458600826411876
1241,-3.1228947125719575,-0.6497159056251278,3.9447302022125923,-8.169691067773222
1242,-11.788440488837235,-0.7080485827799989,5.499704988768049,-16.94846790241607
1243,-19.781895988352595,-0.7120996093690068,6.964658953653794,-24.759335648842764
1244,-26.954329452715175,-0.75112894122725,8.427033408262396,-31.57891431081722
1245,-33.25952267787049,-0.9849505713118032,9.695100848843682,-37.37520426573683
1246,-38.74472149408075,-1.503956359894798,10.522883780356535,-42.066196819272825
1247,-43.49012931596694,-2.3147710933978445,10.826344866613958,-45.58735434542191
1248,-47.5541854928959,-3.3419055630011996,10.739995803343284,-47.97604124250018
1249,-50.92873406548102,-4.4089441152148785,10.686258450198222,-49.38363526878536
1250,-53.77842197800842,-5.399592196954193,10.757301604079359,-50.084089459667794
1251,-56.01100714581143,-6.172760928226521,10.66051995578388,-50.36050288901905
1252,-57.5054092156797,-6.67172112724021,10.323142397588331,-50.435912104875506
1253,-58.26709820032497,-6.947886459206387,9.725023508264751,-50.44692936918269
1254,-58.466312115645714,-7.098596129175462,9.055217538437592,-50.44581778941578
1255,-58.31836562965017,-7.201882986890384,8.554737829703258,-50.44037767028629
1256,-58.333368813026254,-7.281448776114033,8.351547374077537,-50.47658688257805
1257,-58.50856058949845,-7.337817936876366,8.34233947683865,-50.49647496893644
1258,-58.33983795804106,-7.367141054404609,8.293787122534932,-50.37499966329469
1259,-57.487744392793616,-7.365145725069203,8.21137345361492,-49.99854765629222
1260,-55.71903236969811,-7.357771657528265,8.40917558743708,-49.26360749472162
1261,-53.04029355602539,-7.3994606571400645,9.091677753406204,-48.08716978697515
1262,-49.696088729956244,-7.413168318028314,10.039909392789255,-46.42076604723733
1263,-45.99457860001603,-7.254785866680956,10.894675300786512,-44.2241574822982
1264,-41.91398313951675,-6.825648246807944,11.344342163227106,-41.4390737362815
1265,-37.6726570252987,-6.126314362400936,11.328380764314533,-38.11821860197131
1266,-33.39936944373989,-5.256844477122658,11.239186084149747,-34.31814577790536
1267,-29.14520764540123,-4.349039144202841,11.223120951219121,-30.109205657244086
1268,-24.892432742037634,-3.455689572230209,11.259167479591671,-25.580746634326594
1269,-20.599242459670997,-2.5392536837696067,11.282721021918988,-20.83268635088799
1270,-16.332235309919643,-1.660951021706591,11.206303160757686,-16.10410195891709
1271,-11.899215608643049,-0.6310350425739394,10.835401093852985,-10.87803697531909
1272,-7.411255697570853,0.4276929972932506,9.94593466901525,-5.8466176128529055
1273,-3.570319536187159,1.3055755420499031,8.457741386825084,-1.9498709122036013
1274,-0.9908759655554781,1.8474005976627736,6.311677481240264,0.2503605407626453
1275,0.1643743830624005,2.0244686986234712,3.868480806410815,0.8513941211111843
1276,0.2567796579960633,1.9574224361004247,1.7471708336122693,0.5410948501127034
1277,-0.02005030950770298,1.8662034966173724,0.39265676713515674,0.2192920454960165
1278,-0.0665191586629102,1.9095715105456252,-0.13572803156651914,0.3878485696195992
1279,0.0,1.9095715105456252,-0.11886257672513027,0.3878485696195992
1280,-0.024613865856027595,-0.13823208982773677,-0.13415179079573852,0.027883463572662623
1281,-0.09874971626661247,-0.5866706551706492,-0.4487303241630236,0.04261026043610519
1282,-0.2169791680093899,-1.4809649393613749,-1.0457827449477635,0.025520765925097343
1283,-0.33066517711507964,-2.8373253386556563,-1.955276215444303,0.058531586712470676
1284,-0.3861878564489277,-4.623610817676467,-3.5878948743991526,0.12408745193048303
1285,-0.4025015922009179,-6.404594799426309,-5.624049196301545,0.08063357624770262
1286,-0.4808764799502816,-7.740760392732406,-7.472546619704492,-0.2844496770246202
1287,-0.7292899135279026,-8.433147092267742,-8.645189887323292,-1.109118017144216
1288,-1.1639852626531355,-8.50686707776184,-8.992742339723375,-2.5674663497007906
1289,-1.6735969769213606,-8.508233412183952,-8.7914832141215,-4.243482016615507
1290,-2.1478856570322455,-8.563222496708361,-8.765225709942607,-5.582286869423673
1291,-2.4906751887324603,-8.387589672119915,-8.93231571909602,-6.341379342557436
1292,-2.6870735152162166,-7.4983058224131565,-8.506891068356573,-6.469781073728318
1293,-2.7746708667677455,-5.885759793534934,-7.277802911228276,-6.465062316587625
1294,-2.7859218827082075,-3.795023552305839,-5.252626708431258,-6.491059303535465
1295,-2.7831468517336333,-1.6400280143778985,-2.786501757299678,-6.342343417940121
1296,-2.8000247827552047,0.2764397282232226,-0.4223156194157088,-5.498147719482173
1297,-2.8002215251080695,2.1514693974047696,1.5139236763488255,-3.918659138387325
1298,-2.6563431715792793,3.9259593074975623,3.2253576176006797,-1.8530222830129268
1299,-2.3072436289513103,5.55644433219266,4.722316158843778,0.43633813212607897
1300,-1.4968743323579494,7.088078283593319,6.055815264264529,2.4149368502810864
1301,-0.42149713123292865,8.442598804460323,7.128495780223071,3.931922568762561
1302,0.5522400497706078,9.474026257433598,7.822743853675265,4.776601477166254
1303,1.1692275498606395,10.094072010579657,8.13815767654541,5.031815239042272
1304,1.344699133009517,10.323784054007543,8.184887385614706,4.901423925485876
1305,1.3221366551269704,10.27328863201767,8.161140360159552,4.905888165055963
1306,1.21774291776386,10.264304738143515,8.17871335636117,5.060980479419819
1307,1.1548210903699427,10.329076775373313,8.231708111300211,4.812833133387749
1308,0.9745444833207865,10.224673713012868,8.260801934638947,4.048520646752348
1309,0.7942678762716302,9.81779850073447,8.255818681572118,3.013333718255176
1310,0.7351690136781686,9.107659396486142,8.289435992839838,2.101816224919914
1311,0.6398884262479657,8.18326318234749,8.322180266227976,1.6449106199726873
1312,0.5915259233959544,7.165502643560886,8.267713340240856,1.730784280480063
1313,0.7334257780340874,6.106529737207672,8.003634624940576,1.7466872874725503
1314,1.3671711560431654,4.859465358156715,7.5118315151489305,1.6713347721358303
1315,2.7962809998011786,3.4902536121062555,6.870768302359814,1.7498328647539996
1316,4.62792897768901,2.114166826774864,6.181016340830356,2.385053198587165
1317,6.201183086978146,0.873641965836948,5.469768160872024,3.4266818335309903
1318,7.035275990834984,-0.12193136336770136,4.642287886056883,4.490240132496775
1319,7.266599231562738,-0.9054159772838835,3.616338832574444,5.179971345470241
1320,7.09757463699404,-1.476773180996267,2.58512463490079,5.299463341676827
1321,7.126367138058432,-1.8417266273822182,1.8020231227619323,5.253380460117479
1322,7.281324466229423,-2.024389055990991,1.395694350285313,5.257691805603564
1323,6.8713095656448635,-2.0604300036299925,1.322659118109593,5.234284181313054
1324,5.686877205215222,-2.048751294555058,1.3636260181147735,4.750257270176993
1325,3.7870216090933777,-2.044621156704401,1.3626760186455587,3.764824158075259
1326,1.5529859854889074,-2.0328887289405033,1.4147184349612894,2.4413332925110973
1327,-0.5826654945151809,-1.9072987212825976,1.641243948526474,1.145991540973919
1328,-2.1634595552103186,-1.6671677735709698,1.9327927024748197,0.21783927964241778
1329,-3.252163174600988,-1.2765942147248335,2.175984625826414,-0.331479418994854
1330,-3.771837419580408,-0.8465745623163458,2.278613270205403,-0.6060275430817254
1331,-3.8559094775627796,-0.5135487691990838,2.2289342614127863,-0.7093264700797296
1332,-3.799126065483212,-0.31794547013652025,2.2339041992572874,-0.7481298014236095
1333,-3.7397576475297534,-0.27631167151902636,2.2780789991503854,-0.746125061425472
1334,-3.716019609935552,-0.2911304777126503,2.1498920534255266,-0.7372694055821035
1335,-3.6154450381975964,-0.2708990365785534,1.7889159082037782,-0.7949102262858299
1336,-3.5148704664596386,-0.28157705861207627,1.2148835172211072,-0.9781100268195082
1337,-3.46075772697928,-0.5030777067153152,0.5118862538896014,-1.298205964376689
1338,-3.445088893739187,-0.9668655546354984,-0.2507997624381588,-1.7049371402428743
1339,-3.451622153937308,-1.6049831309684344,-1.102902314122866,-2.125699552906384
1340,-3.4837890896125994,-2.258512094556323,-2.242672967392445,-2.5284301738169894
1341,-3.6034613977780547,-2.7724834456865373,-3.7735707391897146,-2.9560450512278997
1342,-3.757196227080733,-3.1378176934000286,-5.360428427273035,-3.4253179298379846
1343,-3.8852078105695917,-3.4532115491120763,-6.593499526291989,-3.8880599901919126
1344,-3.93241045764575,-3.723025379184204,-7.248253287721308,-4.319320465217345
1345,-3.9337257633909783,-3.9299987812114416,-7.359232944003132,-4.663174473143274
1346,-3.9151246186421007,-4.052843769399133,-7.293219797845663,-4.890687089803721
1347,-3.8852386347437013,-4.090642841422606,-7.249141495304529,-5.005104967068435
1348,-3.8074648504327677,-4.068274454615197,-7.190685894562515,-5.020468770413387
1349,-3.6802593157622607,-4.065675183152313,-6.934030875052671,-5.023484959561769
1350,-3.450460528249129,-4.085169719414495,-6.573254394015902,-5.041825125455138
1351,-3.0492998080893607,-4.056613250260514,-6.1930325129893005,-5.0229579247156435
1352,-2.4374379214344573,-3.9636782432849516,-5.860509450618927,-4.827298760545184
1353,-1.6113793165883932,-3.8000301274423753,-5.564332003536112,-4.393997272309495
1354,-0.7179274463730609,-3.562661584627722,-5.145561134224838,-3.725131162141798
1355,0.26303320251237833,-3.2279207150224427,-4.621318125455101,-2.884307461151288
1356,1.2837393941800093,-2.7437793932927703,-4.001854498634197,-1.9706884919225687
1357,2.1778914854712013,-2.0627339044453827,-3.055330089767406,-0.881450697207131
1358,2.7889895015631394,-1.1467221165388721,-1.909371363622868,0.20097007786342705
1359,3.0579189086508993,-0.20460853103190083,-0.8620372122342316,1.045843075826005
1360,3.0215210484199533,0.5231007462499746,-0.17409532835351504,1.516021254527441
1361,3.0305970667311133,0.9130201241031028,0.0691002030493903,1.633286522355472
1362,3.107452124791372,0.9994911422530581,-0.03267647665435148,1.5596272254781602
1363,2.962175773700098,0.9362253595798478,-0.05844793810614517,1.5089220423372514
1364,2.424314220439314,0.9280737070566801,0.042458359805138596,1.5406926838875639
1365,1.435502999731508,0.9460158802409616,-0.10881196949269167,1.5084211074686245
1366,0.2954573672850433,0.8106762415758956,-0.5897277395796325,1.4663283470246564
1367,-0.5864149966711232,0.5831985125109057,-1.3314978352860518,1.3665218330432085
1368,-0.9716962616684423,0.34926741896990865,-2.138439242521606,1.2330277679755892
1369,-1.0736407212797698,0.1978865600359102,-2.7765414835754143,1.1322958886540238
1370,-0.9866263708125652,0.17696917338737864,-3.3528689687024076,1.0150761340858567
1371,-0.9862082750518679,0.20950221229426003,-4.025848458525145,0.8923822707494263
1372,-1.0612863530007584,0.20529599223844225,-4.643499395793842,0.8534267814013439
1373,-0.9620823891035926,0.22451456852866436,-5.059324321367997,0.7805067769679707
1374,-0.6196185104614074,0.28571764223751983,-5.161547997895724,0.49366596897961124
1375,-0.0192816980359099,0.37936799390244424,-5.177969186567804,-0.1637532181396394
1376,0.7987812465722193,0.5292097900538115,-5.212355156097606,-1.063489783613928
1377,1.738095830296381,0.7911098235223167,-5.1388496095201175,-1.917131173107813
1378,2.8698185603627246,1.2181570785659488,-4.524999070008057,-2.3974303689481715
1379,4.170882351071503,1.8167692799517616,-3.209126501861713,-2.4591500018659858
1380,5.311683738997678,2.515303919310629,-1.205988422043602,-2.4391401275534843
1381,6.038399507012471,3.157271466497513,1.1861383091354079,-2.4567965274328643
1382,6.304460461803481,3.6123156622050407,3.8021620904496736,-2.399619729776436
1383,6.204246880881303,3.848219477310617,6.253645635122995,-1.947473806402858
1384,6.224964662783334,3.915218252428991,8.047741513743265,-1.0718279807174225
1385,6.381725757776481,3.8820359243287985,8.978898138681338,0.061845312950211395
1386,6.199548487338775,3.885241859232512,9.151613275501846,1.115650768369588
1387,5.353158839292647,3.922502885773752,9.06311178975216,1.787396876813724
1388,3.606755557296867,3.870498749716468,9.038539099906789,2.1215165847238255
1389,1.1932938211272623,3.6656320064985377,9.006084307271095,2.2266381103820274
1390,-1.0912180296126472,3.3070309889179637,8.4872873423527,2.2919919669644595
1391,-2.541868718296036,2.8471073663701354,7.411330620478816,2.4648138699492566
1392,-3.198994254077153,2.3545648285827427,5.902547346307874,2.816939175085703
1393,-3.177507763480711,1.8582929833622965,4.474031723040386,3.3475333171144053
1394,-3.145824630575654,1.2655628753384165,3.514940867583978,4.101752442404144
1395,-3.2388311699988135,0.5499422646595795,3.00762553983743,4.971116501640703
1396,-3.0437058064705607,-0.2954490261148744,2.878854001621587,5.740277502741424
1397,-2.197084880316619,-1.2334037370915008,2.822935473676609,6.240707481403027
1398,-0.7570098159967882,-2.177594449995431,2.6719216217047386,6.434967979546043
1399,1.1742668104879885,-3.060127494554734,2.550411481042736,6.393262652125565
1400,3.0010949796056976,-3.751743922759905,2.4732707052605827,6.387030303779173
1401,4.1949552224582005,-4.181119845287585,2.1112036912011543,6.445348592975414
1402,4.854986614946186,-4.368596024614272,1.486017756949175,6.354094646367036
1403,5.014104926226705,-4.397220483472143,0.7618949680711666,6.021580273830811
1404,4.914235232722667,-4.3650819642895815,0.14558067453014042,5.314815824982438
1405,4.825470116841186,-4.345136833484235,-0.10320248234634374,4.431025383246281
1406,4.875308177507757,-4.359232412364649,-0.05232336360423939,3.6878109670752983
1407,4.875308177507757,-4.359232412364649,0.026286152678251108,3.3047757413506638
1408,0.0,-0.052102133656759836,-0.07249725282182964,-0.10830189207643848
1409,0.0,-0.21383998215164043,-0.2660617251981556,-0.46075151240600254
1410,0.0,-0.5370527955496107,-0.6516533785333525,-1.1712713515383726
1411,-0.001167514773506367,-1.0255979580621162,-1.248765660479348,-2.2330091690500296
1412,-0.00391796735370614,-1.6374620717730992,-2.029629066234368,-3.50547967618275
1413,-0.0015000371063712443,-2.327084403167114,-2.9580693290695166,-4.782872303585485
1414,0.009341661615014957,-3.076532360654868,-4.036648231261375,-5.959646001205948
1415,0.0024630767765600192,-3.88296927854839,-5.269829414719762,-6.909033299840385
1416,-0.08601601049735602,-4.892661406664752,-6.429559882537235,-7.550151167370152
1417,-0.3552720761094609,-5.948212905289665,-7.277247643683104,-7.883991337319487
1418,-0.885182431779557,-6.807522690410588,-7.701638458762302,-7.982008212297425
1419,-1.9123685224338944,-7.3045030550307555,-7.747222232489838,-7.911400034228692
1420,-3.2870230513378216,-7.433014738689012,-7.71520300029516,-7.938793173712087
1421,-4.604292971833239,-7.335651930623633,-7.717536032315413,-8.045145746681394
1422,-5.505252598500711,-7.329325136166887,-7.642027824814975,-7.943559512124329
1423,-5.861625765533743,-7.420277821731733,-7.330833790795941,-7.371449511132488
1424,-5.757100043460465,-7.263155990255886,-6.847817396661702,-6.133010418837695
1425,-5.767792225490728,-6.700117289152595,-6.274324958836757,-4.219310578573858
1426,-5.922847428662101,-5.623870191505118,-5.651966621543718,-1.8285913526467232
1427,-5.692474490072306,-4.0470042836649,-4.900784147677283,0.7795920824121405
1428,-4.7785738092242624,-2.0966642649267517,-3.7410006498398074,3.532848940284036
1429,-3.2198967642766103,0.07099563199737491,-2.086050404275196,6.420466118380064
1430,-1.1976798432453573,2.369776274263933,0.028828043189703112,9.038129180745145
1431,0.6478108259425369,4.816344900581155,2.439089047418501,10.949591719012622
1432,1.7885709917065822,7.034591060819046,4.9171148603468495,11.95714951889031
1433,2.380149795070191,8.650488361671178,7.214626788164112,12.201240558185992
1434,2.5069443018695665,9.512185907594779,9.310892727826584,12.020292898373862
1435,2.411388069631075,9.729551329490382,11.005865951002479,11.985905929313061
1436,2.3512439013865283,9.566807751741473,12.145259484914677,12.134054961624111
1437,2.39060522909116,9.532522870928588,12.710423151510666,11.97410686189066
1438,2.35512931968701,9.664773253095785,12.814641795565937,11.372368367124626
1439,2.301168312281,9.523737687302031,12.748347126735085,10.324591889709286
1440,2.2497070430865804,8.956077076009421,12.741043464983376,9.001910175477693
1441,2.2489729451586564,8.10890100932717,12.744866190396854,7.649427776051648
1442,2.203813304392958,7.293903202968085,12.442026703521911,6.414313777581944
1443,2.1556146840151076,6.830043107197784,11.817522075307048,5.139958253659042
1444,2.227855048251784,6.779823834581755,10.982976622290096,3.7726222537530205
1445,2.6143304541242287,6.840207319472034,10.193457265482701,2.5141107509719176
1446,3.3995759736124187,6.8222234949986165,9.695767804846202,1.59762035338408
1447,4.506086631809085,6.660093210596174,9.472350921677226,1.1078192056011864
1448,5.926780396754456,6.4999502936370455,9.33423330463817,1.0339105925280654
1449,7.300209424908083,6.37375976916811,9.069039863791383,1.129435965080695
1450,8.388900552964751,6.380670511318535,8.501044751534083,1.1095887391251884
1451,9.00139634805432,6.407308399426983,7.570357726119965,0.8967393027041627
1452,9.130626478172653,6.272916992178917,6.320603410059316,0.6883301270157922
1453,9.059472925060815,5.765538579214891,4.853007154269817,0.46593752551349243
1454,9.111085176260088,4.826713900344015,3.293250850963861,0.5335854501385351
1455,9.1386555724427,3.4684584281219606,1.7459437445604196,0.7021669096746046
1456,8.565212944990636,1.8355546593977412,0.219112520171086,0.4860381748042672
1457,7.169707626314154,0.11909128884021691,-1.3397147881362736,-0.38933226042963087
1458,4.978311792882843,-1.5505128860672035,-3.214678784345111,-1.891314731294477
1459,2.348169401295629,-2.987076506391768,-5.144225434088962,-3.723172513794079
1460,-0.4060510943149176,-4.199513115118156,-6.694414117157652,-5.476015571407361
1461,-3.076254267669559,-5.132259197371948,-7.566632085370376,-6.701685200459114
1462,-5.330110329950289,-5.749982693489292,-7.753183881591358,-7.501475490816779
1463,-6.811802760593729,-6.061203953081394,-7.654452201108106,-7.866219000958519
1464,-7.45893804030441,-6.121035917240176,-7.643242254365775,-7.8754631998199995
1465,-7.404094955764339,-6.092505887042693,-7.641178516096666,-7.897851084769606
1466,-7.429992446135611,-6.080403107511381,-7.180060933247729,-7.969641226584879
1467,-7.607302952539422,-6.071658702411053,-6.127276305488497,-7.851413211941035
1468,-7.31460000049975,-5.903652591795629,-4.788203619829208,-7.154574713580857
1469,-6.045595801493393,-5.57915997953899,-3.6528904050393587,-5.7262900817407925
1470,-3.458412314441181,-5.20427179936963,-3.078610219025432,-3.6191210646251655
1471,-0.2599326930185674,-4.9033694483498405,-2.973668255715446,-1.1409074976039997
1472,2.4083140712255235,-4.772413381899806,-3.0723030865079584,1.2912261121254116
1473,3.7624134006848524,-4.735076487733661,-3.1389043204554574,3.5989129664172874
1474,4.168325383512023,-4.717212686086418,-3.0690485923674506,5.554330912741614
1475,3.9693398386173997,-4.696879357302229,-3.026471943108051,6.964126571388594
1476,3.870884663649305,-4.683208354885449,-2.9733904855693893,7.779920909692658
1477,3.990914253479404,-4.653665377725422,-2.9702252117892476,8.101413177474738
1478,3.8182619274859073,-4.495336251991177,-3.07549782870922,8.079796471261263
1479,3.3949801968280875,-4.0944451681773915,-3.1808271706806095,8.073114260623402
1480,2.8568636571864747,-3.368642787637777,-3.196518662626298,8.145355825564016
1481,2.381850808416396,-2.388337901805353,-3.1641166609393534,8.06111244190644
1482,2.0799852085451733,-1.3305034409583791,-3.043178277729052,7.51203761933221
1483,1.897356094355429,-0.28682999032838646,-2.930016616809044,6.365064800251195
1484,1.5091141246248654,0.5660336230510165,-2.914308115558259,4.653711171736829
1485,0.8918842815576765,1.1218642344611764,-2.858690650065377,2.589719588579515
1486,0.024895480464043107,1.386359079492388,-2.501268219542115,0.4189514094260601
1487,-1.0783056226377814,1.4416866203513687,-1.7972973101142091,-1.8600293550428724
1488,-2.3803178780855143,1.3884773453685668,-0.9340983656574493,-4.126500703372915
1489,-3.819925222553307,1.3804496640030932,-0.18476756934798752,-6.258048610481893
1490,-5.289312637831221,1.4239692044659764,0.17601370606611383,-8.227505449229135
1491,-6.840193913571754,1.3716448409315565,0.16574316045668777,-9.837758948389826
1492,-8.25444196793196,1.1940404252489587,0.17382583211812305,-10.922994340958565
1493,-9.290039301416636,0.8499747187930887,0.2379620943488365,-11.467833025649826
1494,-9.836199074262254,0.43308661392609016,0.11953559576452644,-11.604715541803367
