,TP9,AF7,AF8,TP10
0,-0.03748887272908798,-0.1000124409208128,-0.07373661345169483,0.0003434953200934619
1,-0.08336592190857953,-0.40826564094929724,-0.2985291543302284,-0.029683772147665332
2,-0.1560537534554072,-1.0302197657284347,-0.7645301977770705,0.013125747662765141
3,-0.29777538523843156,-1.985372378229716,-1.5125169116411814,0.09044577033446091
4,-0.6006752783833633,-3.1748554426449003,-2.482098984439521,0.011796221575490928
5,-1.1669859151985498,-4.590362428815091,-3.76939173352357,-0.4286936936536314
6,-1.9688865955401196,-6.044175414336318,-5.10957663986199,-1.298258697973351
7,-3.1399283088959944,-7.244840669222095,-6.179813839195318,-2.503991154775716
8,-4.417076329598045,-7.9965941275176835,-6.7882131618337445,-3.966119253562538
9,-5.46411728219015,-8.285895523193323,-6.946445331272503,-5.3007621084123455
10,-6.079070538905168,-8.218433052414667,-6.8263451103169945,-6.306503646527474
11,-6.240521458279218,-8.224134337183864,-6.827231700774062,-6.861752555041564
12,-6.162333190916566,-8.331144861483148,-6.938247937522343,-6.9638332045421505
13,-6.187183577281253,-8.17769465168381,-6.72420541801333,-6.938874205874192
14,-6.226895281882543,-7.504363263480802,-6.030299502585446,-6.945037845033391
15,-5.780321597486348,-6.241086164110311,-4.830188475797129,-6.882373012106083
16,-4.739170359909839,-4.501681181112363,-3.3042992138715186,-6.3762320402311445
17,-3.190208791362346,-2.5426813965312207,-1.7555042360586512,-5.3417645956007735
18,-1.4535703958537,-0.5961164977324864,-0.40060696833134024,-3.871376605581498
19,0.06304284906137081,1.4290086104991833,0.8528052630154477,-2.268927181366309
20,1.1796809864855111,3.3943123579746635,1.9780197720751453,-0.8445332768921627
21,1.9829557544062735,5.1914582813254215,3.0117951641747753,0.4331181922873832
22,2.487966543628385,6.722718825966583,3.9872341778649814,1.5834534128221878
23,2.8161382493473184,7.997981820845491,4.910933239286727,2.670418799274317
24,3.0625637269723467,8.97420022314637,5.7643530047834535,3.631578552267496
25,3.261841176257406,9.616247140122875,6.524572183093073,4.33173271094652
26,3.4378620273049356,9.944002070313653,7.176577476935712,4.7445420580429
27,3.6460633226336534,10.035260091129393,7.76198970183825,5.022201055344361
28,3.9543501560662984,9.991325271715851,8.27917997625101,5.360729022028243
29,4.395218885499688,9.985044261001855,8.678595919124826,5.821499434717316
30,4.962544475803764,10.02556292761388,8.921349089238637,6.319305373547184
31,5.677373428341271,9.970665429922196,9.013686811795628,6.782693952106742
32,6.6260201697738985,9.774536060001292,8.996598372784613,7.271466998166282
33,7.837834813626412,9.456558942084445,8.993300651574476,7.90047869328951
34,9.44834015158401,9.095822986393117,9.018283217304575,8.654756281448464
35,11.115580053113288,8.787624934262062,8.978375877630047,9.550634703649216
36,12.41996650621773,8.57121500818321,8.814264253610041,10.390782406978825
37,13.13425475258538,8.342285866662245,8.517188151666067,11.002190134789128
38,13.227179601564469,8.043950031485254,8.10304498234327,11.333156170900825
39,13.261735183446648,7.613660248414678,7.5886321963189625,11.382000025598053
40,13.352460035307919,7.01034636016037,6.964429421533902,11.416170117136112
41,13.14849109125347,6.224162832787325,6.16036807316919,11.463632999702106
42,11.993423367727893,5.280428958697562,5.218843479523202,11.360202800488352
43,9.783141176515045,4.227074105755193,4.218478498711257,10.735198970591604
44,6.729410610493051,3.109788299997405,3.2367711331950026,9.430429552641442
45,3.3316427516365383,1.9618222416880065,2.310116943952105,7.410224007174347
46,0.12303933760237595,0.8149855785980638,1.4334737367183819,4.851277504253554
47,-2.909889424161014,-0.29069703886526965,0.5808619854694822,2.0722303671591153
48,-5.543507455043551,-1.3137789196659206,-0.28138759664286594,-0.8011107621340923
49,-7.46932266936976,-2.2303386503946103,-1.1909355243773923,-3.478454468179927
50,-8.580984265939277,-3.0447757807329596,-2.1797448158062673,-6.0402278624814665
51,-9.017900677917298,-3.7679802875347796,-3.2465475490878513,-8.252714801331894
52,-9.024039785226085,-4.44871593428535,-4.339305346585674,-9.855066567641202
53,-8.993177742296528,-5.023741846777364,-5.384856082490793,-10.716438025772105
54,-9.016397721094124,-5.4250454253949565,-6.22144886512904,-10.919616145053405
55,-8.942149223943861,-5.607272534894571,-6.747577863422292,-10.767132087502516
56,-8.554540912732987,-5.654846893512392,-6.973959192908073,-10.744094200684025
57,-7.847511505455407,-5.642909273126161,-6.987558672770401,-10.850956886045873
58,-6.898863298818521,-5.665163717889297,-6.96785875198066,-10.585324259460558
59,-5.9018216363781475,-5.752895982931688,-6.976171520704771,-9.87458307635413
60,-5.069915541583891,-5.813355210939035,-6.951101050441561,-8.825309136084867
61,-4.390200087414438,-5.837656501547729,-6.7709103147540874,-7.724576116896301
62,-3.941285828498302,-5.878689111871765,-6.422343841651002,-6.838050955283978
63,-3.6904294908723623,-5.968724871830068,-5.9358029725016666,-6.1896057010445
64,-3.5599243917399184,-6.060502936276867,-5.389471152515338,-5.536065250241564
65,-3.5001970754762386,-6.14794462908562,-4.860395966804381,-4.8780111846009175
66,-3.4601037422822913,-6.1696636926753285,-4.333576278282907,-4.282242979668432
67,-3.418845539200446,-6.1865421773204154,-3.8369625417304833,-3.7625520934353904
68,-3.38770482734634,-6.208854810645485,-3.3955101728142063,-3.2067060283708377
69,-3.3496397943971745,-6.167462549081001,-3.046662274913005,-2.487360402720274
70,-3.2820225183508667,-5.929456689399744,-2.820230749685378,-1.6168371322562647
71,-3.1715921447740385,-5.43640459652944,-2.702557498611973,-0.7370119977062541
72,-2.976642396653628,-4.6896472104716675,-2.614276628129325,0.03544569262801711
73,-2.631308195841895,-3.7557301315735883,-2.4257059993098906,0.742573275136609
74,-2.131432385983101,-2.721171239355267,-2.013214911642158,1.3835058739640633
75,-1.5161114856111166,-1.5856769186781097,-1.3196510694845254,1.9212951618013183
76,-0.8777160489817807,-0.43714334139828404,-0.4047188737758659,2.273579989550758
77,-0.3487913540532833,0.6764003272111448,0.7667459038430023,2.4119303489778923
78,0.049766783714423446,1.6720717216752634,1.9441272310944089,2.4176261329806294
79,0.3948915963292676,2.424732377699934,2.8557915041365893,2.405959419811833
80,0.7535105767891482,2.871559027217139,3.360304491913632,2.430735418395598
81,1.1043102365028448,3.0437657542849568,3.4754726643995086,2.452420592833046
82,1.3752529585180528,3.0234627913099485,3.397870814106757,2.4978826288028233
83,1.532111161515631,3.020214197737534,3.418170140331968,2.5276254382754075
84,1.6459204836081531,3.0604560994381127,3.493252251415804,2.585884193265348
85,1.7667439750067295,3.000942680471045,3.136604414803375,2.6954402501165537
86,1.8926340353262874,2.7068729083074956,2.247060260771251,2.829414496011366
87,1.982634950607904,2.142946067096291,1.0983599182447488,2.9733395048154496
88,2.008497156422543,1.3559465118410765,0.11986900522865002,3.162076679363904
89,1.9931106376336507,0.4860264400519901,-0.36083547659931037,3.4652657752858085
90,2.004445481250259,-0.4093005968301949,-0.33313416771086135,3.9359081379392027
91,2.0146342553378505,-1.2503431650117496,-0.315310364213891,4.493082330880661
92,1.9335614970047812,-1.8658990298286402,-0.3710902747857417,4.9388473078029635
93,1.7483877179431724,-2.1892334746138467,-0.257377371547549,5.160582264539869
94,1.489080637953768,-2.259427033534829,0.3587966742460452,5.144617854811795
95,1.1971597419707314,-2.21300972910887,1.3034314346201792,5.187963197309493
96,0.8547030201068323,-2.19218501094985,2.224791237460884,5.257478484257818
97,0.49457440000173697,-2.210481838512669,2.7831103888142414,5.105909815584465
98,0.15819271187503878,-2.1209393884004415,2.817474060618846,4.502992187749864
99,-0.07452246431979369,-1.914159182324847,2.8275962865322435,3.4383851521677
100,-0.16665650811928537,-1.6006569110046416,2.8634575124142874,2.0180107819033215
101,-0.1565307408582825,-1.2294826145305413,2.7575166124423798,0.4134632966540934
102,-0.1576138388828118,-0.8545453254110164,2.118686768689166,-1.2033360761864549
103,-0.20389696794388854,-0.4807035097250414,0.8894338990988069,-2.9488306742274464
104,-0.22890134492971548,-0.08876809690799249,-0.7612292713874769,-4.477123370514356
105,-0.22594132830920594,0.31651196390681025,-2.6173211067607434,-5.500378576577913
106,-0.1990195622561299,0.7263363278087976,-4.189662259053134,-5.958635057201254
107,-0.14787068199791112,1.1196024726660747,-5.325504968525356,-5.996403723527057
108,-0.18688524681790852,1.4749209406150474,-5.902391107235526,-5.965846332711093
109,-0.235581949901108,1.7858818480508551,-5.992213938137761,-5.963830389905764
110,-0.0899599111978327,2.069976717154472,-5.964373860003828,-5.890931244123615
111,0.38467724573124307,2.3676229810492826,-5.9600325851842175,-5.5716103830169015
112,1.2180475111435345,2.7180814555334503,-5.886047701376027,-5.070059392257801
113,2.29856849338433,3.164111879542953,-5.427072611909683,-4.457501345701333
114,3.6028242972657574,3.6716693109207,-4.5845246961581365,-3.786205721815639
115,4.8396739545898555,4.1251957017689715,-3.466010208189353,-3.072038812281479
116,5.82612225006447,4.428102643358342,-2.291822863172113,-2.249459568971424
117,6.386716369516552,4.556018104546327,-1.2645014126113767,-1.4825889664088034
118,6.500338279840399,4.550469403613398,-0.3526133275200459,-0.9144918118881878
119,6.46906514718313,4.536222066585211,0.46213210185029047,-0.5069233570863723
120,6.477745984389074,4.551244469499797,1.1294638248288953,-0.20596363889135647
121,6.432939787960332,4.528653155580391,1.596884662817675,0.026629357458911967
122,5.938798267603367,4.401959866999589,1.8479186455634455,0.18066702032780566
123,4.973279915832417,4.168596104014525,1.9155676364340477,0.2340997321302544
124,3.46793735227224,3.7791949094310167,1.8805991898229373,0.2134404138988321
125,1.868099000825553,3.3405886598094567,1.8437810056300104,0.18900698331289914
126,0.6817753688360015,2.991067967615893,1.8636207588486766,0.20107674022464447
127,0.028565326251114825,2.7756405833731064,1.8636207588486766,0.20107674022464447
128,-0.06347822086615507,-0.08312643191138097,-0.08916960431845766,-0.08301444349850698
129,-0.20489916064039443,-0.35926803118314854,-0.3924688973826581,-0.2044022382453631
130,-0.47759056144924145,-0.9484453130363358,-1.0520461897717701,-0.4276346718401201
131,-0.9530987326553456,-1.9076602121179738,-2.147162113793746,-0.8605687893845392
132,-1.6868113318049582,-3.1765505354157515,-3.625195001684599,-1.6384972431594313
133,-2.8443590210006975,-4.759407923582632,-5.50185142775809,-2.7834789847489088
134,-4.165384905311745,-6.470025183273402,-7.583033275676671,-4.285967500076071
135,-5.270315436055513,-7.942045259191982,-9.415653058564699,-5.763065590038876
136,-5.900504205088473,-8.902525070406673,-10.641197252087993,-6.8373137343346855
137,-6.028822035561121,-9.30166009009532,-11.172346203490497,-7.3710133623743905
138,-5.957128235713411,-9.251490654726485,-11.113814581258294,-7.432989528378196
139,-5.977847056779653,-9.25314885102401,-11.134165866328576,-7.42903521997738
140,-6.008322366393048,-9.358579288024629,-11.294188138415418,-7.467235091027577
141,-5.464706531201518,-9.183826218562153,-11.05507494960804,-7.350159128857335
142,-4.482183029699347,-8.425164202762115,-9.899576036647149,-6.711553156117898
143,-3.4215157421268265,-7.047507522676628,-7.687437760187585,-5.574325734592195
144,-2.68365678156043,-5.236899678862102,-4.650256719182806,-3.9097961253571407
145,-2.481265281660424,-3.354001608201772,-1.3432371558907594,-2.0435873387611543
146,-2.668480164458083,-1.725070628700272,1.706368493478403,-0.5066189194052172
147,-2.6260289107907226,-0.26781762700267364,4.6143089578921614,0.5472380865904948
148,-2.440504762131806,0.907066635042826,7.289964141099624,1.014512202779148
149,-2.6984965665412934,1.7855683125850312,9.793465578253848,0.9993755766602538
150,-3.6479510042580294,2.3953363828521708,12.195277821892319,0.9331586944779027
151,-5.664331166730712,2.78613938477394,14.467698643998261,0.9275830865688293
152,-8.175508025507114,3.0155480106653463,16.752718814201838,0.8331967827810688
153,-10.278753939893107,3.149302377832062,18.77916386881323,0.6423824548166701
154,-11.357736164611723,3.2610379576865514,20.24147607212739,0.4515681268522716
155,-11.54969965368656,3.418078457212433,21.0108278009384,0.38609000887923256
156,-11.571407735786979,3.6656927088685354,21.164437618609824,0.29021884207181575
157,-11.630386651222397,4.024401599099692,21.061719350310838,0.25955449760046606
158,-11.384938227987728,4.498484966957734,21.090058638903063,0.38790488862530736
159,-9.947607301681076,5.088612006653173,21.14021059110622,1.034858700195656
160,-7.108071662406358,5.80410974992118,20.613117090325723,2.3514783101240804
161,-2.9959482318307753,6.665266885762935,19.247350006468103,4.312904044484896
162,1.8544031847475884,7.6864420582445,16.932895995217933,6.65452366066853
163,6.841559344492255,8.852749934883368,13.854152836817356,9.01416322447357
164,12.037611554413456,10.086866787485853,10.41429200255155,11.496149316517707
165,17.076844220036676,11.433868804239575,6.905943677831038,13.992083179846741
166,22.12378927140303,12.682141037596676,3.5011256107547286,16.155524695442818
167,26.621574026742135,13.60696398140555,0.41540532030956007,17.67020144430483
168,29.90611483799577,14.103799296104256,-2.2940538751172177,18.406474650625377
169,31.664279459415955,14.222913097108883,-4.6627192551289225,18.430940639933816
170,32.11480429839395,14.134234757853386,-6.765160082266978,18.402263321156305
171,31.798889519737376,14.113100717917911,-8.683159446022652,18.519008602556166
172,31.750510966767305,14.176760897458973,-10.451734984444787,18.337649016126306
173,32.03988720653267,14.054881194240515,-12.18750011295263,17.28898357871647
174,31.750240494315335,13.692303026757523,-13.700534331458154,15.262100392520896
175,30.518486200101982,13.076327382552572,-14.77173829935532,12.510922310904517
176,28.203057598077372,12.27697479192193,-15.315950166363898,9.57658396920217
177,25.033006798139894,11.40367693202646,-15.428188371855544,6.904567421876511
178,21.494656706834714,10.506559764103786,-15.336011420400242,4.306970595548474
179,18.004022588194598,9.493328450552168,-15.300364457693345,1.801195528062271
180,14.354716251863396,8.354467265890513,-15.353833756433856,-0.5518230046737221
181,10.70370684933378,7.070822243208923,-15.259058277391732,-2.5904590167079258
182,7.14253427165403,5.646822922712192,-14.978143086737118,-4.190006589980754
183,3.7237602914085333,4.11752140899281,-14.490770349500021,-5.480198920055182
184,0.4730041117253575,2.5393514391302583,-13.85028716854054,-6.490828769055833
185,-2.5465468857887505,0.9716808472518896,-13.139558353445056,-7.207971782332169
186,-5.21330245198199,-0.5351034309569814,-12.376886971247686,-7.604232781894034
187,-7.414841210127069,-1.9444526710362469,-11.482111765927774,-7.703989335848188
188,-9.14161643310413,-3.237360893425346,-10.42235560632669,-7.643377494708377
189,-10.49730037865868,-4.412768394785528,-9.182524246555678,-7.621607550618853
190,-11.60482457714168,-5.483078189457995,-7.779045783342927,-7.629426484504311
191,-12.529094621789808,-6.465126186294718,-6.238230579821012,-7.540832933813304
192,-13.3103255114451,-7.36900882198699,-4.579916880835582,-7.415400925415277
193,-14.033348157716336,-8.19477059134626,-2.822960322035334,-7.30190957368724
194,-14.793223449627524,-8.940819391563126,-0.9992654780760677,-7.254538393650941
195,-15.718204164249352,-9.59936322697945,0.8420470868938822,-7.239427070330967
196,-16.654024899858612,-10.207299222913104,2.6426721038226892,-7.233747649279562
197,-17.37238106461011,-10.714484411057656,4.316518674299335,-7.290430181359006
198,-17.748303387439023,-11.065272385733584,5.944200532687777,-7.462696337058328
199,-17.795424478495228,-11.242370949203023,7.351848583917615,-7.67848618122757
200,-17.784829161269645,-11.275139859770237,8.354502577082467,-7.853881441134246
201,-17.82372253314117,-11.252646787968352,8.881968864328407,-7.919718903490325
202,-17.762690727158432,-11.251059499990223,8.99925628155935,-7.903148571766078
203,-17.28852918113234,-11.253843979500974,8.90955897201083,-7.880653363163383
204,-16.343981813242916,-11.161976451177981,8.920098962510167,-7.8769505464430525
205,-15.01310136541587,-10.959149928044189,8.988864809615917,-7.798398598613539
206,-13.510561127020491,-10.640214148893994,8.725984803576793,-7.681527762551709
207,-12.078951393422608,-10.220474632451912,7.99365472979865,-7.567921043134432
208,-10.77659116196355,-9.728269135684057,6.810918743016615,-7.473450910792602
209,-9.750971397116556,-9.16910380176173,5.284016896197573,-7.38312445384006
210,-9.112800641761453,-8.55295832655044,3.866685139722372,-7.355772477169858
211,-8.838844507722989,-7.907054446194711,2.903216150732428,-7.363399590774935
212,-8.792278451945593,-7.2431955263176295,2.402919119897356,-7.247032493280814
213,-8.815905332333125,-6.567675660774227,2.3037756397922085,-6.903369610069681
214,-8.83865892446826,-5.885080764987841,2.365150775091557,-6.271829131280296
215,-8.833862110759235,-5.197821833048954,2.4284838775982127,-5.4209196931479
216,-8.821787744464226,-4.490764353930907,2.4266706405257827,-4.376330454977646
217,-8.79145688041326,-3.733290027047669,2.4838914276801805,-3.393652640250288
218,-8.702653050461057,-2.931644053763826,2.541112214834579,-2.611282122897183
219,-8.624394351597008,-2.166664265209886,2.5596335862986126,-2.154634319435829
220,-8.522970023997987,-1.5527536156144002,2.583302999190338,-2.052525197840786
221,-8.410126511116887,-1.1580386222221883,2.6099488756290965,-2.111001062221126
222,-8.298199099837092,-0.9419420988828124,2.579973970454523,-2.0917104487324583
223,-8.220915683078156,-0.7505009426714532,2.3396208352370067,-2.0304734274128284
224,-8.228971280652852,-0.40645229676446537,1.85449021801776,-2.388241699911699
225,-8.150997249658008,0.20343304743605584,1.031148740102484,-3.481563858734777
226,-7.9302441750037245,1.133428641416082,0.10203074662780996,-5.657881647082009
227,-8.228513512832617,2.4044092919847344,-0.6311059413866663,-8.706325909535378
228,-9.204084816367665,3.756648952079091,-1.0537242749863496,-11.741023166705936
229,-10.579157380092079,4.86976502880209,-1.1472075405961344,-13.949845112801816
230,-11.969653430241749,5.505374919748263,-1.1061523037012337,-15.187600665259076
231,-12.539300665801392,5.545055003289981,-1.135470181697556,-15.90747783407702
232,-11.963688851385813,5.693265037624807,-1.1640022009749873,-15.553747902210429
233,-13.456072601776981,6.253190812446208,-0.8391178395513575,-16.149999024146386
234,-17.5403962101535,7.096798088346188,0.4771231967985974,-17.919052045855242
235,-22.50039935466618,7.813117862591782,2.506307950808288,-20.251574899137196
236,-26.576510209297183,8.03405474783889,4.513718975510405,-22.397503536517362
237,-27.736792404283165,8.147815019294512,5.800951723375487,-23.35562461794757
238,-28.408096603130147,8.390755749699224,6.078126383453046,-23.800947944793446
239,-29.12194334545396,8.127637092600516,6.095071559749854,-24.104410620328597
240,-27.217374024629294,6.094312173884085,6.195528332512808,-23.4433626704186
241,-17.99960821531005,2.1849320035741586,5.951578490442571,-18.501918607478153
242,-1.8914226702497379,-2.733925766817716,4.235846993952001,-9.136684045737281
243,17.705245934114906,-7.1920362997355465,0.8635509515193758,3.238445072860171
244,35.95377249800453,-9.99410622524445,-3.778107406169751,16.326955221595306
245,49.610299377382184,-11.37505959876961,-8.909341592887165,28.165380418393802
246,60.716442688340265,-11.868407593507392,-13.366126583972637,38.88985121819131
247,72.41073665988787,-12.30128029269885,-16.707276902321336,51.12729071646422
248,83.89467525451674,-12.962759336077093,-18.621895678881,63.22262445977431
249,93.17649844955758,-13.759040549282327,-19.254435851277215,72.84904770550385
250,98.8034368913477,-14.433872400959736,-19.040312327200553,78.5969200655547
251,100.63415782402723,-14.752534246337305,-19.25811866452142,80.44970687220034
252,99.94722464891032,-14.698477662890195,-19.23605057872544,79.73617730177138
253,98.99736635914306,-14.548722378023221,-18.534979351995766,78.76883750952038
254,99.45118246986286,-14.607729436634884,-17.33337083509882,79.23398804177988
255,99.45118246986286,-14.607729436634884,-16.131762318201872,79.23398804177988
256,0.8214133288274936,-0.36214078838197983,-0.006543619110493504,0.8344958403247174
257,3.172779345585261,-1.0570424020230205,-0.12166350513792556,2.9437450392195763
258,6.418413992370247,-2.1078543764313653,-0.6281593406984745,6.082706732827656
259,9.360567562943928,-3.3281822236415417,-1.810705045089172,9.11714305398133
260,11.00243609707805,-4.605185550271104,-3.8477586281844394,11.014381390855803
261,11.15489522651335,-6.11327994280294,-6.1686963928038985,11.527238049939442
262,11.150169165952738,-7.957607015542627,-8.027940498783314,11.358848300347917
263,11.292050711426603,-10.13492268576434,-9.002936434410957,11.49617113736503
264,10.562898274587978,-12.167665090965357,-9.11865662437298,11.19977130665813
265,8.663938399661252,-13.577590887268205,-9.083416649765622,9.630026599059805
266,6.392763699725118,-14.212280769343032,-9.09656936709833,7.21926573874625
267,4.546587108790952,-14.212027569287265,-8.889285659082693,4.896347024880441
268,3.52087628067076,-14.210125610754806,-8.019781109313058,3.315539548903147
269,3.672620428555705,-14.408277790497124,-6.57711490266862,2.717360314698028
270,3.5177883565204042,-14.278267341615262,-4.764007693733342,2.653842069235302
271,2.46572833344344,-12.956135168299781,-2.8765490381128584,1.9521111726516567
272,0.39671922251140956,-10.098244264130477,-1.140001797388793,0.7585439983085766
273,-3.540227672898488,-5.8319448034642605,0.6428638222525662,-1.2411166365024764
274,-8.38281041994996,-0.7754099382873672,2.281378559669772,-3.4751208609435134
275,-12.465524603502898,4.2500241691694445,3.8462300537694363,-5.288798811203897
276,-14.58922223691528,8.871310710549329,5.3807493556947,-6.2195766333233085
277,-15.06494684215141,13.14953554628868,6.720860676647492,-6.39705360109193
278,-14.89766625259148,16.599780459239557,7.657669120032841,-6.323366688498156
279,-14.737405369831361,18.889805439572886,8.103466944509648,-6.498325835508209
280,-14.553234064348572,20.027318808737963,8.082333203193212,-7.308627607288971
281,-13.500159942593532,20.292027071268613,7.984874890619441,-8.454307939889189
282,-11.6439840601532,20.03839336489696,8.07212144239272,-9.591337397416234
283,-8.8516752673653,20.079249051635163,8.251309969836822,-10.405764778510191
284,-5.074053182986635,20.32993644358295,8.409058749713243,-10.565683261095943
285,-0.6834319963678349,19.903020090760812,8.540928830650085,-10.333417538009675
286,4.312872247381888,18.503293949636227,8.516856460016921,-10.368196134589986
287,8.657923818109076,16.114538803003086,8.3569662264829,-10.531066483440613
288,11.464400747018143,13.126480823041367,8.219848833051975,-10.358065859201805
289,12.678959771782559,10.178049975259647,8.079808805797164,-9.185989735996042
290,12.873167676675173,7.7485708187618805,7.993598657347943,-7.247799383799524
291,12.498270132577808,5.60767553688227,8.030863410636822,-5.253149700751257
292,12.67119696036047,3.869299901677629,8.089894407798369,-3.930437090914823
293,13.153047149568046,2.6273319260286736,8.019827749247854,-3.745123849866969
294,12.613658199948285,1.9004067625628107,7.8152677482366855,-3.6316158772896063
295,10.108581976546947,1.5899587266579078,7.423704518717727,-3.4500695044893774
296,5.09238777834315,1.5371725249147696,6.831419069802212,-3.9580325468776913
297,-2.1761065427751696,1.586634746368846,6.054346292062713,-6.3134412585075825
298,-10.708758667929196,1.583360848933981,5.133889465744753,-10.584436935695933
299,-19.219172393533807,1.5124819998382164,4.093503144910765,-16.034181185545865
300,-28.669871295449585,1.455605363184175,3.0855803957662546,-22.25449359631853
301,-37.50468191738239,1.431702748802916,2.2428703357687203,-27.733500822251926
302,-44.13294912353951,1.4170945805020734,1.650928755353009,-32.0143601370606
303,-47.7512282503041,1.38252661893101,1.3156152913439265,-34.41659108481269
304,-48.45122523566172,1.280793428269257,1.1942616662550272,-34.9225975011592
305,-48.27437505641795,1.0780600893198813,1.1866807290350923,-34.772946394876584
306,-48.29931170235828,0.8187122373944064,1.1426486324489993,-34.824838200720315
307,-47.935551839748086,0.5252017958923028,0.9034049704879317,-34.68724736806875
308,-44.81525115332018,0.19966137196602035,0.3651297712240318,-32.56346186793367
309,-38.657331189838516,-0.20815955747597276,-0.4772936952284885,-28.00458589750768
310,-30.02822351893743,-0.7111870664614326,-1.5491316207001156,-21.22690464260273
311,-20.41446676755652,-1.3108662524484338,-2.7242621914983087,-13.266030234483276
312,-11.31415828661266,-1.9980606225094528,-3.887128291696244,-5.338654984868086
313,-2.5878645812175742,-2.7653710095519966,-4.934401445211816,2.409583141321817
314,5.48846877046226,-3.615147619433773,-5.796637187927152,9.823249584207698
315,12.632213138173139,-4.5602874678569085,-6.457960226627826,16.59894793699436
316,18.980530595467506,-5.6107921871043915,-6.939491994599934,22.684618371674652
317,24.004721791986448,-6.745104197189512,-7.4199183659574475,27.450806678076226
318,27.26983115756394,-8.01463855055808,-7.909353725645469,30.457683930049757
319,28.801366010175304,-9.207592697051545,-8.330437223295544,31.79486445662776
320,29.079423596296873,-10.091074505666693,-8.599644975298972,31.9548535421641
321,28.806842162341475,-10.556095432279706,-8.685939485068637,31.82541129766211
322,28.743890963358105,-10.628920427834274,-8.632168449747502,31.787694249183332
323,28.924303822254537,-10.615437751778614,-8.651468960061077,31.704699181837686
324,28.520403556133203,-10.61881146804477,-8.714448258354473,31.00651065264386
325,27.688689981612313,-10.539621643284312,-8.548558155406036,29.732259873241986
326,26.732624225997096,-10.113985865148997,-8.042116842852444,27.988108710859283
327,26.019619966869858,-9.353314725401335,-7.194901766730644,26.016447267492524
328,25.792301739828364,-8.37057943034075,-6.149348725539555,24.089180857078453
329,25.93242337048968,-7.36417422784657,-5.118158154086811,22.210643681317794
330,25.931946414618068,-6.491427090546812,-4.243007670009615,20.619630738593745
331,25.947047863380085,-5.6650840492722105,-3.476441287620659,19.344983071872957
332,26.18873204925549,-4.90856205338859,-2.8893697339703386,18.41561061383711
333,26.52996248265682,-4.197560999939969,-2.5026338020285177,17.83530940785881
334,26.838038439483558,-3.5007472980608116,-2.286675071044574,17.498574009655076
335,26.979767512405207,-2.799074708221727,-2.1617544023658417,17.30902842206891
336,26.93500199312627,-2.096182398920717,-2.0209707102367065,17.286051928442834
337,26.986220573192213,-1.4265160102998007,-1.7642628293475182,17.272860507358573
338,27.07411171851905,-0.7859333398158598,-1.3231894135714968,17.09705476444912
339,26.685522371519276,-0.24990451252435322,-0.6780485433302386,16.752687863074506
340,25.51143125252818,0.11591154257457623,0.17805986399996426,16.147272227928973
341,23.402137527414265,0.2971478303031066,1.2248043962552602,15.22064517069354
342,20.466873183947264,0.3291889781976957,2.2278508802666326,14.038977603409114
343,17.03713467415604,0.3118531887046245,2.9609264138052267,12.68483560072819
344,13.420620929802354,0.30366750046587043,3.328689304683935,11.215628566162906
345,9.690461642821386,0.29495890495877114,3.3553375863834423,9.858091737867024
346,6.054910144493812,0.21392558625265704,3.3607884961848065,8.729343151532948
347,2.5928123694055163,0.04289609180335352,3.393594354155052,7.744031606215673
348,-0.6635237802418967,-0.1892110898018896,3.2735768089927872,6.728374420157019
349,-3.649758646021761,-0.4041390401562288,2.7909082267594427,5.609468613268472
350,-6.265331440629334,-0.5360156382398289,1.9534722144904093,4.43736391130331
351,-8.45578629930621,-0.5930767876264637,0.9447749445587785,3.2303442688564137
352,-10.30920322599038,-0.5730932380763416,0.10503216565697568,1.8676575253244936
353,-11.896881512508154,-0.590037699956018,-0.33661335198072573,0.18833901395855068
354,-13.099121997856232,-0.6347647184541684,-0.5298743713556863,-1.8164646367165673
355,-13.868987110995834,-0.577471316205812,-0.5298067503193631,-3.966558643281208
356,-14.231659761387707,-0.3013177481671215,-0.498156615523662,-6.062052151715153
357,-14.302777287405732,0.24663689252904009,-0.5021995482214048,-8.048655281359515
358,-14.295543057674925,1.028289666643242,-0.48541442448780464,-9.994635522054867
359,-14.313933271859769,1.9061517674187403,-0.39602261009976886,-11.938407878718909
360,-14.375478965878436,2.7598153035419077,-0.23388958182368325,-13.820009966113075
361,-14.565956508454594,3.502830111930866,-0.016281845006777124,-15.58504565517642
362,-15.092091115767804,4.008276731598344,0.33137438509173,-17.254803409097246
363,-16.08570643524229,4.253347053201046,0.738111483662741,-19.17153049275216
364,-17.28559071453443,4.3046951476052975,1.1201293639565486,-21.12977809906713
365,-18.311931252448172,4.271698478385776,1.3649666050229692,-22.719391379882556
366,-18.87895757798489,4.248256916735815,1.415752395256787,-23.636259141986194
367,-18.958581463470072,4.260004849442115,1.436473610334177,-23.879962138736154
368,-18.95608080333861,4.262871986733107,1.4654247851326827,-23.685245347945063
369,-19.000430057211357,4.268674015591122,1.3873232721040447,-23.67752946386287
370,-18.8714110300417,4.256453657057811,0.9389895600238781,-23.85837556289861
371,-18.145848759585135,4.195341696795343,0.25218094125394475,-23.632437516771205
372,-16.7859992079754,4.054370184601361,-0.41619607935703573,-22.823342429161784
373,-14.962431470985763,3.816822383152974,-0.8187141045849492,-21.412431763034583
374,-12.995619723869241,3.491278376905355,-0.8560662745473725,-19.56976740621579
375,-11.137022497957451,3.111815147902736,-0.8194342820282818,-17.52604340678187
376,-9.249325283076786,2.705036704705586,-0.8269775119514997,-15.410771999785766
377,-7.407385967110466,2.2972874106973387,-0.7630728994473447,-13.009813790623944
378,-5.722512861985409,1.9031803404616574,-0.5403765291719587,-10.5150993808066
379,-4.32825812334521,1.5377785277034064,-0.26167806604618005,-8.178966622985813
380,-3.2411664787497227,1.2143442743782265,-0.035360245730033796,-5.752589848071945
381,-2.4851395378673877,0.9690541321150807,0.05713281241855186,-3.470520854719744
382,-2.034777522276,0.8227309554732608,0.017035297968900832,-1.6753099683435748
383,-1.8282232850099143,0.7645371340616022,-0.016000597957255037,-0.6123664272181044
384,-0.1343965383561493,-0.11524669505833873,-0.0827785244465063,-0.12588476636906876
385,-0.429381006185942,-0.4338608513152755,-0.3130558486560567,-0.30695112761538335
386,-0.907089665859444,-1.0521552005743469,-0.7733321561167648,-0.5765292296960328
387,-1.531428423450666,-1.9890815990615902,-1.4907130998404667,-0.9869508542532427
388,-2.258073990668864,-3.152819369366358,-2.443089493405064,-1.6411376622343457
389,-3.067578591803106,-4.649745009337728,-3.5530042009483864,-2.6164230383889877
390,-3.900681832041429,-6.188279564590147,-4.966254070219838,-3.907567118930271
391,-4.645459972433887,-7.412487081258826,-6.434106000996067,-5.344965217789481
392,-5.194529553186488,-8.107931144524745,-7.621829226450858,-6.576154418521148
393,-5.590660541172301,-8.291962000516133,-8.31370238647215,-7.368515396892489
394,-5.879012072634351,-8.14020062836267,-8.494923058284751,-7.707742018391789
395,-6.090825927625694,-8.144053228290213,-8.365275951237498,-7.700678557559369
396,-6.225521670160565,-8.296068654545016,-8.401802751483123,-7.701847621756664
397,-6.265513336332208,-8.088386192477778,-8.523652178310458,-7.740929852111554
398,-6.249680603028466,-7.318196712922069,-8.123846668531865,-7.623576390265876
399,-6.260311365371886,-5.911482984412906,-6.959551403555114,-7.156129434601953
400,-6.279635320407926,-4.018001746607267,-5.00479519817643,-6.305994678477405
401,-6.146100104238297,-1.9387171633976166,-2.5444781080631222,-5.1126409913121975
402,-5.766166920291453,0.07597816346332287,-0.04888212560572214,-3.7308390943154843
403,-5.110613670201579,2.128678472641429,2.1355886215383713,-2.347262676914434
404,-4.232325604644947,4.072570821615603,4.164566412713747,-0.9264235861962236
405,-3.2142710646007635,5.874285334103332,5.906284449743591,0.4273014318276699
406,-2.067794951929527,7.39985105491323,7.201489752704867,1.7749630639403888
407,-0.7400082026031407,8.488126028964476,7.972796645855582,3.2018012467431762
408,0.7815995400520148,9.087944613618287,8.272787916690989,4.663368384042249
409,2.463432799997058,9.285952134170646,8.239741141228077,5.991235151136836
410,4.263473348611284,9.241013516939525,8.21892439055956,7.057759423252637
411,6.127503695925456,9.21881462659037,8.272593045805223,7.890114934911885
412,8.232553989903922,9.262031030895674,8.199796621130778,8.599141623649825
413,10.327716247347,9.199894946922107,7.747336639124952,9.213356224241437
414,12.005810309655567,8.946591642494145,7.0347098475374334,9.684798440310047
415,12.992248533057461,8.500732777045515,6.326170926419655,9.963821345576658
416,13.297692178996433,7.91621615256774,5.883872222438608,10.069471804639463
417,13.127299377465139,7.285271395518532,5.8110015936010155,10.090406415251746
418,13.14882158254818,6.687830949176117,5.863866766927904,10.102194906222717
419,13.337074483143288,6.010174929733017,5.886279510959152,10.102900242162857
420,13.061837555337759,5.355569712508091,5.8409321860616155,10.117828262834635
421,12.066986070588065,4.845609117891147,6.000917696356463,10.13569288807396
422,10.412480384184393,4.550960246658538,6.328557557988142,10.11040019160204
423,8.335774242208931,4.449730864333127,6.707219733333474,9.972724930902597
424,6.501139656892645,4.502341800667443,6.992903919400218,9.669194964927534
425,5.418068768023634,4.536460253933475,7.095169026122711,9.21812850918418
426,4.859675704355443,4.474918876586516,7.018745519433862,8.739019444289598
427,4.757924542455088,4.392470008695488,7.0506513775176085,8.357929207824046
428,4.801835472249043,4.305121941289391,7.143840961114158,8.027179281575052
429,4.875547447088902,4.2556797421145,7.018226526794988,7.617434060489004
430,4.917571326265508,4.291070146148073,6.499996042572958,6.983969895442871
431,5.055445860178601,4.321685276957303,5.522127067515966,6.13860224742063
432,5.193320394091694,4.174849010921261,4.164581555724448,5.215360115366263
433,5.254540656175164,3.8076790784552674,2.618279832536065,4.2761208031353215
434,5.272174834116092,3.179230121019636,1.0665440632684158,3.196675694448427
435,5.32611589043945,2.3308237494063238,-0.5428472912291418,1.7906068750875201
436,5.316809532434512,1.363234007785759,-2.0894202260498975,0.05138288528442936
437,4.915170470382302,0.35574852676972135,-3.483824863304926,-1.8214691543514716
438,3.9839644938431777,-0.6541702044501551,-4.672262861254225,-3.611877818843374
439,2.542715906362625,-1.5918934772763311,-5.633873875671054,-5.020388418889788
440,0.8063047401491461,-2.4187261349209397,-6.4551290473028,-5.908812865150554
441,-0.8872228817567615,-3.1182324577301106,-7.11342598836896,-6.3147761076756135
442,-2.3263637829547905,-3.6812145020462195,-7.566102949305148,-6.366833127843102
443,-3.444023493951868,-4.103006197231517,-7.801580528177403,-6.323391739266269
444,-4.215661279497231,-4.39511323720421,-7.849988714067762,-6.334083292929119
445,-4.807014018577851,-4.5925925421140255,-7.819668278028074,-6.26600525156225
446,-5.4040972913365,-4.74838058074304,-7.825811073004183,-6.01200561363593
447,-6.085352599085505,-4.919263461598123,-7.840232963094131,-5.692154338935522
448,-6.838462392685397,-5.1493754353328995,-7.684990139274915,-5.4308380342889615
449,-7.668844431297325,-5.461956093711602,-7.277886141140845,-5.331472888597979
450,-8.653154677811049,-5.865327594277103,-6.560683891364831,-5.3747554506779185
451,-9.856160258785433,-6.352292426355012,-5.544988267638675,-5.372707704633879
452,-11.179059151726115,-6.948322705737098,-4.313987932651876,-5.349159181329234
453,-12.609831918043842,-7.651828892618525,-2.9807491860579796,-5.468242471046548
454,-13.89033090761728,-8.320753577603355,-1.5576743950547567,-5.984291515884005
455,-14.803278779262767,-8.807423671437704,-0.3031846960451181,-6.790273246477857
456,-15.28521455477645,-9.045987291344437,0.5727040910117123,-7.593897359817575
457,-15.40827456661272,-9.042155014702107,1.011185329689647,-8.112540850425033
458,-15.301999571904974,-9.057689256616959,1.0987783892557708,-8.251942125387526
459,-15.326852878985404,-9.118701143101193,1.0319311517601584,-8.185715347851673
460,-15.44684775335296,-9.019468252327155,1.011301164216985,-8.189101647660713
461,-15.226835082390364,-8.510818673177951,1.0395766396619741,-8.250172194968517
462,-14.46233514710834,-7.515237066117527,0.9090348829121836,-7.93390996034909
463,-13.102111204804055,-6.100737454997836,0.6034073701731986,-7.076940402002293
464,-11.359137751052398,-4.47101561291327,0.1434589090176797,-5.738037340474911
465,-9.616529331049401,-2.842287824525863,-0.3910643418547882,-4.134147135041537
466,-8.144650446965123,-1.195151994779365,-0.8950498240977119,-2.7545229317052606
467,-6.787839632887611,0.33576369489312063,-1.2821185543570461,-1.8934422922132437
468,-5.4879516217641715,1.8148827142591046,-1.536333789651306,-1.4994179379223842
469,-4.164259280913211,3.089309155927336,-1.6451496317387706,-1.4331338916975858
470,-2.8260592863641025,3.997407120168302,-1.650271526082982,-1.4985160018828192
471,-1.5216321698517599,4.476482392065704,-1.6431586470372768,-1.544055757871237
472,-0.23807058099369544,4.587173260158621,-1.6409981575668047,-1.5142395210002075
473,1.103215853813337,4.499268652987697,-1.6157146456174225,-1.5142395210002075
474,2.550103938698424,4.50620435555331,-1.5472740673777843,-1.5036829316433074
475,4.045330120238512,4.576923394258661,-1.4676673888132499,-1.5025503864143657
476,5.462823657068944,4.370960587201967,-1.3948874253843866,-1.5625421250140843
477,6.7078674072544935,3.784895221870058,-1.3256425435832409,-1.5702321633551204
478,7.835563431293369,2.8319781014094767,-1.2428320588512392,-1.3473480717329223
479,8.852449021458499,1.680299464864623,-1.1130621452812512,-0.8051072759470361
480,9.66033249395937,0.5535693939897717,-0.9722760422544392,-0.018385928454924594
481,10.1656286785791,-0.30432055931992463,-0.835292286932622,0.8395325016008008
482,10.363075584718596,-0.8796726196547259,-0.6752352868402994,1.635262650297804
483,10.333044396866438,-1.14198028168525,-0.45755751184530047,2.4013121667857975
484,10.324419128885445,-1.167002660856163,-0.034307840892935704,3.246455664974187
485,10.372195934808692,-1.1442140326070904,0.5120655126686076,4.081326194247499
486,10.295118615614616,-1.1440865914836684,1.0131258517208976,4.804225582626298
487,9.97545577772305,-1.1147878021955817,1.3328201056290487,5.302780331050129
488,9.431216224740432,-0.9385578818188098,1.4197666317228974,5.568748096103076
489,8.77025822520113,-0.6092036066832094,1.4018155348309582,5.676423462586022
490,8.12959926854135,-0.1340358457594738,1.410815817376173,5.6938122656130865
491,7.57852233702022,0.4561060323728627,1.345724252705668,5.687240216310844
492,6.99692653394468,1.1266864897754556,1.0899703807868546,5.694150230051839
493,6.375963242879275,1.9056737209890142,0.7580627953994826,5.704047562962349
494,5.725429525829572,2.7732716596923543,0.4790766686386417,5.590980468930443
495,5.065077348165489,3.5679216675793812,0.40294856590936245,5.243284218896775
496,4.404472343101389,4.138072987766679,0.34890728163217954,4.583760522374973
497,3.7564251482394804,4.42674301844888,0.29898359694626964,3.6807607210488835
498,3.142455488177754,4.463962147778355,0.43833274371579933,2.7528223473729536
499,2.556428567476391,4.454437754746223,1.1653855229590189,2.004102931437595
500,1.9307102532133555,4.462225024792035,2.277995143963259,1.5163170567700814
501,1.1632370273566772,4.409124618600839,3.3608498826268374,1.2149500765643038
502,0.2358122276680896,4.128674733243201,4.013940525766128,0.9843615423405916
503,-0.8849859284173369,3.6245261520166334,4.05849265746474,0.8219550904744853
504,-1.9620102914470392,2.9679396787882344,4.050072224718671,0.7227092540126354
505,-2.750435307754099,2.3042447808785096,4.065066191301283,0.5987476241674454
506,-3.1541352477864555,1.6400709364081627,3.9663137314404713,0.4220656908427971
507,-3.2446763498232265,0.9640671996433252,3.3489609353645764,0.20728364569122165
508,-3.184075463092677,0.4107361819914723,2.2680339689108373,0.02567779035019597
509,-3.1303284218362255,0.06757652971855724,1.087124419757938,-0.044292024544047424
510,-3.1607869480961313,-0.0547875433184655,0.23806147728935967,-0.012572557370040156
511,-3.1607869480961313,-0.03018999933726321,-0.05899263604951953,0.012372415382208523
512,-0.10240153193425844,-0.09705585346504153,-0.09335259544426111,-0.11039838276374636
513,-0.373015254063271,-0.42465204845045734,-0.4361268648490607,-0.3300596530048563
514,-0.9058811649930947,-1.1250619765275025,-1.2103398178391154,-0.7728315357290438
515,-1.7507934116750268,-2.2616684037433172,-2.53380333771718,-1.5810787871369882
516,-2.902342951043516,-3.7908173302911137,-4.335116912620588,-2.906639527368758
517,-4.414252779024907,-5.556956372739304,-6.773442966717044,-4.773943166120942
518,-6.238919982873028,-7.637806917282365,-9.316838306679518,-7.256211069829365
519,-7.974353204779469,-9.66162287334089,-11.335823189727769,-9.769453065462438
520,-9.223760040864487,-11.213498461136545,-12.470052494797592,-11.676715045124583
521,-9.82365602043382,-12.073067582753168,-12.71204622187311,-12.678369584245763
522,-9.8200104795819,-12.230085187171483,-12.599174560103716,-12.796688878352631
523,-9.851294642386526,-12.205769434889707,-12.62161053674918,-12.828984836104457
524,-9.966890368250015,-12.249126931406515,-12.617186019330383,-12.906697895221196
525,-9.712237023581487,-12.139709844010003,-11.770143117754749,-12.632201411178457
526,-8.612979838934246,-11.19458322420089,-9.879077742292539,-11.251997531498214
527,-6.641323979051435,-9.251151591371043,-7.019175179560086,-8.681639637653639
528,-4.042568698054682,-6.410176546782086,-3.6050409331937594,-5.146215305293067
529,-1.2478309150495348,-3.065124320728728,-0.1429459029711242,-1.157857153600664
530,1.3810038734754633,0.33952586234610593,3.26279189803535,2.7698111927989
531,3.995705362218014,3.7877839751832374,6.605575874607833,6.712525401884128
532,6.359966708840162,7.113892792362144,9.715317230413367,10.27583742362422
533,8.375062043503862,10.153115503312828,12.7148978938016,13.225281439466226
534,10.101172574981415,12.91769892355878,15.281623755928365,15.729085877947906
535,11.65403488229462,15.14021619304244,17.081977065848193,17.721592123020496
536,13.19542576682019,16.606857489194883,18.00513021439741,19.10137627823998
537,14.557502833556711,17.306025510315212,18.198474044705264,19.829579208410923
538,15.510426325234132,17.395424680986665,18.05270000585405,19.95901160051641
539,15.971947543927499,17.350312864815994,18.040315794419364,19.927499228948456
540,16.035995709681313,17.353014110134595,18.125425779441468,19.944332903161595
541,15.979517144293084,17.2707162036488,17.747435207152233,19.86381517472186
542,16.00580990494149,16.732942023188883,16.75939608140658,19.178753907517986
543,16.00481039302862,15.726617126054727,15.150700250630198,17.819423219816294
544,15.652607167299749,14.35169433257983,13.146859157410644,15.950201605153056
545,14.851151194716333,12.830013510363816,11.09848635767867,13.93921229208638
546,13.563448204923667,11.362609899570453,9.198857593440724,12.077428422169927
547,11.848669534988314,9.87430137533461,7.4057674085741825,10.202592534592716
548,9.827264007201256,8.439349057912446,5.748257975955898,8.233147856187022
549,7.519523254255526,7.0753312017020615,4.179152243084817,6.126910271786461
550,4.934532158911206,5.770535620862727,2.6625798953544817,3.91971129626005
551,2.1408550182149577,4.492967680656459,1.2112197563123734,1.6149023109908431
552,-0.8505264154208196,3.2080686478604155,-0.11757262693875081,-0.8644321938146158
553,-3.9471481212043655,1.8984793021272308,-1.2521719832306115,-3.5723776903699243
554,-7.293232050478146,0.5779743452240815,-2.1423627292579344,-6.408490541324792
555,-10.368865538161609,-0.7124898413522822,-2.7879417465535896,-9.14354369279554
556,-12.614431760516121,-1.9260353200898503,-3.252297486585557,-11.574616575994515
557,-13.791347129491205,-3.0319666440409727,-3.6524356561622535,-13.820365697476658
558,-14.034754941473254,-4.0266202002987095,-4.093942640478331,-15.728747172758137
559,-13.869489990706887,-4.929938658410533,-4.778058988876123,-17.101567711336482
560,-13.862776460438019,-5.753131414799233,-5.63790568119877,-17.832516767451793
561,-13.921118057968558,-6.580564374962701,-6.439647000351392,-17.954021562812375
562,-13.338984803681159,-7.336724567990628,-6.975353985196656,-17.91435612084932
563,-12.004003095827331,-7.905527498076057,-7.180462574274915,-17.941948820180667
564,-9.985198949457564,-8.22160539066847,-7.114612644453371,-17.872641774382316
565,-7.601236279125765,-8.30964413995896,-7.116824258259504,-17.16770742600815
566,-5.277431942066318,-8.24814925485569,-7.204831757751919,-15.700752187261763
567,-3.2126430578232266,-8.250242859827189,-7.081697716016822,-13.57438932009966
568,-1.4286331914880246,-8.314391602226744,-6.566580654132981,-11.097845919553704
569,-0.0539226762313475,-8.235817658677673,-5.63755366779791,-8.538798250508131
570,0.9547665204854896,-7.927329964494508,-4.595148689480082,-5.782010472561003
571,1.724677923748094,-7.367282922035892,-3.818332389211092,-2.8630097286935277
572,2.3646892199414298,-6.633684582113499,-3.5138980458386384,0.07881505395345012
573,2.907137194714366,-5.871162516460614,-3.4915291338281853,2.770964898506761
574,3.469817119213202,-5.200971918936992,-3.4918997371425746,5.313016547362331
575,4.012714968258121,-4.5764693189221815,-3.4998295509854476,7.478680576073691
576,4.454354182327136,-4.037017823910344,-3.6219290653576097,9.044688513635988
577,4.728329943592107,-3.5865308557677555,-3.901487964808666,9.911390911540071
578,4.810861599324737,-3.2126154738320074,-4.211919065767956,10.11327768861651
579,4.7639566917535365,-2.8925677844342528,-4.432499162306866,10.05039372802007
580,4.770531399865553,-2.6016746578310177,-4.477729471686668,10.015317611675929
581,4.828992189117277,-2.319661820135066,-4.428747227861302,9.989554448066006
582,4.673130257294357,-2.0316936723920804,-4.440777574883278,9.449101800954766
583,4.138759365059774,-1.7272857597881428,-4.398262429850093,8.310369327827612
584,3.148352499425164,-1.4023466914598595,-4.268683411249373,6.682198750904892
585,1.7947223549894598,-1.0630887940551885,-4.082531607751413,4.932187490320199
586,0.2874623691306589,-0.723849681070994,-3.8750053057272322,3.4480258591604716
587,-1.2084235133469607,-0.4047133503136766,-3.663291718087683,2.2396440159374955
588,-2.659691896624471,-0.06337760351481739,-3.417491041154844,1.2574541856871364
589,-4.061566677556636,0.2639843598497976,-3.0373078822123167,0.4018460964766145
590,-5.245630248207373,0.5209284505021967,-2.5309189751065193,-0.325169614563947
591,-6.048599268926129,0.6698545987544765,-1.9204187936332042,-0.8371630719461594
592,-6.430152003231304,0.7032383997669324,-1.2353570939384888,-1.1256044509568572
593,-6.483239045238542,0.6900321008261506,-0.5353447748737625,-1.331848265636128
594,-6.435397014575619,0.7042069422613978,0.03994636072865981,-1.6265203396253987
595,-6.440374461195415,0.705311261490917,0.4200221829034534,-2.0367329583479767
596,-6.43152055126891,0.5641152381489455,0.5956958554764489,-2.5256929299337587
597,-6.205217283314968,0.15827618868735316,0.6280759990118548,-2.9520946549852503
598,-5.773265595138016,-0.40824866140780164,0.6278456706315314,-3.2282022494426243
599,-5.201431183606162,-0.9287929722624804,0.6569677147814621,-3.3606676551078833
600,-4.560943155411923,-1.229055358754376,0.689849918681604,-3.382784601543857
601,-3.8582511042570786,-1.285832629373014,0.72542854111173,-3.3971619287225763
602,-2.988399275443566,-1.263807275454334,0.8241274746878438,-3.3912325262078404
603,-1.917855080686221,-1.2721074505355485,0.9911195540365318,-3.349319547420232
604,-0.7510612352647523,-1.2591199295288977,1.2438326836168698,-3.1903616966607133
605,0.3907829314654871,-1.0082934691910888,1.600347614517625,-2.8940336236502047
606,1.4304000927559142,-0.47730988726931595,2.063300646935983,-2.450430030429429
607,2.3298964763530177,0.28744467330378265,2.6665606692513437,-1.9183361666949903
608,3.007088117958675,1.1478133875495407,3.382034306133253,-1.4212793268405086
609,3.421485813660573,1.9398657677080933,4.034177999224913,-0.9547488471281318
610,3.58353351534303,2.7383771999031112,4.472918736683568,-0.5795935697364564
611,3.5942846247845237,3.4730363451278206,4.660337162055542,-0.3101354391814848
612,3.5895788804058686,4.024869840094965,4.660656109290332,-0.1294459310805289
613,3.644659405903511,4.3310528474657914,4.642034693973285,-0.029994025216715004
614,3.7561020858398746,4.396498007934561,4.660653417478724,-0.030494772830885548
615,3.905420746301635,4.378592827112379,4.60839264543597,-0.0016268330574449597
616,4.120814377720573,4.3776573821256175,4.445270307374937,0.0017881358747802029
617,4.3776630117124835,4.351801399838508,4.239417869661117,-0.10184390394382564
618,4.63659698962469,4.110353028230922,4.067349425539826,-0.3038244951818304
619,4.85690106585475,3.654859191038314,4.002822470523606,-0.5219879032237924
620,5.051685506735518,3.0628231254068763,4.035563898072347,-0.6714928027200602
621,5.45069097987312,2.4786949696890908,4.038279099791942,-0.672055989417518
622,6.0350728057273,2.029515014486822,3.9881339809386844,-0.6741495467142146
623,6.631283501354331,1.6936666419781357,3.936155945957963,-0.7295015734326767
624,7.03871324943336,1.452509850638839,3.883391059906436,-0.629896250803328
625,7.138001841685893,1.282969029094335,3.8874991024754326,-0.25275585420147567
626,7.131526363787206,1.146584445750273,3.925194849334335,0.4612171542873407
627,7.151203600202232,0.9995776460378186,3.9001127166464844,1.4643126182781137
628,7.109357178144325,0.7971631568599146,3.7257449625740366,2.5461074022886745
629,6.63202237948811,0.5014913333845545,3.353985655560579,3.569832854482679
630,5.653941322557683,0.11251533597122837,2.7914105630415644,4.465650414876172
631,4.0281820247948685,-0.44347389740352683,2.1413944022452753,5.05165528116274
632,2.222880655979848,-1.0523450821873732,1.4475235963568214,5.324314645216145
633,0.8225744233925792,-1.5552346513008117,0.7936917178246345,5.367179231674861
634,0.0295344569742201,-1.8490695436056264,0.3042946354871243,5.3473841024906115
635,-0.17668627688511993,-1.931717108815084,0.03173053955669428,5.382888954097462
636,-0.06281456276518108,-1.89062478313231,-0.04934260952092266,5.313482691822139
637,0.0508373921787993,-1.8468672303862728,-0.02026477790773806,5.034112357546777
638,-0.008913491141502219,-1.8691757654379266,0.017585502126829425,4.663955086987787
639,-0.008913491141502219,-1.8691757654379266,0.0013695404450133563,4.346960929806995
640,-0.12344454110866482,-0.08677869369713997,-0.06975235058612161,-0.10151144507717498
641,-0.46606194713089666,-0.40101599865871596,-0.32085193449396066,-0.2339611356503865
642,-1.1370025464211775,-1.08735460508766,-0.8756187483317682,-0.3975407895683902
643,-2.1637435225899058,-2.212609215786219,-1.8186135598026096,-0.6401484901838655
644,-3.45884390022671,-3.675419658578076,-3.1131619912052324,-1.1232860091044108
645,-5.161389444982084,-5.595496707529083,-4.941257784972545,-2.0413519214897295
646,-6.935230634940762,-7.584742111162516,-6.912079089128744,-3.405945048309333
647,-8.359701286801684,-9.175168665177786,-8.520807681059834,-5.260273833682755
648,-9.174571654799614,-10.090688229690432,-9.448191130674415,-7.135774233854233
649,-9.337819677030165,-10.351238475385,-9.636780052292014,-8.556564516372596
650,-9.276674407592937,-10.151435439344429,-9.601326280379364,-9.31756035253047
651,-9.345193491796786,-10.166581282798376,-9.616358254755694,-9.423606329352264
652,-9.314053370170559,-10.387556824279152,-9.507013965553355,-9.459316524605253
653,-8.444188480035193,-10.122706211304166,-8.63754976888129,-9.50773661789264
654,-6.502627399718661,-9.06045203595955,-6.942907269969637,-9.298623682796023
655,-3.58104370441016,-7.098203716125465,-4.6145601214804,-8.2417285132309
656,-0.14601303911100572,-4.479210585004662,-2.0945473478135535,-6.223853149498779
657,3.2101242949704614,-1.696156115259932,0.19070462569491264,-3.3574893251690208
658,6.250155385810583,0.8138107566994033,2.290154755120237,-0.05041135914032657
659,8.988279179911126,3.187826112198554,4.165694912720725,3.197100941668883
660,11.127136989771365,5.292705314172117,5.792919139438253,6.3226364646456865
661,12.49219468475113,7.111413164196559,7.318608621427134,9.096272081208777
662,13.120936655755898,8.660542139698475,8.629641055701278,11.450235830969111
663,13.22137869428833,9.966417914402246,9.568875501271828,13.233748295169741
664,13.121609186559876,11.038492309355096,10.065022456019651,14.361115740372382
665,13.110372913559791,11.938419496786794,10.16883411023705,14.858790206471395
666,13.148651275457558,12.628682768696299,10.120509075906957,14.856556647027213
667,12.918449706828353,13.074035796390053,10.101651263788726,14.817208635037373
668,12.361381075252469,13.28702638231528,10.082957542900377,14.897639492605332
669,11.429590346337976,13.316696968792163,9.827548417511796,14.799717700901297
670,10.146920144685087,13.301937566557601,9.3850124478999,14.162433841176217
671,8.620086196542662,13.316022125650207,8.871560440587954,12.899023098987772
672,6.9647751008903604,13.302462320410477,8.43593066773302,11.149583651703534
673,5.28567438948483,13.09188676370768,8.152088119109376,9.229823269153306
674,3.755063505544142,12.62710149976495,7.890448389045163,7.390835460591626
675,2.589629155924091,11.908611356987347,7.502694232195435,5.5094305514290145
676,1.8685170390240966,11.015734169461957,6.890699581002742,3.6097489840256483
677,1.5014804991910562,10.05498779971078,6.0132765856826085,1.791782973192327
678,1.4043569815167676,9.039074314268316,4.9301088490385405,0.2215203127873065
679,1.3586130772981428,7.980621947538836,3.691624657028921,-1.0181223506852297
680,1.2631229220461182,6.886566896843805,2.530892867661712,-1.9961607864064677
681,1.1683569430546243,5.747045541002424,1.6605501724631637,-2.827480749840877
682,1.0878402108493046,4.555710412321729,1.1823347421337582,-3.5241913070959665
683,0.8766330056641265,3.3218124765971355,1.0174800183226838,-4.007740558257302
684,0.41903038108126933,2.0682941031562976,0.9792975264546812,-4.266213120296987
685,-0.36869663700357846,0.8240954787213298,0.9355840541541609,-4.436970215586791
686,-1.5716958142707642,-0.38110496584188613,0.8000082604534027,-4.696130178769545
687,-3.0750258195950435,-1.5186428497225428,0.7197025704888572,-5.084249205466746
688,-4.797069473072151,-2.5657577716093534,0.6929891594226456,-5.479641618302468
689,-6.644853067183456,-3.5181880641792365,0.6484678076846262,-5.755539828370977
690,-8.489535994411298,-4.398146138543643,0.45820575684794085,-5.9361110763746545
691,-10.22033091391332,-5.244813503863423,0.04274920420650474,-6.110614020160282
692,-11.90251475595377,-6.092410559981646,-0.6378336489204595,-6.325835031330362
693,-13.35340817146026,-6.9265544228737355,-1.584824209034799,-6.493920599298423
694,-14.373748414103398,-7.855291637115752,-2.834356450200554,-6.557638525392367
695,-14.892909304408958,-8.758395784457754,-4.2928037952184015,-6.621260349381709
696,-14.983989925611526,-9.467125587293072,-5.621776966541512,-6.889791979407291
697,-14.912947019064216,-9.876891515795418,-6.519259310091153,-7.447461776801438
698,-14.9686592926192,-9.996461598099728,-6.8965374488923565,-8.297831277637503
699,-14.999418892174281,-9.899469317506629,-6.857751569309311,-9.182406891726998
700,-14.519918345036952,-9.916577634997664,-6.836163287833401,-9.827808259726218
701,-13.346314474851916,-10.032715377443873,-6.905690025141153,-10.15792891643071
702,-11.472298266234127,-9.892538703950581,-6.767663154469559,-10.204667355829475
703,-9.09999710820158,-9.3160346477378,-6.241817292622885,-10.210816339926865
704,-6.5413579049330695,-8.231739212756418,-5.375157631114404,-10.222861006845342
705,-3.9734044766009244,-6.751438537780386,-4.363280451404295,-10.146697871755679
706,-1.4695182010871237,-5.120844492059616,-3.4633398123826864,-9.754666618353097
707,0.7876633116680732,-3.562629961092182,-2.8083849951029,-8.981806630835154
708,2.779466112588268,-2.032763985075779,-2.1764961553167144,-7.762058109726046
709,4.620628383434799,-0.515071574628869,-1.514326493679082,-6.092935427154451
710,6.391891204961666,0.8085935378930911,-0.7545408967710932,-4.052515381754645
711,8.204947236347474,1.7495044987489583,0.10007079425826593,-1.6511512374229054
712,9.80619756441893,2.2364039478117816,1.0811597562256894,0.9106922820324148
713,10.92452687555175,2.340078478819814,2.0338457637047287,3.4889062736676966
714,11.476664327005535,2.2672650138035904,2.7676805249658134,5.982096957572169
715,11.574712052541505,2.2548662122110796,3.180123315470535,8.410332904893595
716,11.507759587507085,2.2882321946834194,3.2997462710144356,10.458816014631585
717,11.496557999898318,2.1046062668707295,3.2270987498161885,11.833900524340878
718,11.494587560307675,1.655066505952995,3.2290689192916813,12.479594804886075
719,11.226668526392354,1.0172105497347006,3.3095983018179735,12.549648898405488
720,10.687022444153737,0.39139269223631257,3.2222080383275005,12.52343282856105
721,9.90182701278508,-0.006988447273848307,2.8241075677635554,12.535095209663991
722,8.954973042110685,-0.1605607321718104,2.033111263072647,12.421027343378508
723,7.950586299025702,-0.19377367829537578,0.8839700210465548,11.852538842800126
724,6.89568030608467,-0.20759228083922543,-0.46660287602570794,10.871931498877498
725,5.81099184326124,-0.2798998530663082,-1.805100024420515,9.578632044894107
726,4.772973921584543,-0.3292145117829885,-3.1927254556524627,8.121650217113842
727,3.8028662227546457,-0.34860330354928754,-4.38905842004791,6.644508892476417
728,2.9082809870281228,-0.4002075169993502,-5.214608222392517,5.101458226364564
729,2.0964976465006213,-0.5878255053948636,-5.626249721325058,3.70094677681701
730,1.3351935813174762,-0.9635864959333208,-5.6985592228872886,2.5596680966816048
731,0.5219073326447292,-1.5153929051095525,-5.658366264853333,1.5937416958134158
732,-0.46722715617807065,-2.2087602767505463,-5.652907701385079,0.6179844683721412
733,-1.684548908981896,-2.860566768159375,-5.636122809754615,-0.4495519421087278
734,-3.0851649416390003,-3.359337066797705,-5.38606700327726,-1.5337110157208111
735,-4.580083997653043,-3.6294327116338225,-4.921157791604971,-2.5493115517805776
736,-6.281514185181597,-3.6867518624776103,-4.346375685750117,-3.5112801026487164
737,-8.308873800544605,-3.641649033585296,-3.832015807331785,-4.6608217297246135
738,-10.313656185191713,-3.654208556838577,-3.5053431882303205,-5.883191866390367
739,-11.847285378947221,-3.6869428890356453,-3.305940832066203,-6.905236411223021
740,-12.642180171030299,-3.5191401157744564,-3.140109077211393,-7.500671479726027
741,-12.665418502599659,-3.0536582328148576,-2.919963511586863,-7.635776579584699
742,-12.689354913927918,-2.2571310866133785,-2.571266006175468,-7.544119333531211
743,-12.848839785868297,-1.1963319371249772,-2.0587309416407464,-7.552333640456238
744,-12.564861344469588,-0.0022389040895204326,-1.3961583839825598,-7.595979115046687
745,-11.123574256958657,1.2379847417606658,-0.6333853242739939,-7.274419497740747
746,-8.3799183227104,2.5132655339846557,0.17433005216798247,-6.485661926667468
747,-4.623165195419913,3.7273197549044266,0.9920903163533985,-5.217381257701802
748,-0.47858932673172516,4.910009271399262,1.786320084311349,-3.5258399660872906
749,3.4248381814422864,5.925515359581242,2.670901699061636,-1.4600824779266308
750,7.532566755548555,6.640561871907354,3.561002921887135,0.9688547267287033
751,11.22171768761455,7.009533587289093,4.2894627258754765,3.818347758244811
752,13.896275480678032,7.082683927146359,4.734284252212708,6.704369348834206
753,15.290860190754401,7.030726779534696,4.884884930151106,9.024349248169163
754,15.567654397349369,7.041627441866135,4.811427172720798,10.422857365534584
755,15.379951771115415,7.066998922221265,4.816117801277809,10.951324482366127
756,15.355386489648936,6.8351938285211995,4.903006884848033,10.877798994903705
757,15.402881616138439,6.257139314251455,4.781047290575063,10.877591748536494
758,14.746240604841242,5.332911252733244,4.3241590404643775,10.992715576008095
759,13.294250320235093,4.200057428077353,3.531996424577402,10.778505022319777
760,11.161712165652595,3.0513604797744844,2.4557641316158105,9.890571344007403
761,8.74478819567999,1.9376477658705316,1.3753066758436603,8.277324594386537
762,6.273008266966202,0.9744662668340808,0.59539494830023,5.804636651769516
763,3.8715368345353687,0.31420001388450947,0.10755842679135075,3.187599344437649
764,1.8115308626000075,-0.008015534951328118,-0.06380854894648992,1.228701352073763
765,0.455221922964957,-0.06825284322415086,-0.0387973125113511,0.05600510719478052
766,-0.11760228150779253,-0.011295723479756173,0.01829974007711133,-0.2533438941161141
767,-0.1280487284094993,0.022959979747483136,0.00689509442161587,-0.07165275032519275
768,-0.11233938372949387,-0.08284721454503224,-0.15061530097385661,-0.1341160683222711
769,-0.3606157744016032,-0.36106607302364885,-0.5528759579036151,-0.34165933409473925
770,-0.8027762775728184,-0.9463390021148708,-1.328487561438909,-0.6450373872741021
771,-1.4421759075545415,-1.8790108588890828,-2.4570534138527487,-1.0866236588203368
772,-2.274403657806064,-3.090272469176227,-4.044659625222611,-1.746220328453874
773,-3.284627688384707,-4.6010995682176645,-5.830946708613379,-2.945625538622649
774,-4.449842486991309,-6.0895433935354895,-7.373390130436404,-4.446840697263926
775,-5.532926264771534,-7.219677582324876,-8.348521074741216,-5.787985765690589
776,-6.302482349022973,-7.825459185288971,-8.69994675033259,-6.597874218221304
777,-6.671565348165972,-7.920162978509739,-8.57919021659492,-6.809120732846455
778,-6.705903126879248,-7.904393183947458,-8.57420468376739,-6.646469905893674
779,-6.676208741190627,-7.921471698687122,-8.717667926253055,-6.664321325243675
780,-6.706451767744505,-7.825363231260225,-8.500794011650711,-6.797496488724364
781,-6.665588175192172,-7.210388976219542,-7.689124099590983,-6.463865074334733
782,-6.304300494902475,-6.008942247374417,-6.255606327178544,-5.5234691290661955
783,-5.5769977374046205,-4.298261109206478,-4.362961461574333,-4.025879782392271
784,-4.50456055697018,-2.322384132895359,-2.279992093601037,-2.1941332841763383
785,-3.189909719625502,-0.34863659557314086,-0.1850789126512824,-0.2903127055785209
786,-1.7940250948122016,1.628739020694564,2.1544632599377955,1.549464730408461
787,-0.39992188996330685,3.4450875051082805,4.587501429964803,3.424123290889576
788,0.8337658894122548,5.000116420714857,7.159005665349971,5.290045224571938
789,1.7940400805959702,6.240123242340276,9.593642994984911,6.866523313846629
790,2.544887664207998,7.161881076423231,11.48713523531507,7.940082721863455
791,3.2514513833631584,7.7971294783596745,12.601921401664432,8.48744077799455
792,4.013170218414844,8.181565372277827,12.984254345626143,8.610014988946247
793,4.857056109314377,8.370955306012508,12.885081175956389,8.526407949564042
794,5.666786990116451,8.433427802659315,12.83037682739312,8.550321522722601
795,6.287527936420725,8.429319010003761,12.930237963669809,8.622490685600575
796,6.649788281860696,8.424554829571758,12.812767971943746,8.26686303346463
797,6.782389440825103,8.429491218802282,12.300641337370061,7.244976024154561
798,6.770610023200341,8.417437206191519,11.346522618254804,5.4590434465443884
799,6.742483459272112,8.360114865802029,10.026288018369454,3.1479225087668237
800,6.747887649125778,8.255842718469658,8.52470161577383,0.6949542562396872
801,6.737329145777069,8.09860202975859,7.012723339545162,-1.4689245780274711
802,6.69409524737035,7.868052246955361,5.416934526896375,-3.0712406285597362
803,6.5911514227115235,7.520226945562289,3.853481955475112,-3.947044715866062
804,6.460600791461938,6.9828154752941956,2.4076237059484744,-4.236685949540894
805,6.338917342324634,6.232033588437917,1.1520426156851977,-4.160618848054658
806,6.261569420715496,5.27930897524194,0.13178055435434055,-4.166171631919866
807,6.221606804658246,4.168798963197102,-0.6493889232714956,-4.263077205927323
808,6.214270169003936,2.961699186168115,-1.2329015191317796,-4.123265941337076
809,6.190278547101131,1.720456962716737,-1.6792442976748403,-3.4909792970598215
810,6.138965378371287,0.49856743738110676,-2.1233817362921403,-2.249089775572605
811,6.121299145889667,-0.6444963548648579,-2.5867456443175696,-0.42938251684049755
812,6.113443132493967,-1.7464536476424073,-2.998495919659549,1.7275531523578225
813,6.03101457201247,-2.687493166878339,-3.278882849990631,3.8462397300058573
814,5.75548076617991,-3.346025655729284,-3.3950425923338017,6.042399909307302
815,5.259074985041009,-3.681855109334982,-3.368975059069954,7.921199109179914
816,4.647655296570106,-3.7561531588237425,-3.3646836180229434,9.214765377784502
817,4.068802037686642,-3.6879229822870947,-3.4041477315141355,9.87511686139357
818,3.5805876201561486,-3.677795937341185,-3.3489507979177153,10.030186491946386
819,3.129187938158229,-3.735871783998196,-3.1213858020687497,9.915266327227764
820,2.659169411648954,-3.6695660296003068,-2.6819385371740925,9.89071729063838
821,2.173632603755915,-3.4095653608306384,-1.993911863240171,9.9917354664698
822,1.6924356364777022,-2.911925503621291,-1.2586582095181127,9.802450780154013
823,1.1918626742879521,-2.224649771911647,-0.7057448368749627,9.143970324009453
824,0.62840674921633,-1.3816875766015335,-0.38311910016490575,7.914164462556463
825,0.015853676390204213,-0.5152046033695539,-0.34391181631635287,6.250479099940265
826,-0.560659846326958,0.24670294540929927,-0.3258058361289157,4.484680358758689
827,-1.0249481394226647,0.7465891998011511,-0.2892073342359687,2.8831870683443714
828,-1.3953569021539904,0.9534495597291481,-0.3976752939649831,1.4061295199204469
829,-1.7754493421184188,0.9223694856992026,-0.9113172545445707,-0.008917457175970145
830,-2.2535164850617955,0.9232068440342681,-1.8204198787214296,-1.4209536395453979
831,-2.8220390821309262,0.9825951941318903,-3.052760802038202,-2.7453934289107123
832,-3.3978045552347043,0.8854831641374887,-4.2232836558816915,-3.841186682725012
833,-3.9002314798628914,0.4759541313849589,-4.986839155032131,-4.6758724547722155
834,-4.296171946643698,-0.25736960376715,-5.390926185212452,-5.359513531160775
835,-4.581587643747927,-1.1974434952276145,-5.469623284535205,-6.014081961211837
836,-4.757493417076438,-2.1386570464247794,-5.397282992361758,-6.645279642079249
837,-4.85618434615491,-2.9024085913964943,-5.402413886972817,-7.1803701299256595
838,-4.984783380865162,-3.601678066014755,-5.451603502080186,-7.611806802326258
839,-5.312931848037387,-4.157258310598502,-5.275397596229714,-8.035656483236288
840,-5.979789448071202,-4.527238311593395,-4.7989220523998775,-8.523332509254304
841,-6.955153395172282,-4.710618109002736,-4.059046417707493,-9.002427853673025
842,-8.249619455061524,-4.746959413154622,-3.2327099279433633,-9.349409296815134
843,-9.549297723842022,-4.7197125325250955,-2.5346813833951916,-9.50125408150049
844,-10.541098509580562,-4.717843649990163,-2.046310293913406,-9.488621030705943
845,-11.079214236321762,-4.730389265994582,-1.6529274556912887,-9.483241263788452
846,-11.167503226741786,-4.648495726378622,-1.2783763461000086,-9.523892593627009
847,-11.168209693239852,-4.447625531204838,-0.8445762305836749,-9.479429057415668
848,-11.190717098672025,-4.1219612897934175,-0.30605508941463644,-9.211272731853413
849,-11.096215169329886,-3.696607727659106,0.34756092337805317,-8.678697243374325
850,-10.469709357547313,-3.207283656997638,1.0773591565021052,-7.8681872805418545
851,-9.19471143625906,-2.6582522914269995,1.806107495065142,-6.762399523665409
852,-7.28546914695559,-2.0374587799644552,2.4439324014222654,-5.345488966638814
853,-4.9517476120619905,-1.3802442167844675,2.8996817622405646,-3.5909639876736725
854,-2.504281162972774,-0.7260269966014057,3.1499896765625586,-1.7095633389611946
855,-0.08371800903745408,-0.10768209874263573,3.240145840501628,0.2533453641079626
856,2.2440896520026894,0.46465002854069326,3.2398876744110736,1.974212180320947
857,4.186810014969242,1.001289463985604,3.228046674886954,3.1988975087404654
858,5.5229587289943165,1.512647936479325,3.229752076803745,3.8553401722453504
859,6.211863522739721,1.9886534479722502,3.2200696554904686,4.024711861293322
860,6.375322580897471,2.399463462054049,3.1704821668877585,3.9329908221619707
861,6.227487194426969,2.7232029972856147,3.0929712264543983,3.9144123397851884
862,6.257883656731555,2.9955424175660683,2.9954476843112587,3.9089454452346595
863,6.435729832319468,3.219012053244402,2.881688671917803,3.6763630382954404
864,6.145496926251308,3.383489583509056,2.752305141007653,3.3472618644760366
865,4.933527526787111,3.4780566601426157,2.5905517587061886,3.049625713595105
866,3.0967169060462965,3.500916493957525,2.400429280341831,2.906379694547049
867,1.316072983250366,3.495617599411122,2.1782810377497235,2.930418858270734
868,0.2362311297596514,3.4884344640474945,1.9117682178643742,2.930687471479575
869,0.12031626826290706,3.4785568778719744,1.5944802183338018,2.8963510973844335
870,0.14173997299971536,3.4268731904037617,1.2362707769725523,3.105881095300516
871,0.11107494162747478,3.342894972676372,0.8474123114138477,3.782232901718414
872,0.3167528003749631,3.235556526118431,0.41478261568546476,4.757145376323101
873,1.3071673244631352,3.1060936200557556,-0.09461144857837167,5.673235066999376
874,3.0979059329797325,2.9341827025133624,-0.6861718408264851,6.2136672653744975
875,5.263678975387418,2.6671201738723607,-1.376929026893888,6.329835845171481
876,7.060119175543604,2.287341191715877,-2.036154476022564,6.239442477945778
877,7.984914419787525,1.7952020622530203,-2.521532073567597,6.2047310637818125
878,8.33894054502732,1.2165078469343507,-2.7744356710783875,6.30129982430192
879,8.250946805701888,0.5937648022991576,-2.833577837926303,6.218596119902657
880,8.266871518337517,-0.031206521406137416,-2.7994357211283467,5.797309297265409
881,8.406411351206952,-0.6323701333413048,-2.7732742766844547,4.928738075965961
882,8.222730082070985,-1.2046636968967555,-2.792242958032859,3.676034510806325
883,7.336616082549766,-1.7438298148042572,-2.7866643849181667,2.224421778268574
884,5.603465546368487,-2.295712053625538,-2.7836763837093756,0.7169697108415788
885,3.1176790843846147,-2.8022703726304803,-2.7951808128650435,-0.913084857402819
886,0.2843814017573276,-3.181538797941216,-2.785387639659608,-2.6112449825649326
887,-2.7613366550973213,-3.390418890213785,-2.679456099617233,-4.495965770415648
888,-5.6860474354350234,-3.4480185452232224,-2.4048793886152664,-6.26039810212947
889,-7.8638761493840414,-3.4055097886640167,-1.9320253371111307,-7.557602504710349
890,-9.020243025011336,-3.4113893667643533,-1.289095006121154,-8.241438348924321
891,-9.293373289083323,-3.4785530244937846,-0.6618386933207072,-8.410867158962782
892,-9.117809753975394,-3.376454286223816,-0.21118002046165996,-8.313452099074976
893,-8.96435299129867,-3.1077367420193607,0.009528775562498426,-8.216196820555535
894,-9.050720913791109,-2.7690230539148315,0.047428658704651384,-8.269002455382559
895,-9.050720913791109,-2.4920352117286564,0.007078275669434218,-8.269002455382559
896,-0.1449280479540846,-0.1265604803376052,-0.08403666202600601,-0.11169238576957435
897,-0.4683197980947286,-0.5046192144678484,-0.3407653495689438,-0.2613608962438436
898,-1.0409684499652085,-1.2579647111414187,-0.8651779066473234,-0.4721519665333078
899,-1.8664232178893507,-2.3866959840099735,-1.6793966398958617,-0.7841007399034878
900,-2.969408897765527,-3.8755435204504236,-2.696217019290875,-1.3550400900536856
901,-4.11061555943425,-5.597930351532207,-3.8758698092145862,-2.3580298950654446
902,-5.007867078048239,-7.166160872180537,-4.970205009754381,-3.5547039906717903
903,-5.499367699791798,-8.25386279668877,-5.757508978282426,-4.564957303662897
904,-5.566814210136396,-8.754732615244867,-6.156752426181977,-5.120047579893079
905,-5.560760535937864,-8.740596570969274,-6.213005476814479,-5.176506829291652
906,-5.592722650382488,-8.747574509195493,-6.191144907620141,-5.1586553227019305
907,-5.488206655866177,-8.850117612643343,-6.209390519072085,-5.20732905793863
908,-4.899374962876118,-8.666638977004348,-6.169082505690773,-5.07323745025424
909,-3.799457239832203,-7.788783239816502,-5.77699994842709,-4.414816032273305
910,-2.357438297480514,-6.138500736517785,-4.955393762731125,-3.2806111575850276
911,-0.8871343442011801,-3.8865458592809206,-3.736012377364741,-1.9110978130286498
912,0.3763658560213183,-1.4116008938376678,-2.2783149881243823,-0.6093858577333506
913,1.5682702421392827,0.9416312971206807,-0.7708342682432283,0.4806719731175036
914,2.6914985421885964,3.2681067921932128,0.7663365635428477,1.5969773242915495
915,3.735815230960054,5.480839908744524,2.2227091863571906,2.7142258782107644
916,4.631546922747943,7.517404755574157,3.6106322207747144,3.7603034457598294
917,5.368969028075264,9.137288717821052,4.790883017067073,4.558104974534006
918,5.909976460186432,10.166199745385802,5.622010227827664,5.02249109311612
919,6.253989872957267,10.609380877240365,6.0613848288206675,5.207409742343352
920,6.427515934826103,10.61643639513975,6.181767966493597,5.210982106766515
921,6.460919301234681,10.585620360445843,6.107675647655966,5.222955866923579
922,6.452584486224865,10.619808968793992,6.103716667602424,5.234569635824727
923,6.450067783445705,10.526127351267533,6.175107141845547,5.175265727192348
924,6.4365351183599895,10.091345444931054,6.082110631418047,4.919448776284117
925,6.302214928683947,9.33413909199545,5.742355269252479,4.416260775893983
926,6.00049283249213,8.372125998115381,5.150519862682462,3.6373725414335016
927,5.592910954189155,7.398904278577269,4.396619501737411,2.6708038074375855
928,5.196595564964327,6.567568331898928,3.625969634088921,1.6454674363077242
929,4.916773246584016,5.7976527620649145,2.953110974198111,0.7134781113981612
930,4.808153927496017,5.156914031490438,2.277282465766136,0.10478554805276774
931,4.823201632345677,4.669930494725925,1.6717871035918253,-0.1508696979415764
932,4.776469339967494,4.336113509293137,1.2177201381489693,-0.15863622555010298
933,4.488830305787101,4.130618506124907,0.9559075852185317,-0.15267776420417062
934,3.8866285202410626,4.007605746786678,0.8644883940509922,-0.16287375337235444
935,2.9320061578410175,3.900256395434565,0.8808002460444151,-0.09655626356984767
936,1.6683542768568693,3.726648956450085,0.8934179214034207,0.1527004787998119
937,0.15940312604696338,3.409026119388043,0.8759602006637321,0.5426625243188121
938,-1.5245919200261189,2.898097541059769,0.8980714056363722,1.0260892743911092
939,-3.391149065833663,2.1872657147119727,0.9993844002756126,1.6148295885653825
940,-5.100871478092735,1.3058145894026998,1.1775249254293114,2.228945272818686
941,-6.328998054846821,0.29822017640149,1.393213587512538,2.81915197126656
942,-6.958569594635122,-0.7888019148982609,1.5818097053492448,3.2274561170792366
943,-7.089130798243133,-1.8847317688420717,1.7022964387092705,3.384403329108561
944,-6.986753896880232,-3.0266944427881786,1.800258383542708,3.330986114014656
945,-6.973041092026446,-4.054790789000924,1.9057270106912063,3.3499690192367364
946,-7.0275307884923235,-4.799491333159534,2.125666610395971,3.428971631176385
947,-6.802857845197496,-5.189838786000355,2.428408517917855,3.3038789571400793
948,-6.223178906487235,-5.282056047245513,2.7167435804105367,2.821262054017428
949,-5.261793548679487,-5.2034241551335505,2.9033920603255967,2.009079249776273
950,-4.025564153842219,-5.190108880408042,2.9594479045316358,1.046344058376582
951,-2.7236563410942365,-5.255944263636217,2.9141568346948596,0.012286210584213725
952,-1.4907340598623147,-5.181635232237513,2.936800554999475,-0.8836388496540142
953,-0.291967449648682,-4.912175646444698,2.9970660841192704,-1.6267611456853173
954,0.873465767590618,-4.434353541165974,2.8729659158200196,-2.095638515142956
955,2.0914340528626303,-3.8197117158031197,2.4287243144156694,-2.2618148105053817
956,3.403661612862829,-3.1924245675946397,1.6159256083024518,-2.196892542703403
957,4.587597832593907,-2.6484339684968163,0.53430168889112,-2.177223006728965
958,5.406849726591557,-2.1338380139083717,-0.6137436887455281,-2.253213639876402
959,5.785635708811895,-1.6801082071933289,-1.6740549701009277,-2.126871810157677
960,5.798183410338127,-1.2413912170292527,-2.556315831827243,-1.8180813723295044
961,5.798756887842697,-0.8532560096192544,-3.1314286903984208,-1.4416513215228848
962,5.834784911768816,-0.5679877271168614,-3.3944917721065444,-1.1439711219403923
963,5.716567405187263,-0.41264041306257593,-3.424861022687981,-1.0577531819812753
964,5.2269084691137255,-0.3802949889392313,-3.391748302955587,-1.0780747312326526
965,4.38733250651683,-0.3961546159656746,-3.3888628126802574,-1.0445175105749192
966,3.298211713785817,-0.3849388759604131,-3.383158847860124,-1.0940951542024369
967,2.099728430247858,-0.38419541047015815,-3.261819597545652,-1.4900767223212636
968,0.8868340850870042,-0.527123366055956,-2.951648467387299,-2.2589297234974577
969,-0.4441067405522118,-0.8465861546111952,-2.533315422406958,-3.2914343661122056
970,-1.7169202320563812,-1.3172991725296188,-2.1580985429068362,-4.24766378860579
971,-2.978070361787213,-1.858763969195435,-1.946023984005556,-4.834959124968699
972,-4.085288577928324,-2.375752079392042,-1.9095145279412629,-5.085904570232741
973,-4.9014404876727875,-2.907109485307221,-1.899487706366077,-5.105963051474039
974,-5.364715365567128,-3.4113103120881876,-1.8685577756065563,-5.043033280777623
975,-5.4759063301132995,-3.794036254698469,-1.914859099858863,-5.0859939232550655
976,-5.451118134706016,-4.004369839544191,-2.295672509099192,-5.152734651265628
977,-5.466940310297374,-4.05097547323768,-3.0430110800205776,-4.963258669369776
978,-5.432926445219082,-4.017260491068144,-3.917752098319132,-4.33709588698042
979,-4.988803984964921,-4.024419935367194,-4.598741507850239,-3.286585095025679
980,-4.148843143101281,-4.046454669829096,-4.888082605711139,-1.9432080103391076
981,-2.9010056465508134,-3.9229803605408455,-4.884738161690159,-0.7230781047437046
982,-1.6229680212534292,-3.5967302878046885,-4.8759930779730185,0.05878963178157889
983,-0.7172506798155341,-3.0621499698166943,-4.921785576912166,0.4319861720177421
984,-0.24634700915926344,-2.3885979717793653,-4.837012920927369,0.4768135499223049
985,-0.13751452370652767,-1.6860437189235025,-4.414610337355387,0.452113399156293
986,-0.17497285326552572,-1.0184248616495784,-3.626117258912284,0.4824123350008661
987,-0.18333836268095335,-0.38231963430586385,-2.569753616117513,0.44323884834832233
988,-0.1625609223313748,0.18607316110613228,-1.4622798369211,0.03182733292495504
989,-0.5749476972905654,0.6681349560965997,-0.4766921268514045,-0.6267642378991537
990,-1.3159031631710192,1.0566711095559107,0.3989997998267768,-1.286775601125917
991,-2.1142303050515117,1.3532997097341857,1.0390066464557213,-1.7017163148073124
992,-2.669226674639369,1.5643809355994531,1.4042957217413878,-1.7190962549752298
993,-2.8107323753983695,1.7034866436746163,1.5367693749914775,-1.7396917891378498
994,-2.728976686452559,1.795742058137952,1.5330355748421134,-1.8013417970710384
995,-2.7371760883693748,1.882072882252591,1.4985057220046034,-1.6507121255173614
996,-2.7953209675314783,2.0229909055440816,1.4974176448027805,-0.9760281549281922
997,-2.495227845228631,2.2877183970132853,1.505200639815571,0.3223128697206047
998,-1.670886493850348,2.728133591166014,1.505200639815571,2.2288427461804803
999,-0.28776710421148544,3.3545439363344616,1.5173635450642329,4.553710229256783
1000,1.4689652405053473,4.134926926945141,1.5014939352080683,6.946673467426724
1001,3.2430407867380318,5.086423210756819,1.4665434744402364,9.58186694582894
1002,5.126882743468183,6.0159191967147665,1.4698512290937273,11.963428126714229
1003,6.950840164112582,6.719753832346476,1.6996998543238067,13.670914384704828
1004,8.367956749612286,7.096933078498112,2.122656873868823,14.569813030781328
1005,9.18928236937531,7.141422121159622,2.584446673688135,14.808231780647604
1006,9.414098235597763,7.15592340453456,2.910822495600032,14.61070763887861
1007,9.298755532541147,7.193086430258507,2.986999489374424,14.63411899854672
1008,9.270037856384388,7.083751543515482,2.9893947754635013,14.861212158010737
1009,9.350612133109495,6.524202207641043,2.991421808080546,14.609208698299964
1010,9.005637158597244,5.472899796034672,2.891004258391548,13.505555960538006
1011,8.085802252768204,4.040192086190424,2.5924289150025506,11.340085516254716
1012,6.582257823606811,2.473162453503992,2.2266377455796778,8.276277095222852
1013,4.735635083453754,1.0047789532044489,1.9358828715651588,4.82926852207146
1014,2.955432862656279,-0.3953380115015599,1.8232203215433296,1.6256872716981217
1015,1.1711771360995344,-1.708942597244452,1.8835937838912302,-1.8057890431819617
1016,-0.5048532790074663,-2.796856930721244,1.9195866080949433,-4.962261148090155
1017,-1.7886414614580408,-3.5382131176050646,1.8970490969504883,-7.354414002372426
1018,-2.534060301470809,-3.9083098073229308,1.8915951142624123,-8.714244222372098
1019,-2.758957952206058,-3.989448855187804,1.8861411315743364,-9.104446322983485
1020,-2.6603318352438436,-3.9320571067254604,1.8828081421538452,-8.91795648840398
1021,-2.5423431851197416,-3.8850057743240582,1.8826263427309098,-8.711132923469961
1022,-2.6015287077841975,-3.9130835393447803,1.8844443369602681,-8.817623470372537
1023,-2.6015287077841975,-3.9130835393447803,1.8838383388838154,-8.817623470372537
1024,-0.04375805479279404,-0.10698259685358286,-0.11729392317567838,0.05317578325999045
1025,-0.2697424439233088,-0.41343277900050573,-0.4802845124248941,-0.045599762386436815
1026,-0.9410873477754675,-0.9833252684295443,-1.1939994944438581,-0.6160536046917968
1027,-2.2798296481741094,-1.7846246682585818,-2.2588834236439066,-1.9393581153797526
1028,-4.353758387502393,-2.8311259560327473,-3.5368836986668617,-4.036448967562179
1029,-6.959471144949,-3.890879352078824,-5.055760231603429,-6.588741995805612
1030,-10.451355183827594,-4.714449133732743,-6.5257332019967125,-9.856660689439789
1031,-14.149832743114708,-5.1704035952592635,-7.645217612699513,-13.231478451952423
1032,-17.187075417699756,-5.273323513709454,-8.260034682296977,-15.990184142842462
1033,-19.029378134322894,-5.211153631012649,-8.380659090510349,-17.66208276793393
1034,-19.52768740710457,-5.185218780214765,-8.335672638739236,-18.25554842126629
1035,-19.103121281941142,-5.191781394369305,-8.356231755949375,-17.7716133071099
1036,-19.025625422797496,-5.028228773610848,-8.325134389837263,-17.54978982681041
1037,-19.808142350889916,-4.69987070568962,-7.771637074081918,-18.183966145582925
1038,-20.670296523122154,-4.130757455774299,-6.577048861056728,-18.99188190776924
1039,-21.707177843898492,-3.0919587860421833,-4.7681103032729935,-19.9472275112483
1040,-21.188719965285262,-1.4186354686491718,-2.487939531836149,-19.95276527166693
1041,-21.195189705757734,1.995931614960965,0.16481834694863506,-20.017346865171906
1042,-22.64056868915734,6.665357206776216,3.2909592384210424,-20.626877209206842
1043,-25.321330037726334,11.146280695272226,7.542670816133215,-22.13268107478061
1044,-27.939490645602184,14.159439891861313,12.134894328362146,-23.55164002646215
1045,-29.246694313360674,15.28005405510991,15.91315080757933,-24.341710228531017
1046,-29.421390728882102,14.851162011338475,18.106153960000743,-24.039570952306025
1047,-30.01032520310758,14.834193444879329,18.51399606066756,-24.648155093892488
1048,-30.1583073990699,15.338265805575286,18.557326810986027,-25.49753799585056
1049,-24.52134316951237,14.538784823043187,18.584564967403495,-22.66636859200569
1050,-11.444056901435193,11.794293453668239,18.057049049878586,-14.258419829144959
1051,7.761057537832539,7.212842238173711,15.632329718297472,-0.5400682004460773
1052,29.22565767883647,1.6196119365598654,11.40669486402698,16.24506626808472
1053,48.863606375080586,-3.885731879982471,6.015031492226342,33.23944743682915
1054,65.56826604787368,-8.562634560763804,0.6386586908635575,48.93309510683501
1055,83.47907907227082,-13.957045814413565,-4.130987945514018,66.31780719362695
1056,100.63089778555198,-19.20964400098715,-8.355982357638327,85.02620699989549
1057,114.00331552442985,-23.30267964126234,-11.273256861140904,101.695516029266
1058,121.61877958500692,-25.606711469243788,-12.711839765210769,113.1622561902247
1059,123.42550973738331,-26.180779322673967,-12.974685181778112,118.42882715331737
1060,122.65366310202808,-25.796228175624137,-12.76783932670433,118.34569764505747
1061,122.59469080659183,-25.77989961717293,-12.7639657584002,118.26514835629932
1062,122.75658710456254,-26.06164803433124,-12.847845426446714,119.16316085768018
1063,117.82097848139381,-25.098279144384858,-12.145860593610683,117.3458702255394
1064,106.49926497995166,-22.495600421038652,-10.471311899447413,109.35651135908884
1065,89.37270179948419,-18.33277017137927,-7.95824699548479,95.10354281182602
1066,69.14890912589398,-13.300425191318308,-4.833892374515031,76.26463977214453
1067,48.85010007763295,-8.320336411368816,-1.9104747166217033,55.7258363219441
1068,28.835705374687386,-3.812995769299164,0.22402997920345655,35.86535655812919
1069,8.692180738119472,0.6149441832466451,1.4474633277185192,15.35995557638025
1070,-10.951104571095177,4.863657783076537,1.8221132607708075,-3.989810268682402
1071,-28.703967964744272,8.813718131249242,1.6899008502412358,-20.53611335146939
1072,-42.857918499981636,12.238246775673703,1.5405196516232071,-33.2750245375369
1073,-52.54374287013998,14.953069378349388,1.6304062730819546,-42.338453127944035
1074,-58.30232237347686,16.978081825269726,1.6977253113401338,-48.79428754016988
1075,-62.09265970251922,18.613648764859686,1.7548602827157582,-54.07129350068912
1076,-65.05663476159157,20.0645491497012,1.808551495227216,-59.110255210192726
1077,-67.44556464509358,21.274085613362082,1.7743733967033886,-65.15052222087752
1078,-68.96625728127012,22.082337227216215,1.7242846132047784,-71.30584157166102
1079,-69.30424652043564,22.4140104943243,1.7944759374293087,-76.15122951415049
1080,-69.33990347286831,22.383764475925958,2.0271268467161088,-78.8710771504681
1081,-69.33963451982814,22.326108525640983,2.4660184982632503,-79.55325735801202
1082,-68.98834173465701,22.382541238463773,3.0762643801057905,-79.13655938425542
1083,-67.36749788228427,22.36849591550215,3.749761106451746,-79.14472605015007
1084,-64.44648501565906,22.055008974836685,4.383358179622556,-79.45995721038747
1085,-60.556107222534365,21.28314125915639,5.013893619879686,-78.0953180726733
1086,-56.33412759343422,19.97237573231186,5.610235444882016,-74.34204653642898
1087,-52.245617424267394,18.177906002936147,6.171069150713644,-67.97686064427657
1088,-47.92345105675557,16.067321939590496,6.6615075297963005,-59.74464210329076
1089,-43.78820276272526,13.751808534858055,7.227509536836285,-51.13072178149355
1090,-40.1310114760843,11.385626410219652,7.821257105608069,-43.2927790560243
1091,-37.367480485288205,9.088596409414373,8.33600376352839,-36.454408907272104
1092,-35.736479112106245,6.951190516249195,8.677280424773556,-31.091116451890734
1093,-35.08414957508867,5.039039086610857,8.763848218772978,-26.8183992526862
1094,-34.99628896024274,3.3623888697688007,8.794584424401291,-23.578969256148454
1095,-35.08879921007116,2.023983603238141,8.817373050948333,-21.439769492133088
1096,-35.133719660279134,1.1437383671855352,8.72369413073837,-20.38101720326361
1097,-35.09597517143082,0.6933496944740971,8.178911116048377,-20.15394489081138
1098,-35.074692904518564,0.5340084457097789,7.1275900406106985,-20.357468349288872
1099,-35.04275926897226,0.4901970714576789,5.686201869436676,-20.310225510757498
1100,-35.04700128861811,0.41962804735528303,4.136784393351478,-20.279176169112723
1101,-35.111270177957344,0.34318011311549057,2.757898663357756,-20.667065031778783
1102,-35.08959666124239,0.331297516276141,1.5264365775546116,-21.26876386032592
1103,-34.74656258138568,0.2663083867135999,0.48778968261353994,-21.85027866587469
1104,-33.86449098589278,-0.05280638741957855,-0.40619615007544924,-22.10148848055799
1105,-32.26292793029306,-0.7456233730347246,-1.240475702778601,-22.22290529236981
1106,-29.846853062879628,-1.8418459527222897,-2.081547155636308,-22.26843063177709
1107,-26.62027630053008,-3.269564454535267,-2.9439312342690784,-22.117400098845323
1108,-22.613774259668137,-4.909201036252824,-3.793103931833933,-20.89553562354666
1109,-17.931399733507984,-6.709951576686745,-4.581088348776342,-18.319474678827923
1110,-12.748710852971032,-8.59411319512651,-5.287479913803396,-14.391446868382122
1111,-7.184234174226189,-10.47183680476858,-5.932941722977005,-9.450288049614846
1112,-1.3291298690758755,-12.272498877353513,-6.564288732726992,-3.972861572616245
1113,4.691898888925875,-13.920702725209576,-7.231987175393648,1.980128539540667
1114,10.712609200563126,-15.504434862819519,-7.960540287185399,8.113999454773309
1115,16.58452324686761,-16.86696973736353,-8.916650034021274,14.130631616904235
1116,22.227633947279728,-17.833180415080943,-9.947574092404189,19.906935769680437
1117,27.600289138269794,-18.336491709317436,-10.8057357524172,25.38926422617817
1118,32.62739951994355,-18.419570747017904,-11.314107098859768,30.453435965495075
1119,37.19051728575181,-18.405322963108137,-11.410455884301479,34.903293357383376
1120,41.19075290430986,-18.416456867837805,-11.422910916302342,38.610530100934994
1121,44.58274763423339,-18.3465701638945,-11.444530721916234,41.6090369322773
1122,47.469525299884296,-17.854465567837234,-11.327270830417486,44.002162224994414
1123,49.886809265590834,-16.884983315647478,-10.69309693082269,46.0078293879538
1124,51.683482352521125,-15.502607028213053,-9.519873289865416,47.56268868453553
1125,52.76295005502966,-13.912543798888404,-7.968872931261553,48.5643403442589
1126,53.19507872885811,-12.343218392735649,-6.358529467344456,49.03072860303075
1127,53.16860084754255,-10.804333384438603,-4.962849845807683,49.0950307249004
1128,53.147021867975695,-9.426979961221477,-3.6833541779832015,49.04149228240308
1129,53.212355296722684,-8.297072657822127,-2.5450151500749025,49.08507208211109
1130,53.08825300053333,-7.450612174968125,-1.513934517571107,49.07901405629627
1131,52.526273464407886,-6.863504306793138,-0.5120832901060793,48.6557341862371
1132,51.49502188175855,-6.448430937946793,0.46918871646041643,47.71794000877416
1133,50.04449229415741,-6.0714288194549795,1.2735902354530952,46.252321538625594
1134,48.27640007895418,-5.599166523729467,1.8268373767097996,44.34684177430427
1135,46.25850395377157,-4.958199321423032,2.131306900931496,42.15185173514364
1136,43.840084826669425,-4.1574012180639075,2.215508587729475,39.71508712357351
1137,41.13387377333825,-3.2518464561601053,2.2616129130021103,37.07434294392312
1138,38.214929256876474,-2.2873601723715993,2.3413468691000174,34.330131494597246
1139,35.08816017254966,-1.2734616641523728,2.3873275862105867,31.420149895155323
1140,31.731757563617524,-0.1952178269135067,2.4671284897753143,28.234901889025867
1141,28.207317561389257,0.9549099242645981,2.7686087626468456,24.79081675926813
1142,24.693014412838625,2.114889692018013,3.323658544420527,21.27182557859487
1143,21.381865292665342,3.4324899042888437,4.1015067761322275,17.894012404157586
1144,18.37102308057359,4.728332243009574,4.903240687530436,14.777889204467979
1145,15.671063836420817,5.75160093541064,5.434138305540666,11.979581854048819
1146,13.282110607452285,6.343220809526531,5.652900553702423,9.59567699325093
1147,11.331953061936169,6.513816730304131,5.68322394564313,7.828115279792548
1148,9.233477770019224,6.433701867350757,5.641664244259021,6.377699127843642
1149,7.079397453813364,6.343098250013151,5.6196265411646245,5.178454547186034
1150,5.219575037194882,6.389068960003356,5.635749795926241,4.2418217460003005
1151,3.995306125307624,6.389068960003356,5.635749795926241,3.623429892861656
1152,-0.10943689110551486,-0.06466612426305024,-0.08494419741020587,-0.06835213227590137
1153,-0.47571074666858615,-0.32004598167634557,-0.4045485922002602,-0.40485148195275855
1154,-1.3177810750931576,-0.9102001164831356,-1.0463514656439634,-1.2838722672494194
1155,-2.8217889845187556,-1.934874789652255,-2.181992058730902,-2.9010804143057145
1156,-4.950834253906725,-3.3764675584460777,-3.5389398056356023,-5.142523553485175
1157,-8.007835955404632,-5.238023879268679,-4.712181699214764,-8.00819471635146
1158,-11.316225033745633,-7.392264206456998,-5.41970139414094,-10.824136545795092
1159,-14.005449207294467,-9.369342773313175,-5.636934695208183,-12.927017947585595
1160,-15.542535082503086,-10.755679863265646,-5.518733616035421,-14.037236399538358
1161,-15.873936739372095,-11.407659748480224,-5.510268352164304,-14.221681879319657
1162,-15.761266521176154,-11.401261599892912,-5.622560392753622,-14.18721806754471
1163,-15.776431610448459,-11.414907431803503,-5.4501750455877565,-14.21929833363824
1164,-15.691369624941213,-11.545003172496013,-4.894980338713717,-14.071550017003474
1165,-14.47518637639607,-11.310527050317056,-4.0291324712546155,-12.964061870264807
1166,-11.970714896415918,-10.160536520931169,-3.0704564558724603,-10.72650808844299
1167,-8.343897860104773,-7.986365313039165,-2.2477885219716605,-7.42266348959761
1168,-4.160564507568228,-5.012748877467942,-1.6281035339291146,-3.4668437652267174
1169,-0.08770463711847731,-1.7492368114321524,-0.9167111328809526,0.5678793033389531
1170,3.771401134634085,1.327189099331317,-0.059691548815408835,4.543290767639147
1171,7.313782796380895,4.332499923460211,0.9450400829721464,8.156111846773744
1172,10.422041157701061,7.087465414021934,2.023981141400704,11.298530896273919
1173,13.12368311766645,9.479806193138804,3.0658378449417785,14.200381561701903
1174,15.442767258741432,11.560711971172397,3.9566989407772626,16.673786540251164
1175,17.34348232807955,13.184894710094067,4.634473666643428,18.42578855195477
1176,18.85237971745088,14.238900214356041,5.137016239316999,19.313399482327142
1177,19.920177222726025,14.741417779748557,5.592820769321725,19.444097369459566
1178,20.558327967847763,14.84097749914305,6.131091981412549,19.3783167248978
1179,20.847502053006817,14.737168275966072,6.968330454860699,19.379854396992904
1180,20.87099482383568,14.72858867445476,7.946298816906274,19.287461128307395
1181,20.87908763260723,14.816240630609066,8.783045890314664,18.639447484821268
1182,20.9115734692528,14.704225507364775,9.277805615410987,17.474735592695854
1183,20.839936334216574,14.284628647106958,9.375606908961025,15.98723693336093
1184,20.410855154314625,13.492403311682617,9.367297079355303,14.44449693731565
1185,19.540286893281383,12.37852192025563,9.374438142464035,12.991796004984817
1186,18.25469354158462,11.089154677948784,9.298692487169879,11.433531341307308
1187,16.72955768633827,9.764811876144902,8.80070242807727,9.818073274928741
1188,15.180481270153836,8.378986160113946,7.810999713445195,8.269299018249502
1189,13.597729598500226,6.989511197233651,6.350761862207304,6.870217946405062
1190,12.012324802645288,5.601147752368867,4.560705079699776,5.554661114346029
1191,10.35392862833729,4.201319302757668,2.652174737489285,4.1903615144512685
1192,8.55779368435855,2.784897588899513,0.4781296143391836,2.758712062300562
1193,6.625704116389449,1.3678379108403558,-1.6530564893885944,1.3985155614637035
1194,4.59604768823802,-0.018525953101244552,-3.3321044724624285,0.2504413300670888
1195,2.469654539973426,-1.3422849523499771,-4.322729773494247,-0.7007303050393648
1196,0.1964229209024495,-2.5684267188049765,-4.661880400543986,-1.5969141483381746
1197,-2.2515959282154347,-3.721824592233111,-4.5639841686417855,-2.5399294633782055
1198,-4.806804009506655,-4.679106477683718,-4.541366954996595,-3.4977775844805885
1199,-7.324696417719047,-5.326439137983065,-4.653014022520642,-4.3955170385450915
1200,-9.648157633904251,-5.6402371426743825,-4.470587362096502,-5.25704082088118
1201,-11.834653240486716,-5.690946850292409,-3.8521995995414526,-6.194799376375146
1202,-13.746568534601257,-5.662381015001422,-2.971663065449096,-7.248650140652653
1203,-15.168559770790399,-5.6365611742028054,-2.1416745254697265,-8.364610583996907
1204,-15.981246214847246,-5.607397296525002,-1.684064063810239,-9.441174740295683
1205,-16.244234192583033,-5.501434496537781,-1.6389306452986996,-10.294479312153507
1206,-16.140900345739823,-5.3755606900691815,-1.633062399953467,-10.836467730792334
1207,-16.129558613547236,-5.266346423349043,-1.6180513749606686,-11.089120759205336
1208,-16.24675190727382,-5.217226949741447,-1.5399403420760098,-11.093673597278874
1209,-16.105390396666138,-5.207656876732824,-1.3237045547335153,-11.114426912311895
1210,-15.497137998740302,-5.184353594206275,-0.8930027506906559,-11.16525291390515
1211,-14.356697089131472,-5.17496721938523,-0.10316170398918884,-11.062465819426855
1212,-12.765981535138973,-5.1486431114999665,0.8706798402059295,-10.556840613288605
1213,-10.908205032457507,-5.038686291330285,1.6840941232759092,-9.563453575276561
1214,-8.952277538847035,-4.8048541835308285,2.1263716993538537,-8.15814485231286
1215,-6.853052802377797,-4.44423909949847,2.2359968862027912,-6.619546956167548
1216,-4.867537096657302,-3.980381290084969,2.17276654744457,-5.275750568747912
1217,-3.248211845038634,-3.4845618109498253,2.182620179558319,-4.1586212132293285
1218,-2.0867864387874073,-2.9868823022982585,2.2144446934454964,-3.3214899380491634
1219,-1.3311224129828652,-2.5098668718803263,1.9335743193789967,-2.6463105779870975
1220,-0.8765184444301924,-2.0825332617343033,1.2767502720352544,-2.024608524982241
1221,-0.6227298290002686,-1.7169148226311008,0.33014561971533446,-1.4521784431452585
1222,-0.5138086976866246,-1.4091642786002339,-0.7449346623777428,-0.9826950279432589
1223,-0.5120945209611779,-1.1497499062569032,-1.6956531721589019,-0.5000846458987458
1224,-0.521703521096236,-0.9361048421876706,-2.365667344355423,-0.009654595626744061
1225,-0.5253226035073524,-0.735036437190685,-2.779973933632186,0.42663120097122603
1226,-0.546534274952398,-0.5564840801579439,-2.943154788864754,0.7220708048618227
1227,-0.6050293525910452,-0.4221926152601807,-2.9214259671640095,0.8164867498134654
1228,-0.6669855808840283,-0.345663303881512,-2.910938625110019,0.7885938095484003
1229,-0.7269147670538416,-0.3298324682418108,-2.9518177250463915,0.7933257881863529
1230,-0.7530444892087477,-0.32889840976926443,-2.899268037428755,0.7578992816531167
1231,-0.7742795640374271,-0.32328446777902164,-2.634213140472006,0.5666683267431556
1232,-0.8327400282931002,-0.33127214490998463,-2.1195892773997564,0.30880033759417613
1233,-0.8849374633863941,-0.4472924150030854,-1.4191372217236928,0.08059927495162927
1234,-0.8844010884641031,-0.6419478595196575,-0.5309457650863013,-0.01651687692686141
1235,-0.925388169499169,-0.8433797969605028,0.3265933563433707,0.009769696087962706
1236,-1.0394855860155747,-0.9762444923225118,1.0205585418994472,0.03495979607628593
1237,-1.1884731821988275,-0.9979518883769607,1.4177449628243035,-0.02786252177355178
1238,-1.3398540670422052,-0.9870165403267842,1.4962787016940835,-0.07672440964587413
1239,-1.4175128092704552,-1.0027232204461651,1.4871877377976508,-0.13785668909506008
1240,-1.3889212304044871,-0.9984316156425228,1.5150347273199978,-0.09401577540051154
1241,-1.3887324499402474,-0.8520596783241975,1.4589239805056353,-0.013678938164290139
1242,-1.4462740788690118,-0.5274277988508709,1.0050850130714983,-0.16503772098424468
1243,-1.3801201108406473,-0.054335690892287014,0.06347614525941386,-0.5428399390947891
1244,-1.0731111159177547,0.4652916489293876,-1.1801944514156677,-1.0086698833106482
1245,-0.44364149967811917,0.98974950901849,-2.299833291449374,-1.3828225278323165
1246,0.44508776301646785,1.4530393762980498,-2.9501503919429886,-1.5107549785683356
1247,1.5587560364247146,1.80321189280586,-3.187848089198526,-1.473398675985263
1248,2.6117086394913676,1.998742084829586,-3.156965660416961,-1.476997120821808
1249,3.4262318730710266,2.0466143367076537,-3.12538529724655,-1.4334083621168563
1250,3.8646416949158,2.01160930938358,-3.169722879892519,-1.1232028896115338
1251,3.976692213247166,2.026611966826849,-3.1247815293660235,-0.5858991385792984
1252,3.9064190173087217,2.05782985875639,-2.839686816288684,0.05249035816901554
1253,3.8452956790990087,1.94097774145769,-2.2421048217705395,0.6634594306370023
1254,3.890687891764077,1.5347694798341285,-1.353479356793571,1.2267596403949173
1255,3.9103629600080763,0.8801536204428237,-0.2497895036854458,1.8960169123487858
1256,3.9366773564729303,0.2009924472901238,0.9280564772287854,2.6824200628327297
1257,3.9966070540948326,-0.26419607996027944,1.993857982983802,3.461374407691893
1258,3.8709869966337025,-0.43049638777923455,2.7205618917035244,4.140266950479002
1259,3.761792792140208,-0.39507114311848707,3.0542324713121785,4.77000462766156
1260,4.0716565700108,-0.3983515833586222,3.0529774600575186,5.576890769062907
1261,5.023269994999895,-0.4542349585698612,3.0562325230797582,6.490316136670918
1262,6.725869704605193,-0.3522231350707824,3.1147862941874527,7.281986617463393
1263,8.651452086935953,0.006128900785327351,3.0017614304754643,7.747020853198179
1264,10.116575323543124,0.6775334008389864,2.4673497650210305,7.859535140662749
1265,10.76197531355574,1.4578421381983457,1.459239896984462,7.7721793742907295
1266,10.893977220653602,2.0660943655397097,0.07713396755547278,7.747776660768808
1267,10.763785354238093,2.3364529166024854,-1.2376344820713734,7.797234068051986
1268,10.756845044695154,2.3953491219533816,-2.0897700508807504,7.715739272378412
1269,10.854328814138078,2.3699971156132116,-2.517685018220659,7.513962400333469
1270,10.63907267345917,2.374460034367761,-2.565500478695647,7.219355327163357
1271,9.934590606607872,2.3676513178836567,-2.5233029759570162,6.816813930747865
1272,8.696205660089154,2.1540894083105875,-2.5140943428487947,6.223071229087631
1273,6.593187448595803,1.6288454880488943,-2.464784769552824,5.204853923570974
1274,4.058316317131431,0.9369284740108541,-2.227799194624588,3.615087682813814
1275,1.8218085501102446,0.330678375903837,-1.859678835107484,1.9012424948678288
1276,0.32516634348274076,0.004685520451365027,-1.3170901698316886,0.587095321573923
1277,-0.23438131158678116,-0.06929022438582888,-0.7483871903723621,-0.059526682911977796
1278,-0.13868683719701305,-0.018972103439140582,-0.3183528208738654,-0.14305551662719293
1279,0.07543350815751652,0.023347918514013095,-0.032940337873973005,-0.005797301050108339
1280,-0.021248128407064956,-0.07060992312265185,-0.05844135214910828,0.0008171403686716983
1281,0.02023238842742356,-0.30797787679737604,-0.23945751641186813,-0.09547299294224315
1282,0.07323235309882625,-0.8219714377442257,-0.6650822635388998,-0.45105305697885445
1283,-0.0336326518521009,-1.6687440461652314,-1.4497576149006417,-1.1894483092784782
1284,-0.49219900414992535,-2.7832988615307848,-2.6057659844511916,-2.4168319614230964
1285,-1.4595822029479852,-4.256119676819819,-4.286039819215042,-3.933485674861028
1286,-2.9031062468664564,-5.77571025616143,-6.120933024303054,-5.301848046697177
1287,-4.375126131586236,-6.977432524547449,-7.62018897539174,-6.1890921883388845
1288,-5.427927745779752,-7.653938819800848,-8.481497561317182,-6.537332641420651
1289,-5.939796415362188,-7.819252073484483,-8.719301693488175,-6.449917716378639
1290,-5.958463126826827,-7.697895477123656,-8.552113337272832,-6.505415113515098
1291,-5.958540473069469,-7.713070998660184,-8.533491903598659,-6.648199453463836
1292,-6.01327482932456,-7.814297626401941,-8.696544009181226,-6.38769470311906
1293,-5.85659954633419,-7.482695065923955,-8.525176717692704,-5.369821445452385
1294,-5.1649579674719694,-6.51898046795448,-7.803883214321286,-3.5593070442931216
1295,-3.8938606930904034,-4.8772482569671185,-6.421093905153572,-0.9789438295916687
1296,-2.1466025127277955,-2.7551120451654842,-4.482644583347519,1.8933158274640158
1297,-0.2371427298546273,-0.5045595914880525,-2.2746527953025613,4.263585838903469
1298,1.6615504767999665,1.5979372001288281,-0.07934938057664143,5.935644977837132
1299,3.4154445338580546,3.6221044143096273,2.1738261355867197,6.671999485160557
1300,4.648917883192707,5.368376970092195,4.3256372433832935,6.630266150604385
1301,5.2577707866513155,6.637303271842985,6.422502903359831,6.594952183047254
1302,5.348586452681232,7.35378122732614,8.299643294502895,6.720319626306303
1303,5.314939313291281,7.602875674670809,9.707080772172695,6.466892025010524
1304,5.305194861144719,7.554182135503037,10.511878863646992,5.451931273260264
1305,5.236628037920594,7.535752306661627,10.776691534609842,3.7988718975963205
1306,4.7957545852460175,7.594730879188664,10.6926857951231,1.951020519953665
1307,3.964205411757895,7.507011777653191,10.665562073388013,0.2833561820995315
1308,2.7959096888996418,7.13467594883322,10.75431863080711,-0.8276686054861988
1309,1.4968714100751075,6.483196536284194,10.652202310856293,-1.6094782738622693
1310,0.3121684737982874,5.663953740300275,10.195876733371193,-2.0324620383343808
1311,-0.6524134754196786,4.8634822330437535,9.327951422246569,-2.154921279616441
1312,-1.2319748270388469,4.116625185707491,8.121364665930834,-2.0762178938002385
1313,-1.4458671775491365,3.4077397813952324,6.797372533007903,-2.0445326585987167
1314,-1.4412409889432642,2.8689375786424867,5.5228361903888,-2.1340403179219996
1315,-1.4008460825230529,2.565647397973615,4.402774459261789,-2.0761081357931532
1316,-1.4307760436231682,2.4894568737392104,3.6470335249175636,-1.731522919680354
1317,-1.443474848874189,2.538026825761019,3.2905824666435644,-1.0139874943751768
1318,-1.2736715261919396,2.5409774709742283,3.2233449530039087,-0.006152808965230572
1319,-0.8413879115448466,2.504965420605837,3.2947786127584204,1.1014062903285353
1320,-0.1078467066655629,2.6368701660547442,3.33316105214036,2.146647574470876
1321,0.9018688493510985,3.0045042854748885,3.284098617050358,3.3522055886920405
1322,2.100863965003628,3.5963437396481197,3.2473530951794918,4.583815344478233
1323,3.374823086764186,4.408359390672833,3.1957940873732205,5.607128700737099
1324,4.752043729982847,5.21026262251979,3.202139749133979,6.219248967382021
1325,5.983757941157963,5.798336641458488,3.230267207650156,6.375138051091253
1326,6.855847227819142,6.128224266160797,3.1889942688224107,6.285279099060385
1327,7.302424030015526,6.194548875971855,2.9839069778147884,6.280073459432345
1328,7.373350538828506,6.159041502886844,2.623020510897553,6.3311217621778075
1329,7.371881797682703,6.182632474509172,2.1453586605723545,6.030392466525416
1330,7.373228416163303,6.189812552611444,1.605691699855304,5.3286701242579
1331,7.291922986584474,5.889732891493157,1.0136759218710811,4.220846484244316
1332,6.851972342162964,5.17348407698555,0.2841289093804322,3.055138348836924
1333,6.019014135021748,4.037450069177725,-0.5418137663680717,2.2232289198379007
1334,4.848227991253052,2.6146590277779573,-1.3957152752522712,1.8504091444660344
1335,3.542959167361478,1.1034443434635643,-2.122734835872404,1.7797452617438516
1336,2.3597386775649234,-0.40235800326667515,-2.603345236310282,1.8388856144340737
1337,1.3494954758760127,-1.852090220211612,-2.8467955235132214,1.8418255057292692
1338,0.6226472764224199,-3.1436065856871087,-2.920655361992269,1.822064441190876
1339,0.18409795326180345,-4.211837576566019,-2.899045685185957,1.955769659479536
1340,-0.061350516613135446,-5.056788490626152,-2.9047238152870554,2.403278507581809
1341,-0.20835605369111554,-5.690308084561515,-3.059431762097349,3.060875931914121
1342,-0.25712484464378427,-6.112293116354192,-3.4091026139861773,3.6895482625309173
1343,-0.24011303854426436,-6.341248370265914,-3.9647101990424947,4.073167905322049
1344,-0.2745906105637825,-6.42276032289479,-4.629033888380332,4.152281393048888
1345,-0.48510982831792443,-6.417187868272705,-5.234584853780966,4.131175851190785
1346,-0.8945946892979573,-6.401705249013886,-5.67833859136823,4.149057074513829
1347,-1.4677466844889953,-6.40820343215263,-5.9975052533655955,4.162591273186067
1348,-2.076313182096754,-6.403854790979843,-6.2165856104985995,3.7932528970077515
1349,-2.7181436116485997,-6.358655738256839,-6.3577817211762975,2.8373415687968597
1350,-3.3472642642222445,-6.258747191957065,-6.433718333810759,1.2598107225273592
1351,-3.8683416306448724,-6.08967612149739,-6.456246462780427,-0.6892542074240638
1352,-4.19382402901105,-5.843381040563085,-6.43844098094589,-2.610193712000717
1353,-4.30297841548606,-5.515953797682311,-6.441964329782952,-4.280241341512109
1354,-4.238333808658653,-5.093840877831854,-6.465018857816068,-5.793969482836884
1355,-4.250121163268262,-4.589082383115177,-6.4343256824261434,-7.064734576645817
1356,-4.339314593317747,-4.018657760384938,-6.311116866043842,-7.9928962309422715
1357,-4.233150891277966,-3.4088980921395526,-6.069222225797647,-8.506496131130055
1358,-3.7990417816084747,-2.796271834453515,-5.709688687929049,-8.63425818143819
1359,-2.950905769524332,-2.218183814697594,-5.256628225985024,-8.543104141036638
1360,-1.9478474483458634,-1.6980300885223267,-4.733697126948371,-8.52383111397342
1361,-1.1538462120695614,-1.2388253310956152,-4.130302447486156,-8.602128656917227
1362,-0.7955185899401546,-0.8292099892266516,-3.5042253887246955,-8.456975326638762
1363,-0.7565125012966415,-0.45678558748844017,-2.9256516818445024,-7.9930594840659
1364,-0.7542734715201539,-0.1209410847128039,-2.446223195731949,-7.250759095441863
1365,-0.7233048364327967,0.16782095972727185,-2.0755511248387126,-6.437487419441808
1366,-0.8085391105176152,0.4009740137171876,-1.7783972048502057,-5.784273539056744
1367,-1.2617541848397815,0.578630402558606,-1.4938003556504416,-5.371546548861779
1368,-2.27345673022004,0.7063675165880668,-1.1623198834393742,-5.074229583051542
1369,-3.671630677611083,0.7884507335091593,-0.7374792447401393,-4.8455156194425975
1370,-4.9816329425213395,0.8328087126534818,-0.19481025542010705,-4.679956069313918
1371,-5.794717531535963,0.8493893262945591,0.44172338725428145,-4.530111256361287
1372,-6.136559648837831,0.8460685300853894,1.0896495565663458,-4.2384735088249945
1373,-6.069049809086844,0.8466316461183214,1.6459103549087786,-3.6278572922885495
1374,-6.053772724394651,0.855988019869154,2.046982823333645,-2.6970730322033503
1375,-6.173390087712523,0.8539375209726445,2.307476203018809,-1.4468344940836646
1376,-6.0297670306348925,0.801955045878144,2.5093040993892415,-0.20261829321075508
1377,-5.326547533636594,0.6644315029063671,2.7312711333531055,0.7284633241766423
1378,-3.9683076653639424,0.4122739115902908,3.0795313191720886,1.2239666906216473
1379,-2.127943304777647,0.041080806932606,3.5136069681126845,1.3267983975694055
1380,-0.19304338580802238,-0.3435494656790747,3.913126492106535,1.3227009248066885
1381,1.491988381925894,-0.64114432436771,4.176511037624915,1.2445407441764471
1382,2.8298373317330228,-0.7955658632768963,4.275803924383082,1.1601905630455125
1383,3.653176632293198,-0.8136050215942934,4.245504686697582,0.9595078585066656
1384,4.009436118068248,-0.8045867458565963,4.245242223677997,0.7588251539678188
1385,4.0302649308132,-0.8090880699467352,4.2806196401104595,0.6461877024068955
1386,4.006343849954452,-0.7841402105025024,4.211493600721247,0.6432444037379739
1387,4.03451210020525,-0.6468314994968077,3.9976440683078356,0.6404499392379112
1388,3.9965898760746734,-0.39776899473579386,3.686469290440781,0.6229690550800939
1389,3.63878183836808,-0.0668015917966305,3.398550664396237,0.857813863817352
1390,2.8137824901533173,0.2806064663642972,3.2089923657373647,1.3360384652488029
1391,1.536106575105701,0.5509403128009511,3.143910262903348,2.099546869561698
1392,0.20894484120571988,0.7350648258826988,3.0966860786463277,2.9209239670464613
1393,-0.7381273571026241,0.816708827888609,3.061352308637474,3.5274761204978993
1394,-1.2114414567534781,0.8124287255726816,3.0479144401314118,3.8252717576164037
1395,-1.2443997893009167,0.8227623607634961,3.036890119604405,3.9079884431877194
1396,-1.1984295336537705,0.8528731315658667,3.0101626087908593,3.8954173389950437
1397,-1.2184269722819525,0.7800797032211597,3.0549804023721268,3.889661531699819
1398,-1.1703411542366222,0.5803762242672098,3.2018267103977327,3.8803576740001366
1399,-0.7516281762860756,0.35264607601534637,3.395330766003082,3.653116360592585
1400,-0.08548198282414898,0.15656031118469843,3.5602409920083167,2.908935021450504
1401,0.5811036578381042,0.05295779822324236,3.589438057220539,1.8088198532960598
1402,1.0009089759723198,0.04699414624832712,3.6516247612986454,0.7474850529000312
1403,1.0789572957383935,0.03129062998719863,3.7768990989261697,0.0819150988332411
1404,1.0249841304900529,-0.008007740498114325,3.5169706501645397,-0.14007296678201603
1405,0.9723871925435024,-0.009420871174252176,2.784185831333079,-0.058246123375941206
1406,0.9998727019909104,0.0047104355871260915,1.8518205443238855,0.04906832747092125
1407,0.9998727019909104,0.0,1.0824612896405335,0.000942167023771126
1408,-0.019646038771044178,-0.10830716166056292,-0.0915704763267634,0.012829317304607984
1409,-0.15617168257129638,-0.46287788908053107,-0.3602945169967775,-0.06808244331316393
1410,-0.5760948096489685,-1.1957709550055924,-0.9132209843984634,-0.43528039738566293
1411,-1.3938406869378703,-2.3383926403730144,-1.8024370361991184,-1.244121147786917
1412,-2.8500316028198878,-3.761678574430481,-2.967437623346591,-2.54135073341104
1413,-4.581304274844168,-5.4992956842065315,-4.469830664689484,-4.106816807706385
1414,-6.053163402228336,-7.199075707524888,-6.010559561689023,-5.488886661836524
1415,-6.906765183068963,-8.494725196190732,-7.22766981567448,-6.365574612116024
1416,-7.0947332593697245,-9.203560023943984,-7.914954129329992,-6.709086477736843
1417,-6.996328873473162,-9.347632325820413,-8.105747478159829,-6.653567076478426
1418,-7.015019711767663,-9.27844070326273,-7.976869842364655,-6.692117085474147
1419,-7.026137171473926,-9.299912358679475,-7.963110071212377,-6.789059354477544
1420,-6.434010199911831,-9.298751307128587,-8.091315230293825,-6.580175135961907
1421,-5.120020796861405,-8.736407386687354,-7.960336349704225,-5.782880156205151
1422,-3.1686216455072995,-7.446586638322985,-7.3829197992103905,-4.377948745740315
1423,-0.887577287184458,-5.446413933610683,-6.231432685900738,-2.4971341013114534
1424,1.3158403193377708,-2.9973847825577913,-4.5158942782459155,-0.3830910112417589
1425,3.4966111301187013,-0.45474106714532425,-2.3772904764897764,1.6925859127243839
1426,5.461011912125877,2.023820183046996,0.011158192132674882,4.0726278867098085
1427,6.866394579460165,4.5212366515644415,2.627652816703891,6.300238382656573
1428,7.588080633675362,6.7490812312874455,5.497345301060197,7.937373358094819
1429,7.729055785091856,8.38749424896903,8.147224437289482,8.799953544073164
1430,7.624843413945151,9.28982586767464,10.092635755839302,8.96290274534106
1431,7.634167458944999,9.55484462319386,11.121117593720664,8.907782726667627
1432,7.6673179244805505,9.43316508728162,11.308161294179078,8.905437071745983
1433,7.279366881876583,9.398730942772323,11.250748404980113,8.833263915478303
1434,6.412767222743824,9.506144208163674,11.240658621356616,8.179113742680652
1435,5.16627519018227,9.374785005612992,11.138558832633265,6.902593332940185
1436,3.597600027780976,8.888558601472692,10.346807258061965,5.094792657722313
1437,2.134199850290023,8.07089720236066,8.848919037841666,3.058965179095651
1438,1.0677437492417228,7.048766117584827,6.846301603500746,1.1080066999523226
1439,0.44510211036256936,6.120684055670733,4.785491316786802,-0.6244928060023598
1440,0.27970243726070426,5.5406134100294375,2.9563644268842184,-1.8801646985527618
1441,0.40672848360470726,5.218603182144163,1.4338640911787617,-2.5376707463804293
1442,0.40883205626710817,5.113960783946805,0.41453917416825997,-2.726645806609711
1443,0.2731177886908277,5.123782225139254,-0.08094110163224495,-2.66782179976499
1444,0.505613309611888,5.114707631989116,-0.18004532898912579,-2.652898058129194
1445,1.1496622261260812,5.041715235352532,-0.1107432577819637,-2.6919581397924244
1446,1.9985496536802845,4.977626516875018,-0.04888566040188071,-2.623704533338467
1447,2.7286483146102936,4.937302472167419,-0.06555586599244602,-2.3729395838785154
1448,3.0795561118094654,4.929868182021607,-0.04484688493964815,-1.9019570517845006
1449,3.0315608075967195,4.933265975078478,-0.011991134043051684,-1.1726943124042926
1450,2.9575368675033724,4.932662464971171,0.0034755685453898982,-0.2023510014307519
1451,2.9623967305282606,4.891734085818617,0.04410264240092115,0.9255354977361011
1452,2.960768657135972,4.822643677752789,0.10102004677157231,2.152838533946709
1453,2.940298917685631,4.715440875368569,0.20027376270102462,3.5119698613913184
1454,2.909933672730497,4.550911652655777,0.31642872791750054,4.79635834007019
1455,2.814419091661381,4.291658679310985,0.3548531214251539,5.791238396606671
1456,2.5493288981579805,3.880618228096682,0.358715533060172,6.374562572648687
1457,2.026919729253421,3.287480474804702,0.4162573173229959,6.542757251299749
1458,1.2438124912685213,2.495216554221831,0.6633004406303682,6.459896307377022
1459,0.32928620738613334,1.5171543851115086,1.1262979259341925,6.407284365754774
1460,-0.5595923985480881,0.4020234940143946,1.8081145133083574,6.477509064324301
1461,-1.3317559396382381,-0.7736558944995195,2.574454354725797,6.340721840098817
1462,-1.9964900330160917,-1.9247405689479828,3.4192889867033003,5.861664254455443
1463,-2.553839598364795,-2.969465010603761,4.285046279883693,4.9460926148534785
1464,-2.965517212025223,-3.9304778544524837,4.984881659067733,3.6688565723409017
1465,-3.1937145745151683,-4.723137485250068,5.407562395762564,2.2084426831565
1466,-3.249064809512879,-5.265734694929035,5.552034303960761,0.6535215936137937
1467,-3.2621689928793853,-5.538288306518634,5.479674836077248,-1.0571076894727258
1468,-3.3904916985425695,-5.588260751888262,5.497339688092822,-2.952561590423273
1469,-3.6794967879170315,-5.567490326346977,5.596835234590962,-4.9269820452169455
1470,-4.039713793468524,-5.550092492923563,5.466660644387861,-6.748419221139091
1471,-4.395310425502578,-5.529486306394183,4.920274620769564,-8.243477661019947
1472,-4.749547276922521,-5.390447900318209,3.9098360322238443,-9.419136442658893
1473,-5.181816022293924,-5.191128968555385,2.5676875885832,-10.375577904390136
1474,-5.7708808972279115,-5.00892182569507,1.152316874482219,-11.147030619084326
1475,-6.4874246433129885,-4.897232205190236,-0.12499653502753238,-11.683808037144384
1476,-7.267800287410138,-4.871537689779417,-1.3660522628206295,-11.951549440851561
1477,-8.102001769818308,-4.84753027682888,-2.6029685318197937,-12.010303411892334
1478,-9.097651497992777,-4.840693352646922,-3.816327564079873,-11.974845965007514
1479,-10.107481171868749,-4.839039261904758,-4.832261886252886,-11.96540925368585
1480,-10.907158609543382,-4.810598513865707,-5.496953780923845,-12.011620857799805
1481,-11.347609955636111,-4.679759818821254,-5.779494569715863,-11.999718510133604
1482,-11.402475499474164,-4.389745448265623,-5.77889110379338,-11.823753282262711
1483,-11.398376517259292,-3.943295165627656,-5.738170890096377,-11.404916177426603
1484,-11.448516498560082,-3.3894038787686407,-5.754216619554085,-10.658787760463918
1485,-11.362281373878591,-2.821593190666165,-5.740378885542387,-9.514862983706829
1486,-10.746967178062556,-2.248368082122296,-5.520953802349774,-7.983149616323281
1487,-9.491565321155607,-1.7614212160693552,-5.155572581527766,-6.145193457416913
1488,-7.659598927440155,-1.4315460086161647,-4.7787015184285435,-4.1598621878920445
1489,-5.454865788465501,-1.2704712942258456,-4.530715970146856,-2.1936762514972483
1490,-3.050031384804534,-1.2423676775055177,-4.496186665554051,-0.24490349655885402
1491,-0.3234110369479938,-1.258958522485298,-4.487788571204749,1.7702236114197292
1492,2.676332700518265,-1.2674912506603695,-4.4295951473324235,3.8570510276366
