,TP9,AF7,AF8,TP10
0,-7.823591844070164e-15,-5.038741230044376e-16,-4.155811693415963e-14,-1.4116297212093394e-14
1,-1.3647520796952482e-13,6.723655023133153e-14,-8.695454078971275e-13,-2.5951078036392257e-13
2,-1.5199202868556582e-12,7.43359512157493e-13,-9.838280876502773e-12,-2.960859675690316e-12
3,-1.1302524232666135e-11,4.99978811016897e-12,-7.447552804682614e-11,-2.256436835577446e-11
4,-6.282526799707769e-11,2.3530122428265564e-11,-4.248931283511164e-10,-1.2908553950649366e-10
5,-2.7969259441191374e-10,7.89906485021725e-11,-1.956087389725756e-09,-5.930162219095047e-10
6,-1.0452521866206912e-09,1.6779591269270932e-10,-7.59803634056772e-09,-2.28754114726776e-09
7,-3.396319549675187e-09,1.4130207752474678e-11,-2.5698972888435648e-08,-7.650296636035e-09
8,-9.868191716639187e-09,-1.8607409819738632e-09,-7.748684859734384e-08,-2.272907589222906e-08
9,-2.624211867761703e-08,-1.0874406031699549e-08,-2.120701845109385e-07,-6.116164189138246e-08
10,-6.510834766816442e-08,-4.319181216727845e-08,-5.343601193596852e-07,-1.5143141902106104e-07
11,-1.5303287520248798e-07,-1.4069082206012514e-07,-1.2537578888535347e-06,-3.495079749501786e-07
12,-3.4459880015334736e-07,-4.0078528235876294e-07,-2.7644058543865558e-06,-7.601773100155734e-07
13,-7.488360256320757e-07,-1.0312781019134044e-06,-5.771122074701107e-06,-1.572156246454121e-06
14,-1.5765954447271912e-06,-2.444705294822983e-06,-1.1478639223998822e-05,-3.114597863120253e-06
15,-3.2211339222544355e-06,-5.411580239461838e-06,-2.1865207255044034e-05,-5.94587599384665e-06
16,-6.388225319923551e-06,-1.1297269425222042e-05,-4.00647186934022e-05,-1.0989506618439504e-05
17,-1.2295988716232379e-05,-2.2412512740598513e-05,-7.088398499982661e-05,-1.973648931693601e-05
18,-2.2967690174228226e-05,-4.251232513990961e-05,-0.00012148335297097851,-3.4537843712473447e-05
19,-4.164236031423519e-05,-7.748160611661611e-05,-0.00020224925650352452,-5.901515751652157e-05
20,-7.33275933336349e-05,-0.0001362476576457312,-0.0003278863394974339,-9.861996757377942e-05
21,-0.00012551596653057238,-0.0002319594328016257,-0.0005187542553686446,-0.00016137417701310414
22,-0.00020908102082290377,-0.0003834702523663492,-0.0008024699137299162,-0.0002588229428494623
23,-0.00033936082567134724,-0.0006171546023805588,-0.001215789535769432,-0.0004072281231543919
24,-0.0005374271986433312,-0.0009690802890551843,-0.0018067761362693454,-0.0006290241506563455
25,-0.0008315271979106671,-0.0014875447086871976,-0.0026372468106118908,-0.0009545489509796563
26,-0.0012586711767163643,-0.0022359685573045264,-0.003785480500792325,-0.0014240502761350407
27,-0.001866329140698217,-0.0032961224794562077,-0.00534915102755356,-0.0020899528107257838
28,-0.002714185051950326,-0.004771642695482623,-0.0074484326416182235,-0.0030193540814688513
29,-0.0038758877455226867,-0.0067917714930712915,-0.010229206915279992,-0.004296698223979179
30,-0.005440727915811736,-0.009515238670099532,-0.01386628137489624,-0.006026556876318819
31,-0.007515163803846391,-0.013134181639266494,-0.01856651288204551,-0.008336426844955275
32,-0.01022411431343365,-0.017877985950069467,-0.024571713488472303,-0.011379435763904272
33,-0.013711937741973785,-0.024016915302390664,-0.032161204414305256,-0.01533683080208731
34,-0.018143017438914888,-0.031865391366192854,-0.041653875967795594,-0.0204201126231725
35,-0.023701882666994235,-0.041784779301606755,-0.05340960851322768,-0.02687266829899324
36,-0.030592803754594295,-0.054185534989958144,-0.06782991260948051,-0.034970753707745904
37,-0.03903881514639296,-0.06952857465036175,-0.08535765545264958,-0.04502367899552755
38,-0.04928013785941816,-0.08832573660641477,-0.10647575567898152,-0.05737306064514658
39,-0.06157199360821732,-0.11113921828380756,-0.1317047490326116,-0.07239102099331046
40,-0.07618182573987638,-0.1385798888303794,-0.16159915277177492,-0.09047724069907753
41,-0.09338596617301183,-0.1713043988076368,-0.19674258624730206,-0.11205480127827082
42,-0.11346581164120663,-0.21001103292455223,-0.23774163805965762,-0.13756479250838421
43,-0.13670359545472752,-0.25543427940675073,-0.2852185057943131,-0.16745970199030125
44,-0.16337786143178382,-0.3083381198238173,-0.3398024717273489,-0.20219564981717197
45,-0.19375876339934991,-0.36950807538677816,-0.4021203161587652,-0.24222357831478897
46,-0.2281033256915878,-0.43974207908222557,-0.4727858080553927,-0.28797955321953
47,-0.26665080662202967,-0.5198402766179158,-0.5523884491145843,-0.33987437643168567
48,-0.3096183075468998,-0.6105938920269469,-0.6414816806336094,-0.39828274962527827
49,-0.3571967648062536,-0.7127733248765081,-0.7405707910500843,-0.46353226063332437
50,-0.4095474508313291,-0.8271156742915441,-0.8501007841830104,-0.5358924890317003
51,-0.46679909469720116,-0.9543119093734345,-0.9704444828428808,-0.6155645424675216
52,-0.5290457123312944,-1.0949939250506309,-1.1018911488399032,-0.7026713402367214
53,-0.5963452136056128,-1.249721736031709,-1.2446358982665946,-0.7972489551114477
54,-0.6687188288492423,-1.4189710686223054,-1.3987701805311255,-0.8992393085850091
55,-0.7461513720528276,-1.6031216102688413,-1.5642735716681007,-1.0084844890277138
56,-0.8285923331641498,-1.8024461696806902,-1.7410071079673164,-1.1247229274945967
57,-0.9159577681432222,-2.0171009864629523,-1.928708356117719,-1.2475876230930678
58,-1.0081329333953,-2.2471174088451913,-2.126988382038148,-1.3766065601180206
59,-1.1049755911997425,-2.492395131988364,-2.3353307433832677,-1.511205404020545
60,-1.2063198950515739,-2.7526971582644024,-2.5530925911671756,-1.650712504318333
61,-1.311980748600098,-3.027646605652603,-2.779507924610601,-1.7943661715692742
62,-1.4217585192154802,-3.316725451854855,-3.01369300061207,-1.9413241344055236
63,-1.5354439772029964,-3.619275260845226,-3.2546538555443916,-2.090675023279021
64,-1.6528233243475994,-3.934499896376459,-3.5012958528146143,-2.241451671856676
65,-1.7736831708348781,-4.261470184571273,-3.7524351253651482,-2.3926459766395825
66,-1.897815317713178,-4.599130446248326,-4.006811738798818,-2.5432250118766127
67,-2.0250212030449326,-4.94630678015317,-4.263104359064203,-2.6921480614502533
68,-2.1551158739110434,-5.301716941795584,-4.5199461698312975,-2.838384203085838
69,-2.287931353678223,-5.663981630058444,-4.7759417501663695,-2.980930063605032
70,-2.42331928458924,-6.031636965950722,-5.029684594290031,-3.1188273573121745
71,-2.5611527398738647,-6.403147925503852,-5.279774933438097,-3.2511798229434308
72,-2.70132711714462,-6.776922472375605,-5.524837506333561,-3.377169187584865
73,-2.843760045603501,-7.15132612557897,-5.763538920410761,-3.496069807935059
74,-2.988390263142489,-7.5246966940761455,-5.994604251173989,-3.6072616693343766
75,-3.135175445229281,-7.895358912790264,-6.216832541864785,-3.7102414599574156
76,-3.284088994884599,-8.261638723763456,-6.429110889350269,-3.804631480154901
77,-3.4351158313604113,-8.621876961455797,-6.630426833732297,-3.890186193739953
78,-3.588247243549736,-8.974442222095334,-6.819878807172855,-3.9667962776519983
79,-3.7434749018907785,-9.31774272292089,-6.996684440244412,-4.0344900775920465
80,-3.900784148742062,-9.650236987266432,-7.160186570208316,-4.093432428738537
81,-4.060146711071349,-9.97044322469969,-7.309856843677795,-4.143920851527067
82,-4.221513000015485,-10.276947310711956,-7.445296855106872,-4.186379181892473
83,-4.384804178682604,-10.568409306597498,-7.566236811727163,-4.221348742678039
84,-4.549904191828168,-10.843568496049606,-7.672531764404441,-4.24947720759759
85,-4.716651958234097,-11.101246949646018,-7.764155491971833,-4.271505350759208
86,-4.884833928450746,-11.340351660950791,-7.841192173449696,-4.288251912912528
87,-5.054177206968422,-11.559875327713575,-7.903826027593033,-4.30059684982354
88,-5.224343429067673,-11.758895878011751,-7.952329141646488,-4.309463258018054
89,-5.394923568983297,-11.936574863662639,-7.987047750080043,-4.315798298047047
90,-5.565433838199689,-12.092154861422992,-8.008387258329892,-4.3205534549166185
91,-5.735312811368618,-12.22495603606877,-8.016796335030405,-4.324664488969825
92,-5.903919893228731,-12.334372028192126,-8.01275041781046,-4.329031437976346
93,-6.070535213710916,-12.419865333381953,-7.996734991541428,-4.334499032237724
94,-6.2343610107848635,-12.480962338455068,-7.9692290033402555,-4.3418378789938865
95,-6.394524532132795,-12.517248174862079,-7.930688775356995,-4.351726760267668
96,-6.550082457973871,-12.528361539803187,-7.881532764475039,-4.364736369589214
97,-6.700026818819772,-12.513989622663734,-7.822127497937747,-4.381314788049428
98,-6.843292354095725,-12.473863258998339,-7.752774986320069,-4.4017749692661745
99,-6.97876523083587,-12.407752417447654,-7.673701881189284,-4.426284466717512
100,-7.105293016403874,-12.315462107676751,-7.5850506054450095,-4.454857596287215
101,-7.221695775641686,-12.19682878061831,-7.486872641012196,-4.487350182731395
102,-7.326778141148386,-12.051717276767338,-7.379124112633842,-4.523456992193135
103,-7.41934218558567,-11.880018364560494,-7.26166375927865,-4.562711905016467
104,-7.498200907008918,-11.68164689927399,-7.134253337344062,-4.604490835081827
105,-7.562192122264934,-11.45654062342195,-6.9965604534450545,-4.6480173547606505
106,-7.610192549592432,-11.204659622136237,-6.8481637799924675,-4.692370939299674
107,-7.641131849941077,-10.925986441091014,-6.688560564623955,-4.736497701781683
108,-7.654006387556201,-10.620526869725454,-6.517176305271861,-4.7792234504059
109,-7.647892464551659,-10.288311388297391,-6.333376426449373,-4.819268864175043
110,-7.621958782097412,-9.929397273144538,-6.136479759276166,-4.855266551516403
111,-7.575477883111308,-9.543871349938984,-5.925773597854729,-4.88577972912464
112,-7.5078363385875955,-9.131853379230074,-5.700530077888928,-4.909322235516366
113,-7.418543452477134,-8.693500051781694,-5.460023600055295,-4.92437957547469
114,-7.307238278813053,-8.229009562835497,-5.203549000896097,-4.929430677742234
115,-7.173694769869649,-7.738626724339173,-4.9304401583550765,-4.922970039009292
116,-7.017824905695946,-7.22264856242342,-4.640088708096714,-4.9035299225272535
117,-6.839679693302927,-6.681430334241578,-4.331962541053936,-4.869702279749658
118,-6.639447967745206,-6.115391884134249,-4.005623752788478,-4.820160068560052
119,-6.417452976621623,-5.525024244540423,-3.6607457215852204,-4.753677652210576
120,-6.174146783036597,-4.910896372854498,-3.2971290048070214,-4.669149979298839
121,-5.910102578337864,-4.273661902285583,-2.9147157616475536,-4.5656102669637715
122,-5.626005053149465,-3.6140657734573773,-2.513602434474642,-4.442245936680599
123,-5.3226390312577605,-2.932950604666688,-2.0940504497059553,-4.298412583927363
124,-5.000876623540647,-2.231262652959617,-1.6564947317895038,-4.133645798605135
125,-4.66166320611559,-1.5100572159090488,-1.2015498595963057,-3.947670691196749
126,-4.306002566136602,-0.770503325446738,-0.7300137326675205,-3.7404090188846935
127,-3.934941588408148,-0.013887590401342034,-0.24286865464494595,-3.5119838448530167
128,-2.1745272421652668e-14,-4.4346299832785714e-14,-6.576102144096908e-14,-1.8300246099122633e-15
129,-4.1704022404241903e-13,-9.39295985092919e-13,-1.2999949634208988e-12,4.2022723492590374e-14
130,-5.058002607813752e-12,-1.1084287893391899e-11,-1.541917753358019e-11,-4.781266789803477e-14
131,-4.087116944084752e-11,-8.769644195260914e-11,-1.2140637447679444e-10,-5.027644553923867e-12
132,-2.483251973685127e-10,-5.228928077490092e-10,-7.200675373114197e-10,-5.820688642011658e-11
133,-1.2125462441486771e-09,-2.5129787381210323e-09,-3.4397427063671454e-09,-4.1539116402670276e-10
134,-4.971046700310587e-09,-1.0168309439135663e-08,-1.3828034229145012e-08,-2.224924353661378e-09
135,-1.764736720253095e-08,-3.572164475464996e-08,-4.825023660023245e-08,-9.697056513814471e-09
136,-5.5516990127173424e-08,-1.1147210630519008e-07,-1.4954391720043655e-07,-3.6000136408621547e-08
137,-1.5757022567609505e-07,-3.145065110972509e-07,-4.1911760695773254e-07,-1.1732874360740149e-07
138,-4.0929431618356175e-07,-8.136153525927864e-07,-1.0774023150997768e-06,-3.430400141935333e-07
139,-9.843763137602807e-07,-1.9519794755102724e-06,-2.5697791686956798e-06,-9.146274253686011e-07
140,-2.2131887951358446e-06,-4.383924444146294e-06,-5.741054129041957e-06,-2.2525946940204904e-06
141,-4.689076373235209e-06,-9.288992881229028e-06,-1.2107750247273897e-05,-5.1777651401477005e-06
142,-9.42539236478314e-06,-1.8691372050003952e-05,-2.4263262021188575e-05,-1.1201698714022135e-05
143,-1.807769515612356e-05,-3.591690263736923e-05,-4.645546375217785e-05,-2.2968890425253778e-05
144,-3.324621692766883e-05,-6.622303613595384e-05,-8.537888169685635e-05,-4.4900235469091525e-05
145,-5.887334543640226e-05,-0.00011763873756725751,-0.0001512233959875947,-8.409164262878111e-05
146,-0.0001007490776136408,-0.00020205097099486598,-0.00025901825536147087,-0.00015152238741998055
147,-0.00016713393008439017,-0.0003365716035443705,-0.00043030389384836516,-0.000263623675393007
148,-0.0002695035012220603,-0.0005452129556079841,-0.0006951547772429325,-0.0004442481003384422
149,-0.00042341194124425,-0.0008608916191791036,-0.001094564557052966,-0.0007270648931491061
150,-0.0006494635570292629,-0.0013277686087297081,-0.0016831904686086707,-0.0011583843458721885
151,-0.0009743736012586181,-0.0020039197145108466,-0.002532437493060451,-0.0018003885203184602
152,-0.0014320921990929813,-0.0029643136747317684,-0.003733844637019256,-0.0027347159192293922
153,-0.002064960678750903,-0.004304058280657458,-0.005402716166719497,-0.004066317388137422
154,-0.002924868546431723,-0.00614185677000717,-0.007681920216805121,-0.0059274717328372094
155,-0.004074382991504004,-0.00862359996813248,-0.010745756387019387,-0.008481825202203778
156,-0.005587831773823574,-0.011926004785737274,-0.014803773283127633,-0.011928301848453574
157,-0.0075523348028704255,-0.016260198046916356,-0.020104397018511713,-0.016504724170515548
158,-0.010068799288735664,-0.021875137268259594,-0.026938213073479152,-0.022490986965167988
159,-0.01325291706608252,-0.029060757786909957,-0.035640727230247554,-0.030211642559797712
160,-0.017236229072278068,-0.03815073905150461,-0.046594417245151065,-0.040037782084664915
161,-0.02216734906866703,-0.04952479200848037,-0.06022987626343306,-0.052388133579847486
162,-0.028213464266973656,-0.06361038390276677,-0.07702584271479664,-0.06772934097946076
163,-0.03556225205378218,-0.0808838355509833,-0.0975079108000025,-0.08657543504620537
164,-0.044424366825782345,-0.10187074792672904,-0.12224572223352247,-0.10948655426313207
165,-0.05503665636286671,-0.12714573814702268,-0.15184845533090532,-0.1370670163867057
166,-0.06766626066082385,-0.1573314879786479,-0.18695845341735617,-0.16996287578947983
167,-0.0826157256718746,-0.19309712913783816,-0.22824287201958024,-0.20885912434911777
168,-0.1002292286647334,-0.23515600743767678,-0.2763832737654979,-0.25447670183236554
169,-0.12089996062815044,-0.2842628810000965,-0.33206316076107245,-0.3075694739896167
170,-0.14507864516421096,-0.34121061537614744,-0.39595350488456105,-0.3689213126992096
171,-0.17328309469776731,-0.40682643997680795,-0.468696414543146,-0.4393433735228237
172,-0.20610861670444908,-0.48196782559696777,-0.5508871590186974,-0.519671614141938
173,-0.24423898907765654,-0.5675180323456048,-0.6430548553038005,-0.6107645355137946
174,-0.2884576294154015,-0.6643813617311229,-0.7456422038860174,-0.7135010601833445
175,-0.33965849299964973,-0.7734781271425353,-0.8589847358283553,-0.8287783935868732
176,-0.3988561537873648,-0.8957393350030846,-0.9832901002371177,-0.9575096493286973
177,-0.4671944569413907,-1.03210104619835,-1.118617975349038,-1.100620963344718
178,-0.5459530850515613,-1.1834983658826048,-1.2648612246853566,-1.259047779380456
179,-0.63655135736504,-1.3508589913296687,-1.4217289391017545,-1.4337299634697531
180,-0.7405485853396345,-1.5350962338472598,-1.5887320038927424,-1.6256054012759997
181,-0.8596403408717668,-1.7371014233586246,-1.765171806145362,-1.8356017511526015
182,-0.9956500566529758,-1.9577356041370562,-1.9501326511128627,-2.0646260680922826
183,-1.1505154710214984,-2.1978204380024464,-2.1424783884149075,-2.313552078458459
184,-1.3262695508671467,-2.4581282472705777,-2.340853661232475,-2.5832049703233766
185,-1.525015672844118,-2.7393711536807177,-2.54369008702869,-2.8743436660407213
186,-1.7488970114238367,-3.042189300809444,-2.7492175599759876,-3.187640658093906
187,-2.000060267230979,-3.3671381851340123,-2.9554807369443203,-3.523659611330827
188,-2.2806140648683106,-3.714675163646801,-3.16036063458113,-3.8828310590423394
189,-2.592582549656563,-4.085145252205631,-3.361601128726575,-4.265426641435866
190,-2.937854910645865,-4.478766376920274,-3.5568400130502624,-4.671532447473202
191,-3.318131746038729,-4.895614288997717,-3.743644144977203,-5.101022119684673
192,-3.7348693600543887,-5.335607399713606,-3.9195480869426036,-5.553530461851021
193,-4.189223230820217,-5.798491834648883,-4.082095542626662,-6.028428347456413
194,-4.681992011136317,-6.283827043173875,-4.22888279356899,-6.524799759504365
195,-5.2135635126233675,-6.790972328619599,-4.357603263627538,-7.041421797600947
196,-5.783864174363265,-7.31907468505364,-4.466092279106019,-7.576748465213615
197,-6.392313526226618,-7.867058336713081,-4.552371052851098,-8.128898998959988
198,-7.037785122382798,-8.433616374876756,-4.614688902926849,-8.695651424069112
199,-7.718575341079402,-9.017204873573649,-4.651562722080813,-9.274441918214828
200,-8.432381323178829,-9.616039839705985,-4.661812744169548,-9.86237044299591
201,-9.176289156178644,-10.228097315015937,-4.644593708351604,-10.456212962277787
202,-9.946773206025949,-10.851116897373975,-4.599420600653797,-11.052440413641511
203,-10.739707260850277,-11.482608888070214,-4.526188254006498,-11.647244437731947
204,-11.550387884863198,-12.119865201485087,-4.4251842097564325,-12.236569704830705
205,-12.37357009415551,-12.759974095365619,-4.297094383074391,-12.816152512895076
206,-13.203515166727712,-13.399838695851782,-4.14300122816845,-13.381565170822064
207,-14.034050095036658,-14.036199203493071,-3.9643742629399346,-13.928265528771327
208,-14.858637889056817,-14.665658577033913,-3.763052982467641,-14.4516508776405
209,-15.670457649717768,-15.284711403108409,-3.541222361987489,-14.947115315466794
210,-16.462493064678572,-15.88977557462027,-3.3013813182889016,-15.410109572416609
211,-17.22762773829023,-16.477226320943878,-3.046304659282085,-15.836202200402292
212,-17.958745562092382,-17.043432061538084,-2.778999200887074,-16.22114096999531
213,-18.648834167172897,-17.5847914933278,-2.5026548648760105,-16.560913277457903
214,-19.29108938001384,-18.09777127325308,-2.2205916879231347,-16.85180434927416
215,-19.879018532688036,-18.578943622376045,-1.9362037684560232,-17.090452041132913
216,-20.40654045882294,-19.025023158167077,-1.6529012519703847,-17.273897063340236
217,-20.868080039604607,-19.432902257944036,-1.3740515057441378,-17.39962752539375
218,-21.2586552488462,-19.7996842693483,-1.1029206593217316,-17.465616778984625
219,-21.57395478096573,-20.122713913200222,-0.8426166872568654,-17.470353650667256
220,-21.81040452745014,-20.399604269643035,-0.5960351854856808,-17.41286429194969
221,-21.96522139167079,-20.628259799316922,-0.3658089430085192,-17.29272503396005
222,-22.03645319340061,-20.806894926190736,-0.1542623374264025,-17.11006581362089
223,-22.023003706897573,-20.93404779606829,0.03662851211480275,-16.865563934967774
224,-21.924642193172833,-21.008588922818486,0.20526901594202013,-16.560428138538388
225,-21.741997120785197,-21.029724540916174,0.35047212275424144,-16.196373168504607
226,-21.476534112571088,-20.996994595525695,0.4714765278385862,-15.775585245703477
227,-21.13051850026257,-20.910265417493743,0.5679567014519409,-15.300679068881786
228,-20.70696320699224,-20.769717247439175,0.6400245261150097,-14.774647170173786
229,-20.209563001316535,-20.575826887719114,0.6882225042494761,-14.200802638157443
230,-19.64261646795253,-20.32934587046718,0.7135086712013716,-13.582716387303275
231,-19.01093731273896,-20.031274631269127,0.7172335193255049,-12.924150291384176
232,-18.319756855891086,-19.682833268674514,0.7011094025848923,-12.228987606354828
233,-17.574619762778152,-19.285429547238426,0.6671730443321157,-11.501162182097076
234,-16.781275210576162,-18.840624864108115,0.6177419101123423,-10.744588000017199
235,-15.945565788763375,-18.350098944709437,0.5553653293491297,-9.963090573663841
236,-15.073316479301235,-17.815614060694585,0.4827713519418373,-9.160341712454205
237,-14.170226057568495,-17.238979572300796,0.4028104059023568,-8.339799075662679
238,-13.241763198103543,-16.622017587435554,0.318396878480496,-7.50465183760499
239,-12.293069461668727,-15.966530501431967,0.23244977465150846,-6.657773648934409
240,-11.32887118499537,-15.274271135276964,0.14783361286350533,-5.8016839172758665
241,-10.353402095795339,-14.546916127451059,0.06730069875301649,-4.938518247522529
242,-9.370338238156135,-13.78604315700218,-0.0065641260021631915,-4.070008682570227
243,-8.382746522975019,-12.993112485139035,-0.07139522884622908,-3.197474173581199
244,-7.393047920966992,-12.169453201773639,-0.12509348155187094,-2.3218214894432685
245,-6.402995998832461,-11.316254454548433,-0.16586826601860238,-1.4435565522007463
246,-5.4136711695646484,-10.434561823543904,-0.19227346991163147,-0.5628059630553341
247,-4.42549069297037,-9.525278887725316,-0.20323688038550636,0.3206517338426305
248,-3.4382341296315504,-8.589173911924608,-0.1980825194288306,1.2073457111888515
249,-2.4510836279413284,-7.626891468414578,-0.1765456021210191,2.098064299261552
250,-1.4626781163639402,-6.63896869749809,-0.13877993590278337,2.9937992446651025
251,-0.47118018804382705,-5.625855809447155,-0.08535771198472855,3.8956839841536017
252,0.5256457919605665,-4.5879403378197265,-0.01726176701360496,4.804927267724654
253,1.5303460502715867,-3.5255745736099167,0.06412948757484911,5.722743576489424
254,2.5456821195739163,-2.439105542464828,0.15706416059263928,6.650281863738339
255,3.5745299298113924,-1.3289068345667157,0.25944559158893743,7.588554199905145
256,-5.2499105217558757e-14,-4.8653048811546986e-14,-2.2439343948124982e-14,-4.466353375882522e-14
257,-1.1687951207294951e-12,-1.049241291730078e-12,-4.3419059063621947e-13,-9.885124788363308e-13
258,-1.3952324032719399e-11,-1.2576160715535066e-11,-4.911014658525545e-12,-1.1729609815039302e-11
259,-1.1129923442644214e-10,-1.0093388130563568e-10,-3.765965470376848e-11,-9.307031276588152e-11
260,-6.680295884707389e-10,-6.098427782519507e-10,-2.200303424737937e-10,-5.558187964609922e-10
261,-3.2276968842091517e-09,-2.9665676048960685e-09,-1.0479946424205003e-09,-2.6721326572518796e-09
262,-1.3117270532770993e-08,-1.2135739662206679e-08,-4.24825409845868e-09,-1.0802516425013269e-08
263,-4.6250441938238046e-08,-4.305191604087415e-08,-1.5091755418505875e-08,-3.787074557147141e-08
264,-1.4479764106867258e-07,-1.355125172696929e-07,-4.797167601072383e-08,-1.1780978298216252e-07
265,-4.0978619375627276e-07,-3.8524273200685926e-07,-1.3856380181221686e-07,-3.3106077919646333e-07
266,-1.063334461623259e-06,-1.0032158471727562e-06,-3.6806304088855e-07,-8.524314852864058e-07
267,-2.5590261713000307e-06,-2.4207082825768927e-06,-9.077894724358355e-07,-2.034475961580117e-06
268,-5.765549216881973e-06,-5.4636787208858285e-06,-2.0957193896887306e-06,-4.543781629411475e-06
269,-1.2255550492999255e-05,-1.1626399723052282e-05,-4.560001601341614e-06,-9.571768340038611e-06
270,-2.473787936846847e-05,-2.348021834476443e-05,-9.408077467905394e-06,-1.914535687618448e-05
271,-4.767607764041286e-05,-4.525818693620425e-05,-1.8503528881099504e-05,-3.656563336311599e-05
272,-8.81381930112633e-05,-8.365939568136288e-05,-3.485617367918306e-05,-6.700388071602062e-05
273,-0.00015692193102672343,-0.00014891754074452567,-6.315407898393683e-05,-0.00011828355848648463
274,-0.0002699942216696506,-0.0002561760980099606,-0.00011046871632585265,-0.0002018735866062999
275,-0.0004502751700981112,-0.0004272071374239867,-0.0001871658015712678,-0.00033411242451847356
276,-0.0007297831399282348,-0.0006925021896324672,-0.00030805359982652566,-0.0005376740047576988
277,-0.0011521407680023126,-0.0010937517364599122,-0.0004937967653545594,-0.0008432759434161024
278,-0.0017754216899576452,-0.0016867150894130391,-0.0007726164849366831,-0.0012916182275862643
279,-0.0026752955223776605,-0.002544465058917367,-0.0011822865698696793,-0.0019355275586609862
280,-0.003948405196254734,-0.003760972459070909,-0.0017724204569374022,-0.0028422695611407347
281,-0.005715887178506712,-0.0054549748229942695,-0.0026070265317187018,-0.00409597896610131
282,-0.00812692266854653,-0.007774052513701216,-0.0037672897860464238,-0.0058001473492512185
283,-0.011362187815711,-0.01089881457664255,-0.0053545177443863595,-0.008080099573861932
284,-0.01563705470408009,-0.015047077108628827,-0.007493169100353628,-0.011085384073031246
285,-0.0212043835720332,-0.020477899526696996,-0.010333865890002195,-0.014991998583429388
286,-0.028356741593269733,-0.02749532977137077,-0.01405627559006524,-0.02000437176767238
287,-0.0374278854023631,-0.036451698938201424,-0.018871739490559297,-0.026357022009529652
288,-0.04879335391797374,-0.047750299742062664,-0.025025519067808574,-0.034315817118472515
289,-0.06287003500951265,-0.06184728208376456,-0.03279853351667183,-0.044178762335675206
290,-0.08011459382330523,-0.07925260317097764,-0.04250846921929642,-0.056276248601346314
291,-0.1010206813197746,-0.10052987937015082,-0.05451015530644731,-0.07097069839979331
292,-0.12611487753729583,-0.126295002322863,-0.06919511769981869,-0.0886555526974667
293,-0.1559513637316722,-0.15721340279581655,-0.08699024588868734,-0.10975354972481714
294,-0.1911053590989607,-0.193995872036207,-0.10835553085683154,-0.13471425489665548
295,-0.23216539948084866,-0.23739288167894287,-0.13378085776117252,-0.16401081129489467
296,-0.2797245755413593,-0.28818737890694535,-0.16378186207538842,-0.19813589207679777
297,-0.33437088479236393,-0.3471860728076976,-0.19889488208689093,-0.23759685005681624
298,-0.39667688413273344,-0.4152092697198119,-0.2396710632453748,-0.28291007557286896
299,-0.46718885610832595,-0.4930793586829695,-0.2866696904651739,-0.33459459151568055
300,-0.5464157220542678,-0.5816080916220905,-0.3404508427547475,-0.3931649338969593
301,-0.6348179481211619,-0.6815828452392023,-0.40156748020475735,-0.459123387268434
302,-0.7327966956861103,-0.7937520913147914,-0.47055708615275993,-0.5329516662410544
303,-0.8406834658435657,-0.9188103377816438,-0.5479329970443607,-0.6151021566615337
304,-0.958730478817869,-1.057382833134905,-0.6341755590132145,-0.7059888518349628
305,-1.0871020136858103,-1.2100103502330317,-0.7297232535507983,-0.8059781395006406
306,-1.2258669123481114,-1.3771343812929397,-0.8349639350844765,-0.9153796129319922
307,-1.3749924249767702,-1.559083083124292,-0.9502263213060907,-1.0344370934191858
308,-1.5343395430290452,-1.7560583099151605,-1.0757718733508481,-1.1633200605324532
309,-1.703659931289403,-1.9681240600243728,-1.2117871981446264,-1.302115690233278
310,-1.8825945332916694,-2.195196643432051,-1.358377100050873,-1.4508216986818177
311,-2.0706738859652596,-2.4370368482481344,-1.5155584037329155,-1.6093401813732882
312,-2.2673201405561683,-2.6932443487638533,-1.683254664909982,-1.7774726231858995
313,-2.471850748903995,-2.96325455496622,-1.8612918800417555,-1.9549162354089016
314,-2.683483738075928,-3.246338055392811,-2.0493952992403828,-2.1412617513482766
315,-2.90134446315978,-3.5416027529560727,-2.2471874380627472,-2.335992783267064
316,-3.124473698599603,-3.8479987382382257,-2.454187372526512,-2.53848681085111
317,-3.3518369036025724,-4.164325888081159,-2.669811387196589,-2.7480178358123233
318,-3.5823344774970662,-4.48924412036142,-2.893375028298227,-2.9637606994627315
319,-3.814812806942546,-4.821286179856969,-3.124096592652377,-3.1847970210579675
320,-4.04807589882448,-5.158872776188497,-3.3611020591927887,-3.4101226755163747
321,-4.280897390495821,-5.500329843968343,-3.603431443475657,-3.6386566910311147
322,-4.512032732460658,-5.843907648454271,-3.8500465275676707,-3.869251411513912
323,-4.74023134707756,-6.18780141805581,-4.099839888661011,-4.10070373722822
324,-4.964248579594036,-6.530173148768577,-4.351645120436621,-4.331767230842071
325,-5.182857273829233,-6.8691741957035255,-4.604248112424193,-4.561164856734124
326,-5.394858823018069,-7.202968243897739,-4.856399225380185,-4.787602109681202
327,-5.599093565634968,-7.5297542349989275,-5.106826176100122,-5.009780285578167
328,-5.7944504154467324,-7.847788818595956,-5.354247424131946,-5.226409651644403
329,-5.979875633785274,-8.15540789728502,-5.597385836436354,-5.436222286208017
330,-6.1543806694601795,-8.451046843366777,-5.834982394801943,-5.637984377713428
331,-6.317049007417967,-8.733258982671385,-6.065809705213661,-5.830507797752933
332,-6.467041980952156,-9.000731967601384,-6.288685068656875,-6.012660792068191
333,-6.603603513902935,-9.252301697061002,-6.502482879107666,-6.183377664817824
334,-6.726063768953353,-9.486963485221855,-6.706146126609549,-6.341667363129688
335,-6.8338416860885,-9.703880233442474,-6.898696801042114,-6.486620899281373
336,-6.926446401932493,-9.902387419152063,-7.079245014882529,-6.617417575189795
337,-7.00347754652516,-10.081994780837004,-7.246996690154776,-6.7333299969572575
338,-7.064624419727692,-10.24238464787581,-7.401259684880532,-6.833727885202834
339,-7.109664055464429,-10.38340693610888,-7.541448266620051,-6.918080699610046
340,-7.138458189017293,-10.505070902860773,-7.667085874049112,-6.985959104059362
341,-7.150949151146239,-10.607533826801934,-7.777806140959811,-7.037035303059373
342,-7.147154723402041,-10.691086846747135,-7.873352189702977,-7.071082282579304
343,-7.127162002010514,-10.756138257540126,-7.953574232136029,-7.087971990622305
344,-7.091120333382216,-10.803194618980593,-8.018425544990167,-7.087672496627054
345,-7.039233402694325,-10.832840083836718,-8.067956912841087,-7.070244175318883
346,-6.971750577950736,-10.845714392025169,-8.10230965544505,-7.035834970686593
347,-6.888957635092929,-10.842490008921024,-8.121707377214124,-6.984674809487173
348,-6.791167014552312,-10.823848905705718,-8.126446595305442,-6.917069250659883
349,-6.678707785360729,-10.790459488321412,-8.116886419440602,-6.83339247633547
350,-6.551915518626805,-10.74295417907284,-8.093437471301874,-6.73407975038901
351,-6.411122296684209,-10.681908141686996,-8.056550244182237,-6.619619489994135
352,-6.256647106152429,-10.607819617459556,-8.00670311435443,-6.490545112454364
353,-6.088786880983244,-10.52109230789406,-7.944390224056593,-6.347426831706622
354,-5.907808473697679,-10.422020198953321,-7.870109461563329,-6.190863584423004
355,-5.713941837937849,-10.310775174682142,-7.784350765841023,-6.021475263021862
356,-5.507374701890934,-10.18739771447812,-7.687584980982698,-5.839895421140204
357,-5.288248999152693,-10.051790909574832,-7.580253478204402,-5.64676459599846
358,-5.056659300621075,-9.903717971198619,-7.462758750039852,-5.442724362345669
359,-4.81265345784154,-9.742803336194529,-7.335456162156703,-5.2284121960698
360,-4.556235624990152,-9.568537406558814,-7.198647022977615,-5.004457184778503
361,-4.287371773839918,-9.38028488822084,-7.0525731004817285,-4.771476581026023
362,-4.005997754446655,-9.177296622663873,-6.897412680055331,-4.5300731549436195
363,-3.7120298851919644,-8.95872473378526,-6.733278218270986,-4.280833270191411
364,-3.4053779810074927,-8.723640843169774,-6.56021560646079,-4.024325583183766
365,-3.0859606503679413,-8.471057041270466,-6.378205016480003,-3.761100252400997
366,-2.753722612743255,-8.199949241598114,-6.187163260684915,-3.4916885432268816
367,-2.4086537117767146,-7.909282491694927,-5.986947560341563,-3.216602723981853
368,-2.0508092288501,-7.59803777005959,-5.777360582826557,-2.9363361693744623
369,-1.6803310402790612,-7.265239763626493,-5.558156579418401,-2.6513636161533967
370,-1.2974691123436428,-6.909985096764922,-5.329048433492286,-2.362141549165584
371,-0.9026027944847463,-6.531470470477031,-5.089715414659679,-2.069108730646561
372,-0.49626135440388824,-6.129020169553276,-4.839811428666621,-1.7726869175609785
373,-0.07914320067525234,-5.70211240558211,-4.578973556045216,-1.473281837575332
374,0.34786674112622307,-5.250403984326921,-4.3068306843849715,-1.1712845108102279
375,0.7836819950020063,-4.773752816251819,-4.023012058823419,-0.8670730099214033
376,1.227002287172198,-4.272237827842801,-3.7271556015561784,-0.5610147446060408
377,1.676304463488515,-3.7461758775808636,-3.418915881992627,-0.25346933896805035
378,2.1298368779254195,-3.1961353326038484,-3.097971652486373,0.05520785690176821
379,2.5856174827680123,-2.622946018836341,-2.76403289807084,0.36466161369174493
380,3.0414357765556446,-2.0277053173254616,-2.4168473801315455,0.6745320583771327
381,3.4948586963286226,-1.411780241496372,-2.0562066815382085,0.9844493677323156
382,3.943240479266515,-0.7768053930753538,-1.681951782964935,1.2940280264321908
383,4.383736467202266,-0.12467675789394259,-1.2939782159496915,1.6028607899870044
384,-6.933851732646976e-14,-3.4716089906324706e-13,-1.3809331551861285e-14,9.799987393263461e-14
385,-1.440401747797552e-12,-6.686657151833532e-12,-2.306014998816327e-13,2.3957490776155795e-12
386,-1.7010762444505576e-11,-7.987203414982451e-11,-1.3982013376524167e-12,2.8767031374167544e-11
387,-1.3410904398683282e-10,-6.425498553952553e-10,-8.300518032106978e-13,2.2964097328423343e-10
388,-7.974820112306747e-10,-3.8950988618254646e-09,5.3415776735154727e-11,1.3759492335768405e-09
389,-3.824918748937629e-09,-1.902014495701555e-08,5.194710095526456e-10,6.617494495342379e-09
390,-1.5456093170884374e-08,-7.814438631427764e-08,3.0785640431956224e-09,2.6677365925049676e-08
391,-5.425787107559868e-08,-2.7855293983840945e-07,1.3906808933455388e-08,9.29463998986394e-08
392,-1.6928172472074068e-07,-8.814302630938783e-07,5.1932861527567163e-08,2.8635085812614243e-07
393,-4.777308791507035e-07,-2.5202306167591615e-06,1.674560210895837e-07,7.940948956372685e-07
394,-1.2366456450712111e-06,-6.603790014151812e-06,4.794743799242843e-07,2.0106497191240115e-06
395,-2.9696606304925406e-06,-1.6040603274997637e-05,1.243589189308402e-06,4.702494291642789e-06
396,-6.677471090110404e-06,-3.646030939011419e-05,2.965865963730445e-06,1.0256734999333633e-05
397,-1.4168887548386459e-05,-7.816435136356845e-05,6.581046759056196e-06,2.103055573796208e-05
398,-2.8557792761157004e-05,-0.0001590973370280545,1.3715555467164022e-05,4.0810557320476014e-05
399,-5.4979379082587013e-05,-0.000309190975323348,2.7056421357438977e-05,7.537813263379962e-05
400,-0.00010158603111961546,-0.0005764910441822447,5.0846212755720126e-05,0.0001331595465550641
401,-0.00018088826224860283,-0.0010355326673443213,9.152098073735663e-05,0.00022591858305577445
402,-0.00031150817404440064,-0.0017984787111343461,0.00015850273443458548,0.00036942740865771403
403,-0.0005204108137500662,-0.003029578863636925,0.0002651498613350174,0.0005840301136167919
404,-0.0008456713022682277,-0.004963540816829014,0.00042985810024804405,0.0008949959298333305
405,-0.001339821485328211,-0.007928426620515612,0.0006772913567819575,0.0013325480552844162
406,-0.0020737981296757354,-0.012373691840280894,0.0010397062961673526,0.0019314516537121205
407,-0.003141484819660122,-0.01890396624094506,0.0015583180369499695,0.0027300526178475676
408,-0.004664801873989316,-0.028319124846784633,0.0022846374806825397,0.003768677915066229
409,-0.006799253823954004,-0.041661109577058875,0.0032816951806826436,0.00508733864773989
410,-0.009739794162396667,-0.06026782700143105,0.0046250536664548475,0.006722717207022618
411,-0.013726814833212272,-0.08583426151701229,0.006403501293400124,0.008704467871336009
412,-0.01905201646582251,-0.12048070240394618,0.008719317305592429,0.011050912675343742
413,-0.026063868116334255,-0.1668276881206646,0.011688000866587925,0.013764267298334187
414,-0.03517232568040442,-0.22807692608459482,0.01543736683042632,0.016825580597560383
415,-0.04685244928685239,-0.30809705939466003,0.020105927915247214,0.020189611845921974
416,-0.061646544407826735,-0.4115127358438299,0.02584050603563103,0.023779897998249512
417,-0.08016445097120808,-0.5437950051127945,0.032793043658835994,0.027484276817562794
418,-0.10308162057174831,-0.711350646130625,0.041116617632013595,0.031151129256172007
419,-0.13113465444788933,-0.9216076291679057,0.05096069128650097,0.03458658637038462
420,-0.16511402420993043,-1.1830935682013357,0.062465674092571546,0.03755291381204685
421,-0.20585376291783294,-1.505503740185442,0.07575689017244099,0.039768243154208044
422,-0.25421799512759413,-1.8997550594775807,0.09093808617763259,0.040907767190446365
423,-0.3110842695274517,-2.3780223157090816,0.10808463409667447,0.040606459402828345
424,-0.37732376467958845,-2.9537530263213343,0.12723660426017538,0.03846331947581574
425,-0.45377855429515346,-3.6416574308653917,0.14839189707870779,0.034047090157922434
426,-0.5412362397432559,-4.457670467996945,0.1714996280983616,0.0269033384996016
427,-0.6404023797879458,-5.4188830272788095,0.19645395946120778,0.016562748399062157
428,-0.7518712660676161,-6.54344034993943,0.22308856205621358,0.002550432622405346
429,-0.8760957026187295,-7.850406153246462,0.2511718773619664,-0.015603958491999585
430,-1.0133565439625494,-9.359591854205009,0.2804033274949625,-0.03835557767811116
431,-1.1637328244693737,-11.091351147045062,0.3104105978142825,-0.06613343282761061
432,-1.3270733680117675,-13.066341118639171,0.34074809013600926,-0.09932942227849259
433,-1.502970798176247,-15.305252037015043,0.3708966175531834,-0.13828762925749072
434,-1.6907388732266828,-17.828508889442027,0.40026438516091317,-0.18329415102323363
435,-1.8893940452732334,-20.655948647000805,0.42818927551524794,-0.23456773408069365
436,-2.09764208941083,-23.80647806213779,0.4539424340418294,-0.2922514796300616
437,-2.313870566776924,-27.297717536973636,0.4767331282736835,-0.35640587383761935
438,-2.536147777449854,-31.145637209117538,0.49571483594016147,-0.42700338610199073
439,-2.762228727774275,-35.36419186883362,0.509992500539409,-0.5039248655232076
440,-2.989568485765745,-39.96496163191631,0.5186308789106411,-0.586957951176804
441,-3.2153431320074235,-44.956805437042746,0.5206638931725536,-0.6757976950000941
442,-3.4364783365409286,-50.3455344103647,0.515104888890832,-0.7700495760849716
443,-3.64968540943025,-56.13361194440512,0.5009576922345197,-0.8692350605176743
444,-3.851504488629532,-62.31988697840405,0.4772283510398439,-0.9727998299593682
445,-4.038354347983841,-68.89936645292896,0.44293743804565044,-1.0801247632795323
446,-4.206588134798076,-75.86303225648032,0.39713278898466076,-1.1905397073491208
447,-4.3525541841882,-83.1977072028444,0.33890254345715687,-1.3033400146369356
448,-4.472660909700998,-90.8859736944236,0.2673883521496765,-1.4178057561560682
449,-4.563444639267107,-98.90614775984994,0.1817986094417739,-1.5332234388176205
450,-4.621639154757714,-107.23231012608147,0.08142156522800377,-1.6489099672598815
451,-4.6442456041187805,-115.83439491852934,-0.03436183651188329,-1.7642384933403645
452,-4.628601388805062,-124.6783354998396,-0.16606555234549486,-1.8786656940866338
453,-4.572446587365288,-133.72626587979116,-0.3140866356464763,-1.9917599141859887
454,-4.473986459769491,-142.9367750744487,-0.47869421188623307,-2.103229506016531
455,-4.331948587551642,-152.26521077901498,-0.6600194191891335,-2.2129506034310436
456,-4.145633243069739,-161.66402776070362,-0.8580465082546925,-2.320993480191101
457,-3.914955647941562,-171.0831754894697,-1.0726053017914616,-2.427646575656385
458,-3.640478876487141,-180.4705187199751,-1.3033652168223002,-2.5334372247171943
459,-3.323436284898675,-189.77228403341206,-1.5498310524816123,-2.6391481114428226
460,-2.9657425004925173,-198.93352476011563,-1.8113407399922714,-2.7458284812760327
461,-2.5699921867981574,-207.8985962520294,-2.087065239125058,-2.8547991984709533
462,-2.1394460077222983,-216.61163317734577,-2.37601074547713,-2.967650825920478
463,-1.6780034451224377,-225.01702038644322,-2.677023344539875,-3.0862340337566447
464,-1.1901623755880215,-233.05984896460242,-2.9887962114207705,-3.2126418093600164
465,-0.6809655800586895,-240.686349354742,-3.3098794095067947,-3.3491831409736466
466,-0.1559346393961113,-247.84429390880487,-3.638692288239568,-3.4983480745183724
467,0.3790080452649296,-254.48336190879908,-3.973538421093948,-3.66276429148552
468,0.9176280827687506,-260.5554609795346,-4.312622961924518,-3.845145616814552
469,1.4534774690758379,-266.0149998784692,-4.654072233507189,-4.048233130549715
470,1.9800009423973728,-270.81910886960856,-4.99595529883263,-4.274729816572326
471,2.490648503645733,-274.9278052367029,-5.336307205733494,-4.527229926663544
472,2.9789920744710154,-278.30410292849,-5.673153540542152,-4.808144459858482
473,3.4388440858587317,-280.9140668131616,-6.004535878009991,-5.119624347566364
474,3.864375653137956,-282.7268135052071,-6.328537673662816,-5.463483087334414
475,4.2502319038873555,-283.71446216868657,-6.643310111952472,-5.8411206767316415
476,4.591641988226677,-283.852040050788,-6.947097399834892,-6.2534507593128446
477,4.884521319752928,-283.1173487147145,-7.238260981685045,-6.700832904205878
478,5.125563671992929,-281.4907979821499,-7.515302148742213,-7.1830118984001645
479,5.312320890264095,-278.9552154291212,-7.776882525526345,-7.6990658368829585
480,5.443268171238231,-275.49563987830044,-8.02184193767279,-8.24736465267736
481,5.517853109613146,-271.09910767689263,-8.249213200872111,-8.825540540477196
482,5.53652700883483,-265.75444063215934,-8.458233419106534,-9.430471499161769
483,5.500757294983895,-259.45204429519794,-8.648351441675734,-10.058278956191469
484,5.413020252595942,-252.1837248457795,-8.819231201647662,-10.704340147531658
485,5.276773709992823,-243.94253215338438,-8.970750741966977,-11.363315617434017
486,5.096409730350587,-234.72263569634828,-9.102996827746077,-12.02919188029825
487,4.8771878031417675,-224.51923894321197,-9.216255142164872,-12.695338959016501
488,4.625149468172161,-213.32853657409188,-9.310996166545587,-13.354582187529736
489,4.3470157303567305,-201.14771758503147,-9.38785694996272,-13.999287346381285
490,4.050069026879507,-187.97501591679958,-9.447619077487298,-14.621457895109243
491,3.7420218790688886,-173.8098088239769,-9.49118324612656,-15.212842780336189
492,3.4308746894472737,-158.65276179189576,-9.519540951041089,-15.765053039054019
493,3.124765421143103,-142.50601745722506,-9.533743869106306,-16.26968518824134
494,2.8318141144652773,-125.37342472837558,-9.534871599762376,-16.71844919966948
495,2.5599653476016466,-107.2608031656938,-9.523998481795605,-17.10329870725563
496,2.316831830432287,-88.17623669475242,-9.502160246727183,-17.416560987826326
497,2.1095423296086393,-68.13038990943672,-9.470321292648043,-17.651064198251202
498,1.9445970587472337,-47.136839589579544,-9.429343364990427,-17.800259345416627
499,1.8277335314671554,-25.21241361924252,-9.379956412025951,-17.858334512356173
500,1.7638056708570893,-2.3775292492429814,-9.322732342925327,-17.820318964946686
501,1.7566787025214596,21.343477401384384,-9.258062356063954,-17.682174918690688
502,1.8091420369436741,45.922038573104246,-9.186138426833292,-17.440874952770166
503,1.9228419790469042,71.32506647933552,-9.106939450161793,-17.09446331594841
504,2.098235697862755,97.51469649167254,-9.020222426420618,-16.64209967173652
505,2.3345674569424344,124.4480684716798,-8.925518963874408,-16.084084172754633
506,2.6298676565494645,152.07715209263253,-8.82213724994413,-15.421863129171728
507,2.9809747817229666,180.34862116487022,-8.709169520833855,-14.65801493497057
508,3.3835798957596244,209.2037810732105,-8.585504937874783,-13.796216328982457
509,3.8322928759530615,238.57855247710012,-8.4498476622428,-12.841189484895269
510,4.320729166466915,268.4035134365389,-8.300739810032187,-11.798630835172181
511,4.841615430237429,298.60400113130504,-8.136588869009739,-10.67512292752152
512,-3.5153958641342364e-16,3.163086089286137e-13,-3.407880019270835e-14,5.403507165622539e-14
513,-4.2778751540317364e-16,7.0109215088872695e-12,-7.301772467042903e-13,1.2994023950563442e-12
514,1.6785934953539075e-13,8.336927986689174e-11,-8.748394558779774e-12,1.534614499068762e-11
515,2.679866868566886e-12,6.627985432357908e-10,-7.033679073316325e-11,1.2005651644395838e-10
516,2.3799309834786945e-11,3.9696991089519126e-09,-4.265100534780943e-10,7.040776694547823e-10
517,1.504342464708237e-10,1.9159573151871797e-08,-2.0856733222350083e-09,3.3104352877361294e-09
518,7.471807270489288e-10,7.784336894053784e-08,-8.588570652434341e-09,1.3032223809533227e-08
519,3.0814788425125927e-09,2.7454312011157553e-07,-3.069881520920321e-08,4.4288499312482296e-08
520,1.0938240634155901e-08,8.599739931162194e-07,-9.741060075383317e-08,1.3292135549742324e-07
521,3.4283373351543277e-08,2.4351257071106403e-06,-2.7918684567938744e-07,3.585889252681702e-07
522,9.671798845455025e-08,6.3213583973787575e-06,-7.327502209659315e-07,8.818588854521365e-07
523,2.49303132796373e-07,1.5215380416185858e-05,-1.780879054533204e-06,1.9996165632961917e-06
524,5.942385582644206e-07,3.427596963711728e-05,-4.045159957614723e-06,4.219842767650176e-06
525,1.3227177245726864e-06,7.28283225120203e-05,-8.654058887957486e-06,8.35217565840363e-06
526,2.7719036830034135e-06,0.00014690768267722326,-1.7552533338809817e-05,1.5603978935394182e-05
527,5.5062284162909605e-06,0.00028289155224761755,-3.394236849458927e-05,2.766331952281587e-05
528,1.0427987757514352e-05,0.0005224843459087223,-6.28842815595432e-05,4.6741093935278405e-05
529,1.8921403289969193e-05,0.0009293152138160815,-0.00011209351730888696,7.553557265076719e-05
530,3.30329238834717e-05,0.0015973851721628619,-0.00019296007218407027,0.00011707501366968107
531,5.5688578632977266e-05,0.0026615511308006414,-0.00032182263302710175,0.0001743888628811292
532,9.09467772456125e-05,0.004310160933574498,-0.0005215214211727387,0.0002499564129743833
533,0.0001442822659907377,0.006799855917786899,-0.0008232488782312966,0.0003448844194576675
534,0.00022289423418439346,0.010472438340013771,-0.0012687079906227134,0.0004577725718570787
535,0.0003360291037519744,0.01577356463877859,-0.001912575655334342,0.0005832380281543423
536,0.0004953065709477415,0.023272877802140553,-0.0028252527829588565,0.0007100871668068628
537,0.0007150361688085356,0.033685040269088376,-0.004095864190815101,0.0008191435885637245
538,0.0010125110313515806,0.04789098092907222,-0.005835450614571838,0.000880765126670775
539,0.0014082656089757914,0.06695853447300287,-0.008180273660305295,0.0008521078342532134
540,0.0019262846802538215,0.09216153712605467,-0.011295133836075937,0.0006742200997669521
541,0.0025941519710900593,0.12499635760588941,-0.01537658363644523,0.00026907366566138944
542,0.003443127881098938,0.16719479288461442,-0.020655903537716815,-0.0004633410574239136
543,0.004508147118233756,0.22073225038948027,-0.02740169986254441,-0.0016477116849695143
544,0.005827728388531977,0.2878301752802122,-0.035921980483567366,-0.0034357380245041698
545,0.007443789636637422,0.3709517650250971,-0.04656556747701046,-0.00600794478029344
546,0.00940136363413993,0.4727901432305644,-0.05972271492918554,-0.009574816715619624
547,0.011748209877054761,0.5962483380528344,-0.0758248146621909,-0.014377110854771528
548,0.014534319647329855,0.7444106230682783,-0.09534309199544916,-0.020685219026714177
549,0.017811311568892204,0.9205050239434543,-0.11878621698601179,-0.028797480654461024
550,0.02163171493936231,1.1278570648473851,-0.14669678302565597,-0.03903737951766249
551,0.02604813753481037,1.3698351152986097,-0.17964663335708378,-0.0517495980814549
552,0.031112313596618986,1.649787991219198,-0.2182310461985764,-0.06729494723328144
553,0.036874026601599524,1.970975753129356,-0.2630618199895071,-0.08604423585395596
554,0.043379900616788536,2.336494919383263,-0.31475933107022774,-0.10837119128224482
555,0.050672054079726546,2.749199563214068,-0.3739436661567714,-0.13464458605452398
556,0.05878661128740288,3.2116199799316787,-0.4412249604922917,-0.1652197660396123
557,0.06775207021798882,3.725880786744824,-0.5171930987477761,-0.20042980818862938
558,0.07758753085803774,4.293620445477935,-0.6024069587918924,-0.24057656082939932
559,0.08830079598289339,4.915914272534365,-0.6973833975827195,-0.2859218343812134
560,0.09988636601390485,5.593203017068103,-0.8025861929933054,-0.3366790146091789
561,0.11232336049162275,6.325229045491603,-0.9184151649078538,-0.393005363637678
562,0.12557340992896654,7.110982068045488,-1.0451957032209713,-0.4549952560083586
563,0.13957857224944356,7.948656182971731,-1.1831689295144563,-0.5226745688125343
564,0.15425933655420318,8.835619799514335,-1.3324827134417712,-0.5959964076999379
565,0.16951278260965102,9.7683997379401,-1.4931837545460132,-0.6748383063561773
566,0.18521096649871238,10.742680500010703,-1.665210925633098,-0.7590009883932581
567,0.2011996010261959,11.753319365158228,-1.848390055052764,-0.8482087304100816
568,0.2172970938517213,12.794377605344948,-2.042430302341861,-0.9421113161992389
569,0.23329399749942467,13.859167735243705,-2.246922254693771,-1.040287527350947
570,0.24895291423619803,14.94031633430816,-2.4613378408015514,-1.1422500768840653
571,0.26400888636078057,16.029841603840943,-2.6850321241811748,-1.2474518612730314
572,0.27817028974098973,17.119244465286354,-2.917247000775196,-1.3552933827599667
573,0.2911202363468663,18.199611674979376,-3.1571167863134018,-1.4651311778187623
574,0.30251848064774184,19.26172913387299,-3.403675638473539,-1.5762870781924632
575,0.3120038153535889,20.29620331561444,-3.655866718208892,-1.6880581268305206
576,0.3191969341042173,21.293588528759877,-3.9125529544996938,-1.7997269709401689
577,0.32370373220638093,22.244517573549967,-4.172529238060842,-1.9105725568753706
578,0.3251190112158731,23.139833253759978,-4.434535833120551,-2.0198809554811246
579,0.3230305489364544,23.9707181615087,-4.69727276335819,-2.126956150747099
580,0.31702349320900214,24.72882016800714,-4.959414899685787,-2.2311306284072114
581,0.3066850356762842,25.406371125168825,-5.21962745506451,-2.3317756039479964
582,0.29160932048554394,25.996296409695663,-5.476581576168335,-2.4283107311907854
583,0.2714025425017251,26.492313119494195,-5.728969714409777,-2.520213133387566
584,0.24568818980832985,26.889014957894695,-5.97552046023818,-2.6070255991575015
585,0.21411238573212682,27.18194210908692,-6.215012534897486,-2.688363786408071
586,0.17634928594377064,27.367634712633947,-6.446287652749603,-2.763922279652438
587,0.1321064859530144,27.443668879375103,-6.668261994219361,-2.8334793510128855
588,0.08113039317569141,27.40867454837871,-6.879936063492731,-2.896900283939522
589,0.02321151543674659,27.262334857250302,-7.080402745187509,-2.954139132520066
590,-0.04181038584252387,27.00536707804326,-7.2688534190522445,-3.005238809316426
591,-0.11404133442427844,26.639485550021817,-7.444582039955109,-3.050329421726783
592,-0.19352843265976694,26.167347410280648,-7.606987140520585,-3.0896248112561007
593,-0.28025547897409125,25.592482275563604,-7.755571764204652,-3.123417291496968
594,-0.3741389860136561,24.91920735572529,-7.889941385794187,-3.1520706281177002
595,-0.4750246829426196,24.152529773905115,-8.009799922744348,-3.176011356087019
596,-0.5826845913956458,23.29803812418117,-8.114943983022814,-3.1957185835033686
597,-0.696814769018451,22.36178550878317,-8.205255531992227,-3.2117124850781638
598,-0.8170338166219613,21.350166459546305,-8.28069319136719,-3.2245417386545303
599,-0.9428822440493225,20.269790259134126,-8.341282406795079,-3.234770202232124
600,-1.073822785336663,19.127353234920424,-8.38710473689737,-3.2429631641243946
601,-1.2092417452787996,17.929512601912954,-8.418286525873008,-3.249673522817265
602,-1.3484514470220932,16.682764381621986,-8.434987224590548,-3.25542826413549
603,-1.4906938340586517,15.393327823412228,-8.437387622322825,-3.2607156005026545
604,-1.635145260545031,14.067038606760805,-8.425678243836993,-3.265973120264674
605,-1.7809224819731313,12.709252910999803,-8.400048155331984,-3.2715772649017363
606,-1.9270898347202483,11.324764208277909,-8.360674408473718,-3.277834409838432
607,-2.0726675687076743,9.917734370918575,-8.307712335126869,-3.2849737723680987
608,-2.2166412729986424,8.491640391780042,-8.241286886798761,-3.293142310182544
609,-2.357972310199294,7.049237701653367,-8.161485192677619,-3.3024017086178024
610,-2.4956091523366255,5.592540737410929,-8.068350488783802,-3.3127274866065752
611,-2.628499488636936,4.122821074929628,-7.961877548438698,-3.3240101831805804
612,-2.7556029543329625,2.6406230981980388,-7.8420097212198545,-3.3360585209335007
613,-2.875904309233031,1.1457968368516287,-7.7086376639431435,-3.3486043828090866
614,-2.988426875278354,-0.3624527251336419,-7.561599822962944,-3.361309386384308
615,-3.092246023847572,-1.8855008808240317,-7.40068470196382,-3.3737727975892837
616,-3.1865024865612663,-3.4252242759486364,-7.225634922987546,-3.385540495198981
617,-3.270415248522693,-4.983909399833601,-7.036153060145458,-3.3961146795482873
618,-3.3432937713068336,-6.564150299218049,-6.831909194813096,-3.404964014249203
619,-3.4045492857433155,-8.16873752478907,-6.612550107840977,-3.4115338980441585
620,-3.4537048928084144,-9.80054048510721,-6.377709988595692,-3.4152565844533167
621,-3.4904042157930317,-11.462385507378606,-6.127022503123905,-3.415560898065498
622,-3.5144183591540314,-13.15693198723841,-5.860134025555171,-3.4118813361529625
623,-3.5256509496011357,-14.886549048957894,-5.5767177995554365,-3.4036663903511153
624,-3.524141063237172,-16.653195132568463,-5.276488761926203,-3.3903859728243457
625,-3.5100638788775016,-18.458302875347314,-4.959218730010942,-3.3715378819802697
626,-3.4837289416434274,-20.30267156273477,-4.624751629944928,-3.346653291825619
627,-3.4455759718381196,-22.186369289639142,-4.273018425251664,-3.3153012941048634
628,-3.396168210882811,-24.10864679958664,-3.904051395891576,-3.277092561339788
629,-3.3361833572404755,-26.067864759415336,-3.517997417428443,-3.231682230065915
630,-3.2664022089518663,-28.0614359850566,-3.1151298990918526,-3.1787721256094454
631,-3.187695193542554,-30.08578386396757,-2.6958590584901057,-3.118112461773015
632,-3.1010070283403035,-32.1363179271767,-2.260740239505553,-3.049503150391864
633,-3.007339812313454,-34.2074272144191,-1.8104800179779204,-2.9727948470542707
634,-2.9077349020806773,-36.29249175557572,-1.3459398861893253,-2.8878898411964435
635,-2.803253967556558,-38.38391216691935,-0.8681373605484748,-2.7947428728653967
636,-2.694959654820794,-40.473157037879105,-0.3782444155703163,-2.6933619269630737
637,-2.583896303606369,-42.55082746943532,0.12241679060872586,-2.583809021516007
638,-2.471071173127992,-44.606737824894346,0.632380870367057,-2.4662009724406975
639,-2.3574366222149608,-46.630011473371006,1.1500487486767852,-2.3407100862424013
640,-1.437691469630427e-15,-1.733376442041171e-14,-6.034948319674589e-14,-2.5919325302884994e-14
641,1.0343195067086292e-15,-3.400931436545063e-13,-1.315829607343294e-12,-5.83138686966508e-13
642,-7.651084062633819e-15,-3.936943060423425e-12,-1.5406425287201787e-11,-6.986751970960615e-12
643,9.308334814460638e-15,-3.0606350045378487e-11,-1.2069159241360844e-10,-5.5886620583497806e-11
644,-9.648594831577991e-15,-1.7942759259458024e-10,-7.122663016207338e-10,-3.3651722989159184e-10
645,5.555826008891596e-15,-8.490640995257756e-10,-3.387994843790067e-09,-1.6308487981201668e-09
646,-7.987552070846713e-15,-3.3910847116308887e-09,-1.3571797158673195e-08,-6.642036889377701e-09
647,7.852235824942994e-15,-1.1798188628245668e-08,-4.722707397389936e-08,-2.3435232707192164e-08
648,-4.195516667716959e-14,-3.6610841547996675e-08,-1.461024358582759e-07,-7.327334841106103e-08
649,-7.505942533348396e-13,-1.0318093349974848e-07,-4.0909512851165437e-07,-2.0660667495043338e-07
650,-8.88884949369548e-12,-2.6789539792074423e-07,-1.051658951943906e-06,-5.327569867970075e-07
651,-6.948023412810949e-11,-6.480659034522061e-07,-2.5107400844458537e-06,-1.270672362977086e-06
652,-4.091040971356965e-10,-1.4740196847126525e-06,-5.619316458994622e-06,-2.829656284973615e-06
653,-1.9387725925261613e-09,-3.175480360787123e-06,-1.1881802413032702e-05,-5.929785744402746e-06
654,-7.726738706551422e-09,-6.518475444820981e-06,-2.38886385634192e-05,-1.1771452208707742e-05
655,-2.670524537502862e-08,-1.2813458709513886e-05,-4.591437336604359e-05,-2.22618248930286e-05
656,-8.189830385158434e-08,-2.4219635485622366e-05,-8.474741713295109e-05,-4.0302969630180545e-05
657,-2.2684225072437767e-07,-4.4174034856677326e-05,-0.00015080043235144483,-7.014201359253542e-05
658,-5.755104907990756e-07,-7.797601634613229e-05,-0.0002595472455205204,-0.00011777851861932181
659,-1.3527393079807786e-06,-0.0001335579763838874,-0.00043332477298648923,-0.00019141869616964356
660,-2.973584635053162e-06,-0.00022247049547527247,-0.0007035266628952443,-0.0003019609392607251
661,-6.160902523430638e-06,-0.000361104718225945,-0.0011131994426356495,-0.00046349301700392267
662,-1.211042708683196e-05,-0.0005721663409635018,-0.0017200324987868372,-0.0006937787274708134
663,-2.2711502868046737e-05,-0.0008864044508398123,-0.002599710997313293,-0.00101471123326837
664,-4.0829309838254206e-05,-0.0013445851468299687,-0.0038495768255780495,-0.001452711930976916
665,-7.065096466675641e-05,-0.00199968512440419,-0.005592517882033144,-0.0020390575381708854
666,-0.00011809349417107859,-0.0029192650998575266,-0.007980981746105467,-0.002810123885043266
667,-0.0001912666928868753,-0.004187967998022639,-0.011200987214616435,-0.0038075421856045236
668,-0.0003009787106163537,-0.005910073081438403,-0.015475987719743916,-0.005078271643147707
669,-0.000461267318603749,-0.008212025389884605,-0.021070425535717068,-0.006674600305034245
670,-0.0006899356391400077,-0.011244850561139804,-0.02829280608157406,-0.00865409329710626
671,-0.0010090681225603897,-0.015186358732649442,-0.03749811841471173,-0.01107951318832166
672,-0.0014455011278219157,-0.02024303805566394,-0.049089431688217576,-0.014018740643561296
673,-0.0020312229491960695,-0.02665153855242877,-0.06351850797701644,-0.01754472425758893
674,-0.0028036808010421382,-0.03467965068630356,-0.08128528910484259,-0.021735486222244672
675,-0.0038059772333778716,-0.04462669007516536,-0.10293613824800459,-0.02667420510697504
676,-0.005086945620469661,-0.05682321012954674,-0.12906074530420264,-0.03244938852838583
677,-0.006701103393871454,-0.07162997777470222,-0.16028763740086052,-0.03915513704531179
678,-0.0087084919896568,-0.08943616341912526,-0.1972782715932486,-0.04689148671296036
679,-0.011174423226774992,-0.1106567144412385,-0.2407197248786296,-0.05576480218685822
680,-0.014169162071071025,-0.1357289010792802,-0.29131603619425,-0.06588817629358451
681,-0.017767584470159956,-0.16510804408605553,-0.34977829507345853,-0.07738177712677115
682,-0.022048855229006792,-0.19926245421414063,-0.4168136110515485,-0.09037307172834355
683,-0.027096173974777683,-0.23866763393469578,-0.4931131356626012,-0.10499684800402136
684,-0.03299663658730267,-0.28379981124044895,-0.5793393438729434,-0.12139495515621362
685,-0.03984125478017933,-0.3351288935020854,-0.6761128129998879,-0.13971568853728586
686,-0.047725167785231094,-0.39311094578573913,-0.7839987635540347,-0.160112757681207
687,-0.0567480675626484,-0.4581803125267308,-0.9034936470791911,-0.18274379585415468
688,-0.06701484308952126,-0.5307415137892361,-1.0350120801034282,-0.2077683945663186
689,-0.07863643076416289,-0.6111610573798109,-1.1788744300387237,-0.23534567534245399
690,-0.09173083768798282,-0.6997593157281857,-1.3352953577028608,-0.2656314415365672
691,-0.1064242836322567,-0.7968026216357447,-1.5043736116870536,-0.2987749828436898
692,-0.1228523870847886,-0.9024957396591126,-1.6860833518546214,-0.3349156322427886
693,-0.141161302199466,-1.016974869957897,-1.8802672528530084,-0.3741791975032906
694,-0.16150869804708834,-1.1403013387670542,-2.086631603939969,-0.4166744055965486
695,-0.18406446049184447,-1.2724561241043215,-2.30474357927114,-0.46248950730969535
696,-0.209010991338428,-1.413335356748959,-2.5340308040458392,-0.5116891904384626
697,-0.2365429798891454,-1.5627469248358505,-2.7737832879131306,-0.5643119429202827
698,-0.2668665292088563,-1.7204082955778377,-3.02315773947456,-0.6203679923113169
699,-0.30019753335512056,-1.8859456497131224,-3.2811842164807423,-0.6798379256234319
700,-0.33675922240086154,-2.0588944033914687,-3.546775007422861,-0.7426720646203052
701,-0.3767788187262134,-2.238701168534775,-3.8187355837127956,-0.808790637578871
702,-0.4204832799859433,-2.4247271764624836,-4.09577740950659,-0.8780847511079256
703,-0.46809414031689484,-2.6162531610583306,-4.376532350254444,-0.9504181272107761
704,-0.5198215005059413,-2.8124856673587795,-4.659568382755518,-1.025629534033273
705,-0.5758572585947692,-3.0125647196657224,-4.943406279972188,-1.1035358063434972
706,-0.636367713233726,-3.2155727507676444,-5.226536923824714,-1.183935326143946
707,-0.7014857113982063,-3.420544661396791,-5.50743888898315,-1.2666118167214646
708,-0.771302548158373,-3.626478847617118,-5.784595940327761,-1.3513382958812832
709,-0.8458598573520463,-3.832349004517556,-6.056514096025257,-1.4378810361622605
710,-0.9251417565898972,-4.0371164885299775,-6.321737926575146,-1.526003390679609
711,-1.0090675265193916,-4.239742999042719,-6.578865786972542,-1.6154693613417768
712,-1.0974851114273116,-4.439203323795154,-6.82656371330099,-1.7060468095052812
713,-1.1901657251890654,-4.6344978827186045,-7.063577755347581,-1.7975102354301618
714,-1.286799832824221,-4.824664802118463,-7.288744561736979,-1.8896430800134776
715,-1.3869947535374243,-5.0087912557800065,-7.501000081974291,-1.9822395283100085
716,-1.4902740966158234,-5.186023821815334,-7.699386298976112,-2.075105817776461
717,-1.5960791978714028,-5.355577623607323,-7.883055954507509,-2.168061073886039
718,-1.7037726727671392,-5.51674404949645,-8.051275276899181,-2.260937711022013
719,-1.8126441445734822,-5.668896878085442,-8.203424764117692,-2.3535814469641463
720,-1.9219181437026434,-5.811496673196932,-8.338998114497253,-2.4458509846878513
721,-2.0307641097636613,-5.944093353462625,-8.457599431206681,-2.5376174157037856
722,-2.1383083629478095,-6.066326885017648,-8.558938854044472,-2.6287633951407057
723,-2.2436478481725834,-6.177926090555733,-8.642826792934077,-2.7191821309014026
724,-2.345865396014111,-6.278705612830417,-8.709166951350804,-2.808776218530346
725,-2.4440461907386486,-6.368561114408363,-8.757948335024945,-2.8974563412570724
726,-2.537295089443766,-6.447462837071468,-8.789236442177922,-2.9851398425369102
727,-2.624754398938629,-6.515447682857626,-8.803163827176444,-3.0717491678283926
728,-2.70562168977065,-6.572610013602561,-8.799920221065186,-3.1572101646971538
729,-2.779167210647785,-6.619091396363399,-8.77974238140172,-3.2414502266925913
730,-2.844750461990448,-6.655069547670384,-8.742903831664018,-3.324396267469683
731,-2.901835494690351,-6.680746749556442,-8.689704638625953,-3.4059725174974886
732,-2.950004519252092,-6.696338024134442,-8.620461365659386,-3.4860981460625324
733,-2.9889694409065957,-6.702059360537522,-8.535497331748019,-3.5646847253111855
734,-3.0185809772872703,-6.698116287821549,-8.435133300520809,-3.6416335695737456
735,-3.0388350658253938,-6.6846930796564035,-8.319678720833602,-3.716833000738316
736,-3.049876326884241,-6.661942861283757,-8.189423639909286,-3.7901556074913656
737,-3.0519984142975374,-6.629978866598122,-8.04463141094606,-3.8614555813887494
738,-3.0456411557073104,-6.588867063956423,-7.885532318246884,-3.9305662247219986
739,-3.0313844590424077,-6.5386203343832285,-7.71231824294119,-3.9972977329967967
740,-3.009939036686619,-6.479194346397837,-7.525138489844075,-4.061435357796929
741,-2.982134073382571,-6.410485229091349,-7.324096889631735,-4.1227380533824
742,-2.948902035781803,-6.332329100748653,-7.109250279283544,-4.180937702343899
743,-2.911260889003729,-6.244503465663956,-6.88060844703745,-4.235739002073771
744,-2.8702940469984024,-6.146730448181083,-6.6381356058021606,-4.2868200751057755
745,-2.82712843755388,-6.038681791611916,-6.381753431456276,-4.333833843271624
746,-2.782911108316241,-5.919985511578493,-6.111345670606416,-4.376410179239922
747,-2.7387848363417433,-5.790234059308305,-5.826764287432798,-4.414158820791096
748,-2.695863229858996,-5.648993821072963,-5.527837082748945,-4.446673004820108
749,-2.6552058267284,-5.495815755630918,-5.214376681985568,-4.473533751300643
750,-2.6177936994027675,-5.330246952306677,-4.8861907540613565,-4.494314703926848
751,-2.5845060711050363,-5.151842878096369,-4.543093291390051,-4.508587415200456
752,-2.556098432730782,-4.960180072665459,-4.184916753624237,-4.515926950229036
753,-2.5331826251737457,-4.7548690449478626,-3.811524854804906,-4.515917675801948
754,-2.5162093180830203,-4.535567123898985,-3.42282575567525,-4.5081590992694585
755,-2.505453274425138,-4.301991018478997,-3.0187854100545843,-4.492271624803786
756,-2.5010017417119292,-4.053928847922448,-2.599440806193703,-4.467902101909313
757,-2.502746256538136,-3.7912514126769556,-2.1649128406806804,-4.434729051555025
758,-2.5103780903259554,-3.5139224890589515,-1.7154185634467107,-4.392467467987068
759,-2.5233875020366785,-3.2220079467239517,-1.2512825374934076,-4.34087310819847
760,-2.5410668990949206,-2.9156835075248453,-0.7729470659916915,-4.279746195413797
761,-2.562517941755448,-2.595240987210443,-0.2809810523775118,-4.208934477215269
762,-2.586662559326206,-2.261092887565095,0.22391272392671707,-4.128335592710354
763,-2.612257779621053,-1.913775235734198,0.7408921123995793,-4.0378987161909645
764,-2.6379142062229577,-1.5539485991927962,1.2689720478287347,-3.9376254569443963
765,-2.662117912044035,-1.1823972385189063,1.8070230996902954,-3.827570006204603
766,-2.6832554527532753,-0.8000263951256615,2.3537722225147064,-3.7078385326804884
767,-2.699641640490502,-0.40785774659451185,2.9078057781209217,-3.5785878376879667
768,-2.2350792538907068e-14,-1.7207951979526522e-14,7.615511976568102e-15,-7.997033204527448e-14
769,-4.4071724176149374e-13,-3.392512674561424e-13,2.559468106654961e-13,-1.8240973540185484e-12
770,-5.06748103805747e-12,-4.09532000056639e-12,2.969291022609678e-12,-2.1763759842619618e-11
771,-3.894454344856661e-11,-3.3212159708620886e-11,2.234056139153911e-11,-1.7349845336019358e-10
772,-2.2555146287008915e-10,-2.0275746373900235e-10,1.2392716263380534e-10,-1.0413161220513967e-09
773,-1.0530661101440984e-09,-9.962205525146955e-10,5.406316615644676e-10,-5.032577543917697e-09
774,-4.142291618247433e-09,-4.1151289211797475e-09,1.9271581725646595e-09,-2.0454676633230578e-08
775,-1.4163311013840762e-08,-1.4738876017091967e-08,5.739804048871158e-09,-7.20896405974471e-08
776,-4.309101936055738e-08,-4.6841293177649934e-08,1.4403126030593017e-08,-2.2538524654311466e-07
777,-1.1879379740158073e-07,-1.344849814516417e-07,3.011591751497838e-08,-6.362283625970571e-07
778,-3.010638293754634e-07,-3.5384940634058276e-07,4.960253597750736e-08,-1.644513384587773e-06
779,-7.096569085882123e-07,-8.63201016694488e-07,4.9639413069147946e-08,-3.9369372332250205e-06
780,-1.570720774569466e-06,-1.9710750238455034e-06,-4.5278171047287906e-08,-8.811926086712176e-06
781,-3.2901051340497334e-06,-4.246504528495645e-06,-4.2610787601295205e-07,-1.8586425169778817e-05
782,-6.564341736613254e-06,-8.688978953819617e-06,-1.5112118299796684e-06,-3.7189497300262763e-05
783,-1.2542364467321166e-05,-1.6979594947509638e-05,-4.130248190672613e-06,-7.099037097054558e-05
784,-2.3053064398033212e-05,-3.183814530098537e-05,-9.808225572009115e-06,-0.00012990799046378858
785,-4.0915302402681425e-05,-5.751321390108807e-05,-2.1182404028037753e-05,-0.0002288446806021557
786,-7.034784480131039e-05,-0.0001004332876242796,-4.25881033480252e-05,-0.0003894778935117639
787,-0.0001174967556842926,-0.00017004614087142605,-8.085125361900857e-05,-0.0006424310202951872
788,-0.0001910970859687218,-0.0002798711131485771,-0.00014632516748848545,-0.001029827012451673
789,-0.00030328433357749014,-0.00044878434868673544,-0.00025420605085788695,-0.0016082073804506271
790,-0.00047056921483168933,-0.0007025506881598761,-0.00042615583287060023,-0.002451774581392209
791,-0.0007149868353255654,-0.0010756078675309899,-0.0006922517821503938,-0.003655888718637954
792,-0.0010654283166627255,-0.001613099194935283,-0.0010932700744325497,-0.00534072102122321
793,-0.0015591591267665763,-0.0023731401578826633,-0.0016832951989679632,-0.007654938262147431
794,-0.002243523465134008,-0.003429292679774179,-0.002532629291622473,-0.010779265941566384
795,-0.0031778277205154097,-0.00487320824224613,-0.003730955865129903,-0.014929755749587485
796,-0.004435387954611655,-0.006817388114582669,-0.005390691905366962,-0.020360566629130994
797,-0.006105716438150312,-0.009397995851994202,-0.007650442028937048,-0.027366060610089515
798,-0.008296810564334576,-0.012777644490932476,-0.010678449561118849,-0.03628201601901359
799,-0.011137494326147381,-0.017148069010562563,-0.014675923203468336,-0.0474857726360559
800,-0.01477974852794408,-0.022732584238470827,-0.019880105528242063,-0.061395146112908916
801,-0.019400951743457788,-0.029788220088580206,-0.026566941786131032,-0.07846598196050912
802,-0.025205940578912137,-0.038607420471019276,-0.03505320510666307,-0.0991882614150042
803,-0.03242878594483169,-0.049519190016641276,-0.04569793745630239,-0.12408072062273545
804,-0.04133417265686488,-0.06288957444558886,-0.05890307472171615,-0.1536839985138454
805,-0.05221826356251639,-0.0791213663844971,-0.0751131387362176,-0.18855238484970674
806,-0.06540892719005316,-0.09865293893262406,-0.09481389847146321,-0.2292442955460102
807,-0.08126521015755603,-0.1219561243211569,-0.11852992632384934,-0.2763116549113816
808,-0.10017594264792085,-0.14953307441534056,-0.14682100267875647,-0.33028841157506095
809,-0.122557377393527,-0.1819120631787779,-0.18027735189281557,-0.39167845463561995
810,-0.14884977991104698,-0.2196422179628767,-0.21951372457303217,-0.46094322737267
811,-0.17951291007915515,-0.2632871958422705,-0.2651623735626712,-0.5384893565480247
812,-0.21502036223736734,-0.31341785229296126,-0.31786500333753764,-0.6246566250768363
813,-0.2558527622428504,-0.37060398130723554,-0.3782638035443364,-0.7197066142292721
814,-0.30248985456472455,-0.43540523749949905,-0.4469917061958106,-0.8238123284656111
815,-0.35540154952409736,-0.5083613807988894,-0.5246620316891286,-0.9370490918847642
816,-0.4150380390344729,-0.589982011887074,-0.6118577105784007,-1.0593869709580492
817,-0.48181912736914034,-0.6807359906313702,-0.7091202853164041,-1.1906849351693993
818,-0.5561229602176159,-0.7810407495076904,-0.8169389085796865,-1.3306869173853713
819,-0.6382743692271726,-0.8912517286797171,-0.9357395620944852,-1.479019881681335
820,-0.7285330790610102,-1.0116521684425652,-1.0658747220496576,-1.6351939506620539
821,-0.8270820485959002,-1.1424434977628204,-1.2076136943056788,-1.7986045897584453
822,-0.9340162362988957,-1.283736554427738,-1.3611338348547952,-1.9685367950488397
823,-1.049332091389864,-1.4355438627947712,-1.5265128585793795,-2.144171185894372
824,-1.1729180766811922,-1.5977731794230887,-1.7037224225704715,-2.3245918655619167
825,-1.30454652575096,-1.770222495280064,-1.8926231494471821,-2.5087958828361536
826,-1.4438671262341678,-1.9525766562635956,-2.0929612316495443,-2.69570410552721
827,-1.5904023024477083,-2.1444057321832735,-2.3043667299455066,-2.884173302299859
828,-1.7435447442523382,-2.3451652289822467,-2.526353648704666,-3.0730092214771596
829,-1.9025572949789222,-2.554198200848889,-2.758321837056247,-3.2609804532332958
830,-2.066575369463909,-2.7707392790033314,-2.9995607290375155,-3.4468328636156946
831,-2.2346120239805534,-2.9939205933911346,-3.249254897514337,-3.629304393866578
832,-2.405565743628161,-3.2227795232853538,-3.5064913565132048,-3.8071400253554506
833,-2.5782309504518315,-3.4562681738406114,-3.7702685054603657,-3.979106717966363
834,-2.7513111685655023,-3.693264438824927,-4.03950656782523,-4.144008136961531
835,-2.923434712657465,-3.9325844758313058,-4.313059337230448,-4.300698989229425
836,-3.0931726956651624,-4.172996389864072,-4.5897270078090795,-4.448098793692201
837,-3.2590590825395096,-4.413234894784895,-4.868269834099155,-4.585204912136354
838,-3.419612452348329,-4.652016700037349,-5.147422340619902,-4.711104666021701
839,-3.5733590728236044,-4.888056352585773,-5.425907783800159,-4.824986362734146
840,-3.7188568418862697,-5.120082251275385,-5.70245256010956,-4.926149052688253
841,-3.8547196113510576,-5.346852542990938,-5.975800254627006,-5.014010838480582
842,-3.9796413801691766,-5.567170607208235,-6.244725033952108,-5.088115560904412
843,-4.0924198290356095,-5.779899837953341,-6.508044105953601,-5.148137695860542
844,-4.191978665417341,-5.983977439962213,-6.764628995576063,-5.193885312422341
845,-4.277388258162452,-6.1784269690946365,-7.01341541967418,-5.225300966334951
846,-4.347884063657745,-6.362369365864776,-7.253411583226845,-5.242460435181733
847,-4.402882380591316,-6.535032255269735,-7.483704762728705,-5.245569240802694
848,-4.441993017083574,-6.69575731574638,-7.703466088392251,-5.234956950155535
849,-4.465028511359558,-6.844005554704646,-7.911953483345396,-5.211069296011792
850,-4.472009614064158,-6.979360367121496,-8.108512763709205,-5.174458211631805
851,-4.4631668153149295,-7.101528296405427,-8.29257694691989,-5.125769926577037
852,-4.43893778096082,-7.210337462296201,-8.463663855814758,-5.065731321731279
853,-4.399960648436834,-7.305733668000496,-8.621372142012353,-4.995134788135685
854,-4.347063221203615,-7.387774247086891,-8.76537588340804,-4.9148218743725645
855,-4.281248190222585,-7.456619758839242,-8.895417936790395,-4.82566603933246
856,-4.2036745995480445,-7.512523687717883,-9.011302247402552,-4.728554850125914
857,-4.115635859351775,-7.555820347180352,-9.112885332567918,-4.624371978023328
858,-4.018534692058682,-7.586911229226405,-9.20006716620722,-4.513979348475827
859,-3.9138554743096656,-7.6062500775522075,-9.27278169523555,-4.3981997947996945
860,-3.803134507661531,-7.614326993114668,-9.330987217606264,-4.277800549767187
861,-3.6879288126255356,-7.611651905348454,-9.374656845461288,-4.1534778863742625
862,-3.5697840920051793,-7.5987377595471495,-9.403769265897635,-4.025843190121241
863,-3.450202548557179,-7.576083780517235,-9.41829999686087,-3.895410712217771
864,-3.3306112667851346,-7.544159174261452,-9.418213317358926,-3.762587218260326
865,-3.2123318773543534,-7.503387623100113,-9.403455030405652,-3.6276637119917456
866,-3.0965522136908405,-7.454132915472829,-9.373946194787454,-3.49080938016753
867,-2.9843006428079715,-7.3966860300608195,-9.329577938850214,-3.352067873156514
868,-2.8764237059464643,-7.3312539653991005,-9.27020744689933,-3.2113560068800044
869,-2.7735676396245643,-7.257950571546222,-9.195655187175731,-3.0684649446399463
870,-2.676164265382603,-7.176789600541279,-9.105703430118778,-2.9230638914543623
871,-2.5844216388714103,-7.08768014832038,-9.000096086856342,-2.774706307605521
872,-2.498319738698505,-6.990424613578881,-8.878539880414364,-2.6228386210607404
873,-2.4176113559154015,-6.884719249869034,-8.740706845680739,-2.466811389230842
874,-2.3418282199078573,-6.770157337118901,-8.58623813829496,-2.3058928284523206
875,-2.2702922696481433,-6.646234948809762,-8.414749117007583,-2.139284594256517
876,-2.2021318547152835,-6.512359242252514,-8.225835648427402,-1.9661396569712217
877,-2.136302531976781,-6.3678591526647175,-8.01908156738768,-1.7855820759204104
878,-2.0716120148605914,-6.211998327862405,-7.794067210533894,-1.5967284321954105
879,-2.0067487358060982,-6.043990100013341,-7.550378925417789,-1.3987106356438026
880,-1.9403134012875702,-5.863014254585158,-7.287619442677297,-1.1906997774948191
881,-1.870852854614802,-5.668235324756356,-7.005418985034381,-0.9719306571680791
882,-1.796895515699235,-5.458822112390621,-6.703446973961868,-0.7417265716827448
883,-1.7169876396119175,-5.233968114323368,-6.381424182910744,-0.4995239202327181
884,-1.6297296269124457,-4.99291251518921,-6.039135174797303,-0.24489614661143955
885,-1.5338116277048848,-4.734961395288494,-5.676440850841149,0.022423479927237557
886,-1.4280477070198194,-4.459508793996895,-5.293290927695548,0.30252075722615646
887,-1.3114078798819542,-4.166057265934032,-4.889736150129081,0.5952816290320351
888,-1.183047378444862,-3.8542375685373362,-4.465940037508021,0.9003759508308503
889,-1.042332578776366,-3.5238271258869087,-4.02218995443841,1.2172444172727845
890,-0.888863089040343,-3.1747669246644716,-3.5589072898620047,1.5450890848515362
891,-0.7224895816716032,-2.807176514060925,-3.0766565255924436,1.8828678681284767
892,-0.5433270374534275,-2.421366802289286,-2.576152975784195,2.2292933188745283
893,-0.351763157094468,-2.017850368078444,-2.0582689841513555,2.58283591665053
894,-0.14846178410692007,-1.5973490360334819,-1.5240383766444643,2.9417320087325205
895,0.06563873004616802,-1.1607984999206626,-0.974658984071895,3.30399643950842
896,-1.9572937650107195e-14,-4.316290173384897e-14,-5.331632477880342e-14,4.6671463275242594e-14
897,-4.15213178747959e-13,-9.35105421651618e-13,-1.148782037537416e-12,1.1564064772662874e-12
898,-5.172611389713823e-12,-1.1193219427826569e-11,-1.3302614062325699e-11,1.3591376471276578e-11
899,-4.326715153153317e-11,-8.975462492308665e-11,-1.031158287397172e-10,1.0581656371220472e-10
900,-2.7236722468189105e-10,-5.423323375357473e-10,-6.025483470999661e-10,6.171609048409853e-10
901,-1.3789996094016225e-09,-2.6410959994458985e-09,-2.840536071188294e-09,2.8846456115572465e-09
902,-5.862794129188555e-09,-1.0827898244587618e-08,-1.128971296208423e-08,1.1285525237953495e-08
903,-2.157587073528582e-08,-3.85362511430174e-08,-3.902280095285135e-08,3.810420232364338e-08
904,-7.030788660315818e-08,-1.2180593452512525e-07,-1.2003721002610569e-07,1.1358525276291161e-07
905,-2.0647416580259685e-07,-3.480092771428965e-07,-3.3448268656337317e-07,3.0421439678987734e-07
906,-5.54207618972552e-07,-9.113856213915844e-07,-8.561763372926225e-07,7.422505272430681e-07
907,-1.375358610949909e-06,-2.2126262625575946e-06,-2.0359458206537896e-06,1.6681721612430835e-06
908,-3.185864507524577e-06,-5.026171400171296e-06,-4.5391036798838905e-06,3.48440155886712e-06
909,-6.943245840426396e-06,-1.0765646498061846e-05,-9.56040731636479e-06,6.813061705592164e-06
910,-1.4333005934351063e-05,-2.18842605099443e-05,-1.9144806788224283e-05,1.254262505068395e-05
911,-2.818570448382197e-05,-4.245217539607807e-05,-3.6646700398255474e-05,2.1838609608913194e-05
912,-5.305865337284058e-05,-7.895596288912785e-05,-6.736388343521214e-05,3.608287885903285e-05
913,-9.601583470699598e-05,-0.00014136547244624747,-0.00011938448138696948,5.66958292087537e-05
914,-0.00016763624078728454,-0.00024451006520066955,-0.0002046854913955872,8.478717135204773e-05
915,-0.0002832741135136868,-0.00040979876427228864,-0.00034051965978056835,0.0001205754729172329
916,-0.0004645845342682486,-0.0006673072586757714,-0.0005511227960046813,0.0001625153019680199
917,-0.0007413147937284538,-0.0010582390306510822,-0.0008697657598318201,0.00020607458659106933
918,-0.0011533465398109429,-0.0016377486456558327,-0.0013411638444823474,0.0002421142281628231
919,-0.0017529566942989844,-0.0024780932551334255,-0.0020242409037891985,0.00025483722589604135
920,-0.002607247578305036,-0.0036720546772556553,-0.0029952264344187945,0.00021929532633464897
921,-0.0038006797571141218,-0.0053365502875549345,-0.004351041413785244,9.846682537952676e-05
922,-0.005437626006352765,-0.0076163277191470076,-0.006212903926840953,-0.00016005145115054458
923,-0.007644852641846469,-0.010687617410280365,-0.00873005981947791,-0.0006276632013895835
924,-0.010573826191033532,-0.01476159965266592,-0.012083518458898936,-0.001398595520200043
925,-0.01440273968601684,-0.020087530148897907,-0.016489651035142168,-0.002593787151443071
926,-0.019338154067800133,-0.026955361116400674,-0.02220349061109855,-0.004364675603246357
927,-0.025616156305631833,-0.035697694320733636,-0.029521561066570418,-0.006896693587783748
928,-0.033502946539762136,-0.046690908399257006,-0.03878405757068573,-0.01041226907005072
929,-0.04329478128047052,-0.06035531544265112,-0.05037620511595115,-0.015173115479461605
930,-0.05531721768527988,-0.07715422074657598,-0.06472863419897243,-0.021481600699473535
931,-0.06992362431717256,-0.09759178439598322,-0.08231663357051856,-0.029680996305459017
932,-0.0874929456344328,-0.12220961316417868,-0.10365816822669444,-0.040154432720533206
933,-0.10842672985785072,-0.151582045186977,-0.12931058524532904,-0.05332242148878343
934,-0.13314545193623353,-0.18631012694895685,-0.15986596925927835,-0.06963885205257521
935,-0.16208418430387397,-0.22701432110835254,-0.19594515178350888,-0.08958542587891373
936,-0.19568768731070837,-0.2743260233109576,-0.23819042272348764,-0.11366455341756451
937,-0.23440500802203154,-0.32887800507224346,-0.2872570366132423,-0.14239080647308053
938,-0.27868369002886684,-0.39129393671254,-0.34380364885714326,-0.17628108693920572
939,-0.32896370755459137,-0.46217717794518515,-0.40848185684672644,-0.2158437389984142
940,-0.38567124414019893,-0.5420990528945284,-0.481925055669071,-0.2615668922774388
941,-0.44921243930789917,-0.6315868500879286,-0.564736846690991,-0.3139063746499288
942,-0.519967225785497,-0.7311118055710196,-0.6574792582926525,-0.3732735722986021
943,-0.5982833753050594,-0.8410773382340181,-0.7606610504889707,-0.4400236387221342
944,-0.6844708631159915,-0.9618078104577029,-0.8747263786202771,-0.5144444617261208
945,-0.7787966508499715,-1.0935380842764668,-1.0000440857072497,-0.596746787058424
946,-0.8814799750461317,-1.2364041335929656,-1.1368978789119695,-0.6870558691914123
947,-0.9926882152863878,-1.390434956884735,-1.285477623699388,-0.7854049747910815
948,-1.1125334021748712,-1.5555460127225018,-1.4458719609432396,-0.8917310046092222
949,-1.2410694118015726,-1.7315343727270227,-1.618062418779395,-1.005872427735441
950,-1.3782898801402308,-1.9180757538232733,-1.8019191540024304,-1.1275696418931274
951,-1.5241268581680714,-2.1147235543690233,-1.9971984187464076,-1.2564677887421525
952,-1.678450216382401,-2.3209099775945083,-2.203541808475903,-1.3921219680822492
953,-1.841067795795011,-2.53594928156632,-2.4204773080916704,-1.5340047133763937
954,-2.0117262913566676,-2.759043148483867,-2.647422115104536,-1.681515516622355
955,-2.1901128430497114,-2.989288118553161,-2.883687182979712,-1.8339921261378063
956,-2.3758572995648204,-3.2256849860910233,-3.1284833943473083,-1.9907232883942434
957,-2.5685351095867803,-3.4671500091155196,-3.3809292431378015,-2.1509625659833285
958,-2.7676707863740573,-3.712527739765111,-3.6400598770752506,-2.3139428387528147
959,-2.972741882732406,-3.9606052427633376,-3.9048373275261117,-2.478891084076739
960,-3.1831834059268944,-4.210127434050484,-4.174161732604643,-2.645043034508948
961,-3.3983925958623726,-4.459813242730745,-4.446883341830102,-2.811657325576309
962,-3.617733985305337,-4.708372277504383,-4.721815076717314,-2.978028771637978
963,-3.8405446582918166,-4.954521664377336,-4.997745411727561,-3.143500441707595
964,-4.0661396223442985,-5.19700271600307,-5.273451334330216,-3.307474247915595
965,-4.293817211742242,-5.4345970945893125,-5.5477111418563805,-3.4694198049511367
966,-4.522864442712741,-5.6661421397330285,-5.819316836657987,-3.628881367668558
967,-4.752562246696354,-5.890545049455559,-6.08708589003867,-3.7854827046962796
968,-4.9821905142970655,-6.106795626545995,-6.349872159618246,-3.938929817298043
969,-5.21103288954757,-6.313977332395282,-6.606575764231033,-4.089011464114761
970,-5.438381261109118,-6.511276426021297,-6.856151744989285,-4.235597503114989
971,-5.663539903464635,-6.6979890060636675,-7.097617370416541,-4.378635111494183
972,-5.885829226695332,-6.873525817213078,-7.3300579769770975,-4.518142991730644
973,-6.104589097887058,-7.037414728821573,-7.552631273034794,-4.654203716776138
974,-6.319181700627133,-7.189300841275389,-7.764570073161432,-4.7869544085726945
975,-6.52899390164583,-7.328944224062702,-7.965183469488841,-4.9165759808066385
976,-6.733439095803282,-7.45621533734957,-8.153856486057087,-5.043281208082923
977,-6.93195850279785,-7.571088235394798,-8.330048299432788,-5.16730190864186
978,-7.124021891689334,-7.67363169451527,-8.493289142920677,-5.288875545619224
979,-7.309127713076678,-7.763998449904826,-8.64317604133512,-5.408231562173119
980,-7.486802623955958,-7.842412763856613,-8.779367547691326,-5.525577768345521
981,-7.656600397216561,-7.909156582351764,-8.901577671803276,-5.641087092363367
982,-7.818100216596029,-7.964554567099413,-9.009569203416069,-5.754884996573204
983,-7.970904368756319,-8.008958315500704,-9.103146639161318,-5.867037838971753
984,-8.114635356873336,-8.04273010121448,-9.182148923467816,-5.977542436192682
985,-8.248932474505168,-8.066226482572354,-9.246442208859845,-6.086317053841428
986,-8.37344789414431,-8.079782134572337,-9.295912831212679,-6.193194016303861
987,-8.487842341275735,-8.083694262146683,-9.330460680997154,-6.297914091646949
988,-8.59178044139675,-8.078207947490299,-9.349993132918875,-6.4001227689808085
989,-8.684925843703766,-8.063502772203886,-9.354419674309574,-6.499368506610078
990,-8.766936240383567,-8.039681035756255,-9.34364734789141,-6.595102990381519
991,-8.837458414002596,-8.006757865383296,-9.317577097909956,-6.686683403706569
992,-8.89612345668949,-7.964653479282608,-9.276101080983153,-6.773376674583765
993,-8.942542312987038,-7.913187825283921,-9.219100975243135,-6.854365631184597
994,-8.976301802793763,-7.852077771715953,-9.14644729433143,-6.928756966599102
995,-8.996961281192556,-7.7809369767666965,-9.057999687335686,-6.995590885345311
996,-9.004050087760387,-7.699278508231016,-8.953608182476382,-7.053852279228934
997,-8.997065928890649,-7.606520228278772,-8.833115311761091,-7.1024832579844706
998,-8.975474322610266,-7.5019928989902604,-8.696359036282411,-7.140396840675066
999,-8.938709216372477,-7.384950905190773,-8.54317637760883,-7.166491596920639
1000,-8.886174864574492,-7.254585432891348,-8.373407649996622,-7.179667012546034
1001,-8.8172490245206,-7.110039885706551,-8.186901181039046,-7.178839342141061
1002,-8.731287497905413,-6.9504272692245666,-7.983518404834795,-7.1629577013340935
1003,-8.627630010561944,-6.774849225642075,-7.76313921159094,-7.131020144431319
1004,-8.505607387359346,-6.5824163591757765,-7.525667440390194,-7.08208946870715
1005,-8.36454994302958,-6.372269457879017,-7.271036407121997,-7.015308485407105
1006,-8.203796974635143,-6.14360119048023,-6.999214366709441,-6.929914499905233
1007,-8.022707208523821,-5.895677838536684,-6.710209817171532,-6.82525274997358
1008,-7.820670024926945,-5.627860615202186,-6.404076562225464,-6.700788562293451
1009,-7.5971172576419805,-5.339626122668038,-6.080918458650308,-6.556118003587773
1010,-7.351535345173873,-5.030585511040304,-5.740893784229388,-6.390976824297413
1011,-7.08347759390673,-4.700501921988901,-5.38421917161493,-6.205247519496208
1012,-6.792576303909216,-4.349305830599861,-5.011173062858013,-5.998964363347319
1013,-6.478554504342579,-3.9771079378719403,-4.622098648586886,-5.7723163091371275
1014,-6.1412370485072785,-3.584209313377262,-4.217406264819043,-5.52564768580623
1015,-5.780560828502133,-3.1711085417110496,-3.7975752289860316,-5.259456662776879
1016,-5.396583886194744,-2.7385056862873247,-3.363155104674036,-4.974391496517799
1017,-4.989493220339628,-2.287302948468698,-2.914766391543221,-4.671244613456266
1018,-4.559611118550143,-1.8186019675161929,-2.4531006426289563,-4.350944623349338
1019,-4.107399876457731,-1.3336977758918585,-1.9789200155858628,-4.014546393928622
1020,-3.6334648035463077,-0.8340694934613422,-1.493056267359256,-3.663219350496195
1021,-3.138555454405372,-0.32136791150647265,-0.9964092033200252,-3.298234192300044
1022,-2.6235650639545107,0.20259981845903047,-0.4899445922671437,-2.920948240360256
1023,-2.089528203967238,0.7358881168763223,0.02530844178151763,-2.532789648744288
1024,6.771934061910913e-15,-4.1184709459317113e-14,-6.544701461775946e-15,-1.8731424438778025e-14
1025,2.3541884062231233e-13,-6.983394007052871e-13,-5.71264884050537e-14,-4.067087266278277e-13
1026,2.523453595608703e-12,-8.32563108626592e-12,-7.237925354610264e-13,-4.8235736944736135e-12
1027,1.7523718948626658e-11,-6.729077250010041e-11,-6.356994032268252e-12,-3.817686307923488e-11
1028,8.946981934127383e-11,-4.099392313402988e-10,-4.193220194005096e-11,-2.2742235057634678e-10
1029,3.5641842954305853e-10,-2.011448554062121e-09,-2.219511720108803e-10,-1.0906617303748883e-09
1030,1.1376797402736543e-09,-8.301736506448416e-09,-9.882650502126061e-10,-4.3989208738557696e-09
1031,2.896912835650606e-09,-2.9716077957978574e-08,-3.828957754469089e-09,-1.538713964011635e-08
1032,5.496249183588069e-09,-9.437990512741586e-08,-1.3233392094839263e-08,-4.776020193455838e-08
1033,5.1590809140228565e-09,-2.707078588835364e-07,-4.1549055343461965e-08,-1.3389085221820658e-07
1034,-1.435574465865094e-08,-7.111456879935711e-07,-1.2009175351961495e-07,-3.437986430225073e-07
1035,-1.0305077409531716e-07,-1.7306507551347934e-06,-3.226524334274694e-07,-8.17806439336838e-07
1036,-3.8984276705037245e-07,-3.938586325803019e-06,-8.116787196236791e-07,-1.8189710867085302e-06
1037,-1.1692132050195039e-06,-8.448125900746403e-06,-1.922902346185773e-06,-3.8121527477834287e-06
1038,-3.054574432934387e-06,-1.7192504680895518e-05,-4.310755026691781e-06,-7.5765008207424305e-06
1039,-7.2319430845046895e-06,-3.3381871956727184e-05,-9.18399959743517e-06,-1.4356717297335306e-05
1040,-1.5855898655962063e-05,-6.213737337272861e-05,-1.866784522531016e-05,-2.605528746771803e-05
1041,-3.263720272990955e-05,-0.00011133970157381101,-3.6334600474564184e-05,-4.546274877418004e-05
1042,-6.367671933330519e-05,-0.000192727048416734,-6.794887286409207e-05,-7.651622525753681e-05
1043,-0.00011860223573039069,-0.00032327168865669995,-0.00012247475545348457,-0.00012456865246311224
1044,-0.000212062377995557,-0.0005268550977662405,-0.00021339073631992616,-0.0001966436398047803
1045,-0.00036562425898618,-0.0008362486562742646,-0.00036035271632722083,-0.00030164538300744365
1046,-0.0006101083964133247,-0.0012953910742982185,-0.0005912361856677733,-0.0004504910986577523
1047,-0.0009883758880100606,-0.001961935469820616,-0.0009445752036820319,-0.0006561364451549171
1048,-0.0015585594281124996,-0.0029100196164082155,-0.0014723985504693216,-0.0009334730539032756
1049,-0.002397702543981293,-0.004233193498975359,-0.00224344274320633,-0.0012990915557533481
1050,-0.003605741786306596,-0.006047420316580553,-0.003346698225016226,-0.0017709224192901795
1051,-0.005309736050199338,-0.008494051708981244,-0.004895219825503734,-0.002367788783582114
1052,-0.0076682172782729895,-0.011742666278615258,-0.007030106653977242,-0.0031089279073183837
1053,-0.010875508995650289,-0.01599365309670521,-0.00992453124379331,-0.004013558149722666
1054,-0.015165834840399172,-0.021480419106154794,-0.013787674546540462,-0.005100583783568102
1055,-0.020817019758541524,-0.028471101128036615,-0.01886840388789702,-0.006388537928831482
1056,-0.028153572977402265,-0.037269669281510584,-0.025458516751086988,-0.007895862547324222
1057,-0.037548935250142856,-0.04821631864261964,-0.03389536547249019,-0.009641612583425668
1058,-0.04942667399736853,-0.06168705942767758,-0.044563677458405795,-0.011646648751068727
1059,-0.06426041947974777,-0.07809243239807107,-0.0578963928075063,-0.013935351045245067
1060,-0.08257235343911934,-0.09787529506784934,-0.07437435631586387,-0.01653784492130405
1061,-0.10493008897793078,-0.12150764523174369,-0.09452472341565682,-0.019492687557707892
1062,-0.1319418168623813,-0.14948647097386425,-0.11891796889433531,-0.022849916923402262
1063,-0.1642496387637467,-0.18232864038034968,-0.14816342211444822,-0.02667432609268209
1064,-0.20252106169093462,-0.22056486937797612,-0.1829032915265289,-0.031048793647815508
1065,-0.2474386890303674,-0.2647328320890806,-0.22380518309596928,-0.03607748138943208
1066,-0.299688210629695,-0.3153695043109017,-0.27155316044827915,-0.04188870487564899
1067,-0.35994486509586093,-0.3730028564921157,-0.32683743772054413,-0.04863729096069989
1068,-0.4288586193390073,-0.4381430370387454,-0.3903428379613175,-0.05650625852850892
1069,-0.5070383805669916,-0.5112732090139606,-0.4627361891675523,-0.0657076919144496
1070,-0.5950356215917618,-0.5928402224051751,-0.5446528655360979,-0.07648271819892745
1071,-0.6933278587370013,-0.6832453193279251,-0.6366827123171206,-0.08910054632320186
1072,-0.8023024702515316,-0.7828350801957884,-0.7393556181590816,-0.10385657437619403
1073,-0.9222413793941907,-0.8918928245947993,-0.8531270187132441,-0.12106961811185618
1074,-1.0533071476751144,-1.010630681191447,-0.9783636294729628,-0.14107835578124336
1075,-1.1955310274910298,-1.139182536588148,-1.115329714493249,-0.16423711917270217
1076,-1.3488035070882496,-1.277598064040918,-1.264174200963115,-0.19091118642763122
1077,-1.5128678423848771,-1.4258380201157166,-1.4249189477250725,-0.22147174759266033
1078,-1.68731700845876,-1.5837709817325407,-1.5974484687440307,-0.2562907187618854
1079,-1.8715944183862432,-1.7511716789090213,-1.7815014000275897,-0.2957355758185234
1080,-2.0649986499004176,-1.9277210612296163,-1.9766639802264458,-0.3401643658372148
1081,-2.26669229379159,-2.1130082198687616,-2.182365790638406,-0.38992103538228245
1082,-2.4757148962702487,-2.306534272772518,-2.3978779691749725,-0.4453311926800432
1083,-2.6909998160625084,-2.507718308701904,-2.6223140747846996,-0.506698397262299
1084,-2.9113946621954367,-2.715905475991828,-2.8546337339378476,-0.5743010480666358
1085,-3.135684827306526,-2.930377293274418,-3.093649149522409,-0.6483899204569803
1086,-3.3626194912439327,-3.150364250985656,-3.338034495722441,-0.7291863848851351
1087,-3.5909393479941936,-3.375060763337669,-3.5863381613311995,-0.8168813250227978
1088,-3.819405212344695,-3.603642520412658,-3.8369977399859354,-0.9116347606677003
1089,-4.0468265969489785,-3.835286280034513,-4.0883576007694575,-1.0135761696207763
1090,-4.272089320005287,-4.06919213121323,-4.338688808500977,-1.1228054917879418
1091,-4.4941812112173665,-4.304608258209059,-4.586211101952908,-1.239394786616791
1092,-4.712215029725285,-4.540858239706687,-4.82911658227208,-1.3633905003974622
1093,-4.925447790835113,-4.777370933396361,-5.0655947149443845,-1.494816282059343
1094,-5.133295815193714,-5.013713022692552,-5.293858208247302,-1.6336762645506089
1095,-5.33534495929948,-5.249624337018149,-5.512169300321802,-1.779958704036175
1096,-5.531355653186264,-5.485056094786621,-5.718865966263108,-1.9336398420328087
1097,-5.721262551980202,-5.7202122510181415,-5.912387546003135,-2.0946878279017036
1098,-5.9051687944430125,-5.955594149564185,-6.091299292950927,-2.2630665130261423
1099,-6.083335045148954,-6.192048672393957,-6.254315351990873,-2.438738906028138
1100,-6.256163669599894,-6.430820034794472,-6.400319693201325,-2.62167006317179
1101,-6.424178546260367,-6.673605286641152,-6.528384554368337,-2.8118291822384633
1102,-6.588001150347534,-6.922613439721634,-6.637785980931591,-3.009190673900458
1103,-6.74832364691264,-7.180627946589574,-6.728016096296241,-3.21373400362934
1104,-6.905879802619974,-7.451072008875349,-6.7987917882500115,-3.4254421302472533
1105,-7.061414565646664,-7.738075898092827,-6.850059558131662,-3.644298414075115
1106,-7.215653171837986,-8.046545139807199,-6.881996347759817,-3.870281926775691
1107,-7.3692706145966556,-8.38222805657303,-6.895006234012713,-4.103361163807697
1108,-7.522862269057132,-8.751780803588128,-6.889712961084071,-4.343486235314288
1109,-7.676916391888855,-9.162827683173393,-6.866948364206785,-4.590579688024896
1110,-7.831789131199128,-9.624014210907156,-6.827736824077328,-4.844526184829746
1111,-7.987682581432939,-10.145050148570695,-6.773275976106861,-5.105161335669731
1112,-8.144626310943401,-10.7367395370112,-6.704913980611137,-5.3722600293035345
1113,-8.302462679890528,-11.410994673440692,-6.624123736798691,-5.64552465715014
1114,-8.460836157713487,-12.180830997221934,-6.53247449276984,-5.924573645495869
1115,-8.619186746316192,-13.060339986470673,-6.4316013638360205,-6.20893071972538
1116,-8.776747520166042,-14.06463743076703,-6.323173320810516,-6.498015313851553
1117,-8.932546209690994,-15.209784833748353,-6.208860247411507,-6.791134511576557
1118,-9.085410680771755,-16.512682208888332,-6.09029969088236,-7.087476863539579
1119,-9.2339781011097,-17.990931152647317,-5.969063942121992,-7.386108372244827
1120,-9.376707533534175,-19.66266779673568,-5.846628081184164,-7.685970874877652
1121,-9.511895656147047,-21.546366036291126,-5.724339611443505,-7.985882988407846
1122,-9.637695278507579,-23.66061228026092,-5.6033902817408405,-8.284543714412118
1123,-9.7521363005733,-26.02385384793325,-5.484790661117941,-8.580538735747886
1124,-9.85314874553145,-28.654124012723155,-5.369347985838363,-8.872349375684651
1125,-9.938587487748999,-31.5687475408641,-5.2576477434889,-9.158364133676844
1126,-10.006258291741718,-34.784031358071296,-5.150039394122297,-9.436892661247365
1127,-10.053944776373553,-38.3149456718138,-5.04662655381321,-9.706181996437461
1128,-10.079435919670852,-42.17480145288264,-4.947261882257657,-9.964434835501969
1129,-10.080553723074946,-46.374930613001226,-4.851546824374121,-10.20982958522735
1130,-10.055180659272155,-50.924375485043235,-4.7588362581289045,-10.440541907519819
1131,-10.001286534777321,-55.8295943037864,-4.668247999419989,-10.654767438842981
1132,-9.916954407286774,-61.09418928848451,-4.578677012596496,-10.850745339892244
1133,-9.800405208732295,-66.71866364046456,-4.488814075047599,-11.026782304992606
1134,-9.65002073834944,-72.7002132925057,-4.397168549297108,-11.181276635799259
1135,-9.46436470633037,-79.0325585916496,-4.302094829145112,-11.312741960008207
1136,-9.242201528122818,-85.70582027967532,-4.201821950372007,-11.419830153409285
1137,-8.982512592437793,-92.70644317837589,-4.0944857937940595,-11.501353003690475
1138,-8.684509752738972,-100.01716991823704,-3.9781632609575923,-11.556302138426586
1139,-8.347645822562178,-107.61706590189496,-3.8509077717304074,-11.583866729667808
1140,-7.97162188960473,-115.48159550378473,-3.7107854189565934,-11.58344848588471
1141,-7.556391302296038,-123.5827483122838,-3.555911117840324,-11.554673451295098
1142,-7.102160225679793,-131.88921305811226,-3.384484105746942,-11.497400155256011
1143,-6.609384711019211,-140.36659577908796,-3.1948221800130696,-11.411723692514904
1144,-6.078764275560276,-148.97767778010027,-2.9853941051063346,-11.297975370094157
1145,-5.511232045113621,-157.6827080877954,-2.754849673814742,-11.156717629016514
1146,-4.907941572022934,-166.4397243960207,-2.5020469677495076,-10.988734038621292
1147,-4.270250503852159,-175.2048959680422,-2.2260764280220076,-10.79501426659751
1148,-3.5997013426137143,-183.93288161509363,-1.926281415329931,-10.576734046937236
1149,-2.8979995991434397,-192.5771957106153,-1.602275007872556,-10.335230297891858
1150,-2.16698971059415,-201.09057522151355,-1.2539528537941247,-10.071971679120134
1151,-1.4086291490338234,-209.42534093233346,-0.8815019608568543,-9.78852501737127
1152,-6.477672096168626e-14,1.4427609793978079e-12,-6.82940918647694e-14,-9.530055240057641e-14
1153,-1.2795910899671983e-12,3.122380325401789e-11,-1.4656182998792217e-12,-2.220531135563809e-12
1154,-1.5296820624637208e-11,3.716708312342333e-10,-1.745257130934631e-11,-2.6279030475521068e-11
1155,-1.2069008258733123e-10,2.9640323832673403e-09,-1.3927259287198803e-10,-2.0707428066807804e-10
1156,-7.171940186697013e-10,1.7812131404814945e-08,-8.378783915090912e-10,-1.2275520126839408e-09
1157,-3.4307498726601397e-09,8.626911309548222e-08,-4.064480109298457e-09,-5.856798836196662e-09
1158,-1.3801090236408445e-08,3.517448523567948e-07,-1.660629960138477e-08,-2.3493500915769963e-08
1159,-4.8144217762593686e-08,1.2449742901369337e-06,-5.8926691573959676e-08,-8.170406870699702e-08
1160,-1.4901806310886336e-07,3.913564383823694e-06,-1.857955962937408e-07,-2.5204387114963873e-07
1161,-4.1659672185364433e-07,1.1120687931586254e-05,-5.297828034019248e-07,-7.019694608337112e-07
1162,-1.0668951051362487e-06,2.8968533915739716e-05,-1.3853845359676388e-06,-1.790037343915034e-06
1163,-2.5318976812522924e-06,6.996621827736199e-05,-3.3601832594040347e-06,-4.227096458627053e-06
1164,-5.620771812720242e-06,0.000158151079005214,-7.62969767989935e-06,-9.330750895606806e-06
1165,-1.1764876927354438e-05,0.0003371726002750287,-1.6343836699570528e-05,-1.9402767536826835e-05
1166,-2.3371488285232848e-05,0.0006824408663938587,-3.324420585041792e-05,-3.8258126647568564e-05
1167,-4.431129822358646e-05,0.0013186045780486692,-6.456177949684932e-05,-7.192908868627612e-05
1168,-8.05621436367898e-05,0.0024437343160940575,-0.00012027235646534422,-0.00012955740690549856
1169,-0.00014102553223759853,0.004361623020991117,-0.00021579140764326992,-0.00022447263457574127
1170,-0.0002385231475140681,0.0075235587905116905,-0.0003741890491026281,-0.00037543497294604465
1171,-0.0003909677038855798,0.012580761261285116,-0.0006289986554159045,-0.0006079985361374956
1172,-0.0006226867400466117,0.020448394557319633,-0.001027677967165214,-0.0009559270567245792
1173,-0.0009658599748730708,0.03238167687633558,-0.001635758690814651,-0.0014625710283164715
1174,-0.0014620118001966165,0.05006410669351778,-0.0025416893275373186,-0.0021820952511527815
1175,-0.0021634817037949625,0.0757072332345422,-0.00386233682336718,-0.0031804307055956463
1176,-0.0031347784869129496,0.11216073605626294,-0.005749066970321404,-0.004535816287069163
1177,-0.004453710757591332,0.16303087277190867,-0.00839427349171301,-0.0063387954521841715
1178,-0.006212178044245749,0.23280463698837703,-0.012038174258093703,-0.008691541095584758
1179,-0.008516505463855864,0.3269762748855379,-0.01697564335083431,-0.011706399407734523
1180,-0.011487211300640843,0.45217217396756626,-0.02356280309375898,-0.015503569981607903
1181,-0.015258111631845647,0.6162695958208703,-0.032223063960826144,-0.020207874417691847
1182,-0.01997468916573025,0.8285043079777504,-0.04345227535389258,-0.02594460791034851
1183,-0.025791683914478787,1.0995619055556898,-0.05782263901098418,-0.03283451597543472
1184,-0.032869899769871695,1.4416475227265393,-0.07598504093517873,-0.040987989260214686
1185,-0.041372261500907,1.8685287317914439,-0.09866947809377472,-0.050498620523917695
1186,-0.0514591988103673,2.3955467205559193,-0.12668329274242845,-0.061436316451770355
1187,-0.06328347534978615,3.039591325727405,-0.1609069792695733,-0.07384020004178078
1188,-0.07698461845692033,3.8190361723363604,-0.20228739435105728,-0.08771157416744563
1189,-0.09268313748494506,4.7536310105597,-0.25182827864848845,-0.10300724124324548
1190,-0.11047474289247376,5.864349329163904,-0.3105780843226365,-0.1196334859030964
1191,-0.1304247932356719,7.173190430942158,-0.3796151937955531,-0.13744102609855552
1192,-0.15256320195054354,8.702936347543334,-0.46003070771501886,-0.15622122261012017
1193,-0.17688003017574055,10.476865213484182,-0.5529090701552637,-0.1757038079615107
1194,-0.20332197636240926,12.518423974701944,-0.6593068831586099,-0.19555635414867342
1195,-0.2317899491645006,14.85086453815195,-0.7802303376440883,-0.21538564609091304
1196,-0.26213787858827786,17.49684863891409,-0.9166117508922903,-0.23474106648233914
1197,-0.2941728832868215,20.478027775220134,-1.0692857502703388,-0.25312003043757053
1198,-0.3276568708585526,23.81460550783429,-1.2389656771791364,-0.26997543797731804
1199,-0.3623096045588347,27.52489021018476,-1.4262208035155064,-0.284725042099336
1200,-0.397813225248367,31.62484696591224,-1.631454954844255,-0.2967625629199858
1201,-0.43381817279994744,36.12765772250082,-1.8548871199751773,-0.3054703168057267
1202,-0.46995040756064665,41.04329901023243,-2.096534596079084,-0.3102330757114048
1203,-0.505819790763775,46.378146517335054,-2.3561991724790228,-0.3104528277124798
1204,-0.5410294439643095,52.134615572989254,-2.6334567956985353,-0.30556407601606667
1205,-0.5751858725965747,58.31084613345159,-2.927651084398868,-0.29504929109958716
1206,-0.6079096086117995,64.90044020185078,-3.2378909769872286,-0.2784541191567734
1207,-0.6388461027734346,71.89225875304746,-3.5630526988280566,-0.2554019494726783
1208,-0.667676579412664,79.27028419966149,-3.901786132484944,-0.22560745318886047
1209,-0.6941285559230238,87.01355324635378,-4.252525566056299,-0.18888872546315882
1210,-0.7179857264315184,95.09616366259708,-4.6135046846192544,-0.1451776914631138
1211,-0.7390969140600114,103.48735708831191,-4.982775561488162,-0.09452847303986303
1212,-0.7573838088719226,112.15167850298835,-5.358231302912419,-0.03712345628536468
1213,-0.7728472286450985,121.04921146992865,-5.7376319053224085,0.0267231506658156
1214,-0.7855716666070852,130.1358867465235,-6.118632801300932,0.09656442650995854
1215,-0.7957279238131615,139.36386036254103,-6.498815501685636,0.1718226122569085
1216,-0.803573663677349,148.6819558440996,-6.8757196886704905,0.25179379427602566
1217,-0.8094517721050395,158.0361639326773,-7.24687608000949,0.3356553760762653
1218,-0.8137864585551172,167.37019194545283,-7.609839368418374,0.4224762604535862
1219,-0.8170770907995405,176.62605387198272,-7.962220543429379,0.5112296052066023
1220,-0.8198898184085114,185.74469142589538,-8.301717925108191,0.6008079589548742
1221,-0.8228471058033084,194.66661558832342,-8.626146279434181,0.6900405291928543
1222,-0.8266153632669491,203.3325577073694,-8.933463442435341,0.7777122830261187
1223,-0.8318909312552786,211.68411896563347,-9.221793952434012,0.8625845325962762
1224,-0.8393847369780384,219.6644070015956,-9.489449274508,0.9434166127454577
1225,-0.849805999600286,227.21864867153374,-9.734944295503752,1.0189882190009063
1226,-0.8638454086054583,234.2947683629218,-9.95700986827731,1.0881219407343226
1227,-0.8821582361420551,240.8439219094701,-10.15460128672125,1.1497054988175692
1228,-0.9053478662010637,246.8209769991972,-10.326902675036887,1.2027131808029117
1229,-0.9339502294726838,252.18493199300963,-10.473327372331713,1.2462259611219106
1230,-0.9684196216052733,256.89926626121286,-10.593514484016609,1.2794498003920136
1231,-1.0091163540305037,260.9322164748306,-10.687321852114598,1.3017316377285677
1232,-1.0562966410341266,264.2569747304245,-10.754815765384945,1.3125726236775592
1233,-1.110105065708284,266.8518059118915,-10.796257785491761,1.3116381892191709
1234,-1.170569892941802,268.7000832694356,-10.81208910619786,1.2987646079115607
1235,-1.2376014124691348,269.79024279240946,-10.802912888216506,1.27396178274604
1236,-1.3109934024138692,270.11565853633886,-10.769475023030228,1.2374120752281879
1237,-1.3904277071876334,269.67444260255127,-10.712643775498053,1.189465089658888
1238,-1.4754818265455634,268.46917492951366,-10.633388738883262,1.1306284282366037
1239,-1.5656393184634068,266.5065694077043,-10.532759509046809,1.0615545397728112
1240,-1.6603027305016744,263.7970840460708,-10.411864449340818,0.9830238935688859
1241,-1.7588086953505273,260.3544839722064,-10.271849876743975,0.895924817190328
1242,-1.8604447588241775,256.19536691799317,-10.113879955541124,0.8012304391851975
1243,-1.9644674547283814,251.33866150947375,-9.939117539739796,0.6999732718556394
1244,-2.070121102293892,245.80510913048187,-9.748706161558324,0.5932180516625072
1245,-2.176656779230281,239.6167403554066,-9.543753322506557,0.4820335225287828
1246,-2.283350917370432,232.79635694387986,-9.325315207228503,0.36746389727818735
1247,-2.389522978269038,225.36703016082518,-9.094382909398837,0.25050076218291933
1248,-2.494551692434649,217.35162573602636,-8.851870234158318,0.13205619714118608
1249,-2.5978893870785686,208.77236511988963,-8.598603123027816,0.01293786813088959
1250,-2.6990739819241862,199.6504318427266,-8.335310734767003,-0.10617319107096417
1251,-2.7977382989231616,190.00563076411555,-8.062618208703054,-0.2247414537236653
1252,-2.8936164075711037,179.85610683074282,-7.781041134801198,-0.342391861631473
1253,-2.986546810543039,169.21812867250128,-7.490981756068637,-0.45892040655779776
1254,-3.076472362063484,158.10594098660542,-7.192726932442847,-0.574299983170874
1255,-3.1634369011666044,146.53168821847945,-6.886447899605113,-0.6886812946322736
1256,-3.247578671168909,134.5054105771441,-6.572201859556711,-0.8023887279441009
1257,-3.329120682738824,122.03511195248102,-6.24993544065062,-0.9159112539954295
1258,-3.4083582585418855,109.12689786183374,-5.919490061532685,-1.0298885423025506
1259,-3.4856440705039757,95.78518017207462,-5.580609224793452,-1.145092608427285
1260,-3.5613710445695506,82.01294404648733,-5.232947751096466,-1.2624054291384004
1261,-3.635953561227934,67.81207137698479,-4.876082942600078,-1.3827930632868022
1262,-3.7098074223179855,53.183713901670494,-4.509527635589668,-1.507276902488981
1263,-3.7833290854695,38.12870829271613,-4.1327450668703225,-1.6369027431562053
1264,-3.8568746871059187,22.64802474365866,-3.745165437636097,-1.772708418972672
1265,-3.930739383537683,6.743239998603765,-3.3462040136877356,-1.915690760109736
1266,-4.005137537651381,-9.58297464510666,-2.9352805537952795,-2.066772652439868
1267,-4.080184266317421,-26.32636006165106,-2.511839810634505,-2.22677095764574
1268,-4.155878841026889,-43.480580504497574,-2.075372803007923,-2.396366024930203
1269,-4.2320904014871115,-61.03674893378797,-1.6254385158423348,-2.576073479121293
1270,-4.308546398992792,-78.98297581438098,-1.1616856474524806,-2.7662189108188375
1271,-4.384824133510633,-97.30395029333692,-0.683873993357929,-2.9669160244797674
1272,-4.460345685932329,-115.98056207889547,-0.1918950339949644,-3.178048722513308
1273,-4.534376475555034,-134.98957162607834,0.31420871869309425,-3.3992575197879993
1274,-4.606027593581768,-154.30333540282544,0.8342260624029507,-3.629930595272533
1275,-4.674261977748223,-173.88959208220064,1.367761569872073,-3.8691996972765152
1276,-4.737904402877049,-193.71131449864927,1.914222592652301,-4.115941027021795
1277,-4.79565516935694,-213.72663113801076,2.4728091825391827,-4.3687811329379205
1278,-4.846107278588022,-233.88881982056026,3.0425072630608496,-4.626107755921484
1279,-4.8877667938387575,-254.14637510217372,3.622085325471843,-4.886085474646095
1280,-2.8050301271119156e-14,-6.528510479032088e-15,-1.6184519711195202e-14,1.578549414171031e-14
1281,-6.276505417693505e-13,-1.3692710717323822e-13,-3.1157742989935714e-13,4.281236407215923e-13
1282,-7.658387044275109e-12,-1.5852787605773245e-12,-3.789843215627672e-12,5.418899232769875e-12
1283,-6.256950022994982e-11,-1.2316514801019213e-11,-3.095934482914262e-11,4.537882309007516e-11
1284,-3.8515675820710886e-10,-7.249515808253845e-11,-1.9017109859592113e-10,2.854354945718732e-10
1285,-1.9092848290183344e-09,-3.4601712100751276e-10,-9.398930605670076e-10,1.4432375434966811e-09
1286,-7.956603258567478e-09,-1.3994446467508144e-09,-3.907520206108084e-09,6.128213931747842e-09
1287,-2.872920469936318e-08,-4.94449001331959e-09,-1.4101778197163909e-08,2.253182419399919e-08
1288,-9.192356260404796e-08,-1.560187753068966e-08,-4.522235980746458e-08,7.337695909077986e-08
1289,-2.6522474195442347e-07,-4.469452309632299e-08,-1.3119981248660655e-07,2.1535975281907902e-07
1290,-6.997375865637162e-07,-1.1770447388192038e-07,-3.4924281335696304e-07,5.774976082982068e-07
1291,-1.7073599531114448e-06,-2.877718268045353e-07,-8.626123685542961e-07,1.4305272711916548e-06
1292,-3.889315290291956e-06,-6.583319652736386e-07,-1.9950511360630946e-06,3.303078654490434e-06
1293,-8.337003931746723e-06,-1.4184685537698104e-06,-4.353094927914627e-06,7.162734182839312e-06
1294,-1.6929402017226014e-05,-2.89457245079299e-06,-9.017061165760116e-06,1.4680042193262583e-05
1295,-3.275284483201684e-05,-5.621256086519716e-06,-1.7825903285882757e-05,2.858995464605642e-05
1296,-6.066866226579996e-05,-1.0433098987760263e-05,-3.378482587377295e-05,5.3157255228479986e-05
1297,-0.00010805138960132909,-1.8576752271714505e-05,-6.162705563811218e-05,9.47401918027356e-05
1298,-0.00018571490853391308,-3.184040551270892e-05,-0.00010856202070726745,0.00016243028571246004
1299,-0.00030903582070652275,-5.2694924840315266e-05,-0.00018524112405297132,0.00026872737877046716
1300,-0.0004992727829427389,-8.443847312913601e-05,-0.0003069692248518287,0.0004301891181782014
1301,-0.000785067857406027,-0.00013133449273884602,-0.0004951849718462519,0.0006679752667171636
1302,-0.001204101828981279,-0.00019873188995840976,-0.0007792264903208102,0.0010081914865912
1303,-0.0018048608325155959,-0.0002931563365322024,-0.0011983908475231859,0.0014819264166287466
1304,-0.0026484576086968003,-0.00042236291133554194,-0.0018042863634994393,0.002124871435290809
1305,-0.003810438445845863,-0.0005953428460664838,-0.0026634662124269725,0.002976415530852302
1306,-0.0053824975022948515,-0.0008222808232369935,-0.0038603197709713272,0.004078118773332647
1307,-0.00747401470767523,-0.0011144639416698046,-0.005500184679744596,0.005471487119539417
1308,-0.01021333249865179,-0.0014841488848401252,-0.007712627553303606,0.0071949983500695655
1309,-0.013748690582617391,-0.001944399683952432,-0.010654824891014799,0.009280363068162871
1310,-0.018248746674996732,-0.002508914331639755,-0.014514958498645526,0.011748044710825696
1311,-0.023902624273920557,-0.0031918638286838065,-0.019515522429912134,0.014602106873720135
1312,-0.030919445247161125,-0.004007771414245448,-0.02591642213773787,0.017824503004163002
1313,-0.03952732429256182,-0.004971462127883443,-0.03401773235305606,0.02136897037783161
1314,-0.04997182302280169,-0.006098112979656969,-0.04416196936781423,0.025154734609731375
1315,-0.06251388228233883,-0.007403431566192696,-0.056735727000435714,0.029060269870219438
1316,-0.07742727112501963,-0.008903985923739392,-0.07217052454451696,0.03291739051390911
1317,-0.09499560859390015,-0.01061770097851248,-0.09094272023390378,0.03650596919442253
1318,-0.11550902920394039,-0.01256452760753563,-0.1135723557392226,0.03954958241730528
1319,-0.13926057427298316,-0.014767279722039027,-0.1406208161639456,0.04171237532081852
1320,-0.16654239870753137,-0.017252623718914156,-0.17268721577450402,0.04259741267747831
1321,-0.19764188650281217,-0.02005219394661149,-0.21040345170787048,0.041746743148353964
1322,-0.23283776820464439,-0.023203798289988562,-0.2544279051755384,0.038643350201883656
1323,-0.2723963301455427,-0.02675267025974993,-0.30543781089280564,0.03271509824622501
1324,-0.31656779870458446,-0.030752718558598905,-0.36412035900463646,0.023340709561537488
1325,-0.36558297348045676,-0.035267722254865054,-0.4311626378971091,0.00985773021282987
1326,-0.4196501714689733,-0.04037241947640683,-0.5072405691959937,-0.008427634784796188
1327,-0.4789525304913814,-0.04615343980387196,-0.5930070262789737,-0.03222901120638378
1328,-0.5436457046601909,-0.052710035009275874,-0.6890793632680914,-0.062266931591686926
1329,-0.6138559680847664,-0.06015456907864803,-0.7960266114562835,-0.09925481535345021
1330,-0.6896787258700896,-0.06861273616326599,-0.9143566234265792,-0.14388421418808114
1331,-0.7711774143842459,-0.07822348381108878,-1.0445034609419286,-0.19680971203498893
1332,-0.8583827564633104,-0.08913862815166736,-1.1868153304182711,-0.25863388075754223
1333,-0.9512923224248028,-0.10152215728713485,-1.3415433690238237,-0.3298926885350979
1334,-1.0498703352157233,-0.11554922864367004,-1.508831574928855,-0.4110417386871561
1335,-1.1540476484375781,-0.1314048751313305,-1.6887081569239526,-0.5024436842017237
1336,-1.2637218200131044,-0.14928244330088322,-1.8810785517571376,-0.6043571201958801
1337,-1.3787572024387622,-0.16938179391049255,-2.0857203226562335,-0.7169272059124533
1338,-1.4989849733313003,-0.1919073010565492,-2.3022801104826955,-0.8401782128187859
1339,-1.6242030375844543,-0.21706568995506056,-2.530272761000762,-0.974008138972899
1340,-1.7541757449356024,-0.24506375534842187,-2.76908269930683,-1.1181854747586784
1341,-1.8886333838501148,-0.276106002261177,-3.0179675672322417,-1.2723481535317347
1342,-2.0272714337898083,-0.31039224850559777,-3.276064083337303,-1.436004674187473
1343,-2.16974958224409,-0.3481152241775999,-3.542396029827675,-1.6085373420237392
1344,-2.3156905391914506,-0.3894581977634716,-3.8158842181501966,-1.7892075397831706
1345,-2.4646787085541106,-0.4345926518819488,-4.095358236800807,-1.9771629122128207
1346,-2.616258802254867,-0.4836760246602089,-4.379569742404412,-2.1714463243531283
1347,-2.769934506248972,-0.5368495258568945,-4.66720701952816,-2.3710064354047584
1348,-2.925167328054074,-0.5942360306686978,-4.956910506787424,-2.574709715744621
1349,-3.081375770662248,-0.6559380492314627,-5.2472889671205944,-2.781353723832587
1350,-3.2379349873056866,-0.7220357666364214,-5.536935968899158,-2.9896814517519807
1351,-3.3941770746014854,-0.7925851472075605,-5.824446341832879,-3.19839654231785
1352,-3.5493921576118668,-0.8676160980555463,-6.108432277268557,-3.4061791763786275
1353,-3.7028304090818107,-0.9471306905746398,-6.387538756128066,-3.611702425422896
1354,-3.8537051265768483,-1.0311014444123763,-6.660458008857007,-3.8136488612341726
1355,-4.001196965704408,-1.1194696861483242,-6.925942739612938,-4.010727210604618
1356,-4.144459395550332,-1.21214400392813,-7.182817880546485,-4.201688838732477
1357,-4.282625404599018,-1.308998828945265,-7.429990680260272,-4.385343839875829
1358,-4.414815442648451,-1.4098731842050638,-7.666458972079125,-4.560576508408715
1359,-4.540146537724175,-1.514569649686004,-7.891317511285002,-4.726359958190754
1360,-4.657742478109007,-1.62285360011168,-8.103762314648213,-4.881769653888366
1361,-4.76674489992642,-1.734452776428328,-8.303092979222225,-5.025995615475377
1362,-4.866325072034639,-1.8490572542287345,-8.4887129994422,-5.1583530575899506
1363,-4.955696124274107,-1.9663198713900099,-8.660128141282941,-5.2782912298122255
1364,-5.034125424459908,-2.085857172856012,-8.816942969035988,-5.385400233388164
1365,-5.100946776061385,-2.207250922696725,-8.958855653835975,-5.479415605572736
1366,-5.155572084316738,-2.330050222368388,-9.085651223269695,-5.560220485572048
1367,-5.197502125419234,-2.4537742596905816,-9.197193438222348,-5.627845206724522
1368,-5.226336052857415,-2.5779156958233482,-9.293415506556201,-5.682464198380785
1369,-5.241779288013146,-2.7019446780053036,-9.374309863194643,-5.72439012775453
1370,-5.243649469210109,-2.8253134446913473,-9.439917262462354,-5.75406526614931
1371,-5.231880174475097,-2.9474614678249518,-9.490315440713514,-5.77205012424913
1372,-5.206522187628276,-3.067821055207893,-9.525607614847683,-5.779009465986222
1373,-5.167742143616223,-3.1858233152457207,-9.54591108472152,-5.7756958779153775
1374,-5.11581846524538,-3.3009043676927834,-9.551346204234965,-5.762931138835614
1375,-5.051134587024634,-3.41251166826973,-9.542025976694418,-5.741585700265252
1376,-4.974169549494204,-3.5201103029392877,-9.518046514869004,-5.712556649896733
1377,-4.885486135642272,-3.6231890998177754,-9.479478585172119,-5.676744584983462
1378,-4.7857168061024,-3.7212664036211,-9.426360429093581,-5.635029868575246
1379,-4.675547768233817,-3.813895359468098,-9.358692024062096,-5.588248776775951
1380,-4.55570158271968,-3.900668559880139,-9.27643091117698,-5.537170068337622
1381,-4.426918767299409,-3.981221920826061,-9.179489679676132,-5.482472518014537
1382,-4.289938898620107,-4.055237669385441,-9.067735158654774,-5.424723951763264
1383,-4.145481738564678,-4.122446346588438,-8.940989326510229,-5.364362305142643
1384,-3.994228920097069,-4.182627753631498,-8.79903190893831,-5.301679196600714
1385,-3.8368067196238678,-4.235610797231328,-8.641604598056768,-5.2368064655161355
1386,-3.673770418650632,-4.281272219533654,-8.468416789292451,-5.169706071891765
1387,-3.505590718138091,-4.319534228843332,-8.279152699860163,-5.1001636916157045
1388,-3.3326426158504363,-4.350361078565802,-8.073479703726742,-5.02778626943177
1389,-3.155197091859042,-4.373754672230869,-7.851057693586373,-4.952003712497824
1390,-2.9734158721922914,-4.389749301425787,-7.611549261214796,-4.872074822043186
1391,-2.787349457577949,-4.3984056500660484,-7.3546304741663855,-4.787097470659866
1392,-2.5969385156553226,-4.399804221912212,-7.080002019489992,-4.696022939787381
1393,-2.4020186434529553,-4.3940383679035,-6.787400484040306,-4.59767423771112
1394,-2.202328414994604,-4.381207105105121,-6.476609545781958,-4.490768124736811
1395,-1.9975205393638011,-4.361407929324405,-6.147470860633484,-4.373940481096141
1396,-1.7871758701570342,-4.334729828315141,-5.799894444067684,-4.245774566704252
1397,-1.5708199305527668,-4.301246701661996,-5.43386836496791,-4.104831642466896
1398,-1.3479415514697335,-4.261011386777346,-5.049467590230199,-3.9496833529956086
1399,-1.1180131653033816,-4.214050477991234,-4.646861841441674,-3.7789452130523524
