,TP9,AF7,AF8,TP10
0,-4.7164432200997904e-14,-3.3066152952931165e-14,-4.9074236691119077e-14,-5.472593393703643e-14
1,-1.0780533388596738e-12,-7.019038637625473e-13,-1.029328913897286e-12,-1.2449500192314854e-12
2,-1.2894946659639114e-11,-8.430452654448052e-12,-1.228180363656379e-11,-1.4814064316432352e-11
3,-1.026303699004802e-10,-6.7945836182225e-11,-9.83727472328558e-11,-1.1734127284951807e-10
4,-6.121676561368742e-10,-4.1267820190405827e-10,-5.942332034317524e-10,-6.969875118056449e-10
5,-2.927421740963415e-09,-2.01976594772854e-09,-2.8950629149758476e-09,-3.32113634114954e-09
6,-1.1726200422312709e-08,-8.319613176647234e-09,-1.1881904454385737e-08,-1.3263806110255585e-08
7,-4.0588214282240114e-08,-2.9737536956840802e-08,-4.2358527513540644e-08,-4.580008733719626e-08
8,-1.2427608409345196e-07,-9.436200431305167e-08,-1.3418520810137763e-07,-1.3996802964670333e-07
9,-3.428424409079998e-07,-2.705386253859406e-07,-3.844156592229678e-07,-3.855631182519444e-07
10,-8.648590115590168e-07,-7.106921345197104e-07,-1.0098843112296052e-06,-9.715170842185477e-07
11,-2.019350168685275e-06,-1.730152579377156e-06,-2.4603729296913095e-06,-2.266331203047922e-06
12,-4.408310040210923e-06,-3.9400135532695775e-06,-5.610485806026727e-06,-4.94369901396963e-06
13,-9.073856076701397e-06,-8.458717058508752e-06,-1.2067197408650317e-05,-1.01686942589546e-05
14,-1.773596903627257e-05,-1.7232629058965637e-05,-2.463897813630809e-05,-1.986176088997459e-05
15,-3.311821839894664e-05,-3.3500718210871365e-05,-4.802052742801023e-05,-3.705909504358759e-05
16,-5.937971143699042e-05,-6.244189856006421e-05,-8.975339290268653e-05,-6.638876441953616e-05
17,-0.00010267159152746467,-0.00011204498009870831,-0.00016152603296245256,-0.00011468199481102338
18,-0.0001718355997330256,-0.00019423991039083143,-0.00028087616001677793,-0.00019173835290272454
19,-0.00027926032726101525,-0.0003263246586456157,-0.00047335264127119946,-0.0003112618804440418
20,-0.0004419076412943668,-0.00053271446177251,-0.0007751832860871207,-0.000491982353726458
21,-0.0006825172332210332,-0.0008470292174543229,-0.0012364783353351213,-0.0007589715532859332
22,-0.0010309912911997128,-0.0013145208030546389,-0.0019249776138150307,-0.0011451586258169374
23,-0.0015259540218644824,-0.00199482547543677,-0.002930322734532876,-0.0016930413009061574
24,-0.002216472310943512,-0.0029650079169085096,-0.004368805435538354,-0.0024565809730562127
25,-0.0031639144806801765,-0.004322843749161855,-0.006388510369371334,-0.0035032596543328773
26,-0.00444391424544956,-0.0061902673725816,-0.009174736963434267,-0.004916265859638362
27,-0.006148397069998464,-0.008716892811124451,-0.01295555198759012,-0.006796765075731169
28,-0.008387616737816146,-0.012083497891670307,-0.01800729393118651,-0.009266199174663642
29,-0.011292141551409176,-0.016505347578208398,-0.024659823915088076,-0.012468548590756485
30,-0.015014722636635747,-0.022235221553120264,-0.0333012972501437,-0.016572481892445295
31,-0.019731971646455772,-0.029566004988472196,-0.04438221631789676,-0.02177331009444753
32,-0.025645772025766428,-0.03883270048536161,-0.058418520349378576,-0.028294658134619944
33,-0.032984347113173745,-0.050413723752044386,-0.07599347175551292,-0.0363897637111414
34,-0.04200290984042345,-0.06473135585918069,-0.09775811240628883,-0.046342314286618905
35,-0.052983822693268276,-0.08225124070640542,-0.12443008677308877,-0.05846673649226675
36,-0.06623620293805613,-0.10348083725264623,-0.15679066185691448,-0.07310785828651446
37,-0.0820949169300799,-0.12896676145225158,-0.1956798156554056,-0.09063987290427405
38,-0.1009189186344,-0.15929098182816248,-0.24198931553571032,-0.1114645447600299
39,-0.12308890126283187,-0.19506586414432034,-0.296653763899882,-0.13600861091554847
40,-0.14900424697408918,-0.23692809351976982,-0.3606396492777939,-0.1647203473269623
41,-0.1790792775539628,-0.2855315352961084,-0.4349325045373357,-0.19806528664180686
42,-0.21373882841513053,-0.34153912777796847,-0.5205223381564102,-0.23652109359355813
43,-0.2534131885410759,-0.40561392945232244,-0.6183875672289909,-0.2805716247682671
44,-0.29853246942995254,-0.47840946945314095,-0.7294777397980855,-0.3307002213446383
45,-0.3495204858425551,-0.5605595720740864,-0.8546953869664146,-0.3873823058809375
46,-0.4067882493428283,-0.652667843466725,-0.994877389887852,-0.45107737679545906
47,-0.4707271913970021,-0.7552970209317589,-1.1507762812592224,-0.5222205162549105
48,-0.5417022454287443,-0.86895839223685,-1.3230419236972075,-0.6012135480760844
49,-0.6200449260997418,-0.9941014941492495,-1.512204017194001,-0.6884160012046621
50,-0.7060465487296456,-1.131104295955325,-1.718655883978583,-0.7841360505266254
51,-0.7999517319096338,-1.2802640653741824,-1.9426399613853138,-0.8886216193508121
52,-0.9019523219692795,-1.441789101304474,-2.1842354021201005,-1.002051836132088
53,-1.0121818692502305,-1.6157915007418684,-2.4433481375302195,-1.1245290413177444
54,-1.1307107735404436,-1.8022811065500295,-2.7197037045282206,-1.2560715382316943
55,-1.2575422000630165,-2.001160759224121,-3.012843072497804,-1.3966072745001146
56,-1.3926088487018946,-2.2122229500602577,-3.322121634917731,-1.545968627719516
57,-1.5357706383667982,-2.435147945947058,-3.6467114538595697,-1.703888451155971
58,-1.686813346308901,-2.6695034280031744,-3.9856067663062813,-1.8699975127409953
59,-1.8454482195936879,-2.9147456581192577,-4.337632681752847,-2.0438234341550023
60,-2.011312553608565,-3.170222159685062,-4.701456923054291,-2.2247912071209175
61,-2.183971211198807,-3.4351758718973016,-5.075604389098655,-2.4122253319934135
62,-2.36291903653276,-3.7087507115099023,-5.458474250525058,-2.605353590210073
63,-2.547584100791733,-3.989998452122529,-5.848359230072589,-2.8033124280974033
64,-2.737331702825294,-4.277886809481431,-6.243466668679171,-3.0051538958123043
65,-2.9314690373504195,-4.571308602115864,-6.641940938325219,-3.209854052693566
66,-3.129250436193395,-4.86909184022655,-7.041886733719974,-3.4163227197539743
67,-3.3298830843587948,-5.170010582292301,-7.441392757832395,-3.623414432140736
68,-3.5325331121022416,-5.472796388516803,-7.838555311220429,-3.8299404197358
69,-3.73633196632403,-5.776150193084357,-8.231501302028681,-4.034681423149929
70,-3.9403829690426826,-6.078754413250155,-8.61841021199258,-4.2364011355155675
71,-4.143767976943574,-6.379285112513013,-8.997534583083532,-4.433860047862152
72,-4.3455540635112415,-6.676424037405212,-9.367218628549514,-4.625829467490263
73,-4.544800153559971,-6.968870352634228,-9.725914619816288,-4.811105474585799
74,-4.7405635486198205,-7.255351907233084,-10.072196755615092,-4.9885225821965875
75,-4.931906290165936,-7.534635874787236,-10.404772280284197,-5.156966868430848
76,-5.11790131566123,-7.805538623434781,-10.722489682872414,-5.315388357110298
77,-5.297638369446659,-8.066934685871535,-11.02434387581427,-5.462812433960199
78,-5.470229636411648,-8.317764715687478,-11.309478319866088,-5.598350099694946
79,-5.634815070997846,-8.557042333648155,-11.577184128991416,-5.721206879089301
80,-5.790567397421195,-8.783859785641853,-11.826896253311315,-5.830690226318101
81,-5.936696759105748,-8.997392352583711,-12.058186898553117,-5.926215291393622
82,-6.072454996357207,-9.196901471277924,-12.270756395295631,-6.00730894017104
83,-6.197139531513641,-9.381736543816476,-12.464421779619569,-6.073611950727947
84,-6.310096840516093,-9.551335431326851,-12.639103387724745,-6.124879341423659
85,-6.410725489370863,-9.705223645626285,-12.794809800190867,-6.16097881996027
86,-6.498478713611355,-9.843012269510755,-12.931621496694003,-6.1818873775745455
87,-6.572866518843216,-9.964394652970146,-13.04967359931762,-6.187686087362118
88,-6.633457280982129,-10.069141948579801,-13.14913809252783,-6.178553200016242
89,-6.679878826054194,-10.157097564701443,-13.230205910940265,-6.154755663364003
90,-6.711818971551455,-10.228170629971322,-13.293069282672585,-6.1166392234275095
91,-6.729025514379893,-10.282328576894212,-13.337904706669116,-6.064617293723642
92,-6.731305654455095,-10.319588966216864,-13.364856926997067,-5.999158805551788
93,-6.718524848137565,-10.340010687116914,-13.37402424566024,-5.9207752746214135
94,-6.690605092258537,-10.343684681073906,-13.365445487787524,-5.830007338230429
95,-6.647522647909759,-10.330724349518672,-13.339088899024766,-5.727411032186532
96,-6.589305223960572,-10.301255816883769,-13.294843214688187,-5.613544087756751
97,-6.516028653912947,-10.255408231360867,-13.232511094146245,-5.48895253621227
98,-6.427813116631178,-10.193304295319145,-13.151805062787748,-5.35415791214333
99,-6.324818971959364,-10.11505122569082,-13.052346048981331,-5.209645346810247
100,-6.207242306268014,-10.020732351335717,-12.933664546089586,-5.055852839478525
101,-6.075310310159348,-9.910399559009768,-12.79520437144967,-4.893161987943955
102,-5.929276640060524,-9.78406680154143,-12.636328936804626,-4.721890449124635
103,-5.769416945947738,-9.641704880553107,-12.456329889310327,-4.542286386380112
104,-5.596024777263793,-9.483237710899187,-12.254437930064725,-4.354525141679582
105,-5.409408106129805,-9.30854026427094,-12.029835569032803,-4.158708347294868
106,-5.209886728788963,-9.117438374520573,-11.781671532120832,-3.954865662589209
107,-4.9977908202276975,-8.909710566635354,-11.509076498875167,-3.742959285847372
108,-4.7734609204518135,-8.685092044516601,-11.211179818848139,-3.5228913480878976
109,-4.537249621512176,-8.443280939519314,-10.8871268322072,-3.294514244703304
110,-4.289525200039127,-8.183946882026605,-10.536096406809925,-3.0576439011534924
111,-4.030677399292689,-7.906741912356036,-10.157318300748248,-2.8120759007521565
112,-3.761125506855705,-7.61131369547944,-9.750089966993848,-2.5576043263277524
113,-3.4813287993198876,-7.297320947120666,-9.313792435534024,-2.2940430843613093
114,-3.1917993349372056,-6.964450917791963,-8.847904938073691,-2.0212493919759584
115,-2.8931169716177836,-6.612438717528922,-8.352017980338672,-1.739149016426127
116,-2.5859463742331354,-6.241088199034835,-7.8258446161744475,-1.4477627666048356
117,-2.2710556561720936,-5.850294052429026,-7.269229734520564,-1.1472336500551723
118,-1.9493361804379368,-5.440064702779956,-6.682157233097285,-0.8378540308014372
119,-1.6218229307149576,-5.010545544184331,-6.064755019069103,-0.5200920568735695
120,-1.2897147584626834,-4.562041993473507,-5.417297844608649,-0.19461657543933691
121,-0.9543937238429089,-4.095041804799959,-4.740208051637999,0.13768027861637983
122,-0.6174426814040416,-3.6102360553725092,-4.034054362594666,0.4756636451699434
123,-0.2806602205513163,-3.108538194252275,-3.299548910566336,0.8179404633511506
124,0.053927940348421466,-2.5911005418895137,-2.537542750546088,1.162848730175969
125,0.3840619862174439,-2.0593276391288886,-1.7490201321937415,1.5084522008055028
126,0.7072462890286033,-1.514885871515603,-0.9350918420275947,1.852541147863736
127,1.0207536797804022,-0.9597088382833067,-0.09698793847428291,2.192639683127406
128,-6.743701218625728e-14,-7.191848569683098e-14,-7.369789599836998e-14,-6.423605987147516e-14
129,-1.572937886072573e-12,-1.5510193787787049e-12,-1.5982360213039486e-12,-1.5056512171356668e-12
130,-1.88928032123948e-11,-1.8541854925268897e-11,-1.8744373060102364e-11,-1.7883664259139132e-11
131,-1.5097616191899516e-10,-1.48476992904103e-10,-1.472597948217122e-10,-1.410997198264478e-10
132,-9.045981212762691e-10,-8.958294932642209e-10,-8.721396885071269e-10,-8.34191727526714e-10
133,-4.34736552771448e-09,-4.355196245232373e-09,-4.165697745823108e-09,-3.953411881199715e-09
134,-1.7507478303845038e-08,-1.7819981050131814e-08,-1.6764057272945447e-08,-1.5691095060103395e-08
135,-6.094099046671733e-08,-6.327472657076762e-08,-5.861643949798227e-08,-5.379963038189527e-08
136,-1.876679208778635e-07,-1.9947246238387725e-07,-1.8219306372761585e-07,-1.6310635165084218e-07
137,-5.206654197497611e-07,-5.682342105506755e-07,-5.123510506798198e-07,-4.4528823255685606e-07
138,-1.3205388097152913e-06,-1.4833846838024685e-06,-1.3218667092108539e-06,-1.1108334957519896e-06
139,-3.0984777709253573e-06,-3.589225984479716e-06,-3.1644047991703424e-06,-2.5627111173657815e-06
140,-6.792691919254472e-06,-8.125208358764948e-06,-7.094250733694727e-06,-5.5221568588387086e-06
141,-1.4028740539113865e-05,-1.7343745243404117e-05,-1.501003675104955e-05,-1.1206879874629688e-05
142,-2.7485089817163393e-05,-3.513796199520642e-05,-3.0167270584513147e-05,-2.1570685514787268e-05
143,-5.138451513480029e-05,-6.794443619375768e-05,-5.7910963261765063e-05,-3.961090386568095e-05
144,-9.212946217234542e-05,-0.00012599150848738785,-0.00010668425392628097,-6.974618241733396e-05
145,-0.00015909523629291673,-0.00022496540711529946,-0.00018937086345407886,-0.00011826239121329205
146,-0.00026558909861076674,-0.00038816328886850406,-0.0003250277615555026,-0.00019381896159470686
147,-0.0004299762669104787,-0.0006491936549068082,-0.0005410589962738925,-0.00030800233825158195
148,-0.000676965730656784,-0.001055270063536201,-0.0008758717332302539,-0.00047590777707534013
149,-0.0010390400077438348,-0.0016711236047625049,-0.0013820408655101366,-0.0007167258875088392
150,-0.001558003863201347,-0.0025835335730716017,-0.0021299889722550622,-0.00105430652376881
151,-0.002286617973219648,-0.003906444904099323,-0.003212164099297959,-0.0015176702589688228
152,-0.0032902749433429495,-0.005786606306490825,-0.00474766935174724,-0.0021414370130763143
153,-0.0046486673662358025,-0.00840962600647743,-0.0068872665917617875,-0.00296614260824741
154,-0.00645739115634822,-0.012006304255751566,-0.00981864301539755,-0.004038417151420414
155,-0.008829422703097074,-0.016859065028151578,-0.013771795808513973,-0.005411004174691134
156,-0.011896405921546093,-0.023308275529184175,-0.019024358506172907,-0.007142606292978013
157,-0.015809685443310652,-0.03175821313865917,-0.025906665300890464,-0.009297551545626073
158,-0.020741025220155786,-0.04268241696970404,-0.03480632852699729,-0.011945284243766107
159,-0.026882957780779673,-0.056628146918385594,-0.04617209182549871,-0.015159694648900547
160,-0.03444871819788763,-0.07421966816214788,-0.06051671858862403,-0.01901831272923229
161,-0.043671728217992666,-0.09616008443818819,-0.07841868316018659,-0.023601402109129446
162,-0.05480460950144657,-0.12323145957922702,-0.10052245123923771,-0.028991000601227786
163,-0.06811771983719377,-0.15629299375681338,-0.12753716563460557,-0.03526996276731153
164,-0.08389722173019983,-0.19627705831019374,-0.16023359296054746,-0.04252106713052274
165,-0.10244270806941859,-0.2441829401465682,-0.1994392345640887,-0.05082625531541515
166,-0.1240644238604433,-0.30106820234207243,-0.2460315590843106,-0.060266071940898176
167,-0.14908013550432783,-0.368037630275495,-0.30092937244699103,-0.07091937203910735
168,-0.17781170918670933,-0.44622980062518075,-0.3650824014683086,-0.082863356762024
169,-0.2105814671559016,-0.5368013818509487,-0.4394592271092542,-0.09617398802414982
170,-0.2477083948035443,-0.640909347183155,-0.5250337602997663,-0.11092681864833867
171,-0.2895042725409698,-0.7596913523490503,-0.6227705048096437,-0.12719825695145473
172,-0.3362698046779073,-0.8942445979321432,-0.7336088958892254,-0.145067264179308
173,-0.38829081313884994,-1.0456035580597314,-0.8584470387989152,-0.1646174606077022
174,-0.4458345572482401,-1.2147170108308116,-0.998125196844708,-0.18593959244519945
175,-0.5091462324198818,-1.4024248495188174,-1.1534093935409135,-0.2091342879961081
176,-0.578445690932071,-1.6094351854007312,-1.3249754978088055,-0.2343150090142561
177,-0.6539244176436622,-1.8363022717594764,-1.5133941547680676,-0.26161108289826174
178,-0.7357427830910914,-2.083405783316374,-1.7191169080266944,-0.2911706843189762
179,-0.8240275864508395,-2.3509319756911533,-1.9424638330382467,-0.32316362184273134
180,-0.9188698918530175,-2.638857225545172,-2.183612965986149,-0.3577837767798044
181,-1.020323153903335,-2.946934414370103,-2.442591769988521,-0.39525103834454484
182,-1.128401622297556,-3.2746825683744545,-2.719270831669714,-0.43581258157695085
183,-1.2430790112349008,-3.621380104893891,-3.0133599279770147,-0.4797433424752821
184,-1.3642874169930646,-3.9860619638243784,-3.3244065472915914,-0.5273455584191101
185,-1.4919164665231666,-4.367520822631761,-3.651796892170971,-0.5789472611332281
186,-1.625812681265145,-4.764312507611384,-3.994759335196736,-0.634899633983971
187,-1.7657790435553804,-5.174765624474907,-4.352370246000705,-0.6955731749836184
188,-1.9115747579097593,-5.596995340306678,-4.723562058027546,-0.761352640938016
189,-2.0629152059335354,-6.028921158721034,-5.107133399110195,-0.8326307858672809
190,-2.219472101359487,-6.4682884428403815,-5.501761071304603,-0.909800947078873
191,-2.3808738603673736,-6.912693358521787,-5.90601363312722,-0.9932485737982499
192,-2.5467062113615486,-7.359610834896569,-6.318366311539929,-1.0833418346179702
193,-2.716513077075253,-7.8064250723139255,-6.737216951692454,-1.180421479636154
194,-2.8897977693918864,-8.25046207049101,-7.160902699405642,-1.2847901694090964
195,-3.066024542761294,-8.689023603096432,-7.587717104483761,-1.3967015142280963
196,-3.244620554754938,-9.119422029904433,-8.015927332058071,-1.5163490924388592
197,-3.4249782814885,-9.539015314579428,-8.443791174245566,-1.64385573448866
198,-3.60645843083108,-9.945241605384268,-8.869573565450873,-1.7792633692879305
199,-3.788393387190923,-10.335652737733131,-9.291562321579027,-1.9225237307354865
200,-3.970091208158774,-10.707946031417519,-9.708082846015555,-2.073490214591446
201,-4.150840175679645,-11.059993781222463,-10.11751157295137,-2.231911159308073
202,-4.32991388334549,-11.389869877053586,-10.518287950671246,-2.3974247992511697
203,-4.506576817804632,-11.695873037984292,-10.908924802724146,-2.5695561055123113
204,-4.680090367379822,-11.976546203023524,-11.288016942261766,-2.7477156889998766
205,-4.849719166191856,-12.23069168896242,-11.65424795310456,-2.931200893723781
206,-5.014737658939686,-12.457381801301716,-12.00639508928224,-3.119199156430404
207,-5.174436751510846,-12.65596466677192,-12.343332282150435,-3.3107936534893017
208,-5.328130397115862,-12.826065143986964,-12.664031280182641,-3.504971198798121
209,-5.475161957664644,-12.96758076084832,-12.967560980784514,-3.700632299118644
210,-5.6149101762801505,-13.080672721854407,-13.25308504562128,-3.896603217344176
211,-5.746794599480414,-13.165752123777326,-13.519857920633388,-4.091649841341937
212,-5.870280296640381,-13.223461612467439,-13.76721940879753,-4.284493107716547
213,-5.98488173953168,-13.254652804997777,-13.994587967478855,-4.473825687400407
214,-6.090165725395909,-13.260359888104606,-14.201452922683101,-4.658329604432196
215,-6.185753252266732,-13.241769884088,-14.387365809441032,-4.836694431421611
216,-6.27132028411378,-13.200190147260646,-14.551931060695434,-5.007635685606169
217,-6.3465973747543485,-13.137013716071268,-14.694796276107706,-5.1699130385159355
218,-6.411368152223341,-13.05368319675104,-14.815642306818754,-5.322347950353456
219,-6.465466698218414,-12.951653892512486,-14.914173392104543,-5.463840347381325
220,-6.508773889163668,-12.832356916948038,-14.99010757892824,-5.593383976833322
221,-6.541212795264406,-12.697163040532015,-15.043167645728634,-5.710080098903699
222,-6.562743260689281,-12.547348014459333,-15.073072737815604,-5.813149208803883
223,-6.573355810876392,-12.384060096161466,-15.079530904164654,-5.901940523041727
224,-6.573065051202391,-12.208290465728055,-15.062232705073852,-5.975939012036432
225,-6.561902734326454,-12.020847172482116,-15.020846037924203,-6.034769814746781
226,-6.53991068109238,-11.822333186829438,-14.955012304853375,-6.078199928796364
227,-6.507133741867609,-11.613129055340142,-14.86434402192944,-6.106137130145091
228,-6.463612981774407,-11.393380568311073,-14.748423944542228,-6.118626138120273
229,-6.409379264774385,-11.162991750642764,-14.606805758174703,-6.1158421029919285
230,-6.344447398517235,-10.921623380883295,-14.439016357365706,-6.0980815527156755
231,-6.268810984935343,-10.66869713212141,-14.244559708464362,-6.065750991578676
232,-6.182438101566397,-10.403405314587118,-14.02292226378802,-6.019353395068405
233,-6.085267916388479,-10.12472608594721,-13.77357986632372,-5.95947289132131
234,-5.977208315417059,-9.83144388396304,-13.496006055699125,-5.886757959127661
235,-5.8581345982601265,-9.522174729915726,-13.189681658558614,-5.801903504943532
236,-5.72788927304194,-9.195395952349392,-12.854105520613809,-5.7056322061432425
237,-5.586282959327205,-8.84947979136548,-12.488806214389774,-5.598675524485302
238,-5.433096386536271,-8.482730265778411,-12.093354536801211,-5.481754802280905
239,-5.268083456278976,-8.093422620453145,-11.667376594643809,-5.355562853987878
240,-5.090975320268099,-7.6798446202707025,-11.210567264049129,-5.220746457948617
241,-4.901485411040762,-7.240338921206056,-10.722703801834282,-5.077890136922225
242,-4.699315350534319,-6.773345728360956,-10.203659382205144,-4.9275015922523036
243,-4.484161651461237,-6.2774449455019035,-9.653416331092561,-4.7699991254226815
244,-4.255723118145729,-5.7513970303997555,-9.0720788321875,-4.605701342943477
245,-4.01370884669146,-5.194181794438176,-8.459884883251627,-4.4348193966262475
246,-3.7578467186811713,-4.605034422683893,-7.8172172883886475,-4.257451962100946
247,-3.4878922777185157,-3.983478040806634,-7.144613481648328,-4.073583104768448
248,-3.203637873693542,-3.3293522166432967,-6.442773989653672,-3.883083125227168
249,-2.9049219553944714,-2.642836855431374,-5.712569355972056,-3.6857124165613344
250,-2.5916383877570794,-1.9244710273175425,-4.955045367764335,-3.481128304760504
251,-2.2637456655117933,-1.1751663521601408,-4.171426445877332,-3.268894782045502
252,-1.921275890318856,-0.39621465836534286,-3.3631170829863968,-3.0484949821878717
253,-1.564343373940675,0.41071027197663074,-2.5317012405894315,-2.8193461882832893
254,-1.1931527260117853,1.2435569615198239,-1.6789396444892986,-2.5808171081398634
255,-0.8080062820477631,2.0999064907279816,-0.806764949694367,-2.3322471016902075
256,-7.166906910846516e-14,-5.208545855601641e-14,-2.8203732041602712e-14,-7.293228813127238e-14
257,-1.636246301442708e-12,-1.1133072214626803e-12,-5.164056401984394e-13,-1.6583638454914598e-12
258,-1.9627572483608155e-11,-1.3355873778654148e-11,-6.3840828873069745e-12,-1.978758760226325e-11
259,-1.5675382297104647e-10,-1.074194619877997e-10,-5.32681463904044e-11,-1.5723667130438508e-10
260,-9.389876150701235e-10,-6.51053516972541e-10,-3.350128622536437e-10,-9.37452034395086e-10
261,-4.513358413927348e-09,-3.17974163219031e-09,-1.6966803897772498e-09,-4.486154397317805e-09
262,-1.818824919206021e-08,-1.3070293408732638e-08,-7.22464120461833e-09,-1.8003574826015062e-08
263,-6.339333500106589e-08,-4.6621284608888525e-08,-2.6661293169912672e-08,-6.250044832825221e-08
264,-1.956181227331459e-07,-1.4763114409744415e-07,-8.721616882043812e-08,-1.9211722837590502e-07
265,-5.442747806991649e-07,-4.2239112177395254e-07,-2.573698976402193e-07,-5.324869862354827e-07
266,-1.3855867145068963e-06,-1.1073205760406344e-06,-6.947419925596655e-07,-1.3503596353880089e-06
267,-3.266269681372301e-06,-2.690190203149411e-06,-1.7351510368159028e-06,-3.170792224959715e-06
268,-7.200586848093255e-06,-6.11367090901455e-06,-4.04758985828988e-06,-6.962283543462985e-06
269,-1.49678553834991e-05,-1.3098219607257586e-05,-8.888715338152073e-06,-1.4413910199908332e-05
270,-2.954109234985715e-05,-2.6629258108024396e-05,-1.8500139379067887e-05,-2.8331402191148644e-05
271,-5.567961522184781e-05,-5.166026380623066e-05,-3.6701605057449333e-05,-5.318079792754615e-05
272,-0.00010071854685373244,-9.608777423848039e-05,-6.974212827768994e-05,-9.580854268715062e-05
273,-0.00017558598438556213,-0.00017205548394698885,-0.00012747830712238329,-0.00016636545165186665
274,-0.0002960739395833109,-0.0002976418231682948,-0.00022495309955249002,-0.0002794587439720364
275,-0.0004843820681229574,-0.0004989781427912036,-0.0003844483330323623,-0.00045555130661243423
276,-0.0007709438298061685,-0.0008128326712143456,-0.0006380790681907218,-0.0007226204417779404
277,-0.0011965333402733948,-0.0012896788548323649,-0.001030986962793156,-0.0011180796369002894
278,-0.0018146381893974694,-0.001997245958413301,-0.001625172558016855,-0.0016909565209169296
279,-0.002694069402550504,-0.0030245255924466774,-0.0025039829096658553,-0.0025043083836440213
280,-0.003921765035723298,-0.004486181109061934,-0.0037772416233089637,-0.003637843758962176
281,-0.005605729165162486,-0.006527278714653518,-0.005586973996746437,-0.005190704996282938
282,-0.007878033821558694,-0.009328230957684161,-0.00811364193870529,-0.007284352935441542
283,-0.010897798321512735,-0.01310981629328354,-0.01158276331195079,-0.010065481298916979
284,-0.014854049051404045,-0.018138114026387063,-0.016271750308819395,-0.013708875791097384
285,-0.019968353579347953,-0.024729173353007138,-0.022516763509645852,-0.0184201216799645
286,-0.026497116431179146,-0.033253219601971,-0.030719344481415587,-0.0244380543002881
287,-0.03473342031028773,-0.04413819111502654,-0.04135256205659251,-0.03203683987840084
288,-0.04500829627006749,-0.057872397283520255,-0.05496638742250489,-0.04152756973314248
289,-0.05769130962112485,-0.07500609264679223,-0.07219200214303854,-0.05325924962695171
290,-0.07319035536331357,-0.09615177395777723,-0.09374474217548241,-0.06761906816071242
291,-0.09195056777526053,-0.12198302676752637,-0.120425390458244,-0.08503183393669422
292,-0.11445226348741512,-0.1532317751246326,-0.1531195510478789,-0.10595848107589842
293,-0.14120785583440382,-0.19068382190133246,-0.1927948690905186,-0.13089355689457885
294,-0.17275770031288964,-0.23517260725382663,-0.24049590281693972,-0.16036162436860502
295,-0.2096648561252817,-0.2875711577640522,-0.2973365055917479,-0.19491253547929033
296,-0.2525087763713674,-0.3487822476468397,-0.36448963678203644,-0.23511555935114253
297,-0.30187796854698673,-0.41972684462375864,-0.44317458839179974,-0.28155238060923393
298,-0.3583616965952915,-0.5013309651269193,-0.5346416881926631,-0.33480901762048537
299,-0.4225408247939968,-0.594511114798461,-0.6401546172746904,-0.3954667459931504
300,-0.4949779312769062,-0.700158539175073,-0.7609705580855326,-0.4640921484739131
301,-0.576206844137877,-0.819122554413638,-0.8983184655227163,-0.5412264467440921
302,-0.6667217752104099,-0.9521932674420159,-1.0533758258874397,-0.6273743022356495
303,-0.766966245357646,-1.1000840276753383,-1.2272443340213532,-0.7229923008641308
304,-0.8773220102471642,-1.2634139772803075,-1.4209249754869402,-0.828477359669865
305,-0.9980982070165099,-1.4426910829784414,-1.6352930462858641,-0.9441553111240407
306,-1.1295209498400343,-1.6382960388806171,-1.8710736757538087,-1.0702699327557206
307,-1.2717236060206611,-1.8504674264335488,-2.128818437690135,-1.2069726953370654
308,-1.424737983665852,-2.0792885041104925,-2.40888363955994,-1.3543135017829069
309,-1.58848665708314,-2.3246759761630953,-2.7114108691121626,-1.5122326809653184
310,-1.7627766465541312,-2.586371057029023,-3.03631035162059,-1.680554485724909
311,-1.9472946548948709,-2.863933106596146,-3.3832476291009996,-1.8589823225000615
312,-2.141604043958409,-3.156736062438006,-3.75163401559408,-2.047095911341381
313,-2.345143709820377,-3.46396783953975,-4.140621210734521,-2.2443505399458967
314,-2.557228985778853,-3.7846328072667728,-4.549100368732476,-2.4500785342396356
315,-2.7770546676298586,-4.117557388843094,-4.975705823527516,-2.6634930216546127
316,-3.0037002162678803,-4.461398761938332,-5.418823565662447,-2.8836940124763064
317,-3.2361371490461988,-4.814656571704284,-5.876604455121428,-3.109676770587499
318,-3.473238584316278,-5.175687501377335,-6.346982039935454,-3.34034238895032
319,-3.7137908542145275,-5.542722481986137,-6.827694735842354,-3.57451042880139
320,-3.9565070503446216,-5.913886263335825,-7.316312010826322,-3.8109334264365553
321,-4.200042316884026,-6.2872190147332025,-7.810264113114285,-4.048313019262441
322,-4.443010657229148,-6.6606995771678905,-8.306874785318039,-4.285317395028099
323,-4.6840029749941605,-7.032269949969708,-8.803396323926263,-4.520599726243722
324,-4.921606029390586,-7.399860565192305,-9.297046275094933,-4.7528172170526135
325,-5.154421950075183,-7.761415882757104,-9.785045007104758,-4.980650363413247
326,-5.381087928684182,-8.114919829120444,-10.26465336884081,-5.202822010360009
327,-5.600295684550578,-8.4584206020623,-10.733209633378864,-5.418115783143895
328,-5.810810291466969,-8.790054374088882,-11.188164936611585,-5.625393472824969
329,-6.011487951607037,-9.108067446647162,-11.627116452407162,-5.8236109718167315
330,-6.201292312463322,-9.410836436438844,-12.047837596976471,-6.011832381129325
331,-6.379308943242128,-9.696886112987462,-12.448304624295172,-6.189241948433883
332,-6.544757618601949,-9.96490455248028,-12.826719059500789,-6.355153543974688
333,-6.697002099607813,-10.213755325835793,-13.181525515673005,-6.509017438761607
334,-6.83555715361742,-10.442486497842356,-13.511424548454757,-6.65042421494503
335,-6.960092615437161,-10.650336277836335,-13.815380319416274,-6.779105709979808
336,-7.070434359982255,-10.836735229378167,-14.092622959561279,-6.894932971946636
337,-7.166562129932813,-11.001305015282378,-14.342645645563378,-6.997911280779579
338,-7.248604238268211,-11.143853723639822,-14.565196519996366,-7.088172366571529
339,-7.316829242662395,-11.264367888600225,-14.760265700069116,-7.1659640290140505
340,-7.371634764019611,-11.363001385163045,-14.928067724642077,-7.231637428881197
341,-7.413533692401927,-11.440061438653638,-15.069019884415187,-7.285632380965111
342,-7.443138087836248,-11.495992045680214,-15.183716963295016,-7.328461025972796
343,-7.4611411388782765,-11.531355153091178,-15.272902988543962,-7.360690295006399
344,-7.46829758674641,-11.54680998388206,-15.337440642176073,-7.382923603397125
345,-7.465403056327168,-11.543090933416892,-15.378279025375093,-7.395782220558138
346,-7.453272756981068,-11.520984485185323,-15.396420491120889,-7.399886759512796
347,-7.432720025880864,-11.481305612253564,-15.392887267884747,-7.395839214698386
348,-7.4045351849536205,-11.424874138418028,-15.368688589846858,-7.384205950775694
349,-7.369465169990388,-11.352491531860075,-15.32478902765611,-7.365502010004597
350,-7.328194367968758,-11.26491859402278,-15.262078679606379,-7.3401770629750995
351,-7.281327067136487,-11.162854487840956,-15.181345837655408,-7.308603278898584
352,-7.229371885114874,-11.04691752286965,-15.083252687332129,-7.271065339037113
353,-7.17272849447492,-10.9176280809466,-14.96831453649813,-7.227752761830497
354,-7.111676914208539,-10.7753940255775,-14.8368829961804,-7.178754652312307
355,-7.046369580485354,-10.62049889209151,-14.689133458074664,-7.124056932655321
356,-6.976826352161608,-10.453093104618501,-14.52505712840989,-7.063542056037828
357,-6.902932546682352,-10.273188410928284,-14.344457787108137,-6.99699115313488
358,-6.824440041213475,-10.08065566800929,-14.146953345055431,-6.924088509957622
359,-6.7409714129916445,-9.875226050889133,-13.931982171584565,-6.844428228029447
360,-6.652027032997092,-9.656495695658379,-13.69881406023796,-6.757522873611313
361,-6.556994969239062,-9.423933726128277,-13.446565595466506,-6.662813882553603
362,-6.455163501360162,-9.176893553350293,-13.174219578743424,-6.5596834520883345
363,-6.345735998081161,-8.914627279806648,-12.880648072811828,-6.447467621217878
364,-6.227847864322397,-8.63630298700878,-12.564638530967018,-6.325470218028025
365,-6.100585226601894,-8.341024638110376,-12.22492239798912,-6.192977335934646
366,-5.963004994237508,-8.027854287468378,-11.860205503928492,-6.049271992162859
367,-5.814155910399275,-7.695836258173578,-11.469199524212119,-5.893648621117146
368,-5.6531001913424435,-7.344022927397617,-11.050653751571419,-5.72542706304454
369,-5.478935344219896,-6.971501748542644,-10.603386418402406,-5.543965724708203
370,-5.290815753687864,-6.577423138814512,-10.12631482293616,-5.348673613738979
371,-5.08797363500525,-6.161028870815238,-9.618483548930438,-5.139020981786289
372,-4.86973896631809,-5.721680626647582,-9.079090125729206,-4.914548353094705
373,-4.6355580350085495,-5.258888402198409,-8.507507551986432,-4.67487376382598
374,-4.38501026193842,-4.772338486838674,-7.9033031998282475,-4.4196980920565165
375,-4.117823002614578,-4.261920788594822,-7.266253723655774,-4.148808417289949
376,-3.8338840651631587,-3.727755325446682,-6.596355715413555,-3.862079409649223
377,-3.533251730823504,-3.1702177580007715,-5.893831971750275,-3.5594728105740074
378,-3.216162112619915,-2.5899638952779553,-5.159133363703488,-3.241035126687014
379,-2.883033740965899,-1.987953161402402,-4.39293642212119,-2.9068937144165954
380,-2.534469320154985,-1.365471064104266,-3.596136868169677,-2.55725148308736
381,-2.1712546559001225,-0.7241507536464611,-2.7698394246903595,-2.1923804868980756
382,-1.794354810152787,-0.06599380064655296,-1.915344338138025,-1.812614710151401
383,-1.404907594169721,0.6066096489013073,-1.034131120130266,-1.4183423742305281
384,-2.1557190505442892e-13,-1.477931008991562e-12,-5.792234581117875e-14,-1.4958612907000665e-13
385,-4.717330791918944e-12,-3.226175618655141e-11,-1.1680324740233808e-12,-3.310205685842531e-12
386,-5.6080245491138625e-11,-3.841818552566215e-10,-1.3636876664620077e-11,-3.936946629181265e-11
387,-4.452638989604675e-10,-3.0637674392089513e-09,-1.0681311019725053e-10,-3.1266669651856286e-10
388,-2.6596020390923506e-09,-1.841134271685018e-08,-6.299654079477231e-10,-1.86633819025935e-09
389,-1.2785270360069079e-08,-8.917399498582571e-08,-2.9921884305266068e-09,-8.957687360829494e-09
390,-5.168446465077454e-08,-3.636191078304623e-07,-1.1958645193963822e-08,-3.612141723254898e-08
391,-1.812370347667462e-07,-1.2871876964448437e-06,-4.1483100836292226e-08,-1.26241946762329e-07
392,-5.642236738862225e-07,-4.047113486615837e-06,-1.278344521388602e-07,-3.914147046897331e-07
393,-1.5878021766014424e-06,-1.150338562853192e-05,-3.563428726714328e-07,-1.0963439604087758e-06
394,-4.097407764749184e-06,-2.9975803961735727e-05,-9.116232373443456e-07,-2.814667565584423e-06
395,-9.809198213555528e-06,-7.242864855530928e-05,-2.1657620565173623e-06,-6.701812943635138e-06
396,-2.1994120150872504e-05,-0.00016379337288460744,-4.8248109722697245e-06,-1.4943339997721572e-05
397,-4.655377860130064e-05,-0.00034938125472960477,-1.0161093298596916e-05,-3.145436765409652e-05
398,-9.363526693856413e-05,-0.0007075424523534141,-2.036723294363987e-05,-6.292231781158417e-05
399,-0.00017995608546202658,-0.0013679022978533553,-3.9077150255920694e-05,-0.00012030018721421127
400,-0.0003320280828106954,-0.0025366254586301653,-7.210894625033954e-05,-0.00022086904400434601
401,-0.0005904779006673739,-0.004530200355737576,-0.00012849377385169201,-0.00039099465885077274
402,-0.0010156579546682309,-0.00781917970419275,-0.0002218624841968642,-0.0006697025705885275
403,-0.001694724430402389,-0.013083143207290211,-0.00037226704763594463,-0.0011131872788780243
404,-0.0027503258192723874,-0.021277856986760157,-0.0006085156337026421,-0.001800353953939635
405,-0.004350996843385552,-0.03371519071432407,-0.0009710982025817197,-0.0028394648834209877
406,-0.006723288888584356,-0.0521558252409912,-0.001515773248969736,-0.004375928150922114
407,-0.010165590852614587,-0.0789141564623894,-0.0023178760007085686,-0.006601223452409608
408,-0.015063505945841618,-0.11697409822301062,-0.0034773941724761262,-0.009762910480971753
409,-0.021906553434840152,-0.17011373749464634,-0.0051248396142138395,-0.014175610186600589
410,-0.03130586315795149,-0.24303603282263792,-0.007427923063134673,-0.0202327899921741
411,-0.044012428940238095,-0.34150200902542394,-0.010599014721116306,-0.02841912260626114
412,-0.06093538921802925,-0.4724622253147875,-0.014903345448079782,-0.039323126609586
413,-0.0831597138246389,-0.6441817174127169,-0.020667871964627438,-0.05364973792175185
414,-0.11196259953328705,-0.8663531711450778,-0.02829069481811455,-0.07223240715213325
415,-0.14882781796908442,-1.150192805152912,-0.03825088059721557,-0.09604427139094733
416,-0.1954572219500314,-1.5085133475912422,-0.05111850106335757,-0.12620791293893388
417,-0.2537786037401101,-1.9557686026484578,-0.06756466308034578,-0.1640031944479247
418,-0.32594911388615944,-2.5080644261420098,-0.08837126647691898,-0.21087265229971497
419,-0.4143534940816396,-3.183131465625091,-0.11444019453986883,-0.2684239396591448
420,-0.5215964525891631,-4.000255761186086,-0.14680161597289043,-0.33842883877500657
421,-0.6504886157455196,-4.980164232007459,-0.1866210598593947,-0.4228184093746713
422,-0.804025622363707,-6.144863166736974,-0.2352049179652622,-0.5236739062704847
423,-0.9853600865740519,-7.517429062040658,-0.29400403258755065,-0.6432131836118351
424,-1.1977663346941034,-9.121752477024188,-0.36461504348684404,-0.7837724037498884
425,-1.444598017799167,-10.98223695095453,-0.4487791939855317,-0.9477829827472577
426,-1.729238907529138,-13.123456424559926,-0.5483783331221623,-1.1377438286905062
427,-2.0550473913230736,-15.569775966593946,-0.6654278961500839,-1.3561890589935373
428,-2.42529538726632,-18.344941893113273,-0.8020666973578507,-1.6056515141158565
429,-2.8431025904649383,-21.471648534703284,-0.9605434244821007,-1.8886225125267924
430,-3.31136713496528,-24.97108991761445,-1.1431997801417957,-2.2075084102401124
431,-3.8326939010133727,-28.862505443933326,-1.352450270298552,-2.5645846330159463
432,-4.409321811224494,-33.16272925461981,-1.5907586908490474,-2.96194793615269
433,-5.043051536641011,-37.885753315139475,-1.860611409884056,-3.4014677122757155
434,-5.735175071813532,-43.04231436126193,-2.1644875844173344,-3.884737209307248
435,-6.4864086356847075,-48.63951467456582,-2.50482648666606,-4.413025537700686
436,-7.296830312592011,-54.68048622281708,-2.8839921470061007,-4.987231338152423
437,-8.16582376716642,-61.16410700616756,-3.304235549806835,-5.6078389497289685
438,-9.09202925177357,-68.08477750883618,-3.767654646203826,-6.27487786613179
439,-10.073302980154606,-75.43226398593674,-4.276152476567579,-6.9878861980130775
440,-11.106685771819263,-83.19161393959101,-4.831393727195942,-7.745878775843242
441,-12.188381685044316,-91.34314758490984,-5.434760082696144,-8.5473204352047
442,-13.313747159018725,-99.86252740624684,-6.0873047792952315,-9.390104929037962
443,-14.47729098481446,-108.72090609245234,-6.789706815862599,-10.271539813564562
444,-15.672685227203825,-117.88515125538852,-7.542225338750268,-11.188337560105095
445,-16.8927870310235,-127.31814342096938,-8.34465478264518,-12.136613056837442
446,-18.12967107210645,-136.97914188213292,-9.196281420500346,-13.11188758494639
447,-19.37467225806466,-146.82421116723714,-10.095842048441385,-14.109099284032494
448,-20.618438151543437,-156.80669915681236,-11.041485602838309,-15.12262006268285
449,-21.850990479823814,-166.8777563295082,-12.030738572515284,-16.14627886154816
450,-23.061795010333366,-176.98688428794665,-13.060475125070553,-17.173391137147945
451,-24.239839010981463,-187.0825006591061,-14.12689290809,-18.196794403324148
452,-25.373715475374755,-197.112506730191,-15.225495509271786,-19.208889641666524
453,-26.451713273014633,-207.02484381178766,-16.351082559912857,-20.201688369866705
454,-27.46191237985661,-216.76802434859653,-17.49774843993974,-21.16686513513625
455,-28.392283350899085,-226.2916242457295,-18.658890486317272,-22.095815175846447
456,-29.23079020930323,-235.546723753347,-19.82722751762429,-22.97971696590731
457,-29.965495941532808,-244.48628554683575,-20.99482936427797,-23.809599320993996
458,-30.584669801069612,-253.06546033026473,-22.15315793605885,-24.576412701974974
459,-31.076895630868712,-261.241812337857,-23.293120167488837,-25.271104297864323
460,-31.4311804140648,-268.97545945680906,-24.405132960076045,-25.884696408106937
461,-31.637062251687293,-276.2291252765538,-25.479199992835927,-26.40836757261948
462,-31.684716944535566,-282.9681031049488,-26.505000004578406,-26.83353581918845
463,-31.565062324307394,-289.160134793103,-27.47198587012462,-27.1519433137377
464,-31.26985943801422,-294.775209985096,-28.36949350565801,-27.35574161237276
465,-30.79180964206857,-299.7852940630257,-29.186859354139735,-27.437576628167136
466,-30.124646611443012,-304.16399550038983,-29.91354492864825,-27.390672343875654
467,-29.26322221895096,-307.88618548271285,-30.539266638043127,-27.20891222785675
468,-28.20358519452477,-310.9275844277142,-31.054128893540394,-26.886917248251923
469,-26.94305143922048,-313.2643313746851,-31.448758304089043,-26.42011933360567
470,-25.480264848523362,-314.87255306499554,-31.714436619599436,-25.804829100070936
471,-23.815247499174912,-315.727949870087,-31.84322997996815,-25.038296659215423
472,-21.94943807766637,-315.8054155244697,-31.828111979301323,-24.118764338863993
473,-19.88571748062562,-315.07870689147836,-31.663078062359272,-23.04551019444876
474,-17.628420600593028,-313.5201787486547,-31.343248836229936,-21.818881261372905
475,-15.183333427092341,-311.10059686402224,-30.864960005250463,-20.44031560052389
476,-12.55767474320812,-307.78904049573435,-30.225836820294333,-18.912352319073033
477,-9.760061881574735,-303.5529029503444,-29.424851172150966,-17.238628906026463
478,-6.800460218989194,-298.35799605482157,-28.46235974867223,-15.423865404767632
479,-3.690116332735688,-292.1687614181867,-27.34012201096095,-13.47383515030526
480,-0.4414750099120939,-284.9485882694621,-26.061297118084543,-11.395322023507081
481,2.9319194117232787,-276.6602345511659,-24.630419334437047,-9.196064413869928
482,6.4155365927490715,-267.2663449132429,-23.053351879906266,-6.884686331331721
483,9.993987546059222,-256.73005637944556,-21.337219620819287,-4.470616360788039
484,13.651164405890684,-245.0156798294189,-19.490321439303468,-1.9639954045268635
485,17.370390925709938,-232.0894431297488,-17.52202355016336,0.6244255982456112
486,21.13458173921677,-217.9202798203667,-15.442635447630579,3.2833965552639266
487,24.926408163832775,-202.48064577133871,-13.263270549594186,6.001286078065873
488,28.72846810363276,-185.7473452080117,-10.995693954762318,8.766204495745333
489,32.523457426229605,-167.70234698416044,-8.652160029877049,11.566130054162572
490,36.29434005257912,-148.33357197260148,-6.245242791769176,14.3890362091316
491,40.02451391615386,-127.63563293521226,-3.7876622360718613,17.22301784162033
492,43.697969923450486,-105.6105092095093,-1.2921098856515922,20.05641418561303
493,47.299441084935545,-82.26813997354914,1.2289231162636456,22.877926267576974
494,50.814539086291916,-57.62692167952238,3.763312062484773,25.67672671193166
495,54.22987573447018,-31.714097423323075,6.299455672427302,28.442559869837076
496,57.533166940070224,-4.566028478517069,8.826420961473499,31.165830378045975
497,60.713317183686144,23.771659101778223,11.334073160064104,33.837678448281515
498,63.760482754010916,53.24405709683297,13.813188141214788,36.45004042215189
499,66.66611243310732,83.78708834737634,16.255545158075073,38.995693397431964
500,69.42296473133987,115.32774913856376,18.653998083666988,41.46828303311861
501,72.0251012319297,147.784476491818,21.0025237744645,43.862333966706395
502,74.46785608292308,181.0676334918554,23.296246638633438,46.173242620691646
503,76.74778216188837,215.08010336172438,25.5314389686467,48.3972525289836
504,78.86257492485962,249.71798085479634,27.705497086409853,50.53141267000984
505,80.81097542492569,284.8713477039478,29.81689383667151,52.57351964417608
506,82.59265443673294,320.42511739067174,31.865108441152465,54.52204487148818
507,84.20808004087785,356.2599333965131,33.85053518165872,56.37604830343984
508,85.65837139727836,392.25310439162126,35.77437280616787,58.13508043503139
509,86.94514176057403,428.2795595057478,37.638496939001875,59.79907466193346
510,88.07033405595139,464.212806911032,39.445318117199584,61.36823224897016
511,89.03605253432347,499.9258794093356,41.19762836368106,62.842902354691354
512,-6.248074651580215e-14,3.3185877490916994e-13,-5.632859451043972e-14,-7.372565226439707e-14
513,-1.4528254836293572e-12,7.305063145119324e-12,-1.2075567287722787e-12,-1.6824507637464384e-12
514,-1.7334596537755257e-11,8.690249470901071e-11,-1.4474075773526663e-11,-1.9803403393264183e-11
515,-1.3746542367406746e-10,6.917020364512065e-10,-1.1637366830085692e-10,-1.5508962742835497e-10
516,-8.166615804299668e-10,4.1481821347730114e-09,-7.050316257196814e-10,-9.108183765236432e-10
517,-3.88848898117922e-09,2.0048146789329965e-08,-3.44059858903929e-09,-4.292104039633951e-09
518,-1.5504464140694035e-08,8.156475393426349e-08,-1.4121611630744342e-08,-1.6958947874591213e-08
519,-5.340531817728522e-08,2.8805254444975756e-07,-5.0252412629553954e-08,-5.796546355690346e-08
520,-1.6267917727357468e-07,9.034440401664997e-07,-1.5859541173492653e-07,-1.7545546452516736e-07
521,-4.4633514118941347e-07,2.5612827015696985e-06,-4.517747104294889e-07,-4.790182813547714e-07
522,-1.1193875829893278e-06,6.656206232867128e-06,-1.1780181831870249e-06,-1.1970569273301138e-06
523,-2.5974460116547828e-06,1.603751957945533e-05,-2.844189192803585e-06,-2.7712677597164765e-06
524,-5.632814393876817e-06,3.616097073695587e-05,-6.4189659188042714e-06,-6.002967021076812e-06
525,-1.1512641719275553e-05,7.68964418282857e-05,-1.3649831534543795e-05,-1.2268316351016492e-05
526,-2.233456562184765e-05,0.00015522746067818087,-2.753382043290034e-05,-2.3821273156258664e-05
527,-4.137539201372991e-05,0.0002991081326170585,-5.2987090136243277e-05,-4.420410223965393e-05
528,-7.356752133188075e-05,0.0005527591529291905,-9.7761758963919e-05,-7.878535777000523e-05
529,-0.00012609597299913507,0.000983682336720358,-0.00017365953381529316,-0.0001354442709150881
530,-0.00020912590734277746,0.0016916488887402058,-0.0002980899926586779,-0.00022541838636187648
531,-0.00033666644224175445,0.002819868059362617,-0.0004960166197148976,-0.00036432800212407335
532,-0.0005275712870165372,0.004568469112947347,-0.000802325594574054,-0.0005733863916448021
533,-0.0008066703330384065,0.007210331627813656,-0.0012646408816980909,-0.0008807988646839988
534,-0.0012060190329334062,0.011109179745819408,-0.0019465945530534605,-0.0013233464647420645
535,-0.0017662444484755817,0.016739719423141855,-0.0029315439141180955,-0.0019481416004313503
536,-0.0025379585826856787,0.024709449742386244,-0.004326707446121822,-0.0028145333445046463
537,-0.00358320140473109,0.03578162678481566,-0.006267670432594764,-0.003996129793616523
538,-0.004976868267115621,0.05089870902298311,-0.008923188994727061,-0.005582894202148378
539,-0.0068080697345141985,0.0712054745989268,-0.012500198674459955,-0.007683261185825641
540,-0.009181366777572643,0.09807088103968964,-0.017248911254851004,-0.010426209843821926
541,-0.012217821386297376,0.13310764428699048,-0.023467861883385874,-0.013963222884112243
542,-0.01605580236951042,0.17818845291091462,-0.03150874864013058,-0.018470055380092797
543,-0.020851488722176046,0.2354577104141082,-0.04178088954512661,-0.02414823411866575
544,-0.02677901857991567,0.30733771757438394,-0.054755108851785174,-0.03122620892678187
545,-0.034030240344376336,0.3965282701425608,-0.07096685657862686,-0.03996008097620167
546,-0.0428140337092677,0.5059987554608522,-0.09101836371968344,-0.05063383971717565
547,-0.05335518147082675,0.6389719834013656,-0.1155796412893449,-0.06355904942068279
548,-0.06589278746066472,0.7988991793284113,-0.1453881447370057,-0.07907393782522619
549,-0.08067825096935086,0.9894257947007898,-0.1812469462796592,-0.09754185255307309
550,-0.09797282296615974,1.2143480480129152,-0.22402128586981374,-0.11934906524582249
551,-0.11804478366062579,1.4775603872289358,-0.27463340600387703,-0.14490191823933665
552,-0.1411662939547478,1.7829943558370454,-0.33405561530154193,-0.17462332354735544
553,-0.1676099846457394,2.134549638564146,-0.4033015695410087,-0.2089486385214259
554,-0.19764535651657955,2.53601834972228,-0.48341580537367534,-0.24832095649471755
555,-0.23153507146302546,2.991003897222514,-0.575461610037345,-0.2931858638131237
556,-0.2695312193872783,3.502835999004199,-0.6805073588338474,-0.3439857268004769
557,-0.31187164761254826,4.0744836372484095,-0.7996114997162025,-0.4011535833252795
558,-0.35877643895916417,4.708467901567306,-0.9338064097561675,-0.4651067236932074
559,-0.4104446213727445,5.4067767889726515,-1.0840813901538608,-0.5362400545691353
560,-0.46705118619627517,6.1707840908973015,-1.2513651033559454,-0.61491934751127
561,-0.5287444839717462,7.0011745025877765,-1.436507786333439,-0.7014744803843452
562,-0.5956440562068119,7.897877036246955,-1.6402635968368109,-0.7961927852167878
563,-0.667838949051322,8.860008706601999,-1.863273463449758,-0.899312619730683
564,-0.7453865405910505,9.88583028806892,-2.106048814791376,-1.0110172815769372
565,-0.8283118978938923,10.972715720034792,-2.3689565579248253,-1.1314293840903353
566,-0.9166076635481741,12.117136466191402,-2.652205660938708,-1.2606058100329243
567,-1.0102344547851723,13.314661821953205,-2.9558356701232396,-1.3985333552363053
568,-1.1091217419947976,14.559975818598385,-3.2797074587807433,-1.545125167222148
569,-1.2131691581853319,15.84691100268877,-3.6234964632956648,-1.7002180747503968
570,-1.3222481773778691,17.168498984061586,-3.9866886135804895,-1.8635708928230998
571,-1.436204088666006,18.517037255195717,-4.368579110450337,-2.0348637739609754
572,-1.5548581841552787,19.884171399144677,-4.7682741430075835,-2.2136986605423474
573,-1.6780100734804944,21.260991432482278,-5.184695576019987,-2.3996008746223034
574,-1.8054400351891184,22.63814068342086,-5.616588571997274,-2.592021860983309
575,-1.936911315987839,24.00593529236118,-6.062532046834904,-2.7903430763988384
576,-2.0721722926178936,25.354492150643466,-6.5209517932817125,-2.9938809935654813
577,-2.210958417813762,26.67386287008232,-6.990136044985697,-3.201893162357618
578,-2.35299388119517,27.95417120658621,-7.468253197373057,-3.4135852445939014
579,-2.4979929277767936,29.185751249955707,-7.953371351899888,-3.628118912137952
580,-2.645660790742716,30.359283641502795,-8.443479308821797,-3.8446204728001234
581,-2.7956942108388225,31.465927092587414,-8.936508601744286,-4.062190065178095
582,-2.9477815316874145,32.497442550192744,-9.430356145620477,-4.279911243309922
583,-3.1016023779142747,33.44630748847539,-9.9229070588902,-4.496860755812024
584,-3.2568269405344314,34.3058179946932,-10.412057220043934,-4.712118312952294
585,-3.413114910912865,35.07017655962519,-10.895735128664349,-4.924776129640673
586,-3.5701141201786917,35.73456377098649,-11.371922660351263,-5.133948033148982
587,-3.7274589546367203,36.29519243680703,-11.838674333123539,-5.338777931724324
588,-3.884768628953786,36.74934302679753,-12.2941347390281,-5.538447454030746
589,-4.041645407285108,37.09537970516257,-12.73655383771329,-5.73218258917133
590,-4.1976728678130915,37.3327466293997,-13.164299857404993,-5.9192591823505305
591,-4.352414308341034,37.461944597292565,-13.57586960168611,-6.0990071713260114
592,-4.505411389675989,37.48448852944562,-13.969896016306377,-6.270813482790788
593,-4.656183109666783,37.4028466683705,-14.345152927586714,-6.434123544663693
594,-4.804225194100839,37.220362748776395,-14.700556921633147,-6.588441408752718
595,-4.949009981437669,36.94116273942402,-15.035166390553409,-6.73332851712848
596,-5.08998686685738,36.57004806753842,-15.348177827412933,-6.868401183528643
597,-5.226583357643321,36.11237750613334,-15.638919505195114,-6.99332689696135
598,-5.358206776818059,35.57394012748732,-15.906842726060903,-7.107819587203463
599,-5.484246635554173,34.96082189832792,-16.15151087526124,-7.211634020038498
600,-5.604077677584629,34.27926861105624,-16.37258655861129,-7.304559512968262
601,-5.717063581087279,33.53554790879057,-16.56981714287043,-7.386413179073377
602,-5.822561285750534,32.73581316951669,-16.743019053972095,-7.457032917185375
603,-5.919925895305796,31.885971966781334,-16.892061217996325,-7.516270370244149
604,-6.008516089012715,30.991561722868493,-17.01684805316725,-7.563984070555594
605,-6.087699959620166,30.057635018052046,-17.117302437003776,-7.600032980818835
606,-6.156861180397888,29.088656820085145,-17.193349080044825,-7.624270623732845
607,-6.215405390151475,28.088415656197785,-17.244898735327762,-7.6365399714266085
608,-6.262766672942204,27.05995047088027,-17.271833660149117,-7.636669239764237
609,-6.29841399882217,26.0054946025882,-17.273994722932688,-7.624468702765898
610,-6.321857483610665,24.92643797763333,-17.251170512984764,-7.5997286100697625
611,-6.332654319981644,23.823308266680257,-17.203088764744066,-7.562218256704472
612,-6.330414229350942,22.695771385404015,-17.129410351640814,-7.51168622057575
613,-6.314804284708965,21.54265135298374,-17.029726039287002,-7.44786175001522
614,-6.285552959081971,20.361969157127458,-16.903556115405905,-7.370457252382908
615,-6.242453263084952,19.15099991891956,-16.750352937078535,-7.279171805839435
616,-6.185364848276507,17.906347311283735,-16.569506357219986,-7.17369559069435
617,-6.11421497076995,16.624033867115454,-16.360351914492128,-7.053715114758943
618,-6.028998231619596,15.299605522482079,-16.12218159686445,-6.9189190893036425
619,-5.929775036548111,13.928248481429168,-15.854256921339877,-6.769004798830306
620,-5.8166687471860445,12.504916265952064,-15.555824013276691,-6.603684799127724
621,-5.689861528686621,11.024464631004143,-15.226130320209615,-6.422693774151042
622,-5.5495889338138955,9.481791882739472,-14.864442558607514,-6.225795383252263
623,-5.396133300698294,7.871982040524567,-14.47006546857669,-6.012788936174577
624,-5.229816079551768,6.1904482308506505,-14.042360941496588,-5.783515743847964
625,-5.050989241705545,4.433073694601014,-13.580767088682192,-5.537865008086474
626,-4.860025961195719,2.5963478278688052,-13.084816834511612,-5.275779132342157
627,-4.657310793459709,0.6774947595890017,-12.554155643615108,-4.9972583581046965
628,-4.443229606108795,-1.3254079051751666,-11.98855802688601,-4.702364656566163
629,-4.218159541820008,-3.413322381883052,-11.387942513215652,-4.391224831912325
630,-3.9824593119406324,-5.586158046264304,-10.752384820904506,-4.064032820178117
631,-3.7364601305345992,-7.84269458470521,-10.08212901272642,-3.7210511952357535
632,-3.4804576017755124,-10.180522458140201,-9.377596469969777,-3.362611920486632
633,-3.2147048685274497,-12.59600189309811,-8.639392572157073,-2.989116410553654
634,-2.9394073165526744,-15.084241304613759,-7.868311019618949,-2.6010349910370483
635,-2.654719107075992,-17.639095732147698,-7.065335785016418,-2.1989058654630877
636,-2.360741780564845,-20.253185536774378,-6.231640726758042,-1.7833337161222131
637,-2.05752513679283,-22.917935271213832,-5.368586941546054,-1.3549880787015267
638,-1.745070550854354,-25.623632299427907,-4.477717974403435,-0.9146016385534759
639,-1.4233368321862214,-28.359504415147352,-3.560753041716485,-0.4629685981968287
640,-8.359218555364008e-14,8.544319349461497e-14,-9.8075955090522e-14,-7.677390945227375e-14
641,-1.9419856042468787e-12,1.841500501952586e-12,-2.144003184049621e-12,-1.7473133596527927e-12
642,-2.3199431904940497e-11,2.1883434074176993e-11,-2.535734516562003e-11,-2.079594419994799e-11
643,-1.844864412257674e-10,1.7423051602690275e-10,-2.0054186418062117e-10,-1.6493621217033739e-10
644,-1.1006965626777628e-09,1.0453858019798164e-09,-1.1938832430799288e-09,-9.821918155852797e-10
645,-5.270850400171837e-09,5.055996356322238e-09,-5.723404171229474e-09,-4.698190993789091e-09
646,-2.116448368391775e-08,2.059073531830208e-08,-2.308300736050081e-08,-1.8860300592193474e-08
647,-7.35033450020002e-08,7.281454114935402e-08,-8.077896832716927e-08,-6.554220913561017e-08
648,-2.2598520958280402e-07,2.287552995117228e-07,-2.510129987819599e-07,-2.0181243696102958e-07
649,-6.263447752470995e-07,6.498207889545647e-07,-7.051177165425151e-07,-5.60664221925488e-07
650,-1.5879459973435216e-06,1.6926241091689219e-06,-1.816297484794664e-06,-1.4259074452104665e-06
651,-3.7266629796810474e-06,4.0886948198102695e-06,-4.340066405598401e-06,-3.359368777464176e-06
652,-8.176171181550574e-06,9.244867522508648e-06,-9.712269673569167e-06,-7.4037728229135835e-06
653,-1.6908429413782694e-05,1.9718032935097873e-05,-2.0515887610538437e-05,-1.538944389375211e-05
654,-3.318854714617828e-05,3.992940215725533e-05,-4.1178981253369206e-05,-3.0376966334894663e-05
655,-6.219387977151967e-05,7.71932001299964e-05,-7.897585740678757e-05,-5.727063431181496e-05
656,-0.00011182564888324476,0.0001431414501440218,-0.00014541031540725452,-0.00010363840450881207
657,-0.00019373736645286158,0.00025562898992962036,-0.00025806217135756956,-0.00018077270923740123
658,-0.00032459772750571966,0.00044119999668628,-0.0004429748098547901,-0.00030502255659486623
659,-0.0005275964485367919,0.0007381882787904521,-0.0007376513369773827,-0.0004994206102755251
660,-0.0008341899599422964,0.0012005079269023782,-0.0011947095552942435,-0.0007956193308131321
661,-0.0012860703176149177,0.0019021684941716113,-0.001886221574008341,-0.0012361379145479452
662,-0.0019373258180154225,0.002942519987659491,-0.002908733088427186,-0.001876907060756921
663,-0.0028567463874213843,0.0044521983142056,-0.004388921399297084,-0.002790082085020096
664,-0.004130211738110533,0.0065997025549185085,-0.0064898116801454945,-0.004067077223562836
665,-0.005863086391847841,0.009598493035646681,-0.009417429697366536,-0.005821755818875253
666,-0.008182533763506654,0.013714455411431015,-0.01342772812879119,-0.008193693147309777
667,-0.011239652306832874,0.019273532897078605,-0.018833584786309993,-0.011351411684009287
668,-0.0152113308739002,0.026669288466423344,-0.026011636276589853,-0.015495473355973562
669,-0.020301718389799425,0.03637012342510901,-0.03540868158358992,-0.020861300548486165
670,-0.026743204966015195,0.048925850263697064,-0.04754736816670234,-0.027721588004773964
671,-0.03479681776826477,0.06497329797720482,-0.0630308596897051,-0.03638816196040554
672,-0.04475194526180862,0.08524061870561472,-0.08254618053238455,-0.047213141506347395
673,-0.05692531765530464,0.11054996689081471,-0.10686593874932214,-0.060589260808014
674,-0.07165918903418377,0.14181823702995264,-0.13684814688575536,-0.07694921979162407
675,-0.08931868721731666,0.18005557391072083,-0.1734338894679228,-0.09676394541472634
676,-0.1102883200819134,0.22636140976806032,-0.21764262703067175,-0.12053966564599608
677,-0.1349676512544197,0.28191783535949716,-0.2705649786727298,-0.14881372359478523
678,-0.16376618294053652,0.347980175225551,-0.33335288725406825,-0.18214908946259165
679,-0.1970975085240305,0.42586470960164863,-0.4072071419027594,-0.22112756250807614
680,-0.2353728216044736,0.5169335643956022,-0.49336230949740534,-0.26634169314405687
681,-0.278993890528272,0.6225768738494621,-0.5930692078936235,-0.31838549552030143
682,-0.32834562736204337,0.74419240527175,-0.7075751362323685,-0.3778440622261573
683,-0.3837883968835894,0.883162918764446,-0.8381021588563927,-0.4452822336762821
684,-0.4456502238321506,1.0408316143984238,-0.9858238162213282,-0.521232513816421
685,-0.5142190648136648,1.2184760921435904,-1.1518407058072433,-0.6061824594536371
686,-0.5897353145635301,1.417281313564016,-1.3371554356788928,-0.700561801294754
687,-0.6723847146781265,1.6383121066402546,-1.542647500587846,-0.8047295793765652
688,-0.762291826662711,1.882485794208295,-1.7690486633652276,-0.9189615929527369
689,-0.859514220625424,2.1505455509303957,-2.0169194413385845,-1.0434384742807754
690,-0.9640375166869137,2.44303510241439,-2.2866272976935225,-1.1782346965892696
691,-1.075771398728019,2.7602753725526257,-2.5783271207398966,-1.32330881853624
692,-1.1945467000566143,3.1023436613582276,-2.8919445401503334,-1.4784952507436169
693,-1.3201136385560275,3.4690558960498112,-3.2271625791651672,-1.6434978048770594
694,-1.452141255479053,3.859952443876684,-3.583412076716899,-1.817885252859865
695,-1.59021808781289,4.27428790762439,-3.9598662350265084,-2.001089083977944
696,-1.7338540795532473,4.711025245707433,-4.355439558403112,-2.1924036018180746
697,-1.882483712788573,5.16883447034401,-4.768791349977259,-2.3909884523189278
698,-2.0354703157509477,5.64609608181204,-5.198333827437431,-2.5958736200133856
699,-2.19211148251162,6.1409092966036685,-5.642244809299356,-2.8059668732582073
700,-2.351645518342795,6.651105024855464,-6.09848481281816,-3.0200635824334943
701,-2.5132588064415855,7.174263450152026,-6.564818296501941,-3.2368587793501025
702,-2.676093976171113,7.707735965065838,-7.038838677504273,-3.4549612730424677
703,-2.83925874059933,8.24867112093269,-7.517996660098585,-3.672909588315083
704,-3.001835262163427,8.79404416260402,-7.9996313289061804,-3.889189450280196
705,-3.162889899827996,9.340689640354691,-8.481003392155875,-4.102252501861676
706,-3.3214831890170715,9.88533652363944,-8.959329908106803,-4.310535912753468
707,-3.4766799066161433,10.424645186592215,-9.431819793374485,-4.512482518236734
708,-3.627559077104122,10.955245594327423,-9.895709396090528,-4.7065611149351145
709,-3.7732237819666072,11.473775993133929,-10.348297419734205,-4.89128653809958
710,-3.9128106424822504,11.976921397057463,-10.786978504580496,-5.0652391511501484
711,-4.045498855258046,12.46145116823834,-11.209274811900245,-5.227083392490821
712,-4.170518670047296,12.924255008398395,-11.612865009678337,-5.375585046398735
713,-4.287159210034567,13.362376713354369,-11.995610125569986,-5.509626933292392
714,-4.394775545619507,13.773045090332825,-12.355575810598143,-5.62822274903131
715,-4.492794943526325,14.153701497843654,-12.69105064296598,-5.7305288221000215
716,-4.580722223577224,14.50202353838549,-13.000560192498535,-5.815853600475411
717,-4.658144165499054,14.815944513597112,-13.282876659926552,-5.883664725466498
718,-4.724732917545374,15.093668337813462,-13.537023999041205,-5.933593596602131
719,-4.780248367444296,15.333679697438475,-13.762278521616064,-5.965437378468011
720,-4.824539444231141,15.534749338174285,-13.958165073264126,-5.97915844606091
721,-4.857544327002621,15.695934458002968,-14.124448951801826,-5.974881308687125
722,-4.879289543796934,15.816574278974162,-14.261123817236777,-5.952887092897396
723,-4.889887951094508,15.896280963430765,-14.368395913360281,-5.913605701943428
724,-4.889535592388196,15.934926128508689,-14.446664984372811,-5.857605802551616
725,-4.878507443418902,15.932623294910295,-14.496502325318552,-5.785582819392839
726,-4.8571520624205755,15.88970668057939,-14.518626451721204,-5.698345143520622
727,-4.825885176309425,15.806706815712841,-14.513876911143791,-5.596798783343562
728,-4.785182248265278,15.684323511476839,-14.48318678697534,-5.481930705532002
729,-4.735570088503087,15.523396760037208,-14.4275544622195,-5.354791128799564
730,-4.677617587947121,15.324876177474824,-14.34801521818661,-5.216475045882495
731,-4.611925673532022,15.089789623472093,-14.245613239689463,-5.06810325832329
732,-4.539116603347636,14.819211642156189,-14.121374584715078,-4.910803214840652
733,-4.459822739131206,14.51423236719786,-13.97628165288615,-4.745689947092243
734,-4.374674951992348,14.175927521399087,-13.811249653781433,-4.573847396460164
735,-4.284290834034925,13.80533011694481,-13.627105533889432,-4.396310422045033
736,-4.1892629030216915,13.403404427798204,-13.42456977020522,-4.2140477732571995
737,-4.090146998754428,12.971022761102278,-13.204241379894178,-4.027946300161907
738,-3.9874510778528722,12.50894550077313,-12.966586429830194,-3.8387966610320636
739,-3.8816246176821454,12.017804834711782,-12.711930258213373,-3.647280769402345
740,-3.7730488399976547,11.49809250830127,-12.440453544267402,-3.4539612023347575
741,-3.662027960249125,10.950151872246996,-12.152192282937936,-3.2592727676153013
742,-3.5487816593185277,10.374174413584722,-11.847041641533897,-3.0635164002213022
743,-3.433438960811035,9.770200876102058,-11.524763596417525,-2.866855527706733
744,-3.3160336790831,9.138126991827141,-11.184998172083269,-2.669315010331005
745,-3.1965015813184947,8.477713759999776,-10.827278033956526,-2.4707827250894505
746,-3.0746793815690365,7.788602125448171,-10.451046121398186,-2.2710138236491564
747,-2.9503056562334105,7.070331825937051,-10.055675949878664,-2.0696376529884786
748,-2.8230237394874074,6.322364099193856,-9.640494162057813,-1.8661672848321904
749,-2.692386624296697,5.544107866266431,-9.204804867406859,-1.6600115564466813
750,-2.557863860453121,4.734948939846522,-8.747915279735862,-1.450489481775529
751,-2.418850406156307,3.8942817453400216,-8.269162142065493,-1.236846849029367
752,-2.274677354536131,3.0215429898034443,-7.767938418979662,-1.0182747794264553
753,-2.1246244216677086,2.116246670312933,-7.243719737893498,-0.793929982494204
754,-1.96793404854978,1.1780197797023775,-6.696090072254533,-0.5629564068311056
755,-1.8038269366566162,0.20663804461420607,-6.124766180990264,-0.32450795209842687
756,-1.631518805434229,-0.7979389809361199,-5.529620348733366,-0.07777187882922647
757,-1.4502381308425252,-1.835534143282434,-4.910701009527145,0.1780074720271496
758,-1.2592445971031339,-2.905720902847959,-4.268250881720375,0.44350505744568725
759,-1.0578479696338778,-4.007794174375597,-3.602722292384162,0.7192920298761807
760,-0.8454270762738771,-5.140744397817891,-2.9147894245608086,1.005813582444399
761,-0.6214485669404061,-6.30323539615043,-2.2053572787358204,1.3033681700576423
762,-0.38548510946568376,-7.4935865176107885,-1.47556719990389,1.612088526583112
763,-0.13723267222904856,-8.709759491286858,-0.7267988823309685,1.9319248818570505
764,0.12347345695893015,-9.94935034787692,0.03933117549583905,2.2626307573185267
765,0.3966442607759041,-11.209586673319853,0.8209747342382754,2.6037516855581746
766,0.6821245235043666,-12.487330373499974,1.6160603072975595,2.9546171573313043
767,0.9795826156081303,-13.779086035124612,2.422304943282033,3.3143360502045125
768,-7.52401658326716e-14,-3.2185663419169324e-15,-5.708719131393442e-14,-8.768223061088763e-14
769,-1.741327556036529e-12,-6.250240988167222e-14,-1.1946914209907275e-12,-2.0258180705180984e-12
770,-2.0831788082410937e-11,-7.304808312651512e-13,-1.4173312176214945e-11,-2.4067597122512095e-11
771,-1.657722086467674e-10,-5.683405952067394e-12,-1.1297915979817536e-10,-1.9033262567109674e-10
772,-9.888728456590043e-10,-3.3073517791309036e-11,-6.800427384712096e-10,-1.1293421353526081e-09
773,-4.730499610955838e-09,-1.5381652371330988e-10,-3.305377314260881e-09,-5.378917621666122e-09
774,-1.895984601116546e-08,-5.969266965073685e-10,-1.3548911998202518e-08,-2.1486043804757776e-08
775,-6.567668758845871e-08,-1.9929015969340837e-09,-4.828393426591195e-08,-7.424987940322813e-08
776,-2.0126742254373239e-07,-5.856318843428144e-09,-1.5300407493365727e-07,-2.2721353880637301e-07
777,-5.557112879434642e-07,-1.542040954649465e-08,-4.3866793072942206e-07,-6.270051966002477e-07
778,-1.4028442359105388e-06,-3.691095220884063e-08,-1.153614125649299e-06,-1.5832110575264392e-06
779,-3.2769539727857442e-06,-8.127831258994413e-08,-2.8138111808999708e-06,-3.701750563624631e-06
780,-7.1541333421278154e-06,-1.663124725239638e-07,-6.423918045810449e-06,-8.093766546100014e-06
781,-1.471931816268484e-05,-3.1899139434212476e-07,-1.3831709746421623e-05,-1.6685351083803977e-05
782,-2.8741480783054646e-05,-5.779232567991537e-07,-2.826846182689698e-05,-3.2655504161307433e-05
783,-5.3579822796854585e-05,-9.959069644372976e-07,-5.5136753355302175e-05,-6.103011519645806e-05
784,-9.584290823060754e-05,-1.643006113401112e-06,-0.00010311358345262554,-0.00010945812534928494
785,-0.0001652205120857636,-2.611127787727343e-06,-0.0001856394524787114,-0.00018919217215004376
786,-0.00027550458220455283,-4.02189047863995e-06,-0.00032286203977456,-0.0003162898705716661
787,-0.00044581114715680145,-6.040475712480879e-06,-0.0005440955004168335,-0.000513043498720312
788,-0.0007020092182932352,-8.89906619924759e-06,-0.0008908427607290807,-0.0008096354257942357
789,-0.001078355689345729,-1.2934244086257901e-05,-0.0014204084936840116,-0.001246004522273227
790,-0.0016193269343088433,-1.8643235835923223e-05,-0.0022101051045848564,-0.0018738955910163658
791,-0.002381628312320582,-2.6764066513151483e-05,-0.003362023860800285,-0.0027590502409932014
792,-0.0034363522460822025,-3.838450077943487e-05,-0.005008309411998716,-0.003983484319767793
793,-0.0048712441857604065,-5.5084128853863916e-05,-0.007316839806214464,-0.005647784746277438
794,-0.006793023985969562,-7.911317544021424e-05,-0.010497177362855256,-0.007873348052067635
795,-0.009329698550940025,-0.00011361067185435797,-0.014806620225868358,-0.010804474835478042
796,-0.012632790688478085,-0.00016286365277247848,-0.020556152005466146,-0.014610229265699652
797,-0.016879399614739166,-0.0002326081237947073,-0.028116059572762333,-0.019485971183394766
798,-0.02227400107530481,-0.0003303717615139913,-0.03792096866234044,-0.025654470462834096
799,-0.02904989013756303,-0.0004658576654189681,-0.05047403509914557,-0.033366519159121935
800,-0.037470167855320924,-0.0006513679333084519,-0.06635002747506985,-0.042900966426408754
801,-0.04782817462385664,-0.0009022652841542796,-0.08619704577993116,-0.05456411396274987
802,-0.06044727842484618,-0.0012374702836766508,-0.11073664016149225,-0.06868842535449328
803,-0.07567993544501452,-0.0016799908168406723,-0.14076212445256048,-0.08563052055597326
804,-0.09390595373439915,-0.0022574791989953707,-0.17713491966215814,-0.10576844616895055
805,-0.11552990751367166,-0.0030028106665239297,-0.2207788121180622,-0.12949823249144368
806,-0.14097767015963628,-0.0039546749381537995,-0.27267206778751196,-0.1572297688202411
807,-0.17069205731337467,-0.005158170154768747,-0.3338374065452046,-0.18938204856645768
808,-0.20512759727395474,-0.006665385919432229,-0.4053299055673135,-0.22637785475140984
809,-0.2447444730002639,-0.00853595955503816,-0.48822296718708036,-0.26863797382086757
810,-0.2900017076910076,-0.010837587292131148,-0.5835925509863391,-0.3165750409777366
811,-0.3413496930623562,-0.013646470118590331,-0.6924999302610481,-0.3705871330148371
812,-0.3992221850994873,-0.01704767267237705,-0.8159732871754253,-0.43105123461750877
813,-0.4640279152411514,-0.021135373002059497,-0.9549885071359926,-0.4983167110060415
814,-0.5361419847473667,-0.02601298135894735,-1.1104495697739827,-0.5726989233257355
815,-0.6158972256103082,-0.03179310744804936,-1.2831689603787408,-0.6544731231450557
816,-0.7035757221742467,-0.038597357714093714,-1.4738485409417361,-0.7438687586441837
817,-0.7994006931719208,-0.04655594718988147,-1.6830613236850969,-0.8410643175032368
818,-0.9035289338528307,-0.055807114090803696,-1.9112345818468741,-0.9461828201587025
819,-1.0160440121324084,-0.06649632961472149,-2.1586347126356977,-1.0592880621471017
820,-1.1369504012908642,-0.07877530022209345,-2.425354236020093,-1.18038168603982
821,-1.266168714970677,-0.09280076492907782,-2.7113012711121467,-1.3094011425391616
822,-1.403532188516041,-0.10873309569442674,-3.0161917804545477,-1.4462185773714094
823,-1.5487845246586243,-0.12673471459533975,-3.339544813004329,-1.5906406565179732
824,-1.7015791918986196,-0.1469683468824286,-3.680680910802781,-1.7424093180004494
825,-1.8614802315071186,-0.16959513386615613,-4.038723774196852,-1.9012034148762857
826,-2.027964594843807,-0.1947726336195166,-4.412605208070531,-2.066641192315717
827,-2.2004259976420064,-0.22265274044585415,-4.801073298859176,-2.238283522532432
828,-2.378180243016102,-0.2533795558067247,-5.202703701047368,-2.4156378056462726
829,-2.560471931062775,-0.28708724388711226,-5.615913844122518,-2.5981624327274617
830,-2.746482440840294,-0.3238979042532307,-6.038979808109636,-2.785271699508577
831,-2.9353390409214506,-0.3639194922852905,-6.470055559170183,-2.976341055498646
832,-3.1261249582271047,-0.4072438154748788,-6.9071941874026175,-3.1707125731885437
833,-3.317890211944306,-0.4539446305528123,-7.348370747783474,-3.367700525175319
834,-3.509663000424002,-0.5040758630841324,-7.791506272744428,-3.5665969627130103
835,-3.7004614144512096,-0.5576699679705268,-8.23449250158354,-3.766677196794268
836,-3.8893052406556077,-0.6147364465573762,-8.675216857981288,-3.9672050918732937
837,-4.075227614573712,-0.6752605340190364,-9.111587202441203,-4.167438092375339
838,-4.2572862843952155,-0.7392020695689031,-9.54155589151583,-4.366631912904133
839,-4.434574253953776,-0.8064945618717925,-9.963142690106322,-4.56404483430828
840,-4.606229587052431,-0.8770444627622223,-10.37445610666732,-4.758941559307135
841,-4.771444174492393,-0.9507306638153703,-10.773712753321002,-4.950596593071441
842,-4.929471289693638,-1.027404232211693,-11.159254372979106,-5.1382971259103405
843,-5.079631787811367,-1.106888404361465,-11.529562222699258,-5.321345406948959
844,-5.221318835849583,-1.1889788575703484,-11.883268555653734,-5.499060609316862
845,-5.354001096471719,-1.2734442812928302,-12.21916500221418,-5.6707801988715945
846,-5.477224325055691,-1.3600272699179745,-12.536207712709215,-5.835860829861748
847,-5.590611377132275,-1.4484455582781015,-12.833519189370895,-5.993678802191892
848,-5.693860660798783,-1.538393618933592,-13.110386801815084,-6.1436301260030115
849,-5.786743105128771,-1.6295446366017996,-13.366258047990838,-6.285130249920696
850,-5.869097750136772,-1.721552869780702,-13.600732689640019,-6.417613519248551
851,-5.940826095699671,-1.814056402671611,-13.813551956541964,-6.540532439254675
852,-6.0018853752550765,-1.9066802820231443,-14.004585075693024,-6.653356826158936
853,-6.052280944425086,-1.9990400236802806,-14.173813438601064,-6.755572934096378
854,-6.092057994341649,-2.0907454626896564,-14.321312770686378,-6.846682649807311
855,-6.121292813861562,-2.181404909121805,-14.447233710200818,-6.9262028477135065
856,-6.140083833682065,-2.2706295597208643,-14.551781239194321,-6.993664996092037
857,-6.148542688376676,-2.35803810352257,-14.635193435236154,-7.048615100055511
858,-6.146785529450059,-2.4432614481513437,-14.697720029446474,-7.090614058854097
859,-6.134924813634938,-2.5259474830725672,-14.73960126372015,-7.1192385035384405
860,-6.113061775930404,-2.605765787070728,-14.761047537771088,-7.134082166253825
861,-6.081279776632444,-2.682412180045194,-14.762220324824142,-7.1347578145239225
862,-6.039638686422946,-2.7556130142166957,-14.743214813513193,-7.120899763181658
863,-5.988170444295973,-2.82512909732651,-14.704044702909277,-7.092166953676317
864,-5.926875890718903,-2.8907591406515456,-14.64462953771252,-7.048246566070789
865,-5.855722944076175,-2.952342627871949,-14.564784921662527,-6.988858104048405
866,-5.774646153317796,-3.009762007178682,-14.464215889468935,-6.913757868727379
867,-5.683547625022184,-3.0629441185880544,-14.34251365163819,-6.822743714174093
868,-5.582299289868776,-3.1118607812297707,-14.199155853479965,-6.715659957339597
869,-5.470746442687629,-3.156528481262662,-14.033510410792992,-6.592402298720865
870,-5.348712462469694,-3.1970071197734033,-13.844842902201663,-6.452922598197114
871,-5.2160045944379645,-3.2333978011005975,-13.632327414190831,-6.2972333438495784
872,-5.072420655774905,-3.265839664924361,-13.395060652195783,-6.1254116505744856
873,-4.917756509977321,-3.29450578946691,-13.132079052378636,-5.937602630135663
874,-4.751814141986294,-3.319598217469077,-12.842378556575968,-5.7340219848976135
875,-4.574410156998875,-3.341342180407307,-12.52493664960787,-5.514957693503735
876,-4.385384519946512,-3.359979618877436,-12.178736205454221,-5.280770677702401
877,-4.1846093498017,-3.3757621174447205,-11.802790647904098,-5.031894364727338
878,-3.9719975830022705,-3.3889433898986843,-11.396169902795089,-4.768833088342408
879,-3.747511323276077,-3.399771465239403,-10.958026603060132,-4.492159302987737
880,-3.511169700968881,-3.4084807354806177,-10.487622004328802,-4.202509618461344
881,-3.263056073646434,-3.415284033253499,-9.984351077374841,-3.900579696276977
882,-3.0033244113436077,-3.420364910150341,-9.44776626367113,-3.5871180823348388
883,-2.7322047244828687,-3.4238702858219296,-8.877599410998878,-3.262919082954536
884,-2.4500074102530363,-3.425903633221594,-8.273781446673965,-2.92881482179852
885,-2.1571264140972897,-3.426518857350748,-7.6364593956345965,-2.5856666429367503
886,-1.8540411267455401,-3.4257150137330794,-6.9660104083924805,-2.234356049504571
887,-1.5413169636238004,-3.4234319989687423,-6.26305252850673,-1.875775387401856
888,-1.2196046019665807,-3.419547329417659,-5.528451999376615,-1.510818498644418
889,-0.8896378807927771,-3.413874105619538,-4.763326984085519,-1.1403715786978794
890,-0.5522303991040322,-3.406160239725007,-3.9690476478368146,-0.765304475807087
891,-0.2082708771186778,-3.396089001211272,-3.1472326280837115,-0.3864626674762132
892,0.14128262706103165,-3.3832809127127037,-2.299741990545972,-0.004660139524084769
893,0.4954095282972102,-3.367297003169905,-1.4286668377171365,0.37932662357434926
894,0.8530344149737317,-3.347643400003635,-0.536315798139767,0.7647633519348415
895,1.2130354854388263,-3.323777216029046,0.3748013220965656,1.1509612521007846
896,-5.2460110637630745e-14,2.5000513131561574e-15,-8.290967830819406e-14,-7.302971863696119e-14
897,-1.2186802860094686e-12,9.713320615879369e-14,-1.82826034843387e-12,-1.6952281699688811e-12
898,-1.4560919082013917e-11,1.2353589731619537e-12,-2.159694989360541e-11,-2.0137891136310316e-11
899,-1.1558314306392445e-10,1.0339478237942267e-11,-1.706226073447278e-10,-1.5913735971046014e-10
900,-6.86872276995947e-10,6.510074913240438e-11,-1.014851715741778e-09,-9.431910712509528e-10
901,-3.268931728157717e-09,3.3015485761424814e-10,-4.8617289210263286e-09,-4.485587240937207e-09
902,-1.301624902408657e-08,1.4085973196615755e-09,-1.9597822181097418e-08,-1.788390156367184e-08
903,-4.4729347988145e-08,5.211927724623814e-09,-6.855901248300103e-08,-6.16613807538925e-08
904,-1.3578946450860714e-07,1.7104678596091946e-08,-2.129912799227261e-07,-1.8819041915898804e-07
905,-3.70897062969966e-07,5.065633157533382e-08,-5.981934029771844e-07,-5.177541128689348e-07
906,-9.25043257134918e-07,1.372386552620313e-07,-1.5404765596729189e-06,-1.3029806425778342e-06
907,-2.1323587680675535e-06,3.438946239774309e-07,-3.679436993611397e-06,-3.0354925346318233e-06
908,-4.589201063967885e-06,8.042948447554619e-07,-8.228246794849973e-06,-6.6113887980338e-06
909,-9.299954898307665e-06,1.769031754788354e-06,-1.7362982199298728e-05,-1.3574250867783255e-05
910,-1.7873481311851597e-05,3.682766796603291e-06,-3.4799465698133095e-05,-2.645535220640314e-05
911,-3.2776931731802564e-05,7.29660372383379e-06,-6.66116202892709e-05,-4.923029864027655e-05
912,-5.765177106431394e-05,1.3824284300745247e-05,-0.00012234787333843827,-8.790915767336152e-05
913,-9.769441517026143e-05,2.5150197601083582e-05,-0.00021650083142988927,-0.00015127310521206424
914,-0.00016010101835878149,4.409561742395935e-05,-0.0003703796868470317,-0.00025176471491887255
915,-0.0002545727907809479,7.474695327167963e-05,-0.0006144243543814531,-0.00040653134694596324
916,-0.00039387493066385924,0.00012284611585299841,-0.0009909852471213102,-0.0006386118990313999
917,-0.0005944389923510433,0.00019623844777354166,-0.001557573252557906,-0.0009782468668245782
918,-0.0008769954828153306,0.0003053682406724411,-0.002390561494026785,-0.0014642807891999204
919,-0.001267220895592568,0.0004638059229408503,-0.0035892947096889836,-0.0021456154046626845
920,-0.0017963814164094647,0.0006887848862569985,-0.005280534602501761,-0.0030826619211145887
921,-0.002501954269870111,0.0010017199795935884,-0.007623141535197481,-0.004348732380785322
922,-0.003428207180026489,0.001428674291018959,-0.010812865834183392,-0.006031303820026237
923,-0.00462671672873864,0.002000736297831219,-0.015087097199598236,-0.008233085352599818
924,-0.006156807521105947,0.0027542661044864356,-0.020729399818276994,-0.011072817898489906
925,-0.008085895945957947,0.0037309675812874014,-0.028073645233875195,-0.014685739296018954
926,-0.01048972481478365,0.00497774299684652,-0.037507546191556315,-0.01922365399810559
927,-0.013452478099664076,0.006546288377634373,-0.04947539359877711,-0.024854556279320476
928,-0.017066768204074503,0.008492391429910548,-0.06447980603828994,-0.03176176852905705
929,-0.02143349154667449,0.010874899445287824,-0.08308231698881663,-0.040142571318360076
930,-0.026661551580349028,0.013754332128852442,-0.10590264853689817,-0.05020631894074263
931,-0.032867451571760645,0.017191123623208494,-0.13361655089920824,-0.062172052396041705
932,-0.04017476242464121,0.021243488986358677,-0.16695212318277727,-0.07626564062608192
933,-0.04871347349177106,0.025964922801085068,-0.2066845709808764,-0.0927164995279151
934,-0.058619236672323986,0.03140135118399711,-0.25362939908836446,-0.11175395615806014
935,-0.07003251610754736,0.03758797291050249,-0.30863408135219145,-0.13360334186233014
936,-0.08309765740443327,0.04454584032419885,-0.3725682931474368,-0.15848191207070392
937,-0.09796189146090223,0.05227824577402873,-0.4463128341010709,-0.18659470149738377
938,-0.11477428861355322,0.06076699411709861,-0.5307474085874229,-0.21813043094633097
939,-0.13368467903865552,0.06996865590777356,-0.6267374684026048,-0.2532575855080066
940,-0.15484255523062332,0.07981090878223401,-0.7351203550506353,-0.2921207835043752
941,-0.1783959721011507,0.09018908568400683,-0.8566910072334445,-0.33483755112061525
942,-0.2044904599113877,0.10096305731865794,-0.9921875212424702,-0.3814956094203174
943,-0.23326796495105975,0.11195458187917567,-1.1422768667627157,-0.43215076867819335
944,-0.2648658326155217,0.12294525696297672,-1.3075410670551881,-0.48682551009436775
945,-0.29941584718883824,0.13367520611443287,-1.4884641499170284,-0.5455083174594908
946,-0.3370433419800775,0.14384262514022478,-1.685420164111173,-0.6081538017334066
947,-0.3778663921815511,0.15310430102122652,-1.898662535545943,-0.6746836403237141
948,-0.421995100658575,0.16107719884898147,-2.128315009261657,-0.7449883306904155
949,-0.4695309836922364,0.16734118990691627,-2.3743643884492442,-0.8189297353894589
950,-0.520566459485347,0.17144296714403168,-2.6366552416748594,-0.896344373456461
951,-0.575184437195083,0.1729011633895711,-2.9148867057160643,-0.9770473917969024
952,-0.633457998776484,0.17121265346440925,-3.2086114654971483,-1.0608371307040545
953,-0.6954501606224666,0.1658599847844669,-3.517236946122286,-1.1475001805182936
954,-0.7612136975954236,0.1563198432163346,-3.8400287064344063,-1.236816812471895
955,-0.8307910092300113,0.14207242304580575,-4.176115980133727,-1.3285666564457632
956,-0.9042140071039662,0.12261153322100497,-4.524499270172971,-1.4225344919195304
957,-0.9815040038405556,0.0974552377956937,-4.884059865396468,-1.5185160157584336
958,-1.0626715879783408,0.06615679794445861,-5.253571115352486,-1.6163234514096816
959,-1.1477164750006865,0.028315657193690284,-5.631711269830842,-1.7157908682893803
960,-1.2366273330514985,-0.01641180836110391,-6.017077663879697,-1.816779087340911
961,-1.3293815919767402,-0.06830206623476623,-6.4082020068363885,-1.9191800586083334
962,-1.4259452557361771,-0.1275550272760862,-6.803566515381792,-2.0229206087636618
963,-1.526272750049536,-0.19428576398505668,-7.201620616001899,-2.1279654703104836
964,-1.630306848307052,-0.26851763222646746,-7.600797931761331,-2.2343195190442398
965,-1.7379787281598644,-0.3501770626565325,-7.999533262198514,-2.342029161653138
966,-1.8492082177562386,-0.43909026160140857,-8.396279263626365,-2.451182830505441
967,-1.9639042934539968,-0.5349820268822865,-8.78952254026543,-2.561910557209144
968,-2.081965889496162,-0.6374768428861887,-9.177798864454516,-2.67438261016357
969,-2.203283074463671,-0.7461023720237637,-9.559707256594892,-2.7888071940113646
970,-2.3277386395716455,-0.860295407839593,-9.933922672359165,-2.905427220833576
971,-2.4552101306051846,-0.9794102999383334,-10.29920706592229,-3.0245161744508517
972,-2.585572339266248,-1.102729804294101,-10.654418623517607,-3.1463731007092264
973,-2.718700251848457,-1.2294782563649345,-10.998518991534844,-3.271316768542068
974,-2.854472434454591,-1.3588369108166962,-11.330578357688843,-3.399679059224495
975,-2.9927748153284295,-1.4899612426562279,-11.649778282323862,-3.5317976546999206
976,-3.1335048070003184,-1.6219999621314996,-11.955412219141008,-3.6680081100474182
977,-3.2765756943388293,-1.7541154615750334,-12.246883709601072,-3.8086354097463504
978,-3.4219211996067287,-1.8855053878212584,-12.523702281714407,-3.953985121934111
979,-3.5695001225308634,-2.0154250199276893,-12.785477130541818,-4.1043342788576105
980,-3.7193009424933137,-2.1432101292786414,-13.031908703295299,-4.259922124687334
981,-3.8713462614883167,-2.268300007909331,-13.262778355560627,-4.420940883264631
982,-4.02569696067192,-2.390260370755217,-13.477936286324153,-4.587526707638231
983,-4.182455940322591,-2.508805867762482,-13.67728799785321,-4.7597509798977535
984,-4.341771312962814,-2.623821981267961,-13.860779561732446,-4.937612133400446
985,-4.503838922339845,-2.7353861313374224,-14.028382003997153,-5.121028169676607
986,-4.668904066904154,-2.8437878651497615,-14.180075149590447,-5.3098300388150665
987,-4.837262315225942,-2.949548064134302,-14.31583128840858,-5.503756044742289
988,-5.009259312277839,-3.0534371623786227,-14.435599041039524,-5.70244742536396
989,-5.185289489537261,-3.156492429757218,-14.53928781102245,-5.905445242012938
990,-5.365793608315298,-3.260034431253411,-14.626753211170328,-6.112188693172821
991,-5.551255084454748,-3.365682828053701,-14.697783843363842,-6.322014944283332
992,-5.7421950632931456,-3.4753717341046495,-14.752089793515756,-6.534160538939321
993,-5.939166236154614,-3.5913648816003905,-14.789293175653206,-6.747764427418266
994,-6.142745413127579,-3.7162708775355133,-14.808921021218776,-6.961872616770625
995,-6.3535248909812525,-3.853058847690544,-14.810400762244829,-7.175444413363448
996,-6.572102679235015,-4.00507476040081,-14.793058501082916,-7.387360194566289
997,-6.799071671072369,-4.176058696124998,-14.756120196469054,-7.596430612090689
998,-7.035007868458945,-4.37016327625473,-14.69871582786308,-7.801407096333976
999,-7.280457792041095,-4.591973382526246,-14.619886529424479,-8.00099350005681
1000,-7.5359252258410265,-4.8465271847458515,-14.51859461396,-8.193858692048604
1001,-7.801857464179696,-5.139338348962094,-14.393736337948264,-8.37864988827044
1002,-8.078631243421304,-5.4764191224489025,-14.244157193448137,-8.55400649029675
1003,-8.366538553817719,-5.864303789985498,-14.068669453288619,-8.718574189429235
1004,-8.665772536752469,-6.310071774409495,-13.866071644128073,-8.871019090096283
1005,-8.976413679930697,-6.821369422022741,-13.635169579152,-9.01004160829696
1006,-9.298416527458242,-7.4064292808348275,-13.374798549352779,-9.13438990983185
1007,-9.63159712318912,-8.074085458994414,-13.083846250081505,-9.242872668470994
1008,-9.975621404019131,-8.833783455105678,-12.761276008026291,-9.33437094527895
1009,-10.329994754765728,-9.695582694654819,-12.40614987271108,-9.407849016008548
1010,-10.694052927744378,-10.670149900127747,-12.017651145469062,-9.462364002577091
1011,-11.066954518036225,-11.768741377962293,-11.595105936834235,-9.497074195842558
1012,-11.447675169695984,-13.003172332683983,-11.138003369443544,-9.51124598885276
1013,-11.835003668784866,-14.385771424334987,-10.64601407672386,-9.504259371127588
1014,-12.227540056251867,-15.929318973540541,-10.119006686582264,-9.475611964164528
1015,-12.623695867614607,-17.646967489868512,-9.557062022659473,-9.424921605252742
1016,-13.021696577557707,-19.552143550637062,-8.960484802063554,-9.351927510100818
1017,-13.419586296524972,-21.658430482623206,-8.329812656559495,-9.25649006421055
1018,-13.815234733720008,-23.979431788478905,-7.665822352738341,-9.138589308067996
1019,-14.206346407238533,-26.528615800269012,-6.969533134608877,-8.998322192032266
1020,-14.59047204792745,-29.319142618976002,-6.242207158280925,-8.835898683523734
1021,-14.965022109586327,-32.36367499355024,-5.48534703192629,-8.651636812253864
1022,-15.327282264864234,-35.674175387134945,-4.700690514092571,-8.445956739507556
1023,-15.674430734194386,-39.261692051701374,-3.890202458975029,-8.219373935724173
1024,3.246260114012502e-14,-1.3191590117006645e-12,-3.922562417903165e-14,-3.8792942027969466e-14
1025,4.713550613799677e-13,-3.037329588195079e-11,-8.492711667930104e-13,-9.817307167382615e-13
1026,5.704498370769999e-12,-3.624281726496546e-10,-1.0226081347035179e-11,-1.1637720983610751e-11
1027,4.758868231210051e-11,-2.8829775285045334e-09,-8.218476054123128e-11,-9.102257018089918e-11
1028,3.0395686398393584e-10,-1.7273348529647356e-08,-4.988515163046584e-10,-5.314140860503817e-10
1029,1.5823615890947405e-09,-8.338776158835231e-08,-2.4454036533719747e-09,-2.477430775261395e-09
1030,6.98825382559029e-09,-3.3881979241480045e-07,-1.0109504721845367e-08,-9.63259543826746e-09
1031,2.6904004963376362e-08,-1.1948371148984901e-06,-3.632459817980503e-08,-3.220966787225201e-08
1032,9.20979400403438e-08,-3.741505482641888e-06,-1.1598467056442286e-07,-9.477496553109808e-08
1033,2.8463312002943187e-07,-1.0588956214084865e-05,-3.347351710052068e-07,-2.4980918781439216e-07
1034,8.04000531243206e-07,-2.746755895441088e-05,-8.849439012958193e-07,-5.982771607274586e-07
1035,2.0970491923843252e-06,-6.605097889948859e-05,-2.166411144627161e-06,-1.3169486060400422e-06
1036,5.094891645518926e-06,-0.00014862246171427784,-4.955074894503077e-06,-2.6894848371106473e-06
1037,1.1617587193251966e-05,-0.0003153602416744071,-1.0668208841135652e-05,-5.1344294937512e-06
1038,2.5027105892725367e-05,-0.0006351521138237147,-2.1758267984935408e-05,-9.218395648036693e-06
1039,5.1229424377742854e-05,-0.0012209385173842218,-4.2268635509799715e-05,-1.5637230813490577e-05
1040,0.00010014573097734275,-0.0022506036717021053,-7.858230329073152e-05,-2.514216877130901e-05
1041,0.00018778842761555756,-0.003994362716742733,-0.00014038854255829682,-3.8382401050626654e-05
1042,0.0003390875836352612,-0.006849410603012126,-0.0002418827988496293,-5.563056447910407e-05
1043,0.0005916154944132187,-0.011382293009741936,-0.00040320158968227675,-7.635371497686437e-05
1044,0.001000349068096311,-0.018379026246415818,-0.0006520775276120347,-9.858974098718342e-05
1045,0.0016435903550390861,-0.02890243706195767,-0.001025680342812644,-0.00011808813345058209
1046,0.002630133618875866,-0.044355530378806705,-0.0015725887048262694,-0.0001271748486536029
1047,0.00410772258766642,-0.06654895012337932,-0.0023548157088719786,-0.00011330394109732477
1048,0.0062727844099797,-0.09776981294817304,-0.0034497892946330224,-5.7263925877685376e-05
1049,0.00938135877194598,-0.1408484130355009,-0.004952169034373855,6.898539023714887e-05
1050,0.013761063868702671,-0.19921857102393664,-0.006975364277674311,0.00030485949677496897
1051,0.01982385849752366,-0.2769667870424311,-0.00965260725878275,0.0007040800862656805
1052,0.02807927511567503,-0.3788649117519936,-0.013137430072330316,0.00133797567857576
1053,0.03914771641855535,-0.5103808202186999,-0.017603397752939943,0.0022991196290181987
1054,0.05377333222073718,-0.6776616029439038,-0.023242961972913534,0.0037052536839761023
1055,0.07283592850295542,-0.8874841061933808,-0.03026532144187841,0.005703424572108495
1056,0.09736131047470756,-1.147168275423119,-0.03889320565158295,0.008474239952361223
1057,0.1285294299740034,-1.4644496806901388,-0.04935853719841234,0.012236129145122872
1058,0.16767969747393696,-1.8473088146330443,-0.061896972991030946,0.017249474312925145
1059,0.21631283265944862,-2.3037562189028304,-0.07674137419666177,0.023820460081717676
1060,0.2760886663769994,-2.8415741660492904,-0.09411430647663108,0.032304474980607324
1061,0.3488193711278263,-3.46801744030069,-0.11421972345217088,0.04310888746296411
1062,0.43645768648809286,-4.189477651979987,-0.13723403498629663,0.056695013514076575
1063,0.54107981817488,-5.0111174093870705,-0.16329680549508482,0.07357909271591423
1064,0.6648628222663464,-5.936482478602578,-0.19250136411502924,0.09433209576027599
1065,0.8100564357846476,-6.967101706202305,-0.22488563652336974,0.11957819919026473
1066,0.9789494771452173,-8.102085886757818,-0.2604235263102207,0.14999178271702124
1067,1.1738311099142398,-9.337737858228119,-0.2990171812308228,0.1862928305867702
1068,1.396947435513183,-10.667186846291004,-0.340490476014455,0.2292406506592826
1069,1.650454049357318,-12.080060408680492,-0.3845840286418542,0.27962586236641035
1070,1.9363653547698667,-13.562207222831168,-0.4309520414300546,0.3382606466071288
1071,2.2565015743923476,-15.095483400929615,-0.47916122249501264,0.4059672957750396
1072,2.612434524616412,-16.657614008882945,-0.5286919980691371,0.48356514924568084
1073,3.005433320331492,-18.22214002950452,-0.5789421728387412,0.5718560474754318
1074,3.4364112513664167,-19.75845918094194,-0.6292331352505315,0.6716084851259452
1075,3.9058751156408924,-21.231966829041227,-0.6788186391423887,0.7835406891424751
1076,4.413878305342897,-22.60430077928355,-0.7268961237891888,0.9083028903481284
1077,4.959978920383497,-23.833691072493874,-0.772620463364328,1.0464590957744908
1078,5.543204127801374,-24.87541311821949,-0.8151199658023145,1.198468702583563
1079,6.162021897445335,-25.68233966440653,-0.8535143719840116,1.3646683220543723
1080,6.8143211247581075,-26.205584307041704,-0.8869345408548681,1.5452542027609408
1081,7.49740100320431,-26.395226572579464,-0.9145434462240833,1.740265654838414
1082,8.207970334923488,-26.201106138913882,-0.9355580581800363,1.949569881259485
1083,8.942157272328728,-25.573671570385567,-0.9492716378004945,2.172848616600778
1084,9.695529770054542,-24.46486709316034,-0.9550759395603512,2.4095869583726635
1085,10.463126800918909,-22.829039483054128,-0.9524827928680213,2.6590647504007263
1086,11.239500156870141,-20.6238461205266,-0.9411445236770176,2.920350842057233
1087,12.018766421947827,-17.81114471635937,-0.9208726800637741,3.192300501721696
1088,12.794668474836703,-14.357845142554877,-0.8916545426261938,3.473556208402163
1089,13.560645659213177,-10.236704218955047,-0.8536669316581706,3.762551983020967
1090,14.30991155604825,-5.427045196729287,-0.8072868678965467,4.05752135182442
1091,15.035538108167465,0.08461497752330142,-0.7530987013171969,4.356508960325046
1092,15.730544687976641,6.304045772970576,-0.6918973916540991,4.657385778906916
1093,16.387990568022417,13.228903583459964,-0.6246877033668043,4.957867762625992
1094,17.001069153984492,20.84846320336908,-0.5526791647678609,5.255537749816704
1095,17.563202273086198,29.143488127550317,-0.4772767338100262,5.547870308904477
1096,18.068132779313377,38.08624462792483,-0.40006720933001494,5.832259172295393
1097,18.51001374102801,47.64066153225139,-0.3228015239355378,6.1060468322039965
1098,18.883492516582198,57.76263455308375,-0.24737315072932703,6.366555817447638
1099,19.183788098663832,68.40047095890381,-0.17579294821723399,6.611121124047733
1100,19.40676021689028,79.49546741516431,-0.11016085365228023,6.837123237177874
1101,19.54896882843101,90.98261101736573,-0.052634912486322495,7.04202115854593
1102,19.607722795313595,102.79139095343406,-0.0053981985285588745,7.223384842322495
1103,19.581116741080454,114.84670592445597,0.029375765846995576,7.378926444529178
1104,19.46805529469761,127.06985047000695,0.04955843886909156,7.506529805368818
1105,19.26826416182559,139.37956172742028,0.053101860520123105,7.6042776110143535
1106,18.98228770826753,151.6931069352208,0.03807373636411989,7.670475720274109
1107,18.61147299295042,163.92739119207735,0.002691317770574658,7.703674191429533
1108,18.15794044341678,176.00006461703452,-0.05464659017559533,7.70268460427968
1109,17.62454162074785,187.83060812783373,-0.13533013045337133,7.666593340763877
1110,17.014804768407892,199.34137755573738,-0.24051199891227035,7.594770563120643
1111,16.332869076099012,210.45858673216657,-0.3710846899082314,7.486874709928756
1112,15.58340881085338,221.11321149078114,-0.527661854756698,7.3428524159791895
1113,14.771548668947327,231.24179819650615,-0.710564170090538,7.162933850022174
1114,13.902771879767267,240.7871624016193,-0.9198100303943474,6.947623553220236
1115,12.982822742877119,249.69896549336266,-1.155111289480398,6.697686948806933
1116,12.01760539912476,257.9341596878174,-1.4158741808304809,6.414132778230351
1117,11.013080723142869,265.45729438728927,-1.7012054481151644,6.098191799230446
1118,9.97516327613141,272.24067969702315,-2.009923616618757,5.751292155226093
1119,8.90962027313629,278.26440573408377,-2.34057523577066,5.375031891584703
1120,7.821974497676862,283.5162191989861,-2.691455824702302,4.971149151529347
1121,6.71741303874942,287.9912614623912,-3.0606351589596623,4.5414906315310075
1122,5.600703631802968,291.69167509025056,-3.4459864494017625,4.087978912146884
1123,4.476120257685606,294.62608823971334,-3.845218885938183,3.6125793046829178
1124,3.347379493796932,296.80898865746855,-4.255912950890724,3.1172668662595107
1125,2.2175889223336105,298.2600010594994,-4.675557850865443,2.6039942355466663
1126,1.0892086846913869,299.0030834295831,-5.101590373190457,2.07466092852952
1127,-0.03597296763167922,299.06565921268805,-5.531434443936345,1.5310847082752665
1128,-1.1568495329245738,298.4777034748086,-5.96254064967781,0.9749756050878144
1129,-2.2729912094322264,297.2708018360175,-6.392424984565597,0.4079131141707145
1130,-3.384624897296061,295.47720134918694,-6.818706097789358,-0.16867296224090972
1131,-4.492599500488121,293.1288724909314,-7.239140343716497,-0.753517631309007
1132,-5.598337063082142,290.25660105914625,-7.6516539772573,-1.3455314661437756
1133,-6.7037705542483055,286.8891280453675,-8.054371889489076,-1.9438067696472516
1134,-7.8112693848086145,283.05235448893404,-8.445642342240381,-2.5476190038759357
1135,-8.9235539895921,278.76862694861154,-8.824057233977392,-3.156423437870227
1136,-10.043601038921414,274.05611757630663,-9.18846751156993,-3.769847063385598
1137,-11.174541044460668,268.9283108818891,-9.537993431809609,-4.387675924289115
1138,-12.31955029500311,263.39360717693154,-9.872029471268648,-5.00983809968417
1139,-13.48173919285152,257.45505042049757,-10.190243781530823,-5.636382671308971
1140,-14.664039158181845,251.11018580623806,-10.492572187319745,-6.267455090701715
1141,-15.869090324837595,244.35104997265915,-10.779206825965048,-6.9032694393820915
1142,-17.099132264818717,237.16429423355456,-11.050579626413857,-7.544078144298378
1143,-18.355899949598026,229.53143875893832,-11.307340923072422,-8.190139769591676
1144,-19.64052708447575,221.42925323274795,-11.55033359258973,-8.841685553036323
1145,-20.953458838447276,212.83025721450355,-11.78056318865688,-9.498885390181195
1146,-22.294375838280136,203.70333127763058,-11.999164629306575,-10.161813990285784
1147,-23.66213110423304,194.01442802347273,-12.207366061332138,-10.830417934931576
1148,-25.054701379455366,183.72737030940772,-12.406450585592196,-11.504484362345826
1149,-26.46915404967148,172.80472250966966,-12.597716573524774,-12.183611978002492
1150,-27.901630569007292,161.2087193713981,-12.782437337774793,-12.86718505527364
1151,-29.34734700699869,148.902236053813,-12.961820937397896,-13.554351039374277
1152,-7.958059741014748e-14,6.116383050677388e-14,-6.358554916335325e-14,-8.832501687237033e-14
1153,-1.8135800309511243e-12,1.3676210254308997e-12,-1.364168127676424e-12,-2.0268879922983072e-12
1154,-2.1623215854049688e-11,1.6281493967499858e-11,-1.6498516825123612e-11,-2.4084541880417582e-11
1155,-1.7162390573585713e-10,1.2964395564685079e-10,-1.3374743236839517e-10,-1.9054528102671658e-10
1156,-1.0219860910716558e-09,7.775481372569659e-10,-8.16500392139749e-10,-1.1312500800033277e-09
1157,-4.884663206425889e-09,3.757165584702324e-09,-4.013459579491857e-09,-5.392127798781388e-09
1158,-1.957957464842843e-08,1.527844747683961e-08,-1.6589033038130116e-08,-2.156049162508733e-08
1159,-6.78991901608814e-08,5.391472287899562e-08,-5.944975831207483e-08,-7.460274721364472e-08
1160,-2.0853260764749317e-07,1.689113848081289e-07,-1.889821901035791e-07,-2.286537519113736e-07
1161,-5.776532217783457e-07,4.781857227078862e-07,-5.424086402660342e-07,-6.321633103953643e-07
1162,-1.4645795823862671e-06,1.2405251262059149e-06,-1.4256168777393692e-06,-1.5996831004573133e-06
1163,-3.4396560491271104e-06,2.982744377607498e-06,-3.47088172609277e-06,-3.7493066252604894e-06
1164,-7.557474362472697e-06,6.709417955226109e-06,-7.902322868724034e-06,-8.219396690844844e-06
1165,-1.5663400923239102e-05,1.4229572580408567e-05,-1.6958264309285104e-05,-1.699222130254155e-05
1166,-3.0835626121377895e-05,2.8640594710352467e-05,-3.4530893362983256e-05,-3.3354908395634185e-05
1167,-5.799808152594544e-05,5.501373453218767e-05,-6.70935088646173e-05,-6.252919674168167e-05
1168,-0.00010474103815511036,0.00010132718952983235,-0.00012499276941129703,-0.00011250039421374078
1169,-0.00018238550755279897,0.0001796911781501517,-0.00022418622797043487,-0.0001950725047921461
1170,-0.00030732427793252036,0.00030790420790804247,-0.00038850270509605667,-0.00032717055219953035
1171,-0.0005026661634404668,0.000511370673204562,-0.0006524936185151108,-0.0005324027397051512
1172,-0.0008002005824374984,0.0008253970104279443,-0.0010649265813367527,-0.0008428844086446097
1173,-0.0012426868778881842,0.0012978671758580621,-0.0016929482782852632,-0.0013013131292708153
1174,-0.0018864570807561405,0.0019922787274288365,-0.0026269123265648263,-0.0019632701846800074
1175,-0.0028043025766103487,0.002991099040398771,-0.003985830665137728,-0.002899708813426308
1176,-0.004088595035631171,0.004399378114253734,-0.005923365714250319,-0.00419957451402667
1177,-0.0058545708254747015,0.006348531122576057,-0.00863423727533974,-0.005972488132056835
1178,-0.008243686908384286,0.009000181490988919,-0.012360875335322293,-0.008351408995856908
1179,-0.011426936025374134,0.01254993504156721,-0.017400110107614736,-0.01149518369843878
1180,-0.015607990960254852,0.017230938729813038,-0.02410965619950778,-0.015590876882887277
1181,-0.021026032998777616,0.023317064707585596,-0.03291412092949764,-0.020855774150507544
1182,-0.027958109398911753,0.031125552689003116,-0.04431024938526109,-0.027538944453764955
1183,-0.03672085967818583,0.04101894150270112,-0.05887111223719149,-0.03592225044674598
1184,-0.04767145155078229,0.053406124706299345,-0.0772489475049228,-0.0463207005427322
1185,-0.061207574928619966,0.06874237542366131,-0.1001763847313565,-0.059082046044789664
1186,-0.07776635674936745,0.08752820212049378,-0.12846580907679722,-0.07458554066208352
1187,-0.09782208038579783,0.11030691960273255,-0.16300666288949156,-0.09323979777917794
1188,-0.12188262060941082,0.13766084761999062,-0.20476053207019607,-0.1154797025918752
1189,-0.15048453788510313,0.1702060823850623,-0.25475392241168293,-0.14176236109048404
1190,-0.1841868133217496,0.2085858232003546,-0.3140686952057462,-0.1725620951500577
1191,-0.22356324683234602,0.25346227619341083,-0.38383019977135446,-0.20836452181961085
1192,-0.26919358467716803,0.3055071987914274,-0.46519321108484424,-0.24965978429700625
1193,-0.321653487114714,0.36539119082941235,-0.5593258512363034,-0.2969350309698538
1194,-0.381503490838496,0.43377187985804505,-0.6673917417748425,-0.3506662662444631
1195,-0.4492771627133286,0.5112811880173653,-0.7905306978552988,-0.41130972169162927
1196,-0.5254686795687702,0.5985119044565509,-0.9298383321541572,-0.4792929174043753
1197,-0.6105201020552211,0.696003819393157,-1.0863449845366902,-0.555005600560237
1198,-0.7048086375225243,0.8042297022666082,-1.2609944303570435,-0.6387907602810096
1199,-0.8086342064037424,0.9235814259517955,-1.4546228443052927,-0.730935924410514
1200,-0.9222076377317222,1.0543565507996973,-1.6679385066102115,-0.8316649444172701
1201,-1.045639821450127,1.1967456858077254,-1.9015027335235901,-0.9411304691563744
1202,-1.1789321376249162,1.350820939266951,-2.155712494425295,-1.0594072968622874
1203,-1.321968465378714,1.5165257578766005,-2.4307851443852635,-1.1864867779750308
1204,-1.4745090476471596,1.6936664319227055,-2.726745655017295,-1.3222724200151095
1205,-1.6361864524291454,1.8819055152766797,-3.043416669872933,-1.4665768207365233
1206,-1.8065038281794064,2.080757373446053,-3.380411645700888,-1.6191200283208664
1207,-1.9848356017301905,2.2895860316066354,-3.737131270067829,-1.7795293985131058
1208,-2.1704307131220153,2.507605448471333,-4.1127632715711995,-1.9473409893022122
1209,-2.362418424518105,2.7338822920967947,-4.506285663572513,-2.1220025048024054
1210,-2.5598166814849734,2.967341241451436,-4.916473388270106,-2.3028777719536615
1211,-2.7615429457320153,3.2067727839779914,-5.3419082569915375,-2.4892527068165613
1212,-2.966427360124604,3.450843425731469,-5.780992016465285,-2.6803427015867816
1213,-3.1732280504714674,3.698108178223746,-6.23196231077837,-2.8753013387936814
1214,-3.3806483152263884,3.9470251360964506,-6.692911255554445,-3.0732303152121347
1215,-3.587355404844527,4.195971913335729,-7.161806294987159,-3.2731904346252017
1216,-3.7920005481503187,4.44326366398275,-7.636512973780007,-3.4742135057143217
1217,-3.993239844781838,4.687172377094312,-8.114819224579808,-3.675314959213191
1218,-4.189755611640462,4.925947105845028,-8.594460746841268,-3.875506977455431
1219,-4.380277748324716,5.157834767781723,-9.073147034933907,-4.073811910214061
1220,-4.5636046727110005,5.381101137863961,-9.54858760153209,-4.269275734093452
1221,-4.738623373928263,5.594051648452257,-10.018517936944061,-4.460981299586224
1222,-4.904328136434496,5.7950516111155395,-10.480724746287883,-4.6480611010937904
1223,-5.059837505867141,5.9825454841711725,-10.93307001474298,-4.829709301449394
1224,-5.20440909460663,6.155074827248943,-11.373513467012508,-5.005192744352742
1225,-5.3374518620800195,6.3112946097243015,-11.800133011090654,-5.173860696052554
1226,-5.458535551001053,6.449987573244017,-12.211142788720165,-5.335153071843371
1227,-5.567397014994948,6.570076389205854,-12.604908495542087,-5.488606923504192
1228,-5.663943234159794,6.670633399158826,-12.979959682537412,-5.63386099051761
1229,-5.748250881675488,6.750887778621632,-13.334998806263098,-5.770658150435044
1230,-5.820562375115384,6.810230021484892,-13.668906857619158,-5.898845641666562
1231,-5.881278419145785,6.848213701445311,-13.980745466217721,-6.018372974750328
1232,-5.9309471203042845,6.864554527115718,-14.269755448417595,-6.129287495143308
1233,-5.970249828026015,6.859126766771817,-14.53535184014154,-6.231727610958442
1234,-5.999983927582999,6.831957175362183,-14.777115529030471,-6.325913751891278
1235,-6.021042878752433,6.783216608776688,-14.994781672641256,-6.412137179746523
1236,-6.034393857553552,6.713209557010631,-15.188225158675083,-6.4907468252841145
1237,-6.041053416047358,6.622361867626233,-15.357443428176715,-6.562134379209121
1238,-6.042061625742145,6.511206962961701,-15.502537041941796,-6.626717915554422
1239,-6.038455212392532,6.380370878348817,-15.623688422791894,-6.684924371918442
1240,-6.031240222821202,6.230556463942422,-15.721139250790294,-6.737171251536322
1241,-6.021364786883457,6.062527099661712,-15.795167023805103,-6.78384794562255
1242,-6.009692549047415,5.877090271424166,-15.846061321081352,-6.825297099629754
1243,-5.996977343667119,5.675081347725747,-15.874100321772575,-6.861796463017781
1244,-5.983839675496803,5.457347879248114,-15.87952813299951,-6.893541668054489
1245,-5.970745542244777,5.224734721257623,-15.86253347253159,-6.920630378600521
1246,-5.957988099239482,4.978070249930831,-15.823230229571688,-6.943048234598206
1247,-5.945672618136466,4.718153910332812,-15.761640393720013,-6.960656992206109
1248,-5.93370513286686,4.445745296609356,-15.677679797716523,-6.973185223564358
1249,-5.921785097810644,4.161554925110097,-15.571147065003247,-6.980221894662165
1250,-5.909402306837204,3.8662368197430204,-15.441716089653497,-6.981213085589323
1251,-5.895838239016042,3.5603829869699726,-15.288932304998585,-6.975462055710381
1252,-5.880171909277052,3.2445198165409623,-15.112212919596143,-6.962132788296464
1253,-5.86129021200972,2.919106404301751,-14.910851216335164,-6.94025707627885
1254,-5.837902654481365,2.5845347560487277,-14.684024923872073,-6.908745134517955
1255,-5.808560286959921,2.241131797163743,-14.430808580812757,-6.866399645865819
1256,-5.771678549416649,1.8891630822099468,-14.150189723864777,-6.811933069984151
1257,-5.725563672388658,1.5288380722287507,-13.84108864353714,-6.743987967055367
1258,-5.668442193535581,1.1603168254244738,-13.502381366959227,-6.6611600148719186
1259,-5.598493082969602,0.7837179293892289,-13.132925449185663,-6.562023328942995
1260,-5.513881910779756,0.3991274900007308,-12.73158808408126,-6.445157632799764
1261,-5.4127964404326825,0.006608983482937779,-12.297275985527053,-6.309176771131485
1262,-5.293482992952171,-0.39378622639886723,-11.828966440976933,-6.152758013170114
1263,-5.154282899871398,-0.8020079047764532,-11.325738903663021,-5.974671559146315
1264,-4.99366834867018,-1.217995691890464,-10.786806467890722,-5.7738096397975145
1265,-4.810276923344756,-1.6416677696702515,-10.211546564337178,-5.54921458880306
1266,-4.60294415532071,-2.072909631279252,-9.599530219156275,-5.300105271468965
1267,-4.370733426285339,-2.5115631262383356,-8.950549241811652,-5.025901270556359
1268,-4.1129626045448,-2.957415942211936,-8.264640741509696,-4.726244262066556
1269,-3.829226849704965,-3.410191671892214,-7.542108420294829,-4.40101605986668
1270,-3.519417085990458,-3.8695406000408843,-6.783540151464334,-4.050352867642637
1271,-3.1837337212067602,-4.335031332030119,-5.989821423831302,-3.6746553487787748
1272,-2.8226952747914296,-4.806143371539057,-5.162144314057853,-3.2745942079677786
1273,-2.4371416728963626,-5.282260741770103,-4.302011739035796,-2.851111070836809
1274,-2.028232069065398,-5.762666731960019,-3.411236836084055,-2.4054145474657824
1275,-1.5974371537375136,-6.246539839294246,-2.4919374183257545,-1.9389714699296083
1276,-1.1465260223752642,-6.732950965684787,-1.5465255535978455,-1.4534934003188271
1277,-0.6775477783399461,-7.220861919204722,-0.5776924151084598,-0.950918611408997
1278,-0.19280815055129177,-7.70912526113183,0.4116113517860728,-0.43338984456553203
1279,0.30515849468972034,-8.196485531302194,1.418199412395126,0.09677175406127919
1280,-5.722639515100837e-14,-3.1440652899365676e-15,-4.665045162247546e-14,-7.323999519524608e-14
1281,-1.3124920092416986e-12,-6.099075438657211e-14,-9.810819102171156e-13,-1.6964317000504415e-12
1282,-1.568862013666575e-11,-6.979322628077402e-13,-1.1906632659501365e-11,-2.0338391077593897e-11
1283,-1.2460382618800573e-10,-5.2938996615154415e-12,-9.721433322620226e-11,-1.6220255755072523e-10
1284,-7.413829079360236e-10,-2.992785739236401e-11,-5.994304137925893e-10,-9.700496940308605e-10
1285,-3.5350504409822174e-09,-1.3479868605972432e-10,-2.9832344924831455e-09,-4.654284211153391e-09
1286,-1.4113357854204486e-08,-5.048491673171422e-10,-1.2508584283767477e-08,-1.8719316113794772e-08
1287,-4.866998909463913e-08,-1.6201090440201666e-09,-4.5534652477079474e-08,-6.510522318608225e-08
1288,-1.4841077846142345e-07,-4.555080451289652e-09,-1.4714702488252984e-07,-2.004383300549764e-07
1289,-4.075876297050215e-07,-1.141438272321804e-08,-4.294297277777272e-07,-5.563068000682196e-07
1290,-1.0231924172505298e-06,-2.5840262610696093e-08,-1.1473388673342448e-06,-1.4124676333500265e-06
1291,-2.3765878834348354e-06,-5.343175924587515e-08,-2.8377266697578743e-06,-3.3202470551384887e-06
1292,-5.159416799515167e-06,-1.018458586303483e-07,-6.557157125782548e-06,-7.297734994218258e-06
1293,-1.0557922911007531e-05,-1.8039210466462197e-07,-1.4264864084309298e-05,-1.5122243597730373e-05
1294,-2.0511250369153067e-05,-2.9918675585822157e-07,-2.940728209616938e-05,-2.974838339391601e-05
1295,-3.806029342274673e-05,-4.6849472617774666e-07,-5.7768558655376835e-05,-5.5881477123920745e-05
1296,-6.780419987435016e-05,-6.998129847157397e-07,-0.00010865583838153485,-0.00010073541221354439
1297,-0.00011648165430120131,-1.0115294287280278e-06,-0.0001964875919152409,-0.0001750010886755737
1298,-0.00019369349490104646,-1.4435412135865001e-06,-0.0003428469145828334,-0.00029404615457620455
1299,-0.0003127818663417548,-2.086874316785925e-06,-0.000579049103293531,-0.00047935868276490287
1300,-0.0004918787041702703,-3.135887719860586e-06,-0.0009492540327088398,-0.0007602369363201199
1301,-0.0007551325919321084,-4.9718075196989956e-06,-0.0015141295172566632,-0.0011757147000247166
1302,-0.0011341176963223665,-8.286842932506957e-06,-0.0023550430532344475,-0.001776697329923441
1303,-0.0016694214290498193,-1.4257730610619056e-05,-0.003578727545821047,-0.002628268356478539
1304,-0.002412398665600453,-2.4776028548713406e-05,-0.00532233354985607,-0.0038121109076338935
1305,-0.0034270698549772618,-4.273971121731792e-05,-0.007758748014240192,-0.005428973155601513
1306,-0.004792128438361246,-7.240659167417664e-05,-0.011102029315699787,-0.007601093202074102
1307,-0.006603010119542398,-0.00011980494223897197,-0.015612782146136112,-0.01047448706313825
1308,-0.00897396332515112,-0.00019319068186999532,-0.02160327498401308,-0.01422099441483144
1309,-0.012040047381600704,-0.00030353406711581816,-0.029442088537304713,-0.019039971127467702
1310,-0.015958973283307237,-0.0004650124962454349,-0.03955807646869144,-0.025159515836591217
1311,-0.02091269222798313,-0.0006954804058922267,-0.05244342034691477,-0.032837120237462505
1312,-0.027108630165197857,-0.0010168829015590897,-0.06865556924090208,-0.04235963970875461
1313,-0.03478046321595858,-0.001455577252083796,-0.08881787052165331,-0.05404249238961001
1314,-0.044188329603902225,-0.0020425261085706796,-0.113618721825696,-0.06822801087125369
1315,-0.05561837910351629,-0.002813328525980172,-0.1438091040750634,-0.08528289089986953
1316,-0.06938157113703536,-0.0038080596165645957,-0.18019839103481858,-0.10559470537981606
1317,-0.08581164750070722,-0.005070896786234187,-0.22364837104793375,-0.1295674787912058
1318,-0.10526222501296804,-0.006649519643402699,-0.2750654601590773,-0.15761634601225996
1319,-0.12810297664057121,-0.008594281313907631,-0.33539113164925405,-0.19016134943886578
1320,-0.15471489611428985,-0.010957160427623479,-0.4055906339095312,-0.22762045809125941
1321,-0.1854846697455665,-0.013790514792038057,-0.48664011547302266,-0.2704019209372445
1322,-0.22079820906373301,-0.01714566906507193,-0.5795123217912235,-0.31889609285595044
1323,-0.26103342796461215,-0.0210713789583015,-0.685161071851749,-0.37346689455516086
1324,-0.30655237728148843,-0.025612223094817217,-0.8045047628437909,-0.4344430865272485
1325,-0.3576928771033882,-0.03080698016568578,-0.9384091866772944,-0.5021095511434648
1326,-0.4147598119139999,-0.036687053141764875,-1.0876699722484169,-0.5766987858073352
1327,-0.47801627497453886,-0.043275003796668154,-1.2529949910679479,-0.6583828135069364
1328,-0.5476747657003486,-0.05058325961191422,-1.434987080543508,-0.7472657151197072
1329,-0.6238886565119407,-0.05861305133872441,-1.6341274482839985,-0.8433769805748395
1330,-0.7067441532154687,-0.06735363328939611,-1.850760121845667,-0.9466658637015971
1331,-0.7962529748627226,-0.07678183014761608,-2.085077801052996,-1.0569969086032949
1332,-0.8923459748435413,-0.08686194412957272,-2.3371094542444526,-1.1741467941023007
1333,-0.9948679144318047,-0.0975460451547614,-2.6067099755490295,-1.2978026176843307
1334,-1.1035735830775268,-0.10877465477063315,-2.893552187864838,-1.4275617119437922
1335,-1.2181254365218206,-0.12047782237934689,-3.197121436120388,-1.5629330553111527
1336,-1.3380928946016748,-0.1325765802631806,-3.5167129684646605,-1.703340305370989
1337,-1.4629534059232383,-0.14498475237150432,-3.851432250332361,-1.84812644799127
1338,-1.59209534716956,-0.15761108112724717,-4.200198299162409,-1.9965600195482314
1339,-1.7248227816343875,-0.17036162687370873,-4.561750067347762,-2.1478428236222786
1340,-1.8603620557501819,-0.18314238618147297,-4.934655839249019,-2.301119028576831
1341,-1.9978701651321995,-0.19586206817636898,-5.317325546277717,-2.4554854993173714
1342,-2.1364447743225026,-0.20843496239787426,-5.708025843548492,-2.6100031861234267
1343,-2.2751357284025118,-0.22078382749942768,-6.104897733736451,-2.76370936654665
1344,-2.41295785138264,-0.2328427274048801,-6.505976469808201,-2.915630513667826
1345,-2.5489047871345623,-0.2445597403945949,-6.909213419394081,-3.0647955460713536
1346,-2.681963604846164,-0.25589946707539674,-7.312499530802268,-3.2102492021790883
1347,-2.811129863661486,-0.2668452653576311,-7.7136900049523165,-3.351065274457156
1348,-2.9354228112945955,-0.2774011444805133,-8.11062974953747,-3.486359437767336
1349,-3.053900379770265,-0.2875932558346651,-8.50117917200728,-3.615301410955747
1350,-3.165673638588546,-0.29747092583672863,-8.8832398567974,-3.7371262016441453
1351,-3.269920371785925,-0.30710718537716697,-9.254779669755317,-3.8511442008859897
1352,-3.3658974605535077,-0.31659876129440717,-9.613856838900153,-3.956749916457309
1353,-3.452951777015028,-0.3260655077653527,-9.958642575335412,-4.05342916051963
1354,-3.53052932697633,-0.3356492692077389,-10.28744182096494,-4.1407645385526894
1355,-3.5981824191931175,-0.34551218094345626,-10.598711740154458,-4.2184391210339465
1356,-3.6555746849747495,-0.35583442906872575,-10.891077610023306,-4.286238216488689
1357,-3.702483823552256,-0.3668115062364667,-11.163345807979317,-4.344049203382759
1358,-3.7388020042403984,-0.37865101484517283,-11.414513644760863,-4.391859418063393
1359,-3.7645339145365417,-0.3915690828928123,-11.643775845997853,-4.429752135820928
1360,-3.7797925023073757,-0.4057864699565284,-11.850527544544098,-4.457900721439683
1361,-3.784792518399027,-0.4215244509200398,-12.034363708923266,-4.4765610636580195
1362,-3.779842021633474,-0.43900057280321836,-12.195074999408682,-4.486062444138366
1363,-3.7653320595861928,-0.4584243850774348,-12.332640111586533,-4.486797025293571
1364,-3.7417247842908012,-0.4799932460159305,-12.447214736593224,-4.479208172101675
1365,-3.7095403007638774,-0.5038883068776255,-12.539117336254533,-4.463777850333265
1366,-3.6693425768351053,-0.5302707720972087,-12.608811998632023,-4.441013366834567
1367,-3.621724764284745,-0.5592785272837737,-12.656888703457442,-4.411433736039592
1368,-3.5672942931286302,-0.5910232179289517,-12.68404138601238,-4.3755559701094295
1369,-3.5066581028214356,-0.6255878505919495,-12.691044240559231,-4.333881597429004
1370,-3.440408366307442,-0.6630249753404585,-12.67872674882911,-4.286883715089243
1371,-3.3691090456993087,-0.7033554938275919,-12.647947953763994,-4.234994874984679
1372,-3.2932835926704938,-0.7465681220660214,-12.599570522291767,-4.178596089948009
1373,-3.213404073438602,-0.7926195212288849,-12.534435152248298,-4.118007225837874
1374,-3.1298819587375806,-0.841435094154093,-12.453335876900262,-4.053479017878867
1375,-3.0430607747760496,-0.8929104300954829,-12.356996805608055,-3.985186915276101
1376,-2.9532107632131526,-0.9469133660132333,-12.246050811297621,-3.913226917885675
1377,-2.8605256479717234,-1.003286619592888,-12.121020635447094,-3.837613523444896
1378,-2.765121555539101,-1.061850937396366,-11.982302830600805,-3.7582798547014473
1379,-2.667038084541302,-1.122408691167392,-11.830154900722617,-3.675079984054356
1380,-2.56624147102372,-1.184747846373271,-11.664685932902069,-3.587793420446318
1381,-2.462629749131501,-1.2486462195753512,-11.485850941942878,-3.496131670645495
1382,-2.3560397637208603,-1.3138759351881217,-11.293449073982952,-3.3997467361090443
1383,-2.2462558526749405,-1.3802079876203308,-11.087125738127959,-3.2982413586754578
1384,-2.1330199830203695,-1.4474168117025128,-10.866378657556345,-3.1911807846833034
1385,-2.016043096830379,-1.5152847627075885,-10.630567754943002,-3.078105778955223
1386,-1.8950174006255418,-1.5836064071843226,-10.378928712489593,-2.958546588453834
1387,-1.76962931561487,-1.652192527278567,-10.11058997536502,-2.832037531160881
1388,-1.6395727956115167,-1.720873744262776,-9.824592899898848,-2.698131869524693
1389,-1.5045627147183152,-1.78950367169504,-9.519914685358549,-2.556416620155892
1390,-1.3643480278019184,-1.8579615150587097,-9.195493671539905,-2.4065269526013253
1391,-1.2187244132178956,-1.9261540429599229,-8.850256534745824,-2.248159839996988
1392,-1.0675461190311097,-1.9940168650250651,-8.48314687312926,-2.08108664292465
1393,-0.9107367508953389,-2.061514963541415,-8.093154639950225,-1.9051643343740563
1394,-0.7482987616117763,-2.1286424395625554,-7.679345861073181,-1.720345107658069
1395,-0.5803214289439076,-2.195421449531461,-7.240892061819943,-1.5266841495772854
1396,-0.4069871392057648,-2.2619003252694525,-6.777098828593002,-1.3243454070232152
1397,-0.2285758290211626,-2.3281508881861375,-6.287432942632537,-1.1136052252940056
1398,-0.045467475933448624,-2.394264987473183,-5.771547546669101,-0.8948537892807303
1399,0.14185743038416537,-2.4603503114869865,-5.229304839608232,-0.6685943528868716
1400,0.3328194614004298,-2.526525541083172,-4.660795839045547,-0.43544029604328427
1401,0.5267438481139544,-2.592914932869189,-4.066356805490414,-0.1961101009271105
1402,0.7228660404218966,-2.659642438673354,-3.446581984616072,0.048579612038412615
1403,0.9203391193283054,-2.7268254844312056,-2.8023323934014366,0.2977228035572933
