,TP9,AF7,AF8,TP10
0,-3.5268717642168925e-11,-8.846220565375198e-11,-1.0668156844648414e-10,-8.53365314238935e-11
1,-7.951368196559079e-10,-1.9309628262953146e-09,-2.2906793246385233e-09,-1.3689713384537238e-09
2,-1.009999744131965e-08,-2.1293677081723848e-08,-2.5494724657927027e-08,-1.688567322491553e-08
3,-8.323278228662568e-08,-1.5562022350337495e-07,-1.8744740440919726e-07,-1.3142509726538684e-07
4,-5.088160060878868e-07,-8.524719997169218e-07,-1.032532123373758e-06,-7.660159551506035e-07
5,-2.4675465865052877e-06,-3.7461988955870177e-06,-4.559772215555468e-06,-3.564565950579267e-06
6,-9.921356781797013e-06,-1.380372588088713e-05,-1.6873476635948377e-05,-1.3826903763823493e-05
7,-3.4134037325747435e-05,-4.400730805614134e-05,-5.399461358983164e-05,-4.611265892963718e-05
8,-0.000102926656113868,-0.00012428306952245262,-0.0001529888792897557,-0.00013533611543629332
9,-0.00027724582170487967,-0.00031670111141445,-0.0003909983800017394,-0.00035606452364522577
10,-0.0006776048868038895,-0.0007390029300125505,-0.0009148566749512945,-0.0008525437161736856
11,-0.0015224132137537894,-0.0015982294123751699,-0.001983686172971488,-0.001881247090061948
12,-0.0031793467602406716,-0.003235690423904548,-0.004026268550465585,-0.0038666828707261914
13,-0.0062300315696320425,-0.006183836391319355,-0.007714128221042103,-0.007470122658189762
14,-0.011547528589839668,-0.011234825546331859,-0.014050211512106515,-0.013669893806407594
15,-0.020385305056669994,-0.019519722510433782,-0.02447176552446595,-0.02385083683463187
16,-0.03447531289589457,-0.032596253339642216,-0.04096446124063154,-0.03989926623284975
17,-0.056131330702555514,-0.05254182529585543,-0.06618294597094959,-0.06429825131960686
18,-0.08835189987349515,-0.08204709870130555,-0.1035709078878751,-0.10021633484955277
19,-0.13491519128967308,-0.12450386527398923,-0.15747156459626327,-0.15158108833160933
20,-0.20045625792866545,-0.18407951523066843,-0.23321750536417776,-0.22312743548603062
21,-0.2905157109402701,-0.26576919044651964,-0.337187315909445,-0.3204097476752732
22,-0.41154828690768225,-0.37541606511887826,-0.4768156885007832,-0.4497667555242106
23,-0.5708803313818805,-0.5196902750714884,-0.6605440123122955,-0.6182296034507598
24,-0.7766069701573405,-0.7060179676684607,-0.8976999409519107,-0.8333660285816332
25,-1.037422488676848,-0.9424537957152908,-1.1982972352452603,-1.1030574776069695
26,-1.3623809260666913,-1.2374928599488673,-1.5727512633194543,-1.435210720483342
27,-1.7605879091066625,-1.5998214626508138,-2.0315107446973313,-1.8374108207593443
28,-2.240829207015202,-2.0380098785504397,-2.5846123662475544,-2.316527808283446
29,-2.8111462637279927,-2.5601544673918037,-3.2411713715381008,-2.878294635501646
30,-3.478373830027238,-3.1734806157900994,-4.008827655004047,-3.5268784519361294
31,-4.24765943473901,-3.883921939523016,-4.893172771299824,-4.264470510872991
32,-5.12198842128131,-4.695694594301725,-5.897188094091178,-5.090921813801848
33,-6.101741262742355,-5.610888115654872,-7.020727675488501,-6.003451785227292
34,-7.184311457270854,-6.6290956497062945,-8.260080765365123,-6.996455671150059
35,-8.363812120642976,-7.747106546662298,-9.607648138505564,-8.061432856505355
36,-9.630897179076342,-8.95868297510845,-11.051763137671612,-9.187052803311792
37,-10.97271882959449,-10.254439495755152,-12.57668263555488,-10.359368017849219
38,-12.373036914897773,-11.621840502973525,-14.162765106113321,-11.562174703261578
39,-13.812488425529446,-13.045325257935128,-15.786843070872823,-12.77751207623726
40,-15.269016887667437,-14.506564110922508,-17.42278593731103,-13.986281333433238
41,-16.718452383612885,-15.984842740276534,-19.042237421318962,-15.16895569576385
42,-18.13522396325309,-17.457564218303894,-20.61550017096603,-16.306344804859304
43,-19.493177881912338,-18.900851930833895,-22.112529733340775,-17.380370918668227
44,-20.766468002445507,-20.290230342345577,-23.503991455840392,-18.374811622063106
45,-21.930479183549856,-21.6013557890824,-24.76232801168721,-19.27596441143862
46,-22.96274078407718,-22.810766281651773,-25.862782558673914,-20.073192486041986
47,-23.843785796846213,-23.89661794480724,-26.784323410453176,-20.759317991574733
48,-24.557911911568887,-24.839376293514004,-27.51042058984957,-21.33083833085048
49,-25.093804241355702,-25.622432950832806,-28.029632515612814,-21.787952260732006
50,-25.444985547305283,-26.232622426862466,-28.335971858530854,-22.134394540525168
51,-25.610068266767904,-26.66061886287537,-28.429032546152463,-22.377089992221773
52,-25.592792974967168,-26.901198803215696,-28.31387407149022,-22.52564919341687
53,-25.401849397052768,-26.953362659922817,-28.00067361965949,-22.591737995104868
54,-25.050487911746355,-26.820314156605406,-27.504170004934142,-22.58836097622884
55,-24.55594073868413,-26.509303289532806,-26.842935041546244,-22.52910420991095
56,-23.938681841003778,-26.03134389564021,-26.038516965162163,-22.42738471061508
57,-23.22156245043554,-25.400821522273922,-25.114506337780455,-22.295752373230247
58,-22.428864806483666,-24.635010781508864,-24.095577205049533,-22.145285129075553
59,-21.585320168454025,-23.753523640728666,-23.006555075497666,-21.98510989023575
60,-20.715138370982384,-22.777711102529675,-21.8715587300533,-21.822071366752365
61,-19.841095038821532,-21.730040480754578,-20.71325536845671,-21.660559006349146
62,-18.983718972795522,-20.63346910443001,-19.55225881489309,-21.502490281454055
63,-18.160616246383217,-19.510833013914976,-18.40668927629103,-21.347437511691442
64,-6.078473315557663e-11,-9.963696409013845e-11,-1.271783246755064e-10,-5.599282975191977e-11
65,-1.2710674329742451e-09,-2.115501467923751e-09,-2.7694143210773706e-09,-1.1969057596861655e-09
66,-1.3341886998827718e-08,-2.3712165501554827e-08,-3.0767214579770576e-08,-1.2755630649321623e-08
67,-9.275144535870646e-08,-1.7571199368781882e-07,-2.2632990683805757e-07,-9.027767700547481e-08
68,-4.834097294975167e-07,-9.758615794958759e-07,-1.247929073048821e-06,-4.799826292728353e-07
69,-2.0264184140442637e-06,-4.346670896983004e-06,-5.518958721000256e-06,-2.0557228427048624e-06
70,-7.160492729074949e-06,-1.6229742116700547e-05,-2.0459704168006794e-05,-7.426156754137362e-06
71,-2.206787366635984e-05,-5.241991875657029e-05,-6.560189064515918e-05,-2.3380383882600526e-05
72,-6.086937479178604e-05,-0.00014995208004870176,-0.000186263190669979,-6.573383024936596e-05
73,-0.00015326300547117644,-0.0003869601038815177,-0.0004769997587197407,-0.00016809543627504639
74,-0.00035756827134514454,-0.0009141642034566814,-0.0011181527109439947,-0.0003964835881399184
75,-0.0007815674506068007,-0.0020009115625229286,-0.0024283963489075927,-0.0008718768366464533
76,-0.0016135326938554759,-0.004097988530225057,-0.004935338447015864,-0.0018025195487780048
77,-0.0031652238690823746,-0.007918358314074895,-0.009465024317158099,-0.0035270890154369384
78,-0.005927549007350343,-0.014535718223785245,-0.01724970770434054,-0.006568848665833086
79,-0.010638348680878856,-0.02549945509968429,-0.030051455053392843,-0.011699939139739993
80,-0.018360752901506038,-0.04296322789827628,-0.050296993417671666,-0.020014182234923135
81,-0.030569903421698484,-0.06982294132109276,-0.08121671421805093,-0.03300618303969033
82,-0.04924543561836441,-0.10985816673127344,-0.12697804925159684,-0.05265396764309504
83,-0.07696677737431931,-0.16786908278066268,-0.19280080890735854,-0.08150175500499866
84,-0.11700790447477058,-0.24979888817049672,-0.2850398460063675,-0.12273870445424695
85,-0.17342764717982623,-0.3628297055321674,-0.411218884686748,-0.18026867514023598
86,-0.2511510249047053,-0.5154386848156155,-0.5799987852600287,-0.2587653125556958
87,-0.35603657850705617,-0.7174007381487681,-0.8010641069688377,-0.36370631187445934
88,-0.49492458859640515,-0.9797253912995723,-1.0849137978816563,-0.5013806583519633
89,-0.6756617315892902,-1.3145177081128265,-1.442545418566721,-0.6788630534908167
90,-0.9070992300539392,-1.7347570230053018,-1.8850277128101214,-0.9039504691545458
91,-1.1990636423491703,-2.253992005200812,-2.4229636202793103,-1.1850566119576575
92,-1.5623015985128905,-2.885955985768152,-3.0658546772726543,-1.531060903946771
93,-2.0084015124011096,-3.644112088758219,-3.821387382798518,-1.95110945966557
94,-2.5496962508083474,-4.541143157576477,-4.694671361629108,-2.454366645548741
95,-3.199150774008731,-5.5884064607186374,-5.687466869096588,-3.0497172734948594
96,-3.9702378458350434,-6.79537742323983,-6.797444583741442,-3.7454212758099565
97,-4.876803105422954,-8.169109874710012,-8.017523523752738,-4.548724673999799
98,-5.932918278389736,-9.713742184656372,-9.335333462266824,-5.465432635243578
99,-7.152718367991669,-11.4300788186163,-10.732846574826072,-6.499452397314393
100,-8.550215605188189,-13.315274982826447,-12.186219149329357,-7.652316027261444
101,-10.139080010658276,-15.362647982015057,-13.66587774275573,-8.922695696827013
102,-11.932373927343718,-17.561632749117727,-15.136874897265297,-10.305927728344702
103,-13.942226265427859,-19.89789103722531,-16.559527397557705,-11.793566178457118
104,-16.17943205234321,-22.353574534425242,-17.890335413731478,-13.372991853357346
105,-18.652964735766137,-24.90773238356278,-19.08316455042272,-15.027107581831267
106,-21.36939280968278,-27.536844032666444,-20.090656079662487,-16.73415419698897
107,-24.332198645741208,-30.21544974938266,-20.865815040536194,-18.46768294002012
108,-27.54100563394029,-32.916844172204286,-21.363713031008132,-20.19671826854882
109,-30.99072953580993,-35.61379349885087,-21.543233629196106,-21.886140238032638
110,-34.670680951733864,-38.27923477565271,-21.36878408392188,-23.49730798327459
111,-38.563657444315474,-40.88691653692356,-20.81189714406314,-24.988935654479743
112,-42.64507529941817,-43.41194385796415,-19.852651100620612,-26.318219639897595
113,-46.882201048442916,-45.831197601212544,-18.480843543104317,-27.442201190906584
114,-51.233550489553885,-48.12360688211537,-16.69686432818781,-28.31933198321452
115,-55.648526796999604,-50.270264917944345,-14.51222536885934,-28.91119234926521
116,-60.06736828110103,-52.25439059774033,-11.949718759464188,-29.184293940531724
117,-64.4214696542004,-54.06115034471902,-9.043190057603661,-29.111881878936046
118,-68.63412800405435,-55.67736616010665,-5.836929600257735,-28.675637863530394
119,-72.62174646801019,-57.09114526223874,-2.3847006302819294,-27.867177206976475
120,-76.29550579033074,-58.291473712443725,1.2515622670900262,-26.689231166603104
121,-79.56348781678363,-59.26782024787835,5.0033382770595525,-25.15641238020051
122,-82.33320698409135,-60.00979678974867,8.797332985276945,-23.29547608361171
123,-84.51447759405008,-60.50691858877381,12.557455696936513,-21.14501266103863
124,-86.02251790083409,-60.74849984011858,16.206894929264347,-18.75453688291782
125,-86.78116868443317,-60.72371030778762,19.67022468653594,-16.182974258452266
126,-86.7260858798299,-60.4218057925319,22.875475553787844,-13.496583081333476
127,-85.80775559340837,-59.832531115912076,25.756107792341986,-10.76638939822205
128,-1.1432792444325711e-10,-1.2573694179558126e-10,-2.88541584523586e-11,-5.4369231964161635e-11
129,-1.9199311584477247e-09,-2.684406011534183e-09,-5.944003672982256e-10,-1.1660596573785457e-09
130,-2.28588574038393e-08,-3.008557023634259e-08,-6.94781559072016e-09,-1.4024395391222503e-08
131,-1.7474593781348743e-07,-2.2265785467296562e-07,-5.37187269596832e-08,-1.097145974905262e-07
132,-9.98986074467485e-07,-1.2351747486860092e-06,-3.124241599965725e-07,-6.374185089610155e-07
133,-4.560069562311871e-06,-5.4946986369015e-06,-1.46024493241811e-06,-2.942168033633625e-06
134,-1.7361708746316175e-05,-2.048364232451258e-05,-5.7248550688292996e-06,-1.1279714741876846e-05
135,-5.688189228742855e-05,-6.602424535433315e-05,-1.9401386586102078e-05,-3.708249133788356e-05
136,-0.0001641892699213781,-0.00018838305070105298,-5.812627322508469e-05,-0.00010710868150988304
137,-0.00042540399236144154,-0.0004846263219915113,-0.0001566684420407148,-0.0002771104536035735
138,-0.001004484082221051,-0.0011408074269567488,-0.00038528538806959433,-0.0006524077028275605
139,-0.0021890753267108914,-0.002487172656134861,-0.0008746502986206241,-0.001416281234684541
140,-0.004450209142229797,-0.0050726759258414985,-0.0018509526939941745,-0.0028666160912209533
141,-0.008515745556522875,-0.009759827624178544,-0.003682117271350897,-0.005460860308464893
142,-0.015456596339167432,-0.017839369947284096,-0.006935344237108808,-0.009869033404069373
143,-0.02678374772991089,-0.03116252384420117,-0.012445469657686394,-0.017034048901747905
144,-0.04455267853948917,-0.0522865611992867,-0.021392933309734217,-0.028237881667689348
145,-0.07146992472784124,-0.08462718072432375,-0.035389244482865456,-0.04517113461364555
146,-0.1109943734390919,-0.13260859267443595,-0.056566559866151056,-0.07000240447882088
147,-0.16742362573101685,-0.20179945482073997,-0.08766630374440885,-0.10544257281973557
148,-0.2459537474713507,-0.2990201130151348,-0.13211987895157948,-0.15479784143290154
149,-0.35269931921159775,-0.4324043992078976,-0.19411282667227156,-0.22200419721898018
150,-0.49466038276827745,-0.6113980410878553,-0.27862271779571757,-0.31163534990963965
151,-0.6796239679445345,-0.8466760124704983,-0.39142089684087483,-0.42887628935599476
152,-0.9159904687440338,-1.1499632448571737,-0.5390290609236131,-0.5794555259564124
153,-1.2125189917650012,-1.5337471289447677,-0.7286234594879136,-0.7695306814094423
154,-1.577990667169879,-2.0108760391814977,-0.9678820582913292,-1.005524239779416
155,-2.02079451176614,-2.5940453812806954,-1.264773102198066,-1.2939088524934175
156,-2.548446566863215,-3.2951809453347387,-1.6272869574171633,-1.640944559677558
157,-3.167059367974248,-4.124738117276908,-2.063116794342389,-2.052373521375019
158,-3.880784921905928,-5.090944197117614,-2.5792975100418603,-2.533081168858999
159,-4.691259844927863,-6.199019106448825,-3.1818161885119443,-3.08673593727739
160,-5.597085732213054,-7.4504165213943985,-3.875211161186535,-3.715422829408824
161,-6.593380826303614,-8.84213233416341,-4.662180030975759,-4.41928889333175
162,-7.6714401151765355,-10.366129734470713,-5.543219412427092,-5.1962210508496165
163,-8.818539626146405,-12.008929612682463,-6.516320161772486,-6.041578257178884
164,-10.017916460059698,-13.751411038595542,-7.576741169934987,-6.948000336660928
165,-11.248948992916556,-15.568859100539232,-8.716882229385627,-7.905314750494003
166,-12.487551898792209,-17.431286485567853,-9.92627215828223,-8.900559833123049
167,-13.706788786485351,-19.30404125912792,-11.19168258731256,-9.918138638169228
168,-14.87769196216624,-21.148697085686216,-12.497371030028827,-10.940111567037782
169,-15.970265006858138,-22.924204640003357,-13.825449560884483,-11.946628766915895
170,-16.954630482709653,-24.588265403265606,-15.156368088839717,-12.916495432916033
171,-17.802273162697098,-26.098872707361497,-16.469494263270445,-13.827855254008634
172,-18.487319630429486,-27.41595104201968,-17.743765873369824,-14.658969789087372
173,-18.987788556634772,-28.50301437142478,-18.958386565060394,-15.389064831416263
174,-19.28674297791207,-29.328758408496043,-20.093532154110687,-15.999209018482574
175,-19.373276873762972,-29.868501051204838,-21.131033072547837,-16.473185323109124
176,-19.243273580997627,-30.10538976448255,-22.0549987827947,-16.798312996054932
177,-18.899883038708865,-30.031304484787576,-22.85235241125951,-16.966176396261112
178,-18.35367812907815,-29.64739918003063,-23.513248285501223,-16.973218246502977
179,-17.62246668024964,-28.964243710814532,-24.031351209870095,-16.821158368803605
180,-16.730754145102708,-28.00154902949962,-24.403963767394618,-16.517204982914738
181,-15.708871540718416,-26.78748169735903,-24.631996215838367,-16.074034130618376
182,-14.591802782125741,-25.35759672280848,-24.719782165861808,-15.50952343204531
183,-13.417763768943292,-23.75343930044406,-24.67475168763668,-14.846238607722851
184,-12.226601107187342,-22.020884698798923,-24.506981259954486,-14.110684251574437
185,-11.058090064490713,-20.208300063326234,-24.228646526332657,-13.332343390128255
186,-9.95021846002465,-18.364621331670904,-23.853408679764435,-12.542542617876189
187,-8.937545285379995,-16.53744225339974,-23.395768125635332,-11.773190291947044
188,-8.049719795289272,-14.7712105038127,-22.87041972891287,-11.055443688567895
189,-7.310238723574042,-13.105618297397896,-22.291642503863102,-10.418366615984684
190,-6.73550660759687,-11.574262309106752,-21.672753290215866,-9.88764145694431
191,-6.334247701360747,-10.203630988144074,-21.0256491320052,-9.4843989396359
192,-3.19216662615558e-11,-8.480757277075806e-11,-8.571048205966047e-11,-2.4695739964650617e-12
193,-1.8658288714115776e-10,-1.7789783620067262e-09,-1.905840073661902e-09,3.8845484551996016e-10
194,-1.5481242803059744e-09,-1.9777909196954352e-08,-2.101920787597502e-08,4.919713729500884e-09
195,-6.067969183385537e-09,-1.4550703458189014e-07,-1.5376718828088412e-07,4.1920414571553706e-08
196,-1.070905749656821e-08,-8.033814895685979e-07,-8.422567403088867e-07,2.5664498077781406e-07
197,2.2461506949957675e-08,-3.5628734724346928e-06,-3.6967041682349987e-06,1.2182136852450511e-06
198,2.0560665395333615e-07,-1.326776732030739e-05,-1.3586634312712163e-05,4.692552741719528e-06
199,5.750509055517947e-07,-4.281579864347791e-05,-4.3144906793678204e-05,1.514781854709366e-05
200,9.551876299827699e-09,-0.0001225954726262146,-0.0001212008902208509,4.194431363609201e-05
201,-7.546401254069928e-06,-0.0003172326029706554,-0.0003068090688426685,0.00010134499476047408
202,-4.2694756863371064e-05,-0.0007527595355249216,-0.0007103785583768907,0.00021624397925417053
203,-0.00016048862954171308,-0.0016574701025764789,-0.0015229746408238845,0.00041025355144932616
204,-0.00048581122664993087,-0.003419491919201472,-0.003054274534686422,0.0006920451614252907
205,-0.0012692901289522139,-0.006663518902658405,-0.0057790111980900345,0.0010258321035813986
206,-0.0029679535116609824,-0.01234827455258564,-0.010391029372197885,0.0012843959374920916
207,-0.006353623295761511,-0.02188518392449626,-0.017863241630453327,0.0011815884409638953
208,-0.012650704430423106,-0.037277369318082954,-0.029510780832284735,0.00018149021591123724
209,-0.023703546058228313,-0.06127630806139454,-0.047053573539971666,-0.002618486134136232
210,-0.04217163508578584,-0.09755115236962299,-0.07267355227606401,-0.008632753646291678
211,-0.07174825775532649,-0.1508628146744401,-0.10906092055306311,-0.019961712928707534
212,-0.11739472038654071,-0.2272316763484586,-0.1594433645525563,-0.039592900376303225
213,-0.18557775637904395,-0.3340845584369443,-0.22759189420437634,-0.07162308352580944
214,-0.2844926498233141,-0.4803638598051511,-0.31779708433584014,-0.12149034721413789
215,-0.4242495681772577,-0.6765799725615518,-0.43480985900288627,-0.19620009132146182
216,-0.6169966737812712,-0.9347876239512936,-0.583741645676792,-0.30452439266529036
217,-0.8769518052597216,-1.2684679258988294,-0.7699198183759366,-0.4571511567284538
218,-1.2203155358266249,-1.692300734659434,-0.9986959826850218,-0.6667583662656319
219,-1.6650422255341306,-2.2218163650845866,-1.2752068919782515,-0.9479895375050735
220,-2.2304518879778925,-2.8729216202835235,-1.6040905042659521,-1.3173090282332267
221,-2.9366737866889276,-3.6613023020457285,-1.9891625617250994,-1.7927199458773722
222,-3.803922375228464,-4.601712649176192,-2.433061639414509,-2.393333142209783
223,-4.851617282909592,-5.707171191094158,-2.936872449014032,-3.1387832434114746
224,-6.09737123280938,-6.988091825864959,-3.49973809275606,-4.048496806248302
225,-7.5558825102494245,-8.451387905026433,-4.118471993274242,-5.140828201190753
226,-9.23778114338934,-10.099594996612383,-4.787179580598443,-6.432090241567742
227,-11.14848941301015,-11.930064021257712,-5.4968987251078545,-7.9355182613157575
228,-13.287166510952341,-13.934279791242178,-6.235266588553091,-9.660217400157066
229,-15.645812733785228,-16.09735985679406,-6.986219294741056,-11.610152092602457
230,-18.20860910147526,-18.397784410625913,-7.729729909429987,-13.783242836652096
231,-20.95156276704429,-20.80739969301369,-8.441589911236628,-16.170637131362472
232,-23.842516793282,-23.2917252729569,-9.093239701047924,-18.75621834337837
233,-26.84156540137695,-25.81058059117058,-9.651654628320301,-21.516408061362274
234,-29.901893777629915,-28.31902922758046,-10.079294332778739,-24.420304514625425
235,-32.971036489555445,-30.768621425051027,-10.334124802064094,-27.430182597123235
236,-35.992522248490815,-33.10889726693116,-10.369724487738184,-30.50236103407027
237,-38.907846928353585,-35.289095395628905,-10.13548834072311,-33.588420626991606
238,-41.658693022771075,-37.2599963093533,-9.576947013755543,-36.63673572018864
239,-44.18929341900956,-38.97581636423995,-8.636222790653024,-39.59426031600494
240,-46.44882174121791,-40.39606003234115,-7.252648554323518,-42.40849179465862
241,-48.3936818725695,-41.48723491378606,-5.3635802038872535,-45.02952011813799
242,-49.98956697364601,-42.22433717089804,-2.905435007690365,-47.41205994108493
243,-51.213164334499844,-42.59202443191432,0.18501265230374436,-49.5173582703407
244,-52.053396931343045,-42.58540811359139,3.969051235770025,-51.314871903595616
245,-52.5121148452445,-42.210416350149266,8.504148613103125,-52.783616989238425
246,-52.604178324727336,-41.48370091070395,13.841756771901887,-53.91310740559633
247,-52.3569074127676,-40.432085270701826,20.02480926880014,-54.703818570186876
248,-51.80890870967254,-39.0915751053068,27.084931613260512,-55.167137732489884
249,-51.008325767093325,-37.50597566780063,35.03940298072709,-55.32478935169206
250,-50.01059340830905,-35.72518153248314,43.88792836116044,-55.20775308898327
251,-48.87580557146909,-33.80322171108182,53.60930275980487,-54.854720374492274
252,-47.6658290231147,-31.796155951475704,64.15807209974564,-54.310161595293145
253,-46.44131000291537,-29.759925111026156,75.46131738180486,-53.6220980120335
254,-45.25872674127134,-27.74825931412079,87.41570774023754,-52.83968913707163
255,-44.16763775378306,-25.810742149179518,99.88498281992447,-52.010756470678366
256,-4.947000974587531e-11,-1.1947578984625085e-10,-2.6335033352321016e-09,-3.2408505014037414e-11
257,-1.1858326991074517e-09,-2.5322610545153048e-09,-5.7291293924616226e-08,-5.924408256080273e-10
258,-1.472887567506208e-08,-2.8548024314265515e-08,-6.405014459052156e-07,-8.223011517392064e-09
259,-1.1936047749418275e-07,-2.1244027853767308e-07,-4.745006782358242e-06,-7.126299971249602e-08
260,-7.160931109842996e-07,-1.185827331546247e-06,-2.6351690954541994e-05,-4.5160273875086816e-07
261,-3.4043024368830044e-06,-5.310541647711616e-06,-0.00011739282061667699,-2.2448589210431126e-06
262,-1.3408710153189808e-05,-1.9934652543412083e-05,-0.0004383999352914645,-9.174785848580405e-06
263,-4.517657332396204e-05,-6.469917929314699e-05,-0.001416023760610659,-3.189169302254178e-05
264,-0.0001334051349437122,-0.00018582072675811957,-0.004049810383767498,-9.674226787677144e-05
265,-0.00035202641965434336,-0.00048091011706255884,-0.010445353309373321,-0.0002613987757544604
266,-0.0008433697557258377,-0.001137957596815338,-0.024655954192701054,-0.0006397412215072929
267,-0.0018589475591020137,-0.002491507772796597,-0.05390788556674508,-0.001438002580525903
268,-0.0038123907286594563,-0.005097857635314467,-0.11026606838226374,-0.0030035694724733913
269,-0.007344270586759228,-0.009829600607651699,-0.21277036969731464,-0.005887115115106353
270,-0.01339786732229018,-0.017988233247644925,-0.3900402681627163,-0.010917862889663127
271,-0.023304120298955806,-0.03143193126520625,-0.6833081065078432,-0.01929058572254044
272,-0.038872755035522746,-0.05271388726585492,-1.1497971720488998,-0.03266133649069002
273,-0.06248487689888206,-0.08522462476136622,-1.8663085793223033,-0.0532469590310325
274,-0.09718034468532487,-0.1333293556337886,-2.932819855580134,-0.08392133280327295
275,-0.14673130879068727,-0.20248883266576806,-4.475831130970913,-0.12829926261073457
276,-0.21569176314468758,-0.2993495952877111,-6.651128675966209,-0.19079718396381337
277,-0.3094121225500294,-0.43178752414740423,-9.645580102631227,-0.27665870383696156
278,-0.4340079277890454,-0.608887784691594,-13.677542129442324,-0.39193276992540094
279,-0.5962728813260577,-0.8408450121876632,-18.99546052501015,-0.5433931609855124
280,-0.8035284658715798,-1.1387702274938363,-25.87428001806848,-0.738390054983786
281,-1.0634052744331162,-1.514395438955461,-34.609362585788055,-0.9846275506925689
282,-1.3835548246081983,-1.979672922443122,-45.50773433259545,-1.2898651031644504
283,-1.7712950220311892,-2.546273337155048,-58.87663870289539,-1.6615457909444016
284,-2.2331974701253654,-3.2249946277014687,-75.00955856595094,-2.106360015340929
285,-2.7746301746347486,-4.025101558482186,-94.17007085018909,-2.6297593171053664
286,-3.3992743816414395,-4.953623233604149,-116.57410233362835,-3.2354410421537643
287,-4.108638835806638,-6.01464261511938,-142.37135016018868,-3.9248301197916353
288,-4.901598268630172,-7.20861739316704,-171.62680095801235,-4.696588732898046
289,-5.773985125362716,-8.531775105529189,-204.30341322133404,-5.546187633790035
290,-6.7182641284704845,-9.975626642948907,-240.24710425715165,-6.465573715876682
291,-7.723318031347475,-11.526640772930076,-279.1751924922306,-7.442966759529399
292,-8.774369769904764,-13.166117753378202,-320.66937794058657,-8.462813887725929
293,-9.853061311329006,-14.870292417724546,-364.1741923652536,-9.505923446441788
294,-10.93770306429178,-16.61068648285827,-409.0016161256758,-10.54979124377347
295,-12.003699972995417,-18.35471676161344,-454.34224828709824,-11.569121908351745
296,-13.024151573095326,-20.066551212937583,-499.28304548939786,-12.536537102354547
297,-13.97061369099882,-21.70818933254274,-542.8312363891208,-13.42345104945837
298,-14.813999715110944,-23.240728399279547,-583.9436014589899,-14.201082990881758
299,-15.52559021784308,-24.625763681972824,-621.5599152585836,-14.841566456423486
300,-16.078111887523,-25.826859914492424,-654.6390126172004,-15.319107270025523
301,-16.446840793516046,-26.81102398057183,-682.1956901727431,-15.611136546358434
302,-16.61068136015586,-27.550105402234784,-703.3365126999537,-15.699402130633137
303,-16.553171345728867,-28.022052202184103,-717.2925738690319,-15.570942465170546
304,-16.263364727302438,-28.21195506342362,-723.4473697129749,-15.218890991069774
305,-15.736548521645183,-28.112822183773005,-721.3581781682857,-14.643066707782548
306,-14.97475581974559,-27.726040292277933,-710.7696898254762,-13.850316794638994
307,-13.987045177711929,-27.061493153123678,-691.6190854543593,-12.854589355880636
308,-12.789525595826303,-26.13732655007932,-664.0322789644624,-11.676727504726392
309,-11.405116362212478,-24.97936711629973,-628.3116066126053,-10.34398934373204
310,-9.863041791311803,-23.620220317649924,-584.9158050357506,-8.889311187808127
311,-8.198071998393324,-22.098089319432415,-534.4336395227177,-7.350342919070413
312,-6.449531865371146,-20.45537036977022,-477.55297780178466,-5.768294060096415
313,-4.660110772140834,-18.737090914818296,-415.027416516379,-4.186636620173642
314,-2.8745149661181824,-16.989263329155495,-347.6427293386587,-2.6497157952033397
315,-1.1380120651404475,-15.257229581294109,-276.1854014007814,-1.201322105927591
316,0.5050773947457526,-13.584070319144683,-201.41534209025724,0.11672147326317722
317,2.0128835842668087,-12.00914601795299,-124.04453863708582,1.2659062925429927
318,3.3474280882476695,-10.566828541034395,-44.722950054757845,2.212272158388286
319,4.475945601604912,-9.28546951711349,35.967621256667094,2.9274884271754504
320,-2.221373822825252e-11,-9.525853729713694e-11,7.69486180488283e-10,-2.88564099604808e-11
321,-3.7795855974852965e-10,-2.0567536307656435e-09,1.5524269583521894e-08,-4.869887714105364e-10
322,-3.894688753225146e-09,-2.2706278052352096e-08,1.7291121059599432e-07,-5.332808387490492e-09
323,-2.6261856733375295e-08,-1.65787516049445e-07,1.2659054971795506e-06,-3.840687576003638e-08
324,-1.3348461986241433e-07,-9.066281130990681e-07,6.945284421828243e-06,-2.1002601948312207e-07
325,-5.501868564985335e-07,-3.974205797815202e-06,3.054555887035733e-05,-9.347170374642354e-07
326,-1.935592542949833e-06,-1.4596415811446028e-05,0.00011254938793778535,-3.54516767223974e-06
327,-6.0308528750452066e-06,-4.635597937188878e-05,0.0003585165207852081,-1.1819775530545117e-05
328,-1.7084216649358583e-05,-0.00013035917484992296,0.0010108474404372484,-3.5387029305562905e-05
329,-4.476958688261384e-05,-0.0003306991274261384,0.0025696662015852224,-9.655313684506135e-05
330,-0.0001096685796697162,-0.0007682056959888657,0.005977292775521531,-0.0002426691768603941
331,-0.00025266176458130506,-0.0016542274476813788,0.012877133469480306,-0.0005664926802046075
332,-0.0005496621880881888,-0.003335765145761005,0.025951883395118096,-0.0012369514538725834
333,-0.0011330248608232088,-0.006352754170519101,0.04933875030563593,-0.00254231538505892
334,-0.0022207548683388567,-0.011507684241854438,0.08911159326609591,-0.0049471595735451354
335,-0.0041543582268789665,-0.019946978482646392,0.15381165157263427,-0.009163746795009284
336,-0.007445755013096818,-0.03325250868673103,0.25499954633019617,-0.0162374825870588
337,-0.01283298798160218,-0.05354022377332358,0.40779122451085564,-0.027644751464298765
338,-0.021343492865438046,-0.08356114497197269,0.6313296766925164,-0.04539966924257532
339,-0.03436258904377863,-0.12679810370273117,0.9491335109899985,-0.07216421871420567
340,-0.05370378045173204,-0.18754982226847638,1.3892545290915816,-0.1113541082007649
341,-0.08167649433903656,-0.2709925323058803,1.9841712962055953,-0.16723071458061647
342,-0.12114597440994636,-0.38320851929293837,2.770346469152775,-0.24496781457411712
343,-0.17557912843726836,-0.5311709241768242,3.787383903477068,-0.35068065773927515
344,-0.24906929539579184,-0.7226749175994683,5.076738300541137,-0.4914045638881229
345,-0.3463323540152404,-0.9662070277845158,6.679955281590834,-0.6750109088340507
346,-0.4726665858070151,-1.2707469682160393,8.63645236546384,-0.9100502918683276
347,-0.6338694139060379,-1.6454997541243128,10.980889386683787,-1.2055159161086797
348,-0.8361057016839141,-2.099560138654704,13.74021766259417,-1.5705247311499304
349,-1.0857247845766334,-2.641516254156583,16.930537407134423,-2.0139195417169407
350,-1.3890267750171472,-3.279004507263006,20.553928901396507,-2.543801773630271
351,-1.7519826671459522,-4.018232849698175,24.59545156331472,-3.1670113989897883
352,-2.1799169617511227,-4.863494093868677,29.020523503220705,-3.8885770436601574
353,-2.6771655187193732,-5.81669457227218,33.7729004671679,-4.711164978690759
354,-3.246724834979754,-6.876925834729721,38.77346572437176,-5.634560105330879
355,-3.8899117738491547,-8.040107999483473,43.92002051619372,-6.655214817837371
356,-4.606054766694024,-9.29873261896084,49.08822747664553,-7.765902334825524
357,-5.3922384470840194,-10.641730322224685,54.13380719305613,-8.955509268537734
358,-6.243123322915274,-12.054483948789093,58.896022079523306,-10.208997522339391
359,-7.150860285878892,-13.519001430926442,63.20240497221886,-11.507558073240753
360,-8.105116414225632,-15.01425453993599,66.87460691576291,-12.828969144111115
361,-9.093223600234937,-16.516680229358844,69.73515540055635,-14.148159283307418
362,-10.100455037354171,-18.00083130877664,71.61483757367388,-15.43796266466094
363,-11.11042673850172,-19.440153305197295,72.36035923610922,-16.670040366958872
364,-12.105612520255184,-20.80785539184492,71.8418857344648,-17.81592850485657
365,-13.067952023349036,-22.077835906761074,69.9600496253709,-18.84816293337846
366,-13.979523159679276,-23.225617854286043,66.65201512562115,-19.741421805669315
367,-14.82324360715491,-24.229247312412923,61.896221537974455,-20.47362227037829
368,-15.583561241046002,-25.070108096897282,55.715485790604966,-21.02690659059788
369,-16.247091236549178,-25.73360938602734,48.17822454303769,-21.388456288841056
370,-16.803158428723403,-26.209709134403997,39.39765420858794,-21.55108067107506
371,-17.24420753465823,-26.49324467255895,29.52893679411722,-21.513537971318474
372,-17.566050856990906,-26.58405242768957,18.764354183949052,-21.280562693165823
373,-17.767932646518535,-26.486870585781645,7.326706582576512,-20.86259048783561
374,-17.852400832580805,-26.211031000728898,-4.538764846907652,-20.275190928199606
375,-17.824989685993923,-25.769958912182467,-16.573542456997647,-19.53823756441893
376,-17.693730375852656,-25.18051020071485,-28.515628525551445,-18.67486232963358
377,-17.468519334947914,-24.46218517476102,-40.109479170051934,-17.71025630638926
378,-17.160385759384706,-23.636264543774438,-51.115572576503375,-16.670389771805496
379,-16.78070842580141,-22.72491676743333,-61.31913082661517,-15.580730369214596
380,-16.34043752662984,-21.750326099106605,-70.53756664398642,-14.465038726927935
381,-15.849378840605223,-20.733887359219246,-78.62630408238793,-13.344315819160943
382,-15.315594901771938,-19.695507066579662,-85.48271990756913,-12.235966154618504
383,-14.744970783666137,-18.65304157945041,-91.04806333263413,-11.153226146680437
384,-9.521694786191417e-11,-1.0995860823789076e-10,-2.6737435492956737e-10,-1.5498036742531391e-10
385,-1.7658525164453416e-09,-1.953931871561162e-09,-5.812421001608255e-09,-3.3918735825364646e-09
386,-2.0751247067348616e-08,-2.2024572952497277e-08,-6.437870388996719e-08,-3.820259333607575e-08
387,-1.579552818748276e-07,-1.6212493307843213e-07,-4.71728826866984e-07,-2.836868414520158e-07
388,-8.982634379444005e-07,-8.956470463599385e-07,-2.5884161701197244e-06,-1.573693349248827e-06
389,-4.078368756912705e-06,-3.969915804880455e-06,-1.1381181674057222e-05,-6.977491934674112e-06
390,-1.544856730082195e-05,-1.4755840684346822e-05,-4.1910235302500415e-05,-2.584442298119888e-05
391,-5.038523386352662e-05,-4.746140786769341e-05,-0.0001333707959226527,-8.253306586255069e-05
392,-0.00014491469761928095,-0.00013525055332649224,-0.0003755525413248486,-0.0002327365023336744
393,-0.00037457950085424723,-0.00034780529505945237,-0.000953214229007684,-0.0005905658994937174
394,-0.0008836823783291115,-0.0008190465491149739,-0.002213570987561159,-0.001369230237119592
395,-0.0019271486253203786,-0.0017875082178106393,-0.004760913429177098,-0.002937353048117197
396,-0.0039267373508055595,-0.0036512097032631564,-0.009580637562003658,-0.005891877087218396
397,-0.007542649359443496,-0.007037886045108936,-0.01819303926783184,-0.011147244382545511
398,-0.013760599911171456,-0.012890188884598842,-0.03283528492626957,-0.02003909751728508
399,-0.02399305562089427,-0.022564065612707244,-0.05666791409392201,-0.03443912050988402
400,-0.0401915393020075,-0.03793695661170259,-0.09399974254592246,-0.05687585576532933
401,-0.06496479693945448,-0.06152071611095739,-0.1505218091498082,-0.0906544566927179
402,-0.10169529964008299,-0.0965722184876685,-0.23353695535702598,-0.13996638215068824
403,-0.1546441686238149,-0.14719252986916032,-0.3521670594140053,-0.2099780425083215
404,-0.2290323837901384,-0.21840350002452946,-0.5175155918149498,-0.3068855723358872
405,-0.33108441481228057,-0.31618898777734566,-0.7427599682404794,-0.43792165617869894
406,-0.4680196315130182,-0.4474871051551854,-1.0431470509420186,-0.6113002269485205
407,-0.647977300072922,-0.6201202204638652,-1.4358666295150586,-0.8360863147327707
408,-0.8798628066859122,-0.8426512980672888,-1.9397818942011025,-1.1219815010860965
409,-1.1731059470455734,-1.124158547896283,-2.575002499681194,-1.479020177878177
410,-1.5373266612032153,-1.4739252270964835,-3.362294342757103,-1.9171777782896606
411,-1.9819093754857897,-1.9010474569281806,-4.322330150286684,-2.445898859862852
412,-2.5154939403321745,-2.413969658159278,-5.474795945152668,-3.0735598192581977
413,-3.1453986098570947,-3.019964126216907,-6.837379929611457,-3.806887549171851
414,-3.8769980732445437,-3.724577836465948,-8.424681689808333,-4.650361049273407
415,-4.713086694592697,-4.531075322418006,-10.247090140523033,-5.60562757691837
416,-5.6532633038619995,-5.439910964075984,-12.309687440642554,-6.670968120936542
417,-6.6933785376416575,-6.448266881461274,-14.611242349920822,-7.840848495342345
418,-7.825088141288948,-7.549693419374993,-17.143359344487138,-9.105591754502802
419,-9.035555176812558,-8.733887557561838,-19.88984861480741,-10.451204555747074
420,-10.307340300869495,-9.986640147520733,-22.826376393715087,-11.859384385008838
421,-11.618512169254693,-11.289975567153187,-25.920444741486918,-13.30772638955484
422,-12.942999848538859,-12.622497352820348,-29.131735074773275,-14.770138346365236
423,-14.251196384778984,-13.95994115835988,-32.412830903659824,-16.217460639963743
424,-15.510808030161517,-15.275922811065906,-35.710313456071496,-17.618275791963175
425,-16.68792791792845,-16.542855330542963,-38.96620067088044,-18.93987999272609
426,-17.74829721478017,-17.732995651545437,-42.119677337657116,-20.149378211245967
427,-18.658702034358804,-18.819570498393293,-45.10904391462879,-21.214855633002067
428,-19.38844172202953,-19.777922352659875,-47.87379547084832,-22.106571984056462
429,-19.91079448514229,-20.586611481763452,-50.35673147302268,-22.798122092343235
430,-20.204400718982026,-21.228409132331446,-52.50599244545366,-23.267506062951124
431,-20.25448357002239,-21.69112050973786,-54.276921061226695,-23.49805583382862
432,-20.053830791504847,-21.96818406347128,-55.633652844966115,-23.479171549834593
433,-19.603471717807153,-22.05900548017875,-56.55035501176008,-23.206830706459577
434,-18.912997687664447,-21.968999957950622,-57.012050487230475,-22.683844644994338
435,-18.000492590081443,-21.709333791180917,-57.01498701287439,-21.919849875673233
436,-16.892061381022877,-21.29637485037286,-56.5665372048638,-20.931035045849967
437,-15.620967230150598,-20.75087991451832,-55.6846427695234,-19.739617384119725
438,-14.226411004624499,-20.096963676855708,-54.396842676810586,-18.373094365371166
439,-12.752008500324594,-19.360908380015424,-52.73894877067185,-16.863306456149527
440,-11.244039576056808,-18.569883349600932,-50.75345115126287,-15.245354587939874
441,-9.749557771710666,-17.750649407887106,-48.487748385517044,-13.556421207713944
442,-8.314458031524337,-16.928323796782895,-45.99230351811893,-11.834546277891798
443,-6.981603150617926,-16.12527678445967,-43.31882588250334,-10.117409439818909
444,-5.789106258528123,-15.36022190640036,-40.51857119578741,-8.44116679557686
445,-4.768857275777822,-14.647548486612372,-37.64083903747559,-6.8393856772296315
446,-3.945366540175687,-13.99692867942926,-34.731728538567765,-5.342113888894919
447,-3.334979775682629,-13.413212972305777,-31.833191277218212,-3.9751119230859286
448,-7.607009915502607e-11,-8.545813502846773e-11,-1.6361962228291412e-10,-7.369662794269423e-11
449,-1.5983421977160604e-09,-1.8589750228528685e-09,-3.401345682757934e-09,-1.4828995226658805e-09
450,-1.7923739101554454e-08,-2.08258465996285e-08,-3.853550285614261e-08,-1.6885083566790825e-08
451,-1.3327976065309453e-07,-1.5429747892613437e-07,-2.8724625932422586e-07,-1.2702463952846185e-07
452,-7.455875107789067e-07,-8.567185926611298e-07,-1.6046432988234e-06,-7.191409743670505e-07
453,-3.3579778594115446e-06,-3.8145249093968465e-06,-7.1831238418571316e-06,-3.277569999985233e-06
454,-1.272292655600673e-05,-1.42335485139489e-05,-2.691994777492729e-05,-1.2563552777276441e-05
455,-4.1821014583502935e-05,-4.5923965195506514e-05,-8.713643454053074e-05,-4.176357660306358e-05
456,-0.00012199650373927698,-0.00013116180296389785,-0.00024940290398499203,-0.00012313761274095845
457,-0.00032135238323350326,-0.0003377264074751609,-0.0006430040313826522,-0.000327627680418844
458,-0.0007749031119661572,-0.0007955787751762345,-0.0015157582808488514,-0.0007974216872728312
459,-0.0017297416996374156,-0.0017352904085247717,-0.0033074301117551803,-0.0017952943309736962
460,-0.003607586849262951,-0.003539622658589543,-0.0067488811453475074,-0.0037735915798808315
461,-0.007085818687839479,-0.006808757035958635,-0.012988457808108797,-0.007464250514004521
462,-0.013196844858316518,-0.012438731469597175,-0.023744876597230152,-0.013989630638804594
463,-0.023444509103572413,-0.021711690862474656,-0.04148307539714683,-0.0249923967862035
464,-0.039935042942777936,-0.03639551714796061,-0.06960628915752799,-0.04278110746165121
465,-0.06551837146501881,-0.05884910570437207,-0.11265429809302539,-0.07048620873457315
466,-0.1039331634807724,-0.0921278828618237,-0.17649472301420055,-0.11221856519474195
467,-0.15994600445495144,-0.14008216254032443,-0.2684915936380185,-0.17321953471054202
468,-0.23947196633732365,-0.20743887670612152,-0.3976331963130678,-0.2599882773869779
469,-0.34966129515066335,-0.29985550131465244,-0.5745993322937991,-0.3803690517514831
470,-0.49893550753241456,-0.42393408796484994,-0.8117467625397421,-0.5435793622093369
471,-0.6969562437112518,-0.5871835291452366,-1.1229913394795987,-0.7601595920808715
472,-0.9545118978554207,-0.7979196602431021,-1.5235670525452663,-1.0418265972724894
473,-1.283310227556983,-1.0650954478064458,-2.029646779592099,-1.4012176746680798
474,-1.6956695767227705,-1.3980571170891536,-2.657817308862416,-1.8515170448034348
475,-2.2041067575388404,-1.8062263722812348,-3.4244117300515926,-2.4059640176788504
476,-2.820825881283146,-2.298713636768994,-4.344714462775846,-3.0772499541811666
477,-3.5571194365671484,-2.8838722995455646,-5.432066502354843,-3.8768197197446352
478,-4.422700512416103,-3.5688091055496147,-6.696909557610008,-4.814102252554686
479,-5.424992789462852,-4.358870813023824,-8.145816730673287,-5.895703634358061
480,-6.568412031438333,-5.257131696401618,-9.780563818748341,-7.124603934830796
481,-7.853678488688496,-6.263909968322339,-11.597299111905116,-8.499405323646759
482,-9.277203176402288,-7.376343283359521,-13.58587061061178,-10.013682769460827
483,-10.830591912889155,-8.588053795412907,-15.729367633577095,-11.655489427769854
484,-12.500308959344101,-9.888931508732258,-18.00392834323827,-13.407065987671345
485,-14.26753695633843,-11.265060791160774,-20.378855330132946,-15.24479645118069
486,-16.10826172996164,-12.698808977464175,-22.817067867372263,-17.13944208101348
487,-17.993599878303897,-14.169088238828456,-25.27590212899122,-19.05667109411211
488,-19.890374483716418,-15.65179275207159,-27.7082504742033,-20.957884993783196
489,-21.761930552390425,-17.120403240104725,-30.064009254005374,-22.80132433832886
490,-23.569167626402038,-18.546740852193018,-32.291783177946385,-24.54341843785796
491,-25.271753313014347,-19.901842841078416,-34.340774799602436,-26.140326213504366
492,-26.829469226808822,-21.15692428973527,-36.16277172149987,-27.549600537450583
493,-28.203631023226492,-22.284383843294602,-37.71413297501893,-28.731896962780937
494,-29.35851760820228,-23.258807444534842,-38.95767072225277,-29.65264075791993
495,-30.262741718213633,-24.05792269062031,-39.86432458434463,-30.283564145799517
496,-30.89049511224011,-24.66345771343403,-40.41453371805975,-30.604028928193998
497,-31.222606643032837,-25.061862401454093,-40.59922581729667,-30.602058325607
498,-31.247360318859666,-25.244856187948603,-40.420361554398966,-30.275015672654625
499,-30.961032640389107,-25.20977522765025,-39.89099620277189,-29.629885916951476
500,-30.36812317021611,-24.959702081709537,-39.034845765524544,-28.683137565553622
501,-29.481268396145207,-24.503372338111163,-37.88537133232061,-27.460166340529064
502,-28.320845368268586,-23.854864098783096,-36.48442115428747,-25.994345707411124
503,-26.91428726054079,-23.0330871446459,-34.88049370389808,-24.32573193610092
504,-25.295146915830315,-22.061098124468835,-33.126705450978584,-22.499490785223326
505,-23.501955658950067,-20.96527576009261,-31.27856304880784,-20.564127837060113
506,-21.576932490835993,-19.774395454531444,-29.391650071852208,-18.569613930291414
507,-19.56460286421934,-18.51864563742912,-27.519342711542606,-16.565500579802755
508,-17.510386631788982,-17.228628638908646,-25.71066662143628,-14.599117766463978
509,-15.459211791901735,-15.934386959734953,-24.00839850059884,-12.713938423911717
510,-13.454204854822711,-14.664491782737407,-22.447501482744933,-10.948181043585961
511,-11.535500673112843,-13.445224885667715,-21.053963829344582,-9.333705086817618
512,-9.710992981304124e-11,-7.454283365281969e-11,-1.0419752194909253e-10,-1.0942842280864389e-10
513,-2.0525460472692124e-09,-1.5857915119964811e-09,-2.2882309965843905e-09,-2.422068293711368e-09
514,-2.3278549517638498e-08,-1.7619061421221226e-08,-2.5723412119575804e-08,-2.6739184343453124e-08
515,-1.7399247381106026e-07,-1.2924754333628188e-07,-1.911504545360607e-07,-1.951431611572074e-07
516,-9.693198280258206e-07,-7.104058385963449e-07,-1.063602773096344e-06,-1.062859374040138e-06
517,-4.309121258495081e-06,-3.130427503601189e-06,-4.7430133491087245e-06,-4.623826736342472e-06
518,-1.5972968424714785e-05,-1.1558154143977906e-05,-1.7719450306265465e-05,-1.6792122731266283e-05
519,-5.094553187250339e-05,-3.689797744276056e-05,-5.72318828850023e-05,-5.253746224116406e-05
520,-0.00014318133040772273,-0.00010428342256522052,-0.00016363199141175423,-0.00014503040178456405
521,-0.00036132241628922837,-0.00026581103397007265,-0.000421809830259133,-0.0003599713616834802
522,-0.0008313310487490635,-0.0006202250539188779,-0.0009948282915758025,-0.0008157561513491385
523,-0.0017661571728493615,-0.0013410575158912723,-0.0021723908541967825,-0.0017094842934924552
524,-0.0035017059241390443,-0.0027143355561980893,-0.004435654659985581,-0.0033483155070841114
525,-0.006537718413166818,-0.005186453374681147,-0.008538400842706781,-0.006185474918430851
526,-0.01158178652225764,-0.009422195809832067,-0.015602967910107273,-0.01086025098874937
527,-0.019594486368148655,-0.01637218779674958,-0.027227866874219818,-0.018241419664872666
528,-0.03183335353527712,-0.027348183850846426,-0.04560269937555308,-0.029473396754049253
529,-0.04989294161591916,-0.04410356191272802,-0.07362478955694911,-0.04602382970517988
530,-0.07573737815270687,-0.06891512250760756,-0.11501063680780566,-0.06973018903381094
531,-0.11172074438423832,-0.10466086366750574,-0.17439377918989046,-0.1028413766277239
532,-0.16058960700634092,-0.15488693515794585,-0.25739899774187525,-0.14804889781358568
533,-0.225461621591384,-0.22385568087101382,-0.3706813066565455,-0.20850132563862295
534,-0.30977470054512507,-0.3165658099563602,-0.521917370693064,-0.2877959867109026
535,-0.41720282907004175,-0.4387355253759428,-0.7197373799923658,-0.38994294414394365
536,-0.5515369325531704,-0.5967400560996399,-0.9735873214051066,-0.5192980079914316
537,-0.7165318283068284,-0.7974965525180858,-1.2935150259429864,-0.6804631781168556
538,-0.9157229140645309,-1.0482916863721192,-1.6898780788912937,-0.8781543680114791
539,-1.152218687023447,-1.3565504244349187,-2.172977209348799,-1.1170375177776521
540,-1.4284773441633636,-1.7295481519474394,-2.7526246177060827,-1.4015354927375645
541,-1.7460775045291324,-2.1740724068814856,-3.4376623209868895,-1.7356097012688616
542,-2.1054944531348427,-2.6960447328312713,-4.235450479073917,-2.1225222967189015
543,-2.5058942480791284,-3.300117325350832,-5.151349398362066,-2.5645871667836357
544,-2.944958567972676,-3.9892629559698105,-6.1882212709188185,-3.0629204724215806
545,-3.418753246443756,-4.7643798179939205,-7.345978711561715,-3.6172038635349684
546,-3.9216528585347605,-5.623935142279672,-8.621206945084063,-4.225475139174632
547,-4.446332298654949,-6.5636723972404605,-10.006885175011616,-4.883961608665591
548,-4.983833915705885,-7.576406361830755,-11.492230128613658,-5.586970584639716
549,-5.523715506116081,-8.65192816814635,-13.062680731071891,-6.326849400443042
550,-6.054280469429118,-9.77703847389244,-14.700037030685069,-7.09402432667073
551,-6.562886952557716,-10.935721317432405,-16.382758904688036,-7.8771240353950915
552,-7.036328175857927,-12.109464153961005,-18.086421217742693,-8.663189111745615
553,-7.461271752879164,-13.27772145411281,-19.784312881284315,-9.437964838171458
554,-7.824742101975082,-14.41851056814305,-21.448158679616686,-10.18627031921672
555,-8.114627274996558,-15.509119898167073,-23.048935592920543,-10.892433091156436
556,-8.320189787542128,-16.52690139486056,-24.55775010058545,-11.540774696160227
557,-8.432560267508153,-17.450112601154053,-25.946739694276566,-12.116129362714315
558,-8.445192879366974,-18.25876845417017,-27.189960511550897,-12.604375153660413
559,-8.354262476004472,-18.935460264560515,-28.26422353775793,-12.992955073951546
560,-8.158985216554031,-19.46609901533227,-29.149844187005204,-13.271364991227651
561,-7.861846828102685,-19.84054246314785,-29.831274217407834,-13.431585959799982
562,-7.468725641082396,-20.053070401542193,-30.2975907200779,-13.468440629575886
563,-6.988900908036124,-20.102679586639464,-30.54282401087145,-13.379856747690823
564,-6.434940738598586,-19.993178829340206,-30.56611412224662,-13.167025141769045
565,-5.8224682400324514,-19.733075115490443,-30.371693576973314,-12.834444711957053
566,-5.169809027215403,-19.33525276240195,-29.968701582696216,-12.389852413257948
567,-4.497527904843115,-18.81645892849381,-29.370841266373013,-11.844041483603972
568,-3.8278669411102593,-18.196619579794245,-28.59589690846027,-11.210575861657091
569,-3.1841011133145636,-17.49801956009039,-27.66513241969949,-10.505412609984832
570,-2.5898310404593,-16.744388002941594,-26.602595645804772,-9.746447118150517
571,-2.06823492937128,-15.959935381174475,-25.434355472365716,-8.952997890970982
572,-1.6413037221570714,-15.168390647338754,-24.18769995730304,-8.145248887680443
573,-1.3290846337147988,-14.392086083834178,-22.890323661868777,-7.343667811782433
574,-1.1489589372058793,-13.651133811357713,-21.569530992799443,-6.5684186318538975
575,-1.114980023367849,-12.962731738406498,-20.25147997087991,-5.838786033515605
576,-4.5637196814662495e-12,-8.702474549369522e-11,-6.059588596593949e-11,8.944039247052207e-12
577,-1.0301549493537922e-10,-1.8453058624670743e-09,-1.067975039541558e-09,1.8293777522354753e-10
578,-1.3043146472099974e-09,-2.0516873835446324e-08,-1.2026419287182467e-08,1.4669967457159429e-09
579,-1.1386422562350488e-08,-1.509825717912008e-07,-8.886845866036025e-08,6.1709514933289726e-09
580,-7.632336381352792e-08,-8.331702200567239e-07,-4.953649916840281e-07,4.923655916310262e-09
581,-4.136132188519194e-07,-3.689413134859066e-06,-2.227757989348751e-06,-1.217356332608163e-07
582,-1.8711427905250372e-06,-1.3702017701315772e-05,-8.453376710622755e-06,-1.0299953632676496e-06
583,-7.2345895068340894e-06,-4.403871064683829e-05,-2.792630624172554e-05,-5.267940311970944e-06
584,-2.436987330686614e-05,-0.00012540779349966014,-8.219336294699726e-05,-2.0706768751319663e-05
585,-7.270883750191486e-05,-0.0003222701597270436,-0.0002193235168132497,-6.778477411950831e-05
586,-0.00019493905211814716,-0.0007583948739827396,-0.0005377852796218862,-0.00019264617950392506
587,-0.0004757110380184427,-0.0016540451950248997,-0.001224621971813402,-0.00048809359932257637
588,-0.0010686603261538254,-0.003376538052576474,-0.0026118388700748212,-0.0011235472420579322
589,-0.0022322246667954935,-0.006505124789251211,-0.005253701057950246,-0.0023841343898985635
590,-0.004373914179125118,-0.011910185458705558,-0.010025542390673454,-0.004717964227573008
591,-0.008102095457929528,-0.020845661240279006,-0.018242157309312196,-0.008789832281847218
592,-0.01428403130146729,-0.03505243573543245,-0.03179145757372542,-0.015539110760696065
593,-0.02410877796729393,-0.05686894833445564,-0.05327719979698161,-0.02623933618414811
594,-0.03915343181002991,-0.08934363180665789,-0.08616322188638825,-0.042556877983268765
595,-0.061450994433328104,-0.13634186493632777,-0.13491040080778802,-0.06660592849707074
596,-0.09355767535676997,-0.2026382012825409,-0.20509601319000753,-0.10099678159688398
597,-0.13861673628881008,-0.29398296856607964,-0.30350312251901906,-0.14887394514964863
598,-0.20041512128699174,-0.41713127182064663,-0.43816526398975897,-0.21394023981893073
599,-0.2834283994942526,-0.5798222724472647,-0.618349752878699,-0.30046303307048555
600,-0.39284928822590276,-0.7906975497597609,-0.8544624031963999,-0.4132594901308781
601,-0.5345953593583375,-1.0591494288072962,-1.1578582121325054,-0.5576592717885499
602,-0.715292316910066,-1.3950933108096466,-1.540547124912207,-0.7394451892558221
603,-0.9422301471819585,-1.8086621137384173,-2.014791150071039,-0.964774430301795
604,-1.2232901940240277,-2.309825729286551,-2.5925980624912532,-1.240084613479387
605,-1.5668416693824807,-2.907943701404567,-3.285126536567183,-1.571989803753443
606,-1.9816062856829588,-3.6112648645237297,-4.102026564506742,-1.967171609763032
607,-2.4764896780593104,-4.426393121908781,-5.050746439130093,-2.4322695837538144
608,-3.0603782074349564,-5.357743498798047,-6.135842861960542,-2.9737734685971002
609,-3.741899799381619,-6.407016630796126,-7.358333866639997,-3.597917610108084
610,-4.529147910085967,-7.57272249628528,-8.715135527532897,-4.3105753885340095
611,-5.429368698011999,-8.849785107841454,-10.198623124738242,-5.117149138495973
612,-6.4486130911072985,-10.229258812562158,-11.796355402233647,-6.0224490046785695
613,-7.59135767592269,-11.698183761078665,-13.49099620548615,-7.030552791827853
614,-8.860101183868506,-13.239603062566552,-15.260460378345103,-8.14463840155434
615,-10.254946759439632,-14.832757313581963,-17.078299954327388,-9.366781158603722
616,-11.773183982625417,-16.45346379013403,-18.91433267675162,-10.69771034381124
617,-13.408888433786029,-18.074677945643568,-20.735498769120575,-12.136522540691802
618,-15.15256002258782,-19.667224430166137,-22.506915200437632,-13.680353865286044
619,-16.990824031786445,-21.200674300129382,-24.19308113562961,-15.324018688069915
620,-18.906220650022778,-22.64433522562633,-25.759175351132203,-17.059628937524668
621,-20.877109478488258,-23.968313148779224,-27.17237729416253,-18.87621514816723
622,-22.877714755770818,-25.14459770792052,-28.40313900027786,-20.759377397495825
623,-24.878334427312566,-26.14812028454779,-29.426335709880238,-22.691000223736246
624,-26.84573136546494,-26.957732970646077,-30.222228824148885,-24.649069553496364
625,-28.74371795485508,-27.557059094737195,-30.77718541765394,-26.607630783143225
626,-30.533936086073684,-27.935171063264317,-31.084113055430784,-28.536924859815844
627,-32.17682372010134,-28.08705894352801,-31.142585979535554,-30.403733149436835
628,-33.63274712763025,-28.013863106398386,-30.958657572680153,-32.17195202953626
629,-34.863265416785566,-27.72285587087414,-30.544373139421197,-33.80340490842947
630,-35.83248200631498,-27.227169799191838,-29.917015334510964,-35.25888359214139
631,-36.50842734217928,-26.545283302026572,-29.098130957546175,-36.49939373585323
632,-36.86440936220283,-25.700286713968445,-28.112401312759268,-37.487561774823256
633,-36.88026374379141,-24.718963226468638,-26.98642799370721,-38.18914449888813
634,-36.54343537881068,-23.630728362825256,-25.747510970837876,-38.57456861667542
635,-35.84982618902824,-22.466478542454425,-24.422495565391444,-38.620417561503636
636,-34.80435247417366,-21.257403362744835,-23.036758838860138,-38.31077760112373
637,-33.42116726413808,-20.03381734562191,-21.613394112729974,-37.638355872928045
638,-31.72351900667229,-18.82406503150633,-20.172635456784676,-36.60528966575595
639,-29.743236412485334,-17.653548585876543,-18.731543559673657,-35.223579046753485
640,-1.3389925389763688e-10,-7.840666510364022e-11,-1.1651458911323883e-10,-1.50641691551398e-10
641,-2.930012447733378e-09,-1.6278202671395822e-09,-2.3872598295210043e-09,-3.274121201408747e-09
642,-3.2354744577121206e-08,-1.8213841324626875e-08,-2.7282246845225738e-08,-3.611671181384486e-08
643,-2.36002571408267e-07,-1.3469164414557228e-07,-2.0453300913482025e-07,-2.631813477366543e-07
644,-1.2845442387561763e-06,-7.471851465678563e-07,-1.148715311668103e-06,-1.4314313873862083e-06
645,-5.585409168115445e-06,-3.3268691857825307e-06,-5.167489762789467e-06,-6.221292196894661e-06
646,-2.0283030012853004e-05,-1.242640216710833e-05,-1.9452431902213463e-05,-2.2586981791208167e-05
647,-6.350728963204768e-05,-4.017668960428768e-05,-6.321118981937032e-05,-7.071548728576614e-05
648,-0.00017565653502387338,-0.00011511502248891001,-0.0001814993738123845,-0.0001955916345798494
649,-0.0004375302300522763,-0.00029769848164759333,-0.0004689858121820189,-0.0004871704564981341
650,-0.0009968858826152971,-0.0007051330000963119,-0.0011067630446201218,-0.0011098501841803898
651,-0.002104625431644614,-0.0015480935333058946,-0.0024145761179602434,-0.0023424864054373117
652,-0.0041613879233802905,-0.0031814913838475035,-0.0049196850171788955,-0.0046297237993051426
653,-0.007774758645841437,-0.006170700947372304,-0.009442333068869796,-0.008644926623033742
654,-0.01382645051778078,-0.011373645037069545,-0.017196648995478257,-0.015364316564957417
655,-0.02354763339185319,-0.0200379102472367,-0.029904717130535965,-0.026150966868502157
656,-0.038599196711404236,-0.03391062918432492,-0.04992020398562925,-0.04284604620020268
657,-0.061152308874537924,-0.05535721414465298,-0.08035603410367276,-0.06786322862559453
658,-0.09396330053896408,-0.08748314011978439,-0.12520806397222858,-0.10428057571585592
659,-0.1404357122469387,-0.1342508980893708,-0.1894637937191499,-0.15592256126996376
660,-0.20466141716108632,-0.200582106330885,-0.2791824616994447,-0.22742342422269232
661,-0.29143224178018384,-0.29243281617009714,-0.40153105807346817,-0.3242619238073822
662,-0.40621366148998544,-0.4168286094032448,-0.5647604257373123,-0.452757051750332
663,-0.5550730526952687,-0.5818455111689719,-0.7781069386413971,-0.6200144781094968
664,-0.7445566674618826,-0.7965233656034558,-1.0516082431270681,-0.8338145968808779
665,-0.9815119655536826,-1.070700358898491,-1.3958259609936305,-1.1024351246657218
666,-1.2728552077312991,-1.4147608958166018,-1.8214737752801382,-1.4344043931612198
667,-1.6252882074344885,-1.8392939145527105,-2.3389556246416716,-1.8381856826732448
668,-2.044972600115838,-2.354664669293642,-2.9578255635165513,-2.321797839697367
669,-2.5371744893646557,-2.9705095927703247,-3.6861879314786297,-2.8923825110701067
670,-3.1058963915764646,-3.6951705925489544,-4.530063491501428,-3.5557331669375802
671,-3.7535166178108526,-4.535091567235399,-5.49275368712441,-4.3158054145277465
672,-4.480458272108359,-5.494205626289126,-6.574240483672174,-5.174231796010191
673,-5.284910646873363,-6.573346092433849,-7.770662659674474,-6.129867204903083
674,-6.16262478599762,-7.769717498672672,-9.073910177138924,-7.178393061478073
675,-7.106802369815441,-9.076464101879012,-10.471375942545649,-8.312009221064896
676,-8.108093024001528,-10.482372535841446,-11.945898780069374,-9.519241946868517
677,-9.154709914491168,-11.971741781341377,-13.475923059020037,-10.784893803693636
678,-10.232667267293124,-13.524447429194375,-15.0358895884194,-12.090156661216643
679,-11.3261364300024,-15.11621831437179,-16.596859614117594,-13.41290198419813
680,-12.417909543080166,-16.719132394022427,-18.12735951828553,-14.728153472627309
681,-13.489952259265,-18.302325954798942,-19.59441881825404,-16.00873656394706
682,-14.524019832292952,-19.83289681079094,-20.964759334065185,-17.226088206190564
683,-15.502304933891033,-21.276969112018186,-22.206080334192553,-18.351199512239113
684,-16.40808140550469,-22.60087570346531,-23.288374575794496,-19.355654156502062
685,-17.22630643847837,-23.772404506325145,-24.185204604187337,-20.212717345857182
686,-17.944144908221087,-24.762048847370824,-24.874868106314057,-20.89842450771294
687,-18.551383901290116,-25.544198560213662,-25.341385525611685,-21.39261591438608
688,-19.040712467836993,-26.098209344444502,-25.575252092003428,-21.67986341522394
689,-19.407850421230044,-26.409292364726188,-25.57390910897234,-21.750238106280985
690,-19.651519572591916,-26.469174235966733,-25.341904841411427,-21.599872938191464
691,-19.773260341777917,-26.276488962288507,-24.890732664767153,-21.231281910828212
692,-19.777105825914038,-25.83687746760434,-24.2383523056523,-20.653407728176862
693,-19.669133969071954,-25.162786269962748,-23.40841809542302,-19.881382549003803
694,-19.456926255550567,-24.272973642863366,-22.429255181118076,-18.9360013555289
695,-19.148967921735686,-23.191748178099573,-21.332639535601274,-17.84292360952974
696,-18.754029405711652,-21.94797985442913,-20.152449222551702,-16.631635089195978
697,-18.280570930621103,-20.573936425084252,-18.923261630309312,-15.334216784408522
698,-17.73621118182635,-19.104007232870455,-17.678973441188365,-13.983980201942236
699,-17.12729677485497,-17.573381805152312,-16.451516585809358,-12.614037367133804
700,-16.458601904309706,-16.01675147578264,-15.269734596655077,-11.255878585907908
701,-15.733178000594688,-14.467098887841965,-14.158470534092322,-9.938031511880572
702,-14.952362488265479,-12.95463292925278,-13.137901424720372,-8.68487147260324
703,-14.115944902935368,-11.505916075707587,-12.223136541968401,-7.515645717624763
704,-1.4008511246195794e-11,-1.008762573261532e-10,-3.436539727324992e-11,3.511976447563518e-11
705,-3.3318681507995294e-10,-2.131684147934821e-09,-7.1017324709977e-10,8.082656110535368e-10
706,-4.711977797316645e-09,-2.383208100882253e-08,-8.067470565289093e-09,8.145197388913964e-09
707,-4.2400605645315174e-08,-1.7582548191063652e-07,-6.064591980452336e-08,5.342765687964579e-08
708,-2.7903492077659695e-07,-9.727357511608213e-07,-3.426336997017109e-07,2.5372631376712513e-07
709,-1.441727461066059e-06,-4.317068570667053e-06,-1.5559128275053882e-06,9.228160910996368e-07
710,-6.126963398946014e-06,-1.60607021172341e-05,-5.933715403872224e-06,2.627962172944658e-06
711,-2.213600714511109e-05,-5.167384748951648e-05,-1.960165059839702e-05,5.7697075350231375e-06
712,-6.97065998315135e-05,-0.00014718664046439045,-5.7403263036413396e-05,8.70541855620942e-06
713,-0.00019512768543042093,-0.0003779988920857221,-0.00015173430976680313,2.772971525889328e-06
714,-0.0004934092051347281,-0.0008881856022323892,-0.00036728414004961763,-3.7924291551245214e-05
715,-0.0011422498653604642,-0.0019325034808058586,-0.0008237996005227753,-0.0001741775876464505
716,-0.0024486023652000397,-0.003932495970426954,-0.0017290461112956421,-0.0005285618110952486
717,-0.004908000352436802,-0.007547061393464994,-0.0034240572110529302,-0.0013225937382005965
718,-0.00927576570297747,-0.013756711512874433,-0.006442526873881077,-0.0029243512973031603
719,-0.01664829711835282,-0.02395954956017756,-0.011585735880781661,-0.005905896407279921
720,-0.028551656265917144,-0.040075670770584715,-0.020013570605668978,-0.011108943384236247
721,-0.04703341375446769,-0.06465515024901554,-0.03335084780245228,-0.019716191470799765
722,-0.07475216694201237,-0.1009829909518785,-0.05380624191801268,-0.03332458062389829
723,-0.11505745946047075,-0.15317245932195417,-0.08429871843193597,-0.05401547893163597
724,-0.17205125417870107,-0.22623638737085575,-0.1285837560242096,-0.08441552374868057
725,-0.2506208780600283,-0.3261246288022678,-0.19136912899168534,-0.12774062275786982
726,-0.35643275447802375,-0.45971532094605266,-0.2784079587811885,-0.18781471661818103
727,-0.4958766030116782,-0.634748232582448,-0.3965553912643649,-0.26905466133844197
728,-0.6759513975843173,-0.8596904366501711,-0.5537747781040073,-0.3764133194133523
729,-0.9040872580472344,-1.1435277937075834,-0.7590797027038158,-0.5152747446640451
730,-1.1879013401520122,-1.4954800693519337,-1.022399629088964,-0.6912980653825889
731,-1.534890263122017,-1.9246426193527348,-1.354359434287395,-0.9102100607979037
732,-1.9520663203391406,-2.439563125953391,-1.7659667623107547,-1.1775502699896134
733,-2.445549435583327,-3.047767523721284,-2.268206165943715,-1.4983765798604098
734,-3.020131370992723,-3.755254692428044,-2.871545390067066,-1.8769433600857748
735,-3.6788327927601268,-4.56598437674741,-3.5853665903455108,-2.3163679893126914
736,-4.422477073555288,-5.481386720063424,-4.417343118030402,-2.8183046310224147
737,-5.249306744839848,-6.499924348320062,-5.372789857944048,-3.382645999867502
738,-6.154668952462957,-7.61673867650655,-6.454021111234256,-4.007274331616846
739,-7.130794898457137,-8.823410698087192,-7.6597540183497514,-4.687881674051453
740,-8.16669502045931,-10.107862763222261,-8.984597160152104,-5.417876910774631
741,-9.248186700104721,-11.454421796948042,-10.41866313075562,-6.188392717049755
742,-10.358064879722068,-12.844056319862297,-11.947340518437358,-6.988400156159111
743,-11.476418489106951,-14.254790006214586,-13.55125486618894,-7.804932204258051
744,-12.581087487123607,-15.662283976284211,-15.206439856882561,-8.623410562674428
745,-13.64824709925689,-17.04056928443451,-16.884729378732143,-9.428063159651703
746,-14.65309800690494,-18.36290085664815,-18.55436873276163,-10.202413272375825
747,-15.570634361237056,-19.60269516078816,-20.180829836045177,-10.929815739264448
748,-16.376456091397802,-20.734506841580828,-21.72780193993583,-11.594011786451171
749,-17.047588532635807,-21.734995016807503,-23.158317368788992,-12.179671991170038
750,-17.563271298300982,-22.58382839766077,-24.435962282766667,-12.67289717830927
751,-17.90567978970827,-23.264480146851863,-25.526116370729124,-13.061649775242921
752,-18.060546800477006,-23.764868478571895,-26.397163146368843,-13.336093319653505
753,-18.017658049202453,-24.077807201396276,-27.021614173943608,-13.488825108656181
754,-17.771203560516142,-24.201241213031988,-27.37709580349485,-13.514995724005558
755,-17.31997575181636,-24.13825461967717,-27.447155376520463,-13.412318399696185
756,-16.667413980634137,-23.89685273778716,-27.221854781488506,-13.18097988522129
757,-15.821503458229575,-23.489532723698012,-26.698131960365764,-12.823471765907362
758,-14.794543373469036,-22.932669969830485,-25.879924589541126,-12.344366597150257
759,-13.602804484950964,-22.245757855381637,-24.7780636254913,-11.75006639007878
760,-12.26610005173002,-21.45054626883729,-23.40995659163111,-11.04855173810945
761,-10.807295566963903,-20.570129067910933,-21.79909034067731,-10.24915805576692
762,-9.251782262398025,-19.62803202351762,-19.974389726207384,-9.362401010351618
763,-7.626936888980975,-18.647350727003513,-17.969471662889347,-8.399866484375364
764,-5.961586116106022,-17.649982559236435,-15.82183332219629,-7.374171753192002
765,-4.285488398442414,-16.65598851744018,-13.572008940447807,-6.2989946480040695
766,-2.6288398520855587,-15.68311011592929,-11.26272250795005,-5.189157174221182
767,-1.0218042867762096,-14.746454569988114,-8.938054424963793,-4.060740456432572
768,-1.2304124904220633e-10,-6.2985655107994e-11,-1.4106709399957654e-10,-1.8085238821887784e-10
769,-2.5882203780356314e-09,-1.3143889862237264e-09,-3.093769088504008e-09,-3.466756332948292e-09
770,-2.8027812392184488e-08,-1.4754943578292078e-08,-3.438555357797056e-08,-3.7611084394787993e-08
771,-2.0036375924281828e-07,-1.0932925991978797e-07,-2.530767121048525e-07,-2.687108916553712e-07
772,-1.0689624578989312e-06,-6.068050106240326e-07,-1.3950154730409957e-06,-1.4336035658576203e-06
773,-4.558224052422525e-06,-2.6991357594875546e-06,-6.161705114560423e-06,-6.121076521319576e-06
774,-1.6244646644762848e-05,-1.005704151015324e-05,-2.278614423445826e-05,-2.1867080611227114e-05
775,-4.996415735236646e-05,-3.2394685173245474e-05,-7.277552730638816e-05,-6.748793300659227e-05
776,-0.00013591989972182165,-9.237510142659181e-05,-0.00020548090112807563,-0.0001843687193335347
777,-0.0003334501015166793,-0.00023757844068046714,-0.0005223291405983697,-0.0004544694585667077
778,-0.0007494912474587277,-0.0005594234522431346,-0.001213033101830619,-0.0010266047546304293
779,-0.0015636385306174155,-0.0012209092226671782,-0.0026049090475672395,-0.002152189938997315
780,-0.003060558170087874,-0.0024948383423917505,-0.0052248810872863065,-0.004231115637069591
781,-0.005670227250117639,-0.004813814229939364,-0.009872255297417613,-0.007867670695174488
782,-0.010015936312975203,-0.008832756637756182,-0.017699192625729623,-0.013935415659351899
783,-0.016969196565343868,-0.015503916798645899,-0.030295035056575027,-0.023648707177221635
784,-0.02770976325567567,-0.026163355022587632,-0.04977004242707225,-0.038637304724879196
785,-0.04378803036157467,-0.042626562160365415,-0.07883338430797654,-0.06101925911393668
786,-0.06718606230682292,-0.06728938424951454,-0.1208591964140554,-0.0934660964339117
787,-0.1003724586358181,-0.1032287150418565,-0.17993319953130885,-0.13925317991337172
788,-0.1463451377255591,-0.15429566414793822,-0.26087114253140886,-0.20228720120703955
789,-0.2086551588888323,-0.22519224969317483,-0.3691997436319895,-0.28710222942391667
790,-0.29140413232886087,-0.3215213188745426,-0.5110914480039522,-0.39881589559539504
791,-0.3992077942027662,-0.44979860221086276,-0.6932465170261777,-0.5430382703641266
792,-0.5371190888260318,-0.6174157931400227,-0.9227196261589361,-0.7257279467269919
793,-0.7105056819143557,-0.8325444922625543,-1.2066927738609334,-0.952992801359235
794,-0.9248792472317313,-1.1039728699960034,-1.552201157727872,-1.2308368227509061
795,-1.1856769899085948,-1.44086997163974,-1.9658230350753403,-1.5648589660194918
796,-1.4979994128517014,-1.8524766015030545,-2.453347964698006,-1.9599147592013644
797,-1.866311973160187,-2.347726462232721,-3.0194400751695665,-2.419755858355328
798,-2.294121807584778,-2.9348064263262064,-3.667314226017528,-2.9466665361547717
799,-2.783644066368518,-3.620670180217436,-4.398443305862702,-3.5411189807886365
800,-3.3354755157462295,-4.410524697478737,-5.212314522895165,-4.2014710650561
801,-3.9482957416888045,-5.307313737435193,-6.106251306997904,-4.923730714548964
802,-4.618618130566136,-6.311226459626951,-7.075315161867761,-5.701409904942485
803,-5.340613411686619,-7.419261900483305,-8.112298297887543,-6.525488543987971
804,-6.106027597050068,-8.624881074767499,-9.207813079409817,-7.384504032792041
805,-6.904213451188829,-9.917777502305414,-10.350478387131096,-8.26477628553599
806,-7.7222900723192724,-11.283793782158593,-11.527196336063025,-9.150770556814848
807,-8.545438824252196,-12.705006372770747,-12.723506054944624,-10.025591852307905
808,-9.357335998399366,-14.159993110475373,-13.923995231779525,-10.871595444178395
809,-10.140713720896382,-15.624288563739565,-15.112745645954414,-11.671088772179202
810,-10.878031398656416,-17.071021623740645,-16.273786528762987,-12.407091647903128
811,-11.552231081869262,-18.471718471039026,-17.391529576781426,-13.064115002114388
812,-12.147542162160025,-19.797243003078968,-18.451161699950468,-13.6289141695668
813,-12.650294481950413,-21.018836742784746,-19.438975740954366,-14.091171426908245
814,-13.049694835908108,-22.10921192898606,-20.342624917130617,-14.444064507110873
815,-13.338520437003034,-23.043645565029205,-21.151293030331384,-14.684682993929824
816,-13.513684336865994,-23.8010191758096,-21.85577905189605,-14.814262382665259
817,-13.576631913119051,-24.36474919255369,-22.448501121492484,-14.838215442553937
818,-13.533534200814271,-24.723556347660455,-22.923430986014544,-14.765951680599207
819,-13.395252938153677,-24.872029108008284,-23.275975156365348,-14.610487668852416
820,-13.177063585182808,-24.810945713877704,-23.502823231708142,-14.387863308345086
821,-12.898135876729047,-24.5473313439059,-23.601786547994703,-14.11639117314883
822,-12.580785964058567,-24.09424066216724,-23.571651165496384,-13.815777063073819
823,-12.24952887235728,-23.470270744491263,-23.412067925998404,-13.506158884319717
824,-11.929973723611369,-22.698824244155404,-23.123498743662484,-13.207117104056108
825,-11.64761581731527,-21.80715668814557,-22.707232536966202,-12.936712674108666
826,-11.426588170168573,-20.825254021657052,-22.165476627944813,-12.71060709864432
827,-11.288439660862508,-19.784596051791404,-21.501520697507093,-12.541314226592348
828,-11.251007070643523,-18.716867582388463,-20.7199614055239,-12.437624760684413
829,-11.327444128830608,-17.652681373159194,-19.826967585468623,-12.404233207703559
830,-11.525462636975572,-16.620375522327482,-18.830559431623993,-12.441584061363981
831,-11.846829497978652,-15.644942697369997,-17.740870937683464,-12.545940407227489
832,-2.0739069736050664e-12,-9.128595999702525e-11,-7.114567227141982e-11,-1.4233112236298358e-11
833,-3.168430597707493e-11,-1.9669854765889464e-09,-1.5300838090739775e-09,-3.139307717522451e-10
834,-8.447740459761735e-10,-2.180637299651288e-08,-1.7393972393317828e-08,-3.893339576418821e-09
835,-1.0217464760278008e-08,-1.5988658537607597e-07,-1.3054656359417245e-07,-3.210512362426194e-08
836,-8.181583755768168e-08,-8.785867021017275e-07,-7.331416019736277e-07,-1.9913807301984441e-07
837,-4.874846403998464e-07,-3.872040485240493e-06,-3.296536039370703e-06,-9.894723452980916e-07
838,-2.3111969150709936e-06,-1.4304329472714184e-05,-1.2405215109225585e-05,-4.10019222190241e-06
839,-9.108715547291161e-06,-4.5708624867713186e-05,-4.032178921596311e-05,-1.4577935111733797e-05
840,-3.078857698634395e-05,-0.00012935196104586305,-0.00011593305922447347,-4.5443830593071316e-05
841,-9.140881209443551e-05,-0.00033021451764446663,-0.0003004076387263004,-0.0001263918092757201
842,-0.00024294547512279175,-0.0007717821092034227,-0.0007121249358746283,-0.0003182603905152328
843,-0.0005871333168597938,-0.0016715947380054213,-0.0015633262780462693,-0.0007347302960082929
844,-0.0013072253206644086,-0.0033890160732576733,-0.0032104607082368126,-0.001572213774466046
845,-0.0027111053939540327,-0.006486107937746532,-0.006219381246813093,-0.0031484275194503626
846,-0.0052866993463425134,-0.011801850811175582,-0.011445450950582328,-0.005949844520028773
847,-0.009769992505332925,-0.020539170733231513,-0.020127325308881002,-0.010688041764553857
848,-0.017225027945258528,-0.03436314349120085,-0.03399175445824346,-0.018364672964346056
849,-0.029133985552011587,-0.05550720735599848,-0.05536523934725854,-0.030344181226214847
850,-0.047493953667869335,-0.08688221422681777,-0.0872867861647606,-0.0484323388949236
851,-0.07491548322512169,-0.1321808685240029,-0.13361435030386773,-0.07495730329689038
852,-0.11471654623533463,-0.19596787921631495,-0.1991159259129968,-0.11284823316633623
853,-0.17100410752767461,-0.28374438184179035,-0.2895348050100494,-0.1657048358417561
854,-0.24873422528282818,-0.40197423785817915,-0.4116175709043702,-0.23784983451639138
855,-0.3537406412199706,-0.5580599218577962,-0.5730931657610007,-0.3343556128646195
856,-0.49272152198568137,-0.7602569466331895,-0.7825920833694305,-0.46103643788463106
857,-0.673174630455181,-1.0175180891642028,-1.049496502903779,-0.6243986673027422
858,-0.9032728766920088,-1.3392619374173245,-1.3837150720394837,-0.8315430330380956
859,-1.1916749402475995,-1.7350643321454882,-1.7953800747556439,-1.090015265110519
860,-1.547269377841709,-2.2142760124864966,-2.2944697708852004,-1.4076038771023698
861,-1.9788550809327226,-2.7855750626911786,-2.890364464221647,-1.7920868089446806
862,-2.4947657037937776,-3.4564684101616296,-3.5913508551267284,-2.250931718140518
863,-3.102450265261625,-4.2327623317978516,-4.404094891036007,-2.790957902215685
864,-3.8080261803353297,-5.118027236147284,-5.333108115433462,-3.4179710365056533
865,-4.6158243570112525,-6.113086365792607,-6.3802360396685245,-4.136385063542616
866,-5.527948651881996,-7.215560944752178,-7.544199051792723,-4.948848522851738
867,-6.543873788330195,-8.419505190913386,-8.820216660708427,-5.855895021406466
868,-7.660106513702307,-9.71516316515546,-10.199744326625524,-6.855638928261111
869,-8.869933960322458,-11.088875477854012,-11.670348679569884,-7.943537295127526
870,-10.163280628409577,-12.523157479225056,-13.215741567949612,-9.11223723543672
871,-11.526691073423956,-13.996962029061713,-14.815986223646615,-10.351524569655792
872,-12.943449410847666,-15.4861297907736,-16.447880142104378,-11.648384686909674
873,-14.393839527708819,-16.964018906156262,-18.0855094945215,-12.987180657011846
874,-15.855542016703113,-18.4022946418807,-19.700959601680058,-14.349947155010836
875,-17.304156077298064,-19.771848927107666,-21.265155904524285,-15.716792298060376
876,-18.713827673687096,-21.043810362025724,-22.74880073693175,-17.066393533985156
877,-20.057959582314197,-22.190597929052558,-24.123363801589914,-18.376568581542823
878,-21.3099748119454,-23.186966848914523,-25.36207923383932,-19.624898285433716
879,-22.444102295383672,-24.010993221436564,-26.440899964863814,-20.789375278433898
880,-23.436152805947753,-24.64494555137971,-27.33936099294298,-21.849050760263573
881,-24.26425384778215,-25.075996054715326,-28.041307157736092,-22.784651715021116
882,-24.909514847597773,-25.29673261614121,-28.535447946083043,-23.57914257136842
883,-25.356598205244318,-25.30544300066169,-28.8157113944308,-24.218208559096176
884,-25.594177346941848,-25.106155738891584,-28.881380697321568,-24.690642622900388
885,-25.61526945327317,-24.708436124824008,-28.737009804398994,-24.98862345555488
886,-25.417437477504745,-24.126949982734512,-28.392127026995148,-25.10787865155914
887,-25.00286276506202,-23.380821242479254,-27.860747417599708,-25.04773362260413
888,-24.37829529880132,-22.492820925766598,-27.16072456384961,-24.81105307755645
889,-23.5548927428628,-21.488434050887097,-26.312979912743298,-24.404086915906518
890,-22.54796181478141,-20.39485657609696,-25.340652573478724,-23.836235921131937
891,-21.376616252644688,-19.239976467701194,-24.26821470463367,-23.119754561329028
892,-20.06336514593405,-18.051391252031248,-23.12059710353436,-22.26940856422193
893,-18.63364404920609,-16.85550926437739,-21.92236652741809,-21.30210383769831
894,-17.115299401423062,-15.676773796068096,-20.69699069667019,-20.236500921425353
895,-15.538034609619952,-14.537039212972738,-19.46621914114989,-19.09262578426581
896,-1.8983778295906853e-10,-8.3793020219384e-11,-4.474249720023885e-11,-1.651178689021247e-10
897,-4.048770707191118e-09,-1.789343501672717e-09,-3.799426142918999e-10,-3.3764623370505413e-09
898,-4.378535835332899e-08,-2.0054978133707217e-08,-5.4566830965307156e-09,-3.634106557385785e-08
899,-3.1314055211226437e-07,-1.483833467388639e-07,-4.6232681084323025e-08,-2.5738947689202396e-07
900,-1.6737400862904524e-06,-8.228078492679525e-07,-2.9242070627748285e-07,-1.3640454643133553e-06
901,-7.160106027006529e-06,-3.6581656756864966e-06,-1.4685298948043364e-06,-5.789671696055477e-06
902,-2.5633709814132683e-05,-1.3626810280089283e-05,-6.121358001057267e-06,-2.0583009062347978e-05
903,-7.929630376442989e-05,-4.388030825041657e-05,-2.1865757933468664e-05,-6.329373448264042e-05
904,-0.00021716226691668436,-0.00012505339539154258,-6.854077714371074e-05,-0.00017251525401738792
905,-0.0005366820140400652,-0.0003212614047022546,-0.00019207266041743648,-0.0004249089400290152
906,-0.001215516235923443,-0.0007550617308660651,-0.0004884028055530642,-0.0009605795282519447
907,-0.002555097933782601,-0.00164336925816816,-0.0011407518604830088,-0.0020186476911169308
908,-0.005037152690667149,-0.003345766660116356,-0.0024725188762449845,-0.003984715756180479
909,-0.009393764596145278,-0.006425959507618681,-0.005016389625382737,-0.007451534416157751
910,-0.016690811883819323,-0.011726361835355237,-0.009598182155346226,-0.013293447370771325
911,-0.028423613364039074,-0.020454939797646524,-0.017432109333318475,-0.02275412910409397
912,-0.04662237050444403,-0.03428237084705914,-0.030222832538520095,-0.03754575936276153
913,-0.07396338718427374,-0.055446176975587694,-0.050268838468560846,-0.05995609444298213
914,-0.11388005122730041,-0.08685672411354313,-0.0805609174510576,-0.09295786685649873
915,-0.17066529538269196,-0.13219796582005977,-0.12486843136911298,-0.14031267907574244
916,-0.24955506403402714,-0.19601380763160037,-0.18780447966432862,-0.20665934693995883
917,-0.35678064080405913,-0.28376931061935173,-0.27485926644873815,-0.2975748803198531
918,-0.49957690612787037,-0.401874965693875,-0.3923896171617978,-0.4195952974507821
919,-0.6861338711356499,-0.5576621999876429,-0.5475524362585145,-0.5801834352422239
920,-0.9254802439428301,-0.7592992897878275,-0.748171561293896,-0.7876319682728196
921,-1.2272903446337289,-1.0156390109367215,-1.0025310986213407,-1.0508920622321503
922,-1.601609369176239,-1.3359926238334512,-1.319093652278489,-1.3793214938484537
923,-2.0584966503054702,-1.7298290072813265,-1.7061482249035933,-1.7823505339321668
924,-2.6075919088457162,-2.206402678048632,-2.171399212833686,-2.2690691913401912
925,-3.257615243105381,-2.774319757724162,-2.721514138790299,-2.847745310906347
926,-4.015817537703085,-3.441056370643362,-3.36165297124717,-3.5252893368718152
927,-4.8874038548153,-4.212449178725995,-4.09500568476841,-4.306688051440812
928,-5.874957826936627,-5.092182456846603,-4.922366828006874,-5.194435825140546
929,-6.977899562160359,-6.081299926251812,-5.841776218382872,-6.1879971813685275
930,-8.192012493339737,-7.177772079376221,-6.848253492981156,-7.28333799018622
931,-9.509075459151482,-8.376150539556996,-7.933651265940794,-8.472563728623504
932,-10.91663476374957,-9.66733974189384,-9.086647127805623,-9.743701569696732
933,-12.39794683427641,-11.038512674487954,-10.292888690386143,-11.080658456736101
934,-13.932115315233425,-12.47319153826627,-11.535298239252526,-12.46337984229104
935,-15.494437171437742,-13.951506163391583,-12.794534391532821,-13.868223730086374
936,-17.056961080186376,-15.450633274990832,-14.049597812565839,-15.26855257955723
937,-18.589248812726833,-16.945408848256335,-15.278557316805992,-16.63553224604313
938,-20.05931728322631,-18.409094583563643,-16.4593626700024,-17.939113259868886
939,-21.434726339269968,-19.814268783344666,-17.570702304887284,-19.149156275043694
940,-22.683766070693203,-21.1338024496597,-18.592858992728722,-20.23665141935827
941,-23.776688348868884,-22.34187399534492,-19.508514863757455,-21.174971569769532
942,-24.686921352266623,-23.414971202001162,-20.303459239727918,-21.941093225131226
943,-25.39220357756816,-24.332827388390573,-20.967158276782072,-22.516716318481787
944,-25.875575471330546,-25.079240374729658,-21.493153920511187,-22.889216312928763
945,-26.12617218884932,-25.64272769990274,-21.87927035564364,-23.052368222599057
946,-26.139769803167088,-26.016979440945146,-22.12761807749864,-23.006792577819745
947,-25.91904920389081,-26.20108049498605,-22.244397893562518,-22.76008739180573
948,-25.47355649011379,-26.199486771688502,-22.23951866570617,-22.326627215177727
949,-24.819355157436213,-26.0217537015139,-22.126052767010314,-21.727029361878166
950,-23.978382803593245,-25.682029932890433,-21.91956162817088,-20.987307079797436
951,-22.97754224685738,-25.198343100778935,-21.63733017035187,-20.137748458483024
952,-21.847572627743848,-24.59171709260198,-21.29755307180271,-19.211576868501055
953,-20.621759059143045,-23.8851703794504,-20.918517390456028,-18.243462463715407
954,-19.334548635773523,-23.102651928669747,-20.517824739827937,-17.267963629891785
955,-18.02014534342344,-22.267974423987248,-20.111691932947608,-16.31798145863745
956,-16.71115632043727,-21.403803751483625,-19.714362041620895,-15.423309102128439
957,-15.437357236330215,-20.530759062853363,-19.33764881011717,-14.609351507002957
958,-14.224635860162245,-19.66666961140769,-18.990627223799656,-13.896080202238892
959,-13.09416095795467,-18.826023624988874,-18.679472790682816,-13.297273376516662
960,-2.314492753869661e-11,-9.45663043260364e-11,-5.876294785887651e-11,-3.6021187323362417e-11
961,-2.8529591583291415e-10,-2.025917774177805e-09,-1.27580381051395e-09,-7.223352054700221e-10
962,-3.926522643107538e-09,-2.2432218899079527e-08,-1.4178156570133473e-08,-8.449280202230557e-09
963,-3.355406100338133e-08,-1.6426251369212526e-07,-1.0440127767843508e-07,-6.546937205912236e-08
964,-2.1376980581148207e-07,-9.018709158207192e-07,-5.762734022778288e-07,-3.821960617803389e-07
965,-1.0805503370322328e-06,-3.9732507265466945e-06,-2.5522782197043778e-06,-1.7933539606961397e-06
966,-4.522982307845938e-06,-1.4680860947833198e-05,-9.48135050088576e-06,-7.0517554763475146e-06
967,-1.616871521282256e-05,-4.69460417669325e-05,-3.0489476023201033e-05,-2.392877552024897e-05
968,-5.053406021430885e-05,-0.00013302134350318587,-8.690708507336376e-05,-7.163026887718636e-05
969,-0.00014070937566866733,-0.00034017271914052385,-0.0002236699904812902,-0.00019247779109585035
970,-0.000354528354130852,-0.0007967523663363414,-0.0005274976722691463,-0.000470933314952724
971,-0.0008189927250013624,-0.001729842009072599,-0.0011537519082777485,-0.001061756791212103
972,-0.0017542610446842266,-0.00351608959764558,-0.002363668310222919,-0.002228430575983155
973,-0.0035179525345421805,-0.006746580091262553,-0.0045732724488554205,-0.004392124783160955
974,-0.0066599622588713525,-0.012305637575901626,-0.008414772364095125,-0.008190539139110165
975,-0.01198740482906121,-0.021462372574481227,-0.014810548279582792,-0.014544981851290056
976,-0.020638565953138004,-0.03597253032124764,-0.025058967377259052,-0.024733009844088872
977,-0.034163776691397814,-0.05818672638993138,-0.040930053167218455,-0.04046285097325944
978,-0.05460992485520452,-0.09115946339073745,-0.06476749648947586,-0.06394466097618456
979,-0.08460392775839799,-0.1387514767668326,-0.0995916678423364,-0.09795244843509113
980,-0.12742897682861784,-0.20571613220874743,-0.14919634246039573,-0.14586928679803718
981,-0.18708589090670688,-0.2977590685977116,-0.21823002048827084,-0.21170742553823307
982,-0.2683308118839417,-0.42155939078668264,-0.3122512791765515,-0.3000944908486546
983,-0.37668010305371646,-0.5847407764896297,-0.43774675977986605,-0.41621752557086955
984,-0.518373898090408,-0.7957820800450597,-0.6021003367103452,-0.5657183720163361
985,-0.7002912359548589,-1.0638594275592061,-0.8135028498909802,-0.7545367629982351
986,-0.9298119013706607,-1.3986152838322756,-1.0807935812689837,-0.9887011801344228
987,-1.2146227803108338,-1.8098542901076111,-1.4132274609653706,-1.2740717515681794
988,-1.5624696939723581,-2.307170544541202,-1.8201657717448319,-1.6160439259434063
989,-1.9808592648062042,-2.8995161414985713,-2.310692758093817,-2.0192260994624314
990,-2.4767192582721536,-3.594725930907141,-2.893165824851199,-2.487108431007871
991,-3.0560297631959785,-4.399018320631287,-3.574712646636789,-3.021743359525632
992,-3.7234411970623036,-5.316496188589889,-4.360694167055765,-3.6234604757211444
993,-4.481898190148262,-6.3486752200206436,-5.254157750063219,-4.290639138653759
994,-5.332290643397655,-7.49406882887127,-6.255309196950077,-5.019561356981252
995,-6.273154375175976,-8.747858891597115,-7.361035480295596,-5.80436478504504
996,-7.300443430788554,-10.10167954063605,-8.564511424776393,-6.637111073834121
997,-8.407394120233853,-11.543537141395209,-9.854922842625516,-7.507978321018784
998,-9.58449717297432,-13.057883433632046,-11.217335607691556,-8.405578313364922
999,-10.819589305120326,-14.62585101316246,-12.63273480181275,-9.317390245949252
1000,-12.098069328968501,-16.225651381194055,-14.078250565062762,-10.230293376321235
1001,-13.403237077847624,-17.833126308850684,-15.527578019619762,-11.131172411999792
1002,-14.716746265724591,-19.422433888837112,-16.951588176596157,-12.00756211595779
1003,-16.019155412501018,-20.966842004857433,-18.319115716150932,-12.848292344308204
1004,-17.290554663774536,-22.439594655736347,-19.597898586168586,-13.644092035040165
1005,-18.51124115185201,-23.814811171698164,-20.755634114344385,-14.388110824927566
1006,-19.662411807709418,-25.06837529606624,-21.761107432166106,-15.076320070153741
1007,-20.72684046059653,-26.178770638401232,-22.585341154019783,-15.7077610643286
1008,-21.689505907955116,-27.12782121124333,-23.202711039542773,-16.284617103349728
1009,-22.538139628628496,-27.90130053699332,-23.591971141198595,-16.812097462785488
1010,-23.263666064068953,-28.48937993130394,-23.737133763553146,-17.298134724201653
1011,-23.86051474007083,-28.886895684747163,-23.62815431145262,-17.752911217744142
1012,-24.326791511067064,-29.09342545533736,-23.26137861903005,-18.188244354257204
1013,-24.66430516420238,-29.113175466795738,-22.6397204475003,-18.61687286650349
1014,-24.878454611116062,-28.95469106349774,-21.77254919301148,-19.0516950424799
1015,-24.97798995672414,-28.63041273548786,-20.67528181719262,-19.505014767262033
1016,-24.974667073081086,-28.156107047769915,-19.368687604179247,-19.987851018800793
1017,-24.882819575630176,-27.550206575834405,-17.877928366822733,-20.509361598551404
1018,-24.718874389671278,-26.833094986498157,-16.231369105206333,-21.076423159526264
1019,-24.500837741948505,-26.02637312554895,-14.459204213546014,-21.693398064362995
1020,-24.24777763407388,-25.15213977693002,-12.591951976265344,-22.36210505322055
1021,-23.979326600789708,-24.232316980674764,-10.658875474484306,-23.08199560530947
1022,-23.71522462186925,-23.288044670673653,-8.686391467310303,-23.8505217380964
1023,-23.474916349402545,-22.339163074725498,-6.6965306700256715,-24.663664742385496
1024,-3.080880503158218e-10,-7.554018200703413e-11,-7.189472112824303e-10,-2.2168315097897257e-10
1025,-6.0750052539090296e-09,-1.3910962518325532e-09,-1.4452229481919461e-08,-4.386141594034859e-09
1026,-6.68231636799507e-08,-1.5668951884656867e-08,-1.6670222806012437e-07,-4.818661840841439e-08
1027,-4.821594191320734e-07,-1.1570494735592782e-07,-1.2692123390730045e-06,-3.4812328316563324e-07
1028,-2.6052065335550462e-06,-6.418885918500794e-07,-7.2627344494267994e-06,-1.8868439250965157e-06
1029,-1.1279885637175094e-05,-2.860863780578534e-06,-3.3391033535114924e-05,-8.210646991972712e-06
1030,-4.092306865823404e-05,-1.0706480767615408e-05,-0.0001288638615138821,-2.9989849760018163e-05
1031,-0.0001284404198901637,-3.471466095739022e-05,-0.0004305254063099249,-9.489540766032296e-05
1032,-0.0003572387039210397,-9.982399338035647e-05,-0.0012742917580077628,-0.00026633843201283026
1033,-0.000897247237563325,-0.0002592186819044948,-0.0034022808546869607,-0.000675262214977452
1034,-0.002065808144252509,-0.0006166555204661497,-0.008313529066732607,-0.0015691030069043895
1035,-0.004413436133931145,-0.0013596118444312245,-0.018813120439038256,-0.003381089176334453
1036,-0.00883670357277631,-0.0028050541994142936,-0.03981719746051943,-0.006821313352073288
1037,-0.016718014982094798,-0.0054587406220578455,-0.07946912689936997,-0.012988908185816998
1038,-0.030089044809310777,-0.010087863299586115,-0.15061434645691796,-0.0235026192019368
1039,-0.051811534630574634,-0.01780565277700896,-0.27266719500008024,-0.040645328327413195
1040,-0.08576618458771566,-0.03016531941127197,-0.4738809697817568,-0.06751638220790289
1041,-0.13703749771919324,-0.04925935914136331,-0.7940016230347455,-0.1081834436999638
1042,-0.2120794285491645,-0.07781872161504873,-1.2872456524950018,-0.16782265474670263
1043,-0.3188434853406581,-0.11930465686656135,-2.0254950372680494,-0.252832392607107
1044,-0.46684792890671456,-0.17798437294383912,-3.10154895122308,-0.3709025784084493
1045,-0.6671645887955067,-0.2589802078880159,-4.632217311541806,-0.5310193203056557
1046,-0.9322994643338808,-0.368281165958167,-6.760989878957405,-0.7433844310851002
1047,-1.2759453733847579,-0.5127056631239608,-9.659972236720595,-1.0192313777896302
1048,-1.712589930669806,-0.6998053943626958,-13.530752604000456,-1.3705235036019352
1049,-2.256970100306467,-0.937702468984793,-18.603856822685366,-1.8095266337573404
1050,-2.9233751111944852,-1.2348553691322879,-25.13646811403504,-2.3482560840670974
1051,-3.7248118103273167,-1.5997537358886473,-33.40813684698318,-2.9978071504881245
1052,-4.67205950404829,-2.0405472456768727,-43.71428524407444,-3.76758790003823
1053,-5.772653972500264,-2.564619543084173,-56.35742166096882,-4.6644829890399695
1054,-7.029851715509183,-3.1781239032256043,-71.63611521005843,-5.691986754551553
1055,-8.441634849074429,-3.8855025276584647,-89.83193759161743,-6.849352301902
1056,-9.99982358003652,-4.689015643223007,-111.19474613057398,-8.13080993146608
1057,-11.689366040470736,-5.58830945877447,-135.9268492693006,-9.524912219573608
1058,-13.487873679945574,-6.580053188897322,-164.16675072069262,-11.014063676819841
1059,-15.365463958404165,-7.657674574217365,-195.97329828935418,-12.574289696476608
1060,-17.284960612579475,-8.811220527325316,-231.3111553268004,-14.17529216531137
1061,-19.202485591271085,-10.027364783361314,-270.03855568470453,-15.780827579899087
1062,-21.06845646428872,-11.289577877293427,-311.89828778699257,-17.349428006578865
1063,-22.828979760553054,-12.578466645954276,-356.5127744006087,-18.83546650060307
1064,-24.427605632999157,-13.87228105714151,-403.38397012395296,-20.19054787828924
1065,-25.807384128679313,-15.147575933049106,-451.89859177854873,-21.36518453311525
1066,-26.91313986190235,-16.380004640556205,-501.3389360393762,-22.310696730083507
1067,-27.69386171736951,-17.5452118032138,-550.8992372835713,-22.98125868737293
1068,-28.105089052667896,-18.619783426767217,-599.7071944997779,-23.335996856517248
1069,-28.111167300673362,-19.582206407785584,-646.8499701059737,-23.341036254974178
1070,-27.687245246441808,-20.413786008631746,-691.403657998926,-22.97138568849168
1071,-26.820894193507986,-21.09947000722597,-732.464955139123,-22.212554139158463
1072,-25.51324555586616,-21.628531956738854,-769.183570664526,-21.061798923961742
1073,-23.77956703134791,-21.995072973294143,-800.79378547229,-19.52892120072949
1074,-21.649226849133054,-22.198311107254035,-826.6435452604625,-17.63654525945339
1075,-19.165028665576404,-22.242638893595508,-846.2195369297535,-15.419843522398745
1076,-16.381934330031417,-22.13744237808021,-859.1668612629171,-12.925697691378373
1077,-13.365225672335434,-21.896688037822702,-865.3021659786419,-10.211316177123095
1078,-10.188187443086598,-21.53829683440627,-864.6194279892663,-7.342357025123731
1079,-6.929419744337292,-21.083336439074333,-857.2879514189575,-4.390632453159045
1080,-3.669908274209743,-20.555072741966786,-843.6425545190617,-1.431494467776447
1081,-0.4899934845917357,-19.977929476912653,-824.1663286924284,1.4589804070061156
1082,2.533615445328162,-19.376409626149858,-799.4667424160725,4.206876709535423
1083,5.3306394556428955,-18.774033867154706,-770.2462105429784,6.7432598045967795
1084,7.839710699179358,-18.19234954459764,-737.2685367226937,9.006795696548624
1085,10.010424642236558,-17.65005861573658,-701.3228477126926,10.946046213313684
1086,11.80487749886224,-17.162305128438337,-663.1867607021245,12.521331202588781
1087,13.198633315523411,-16.74015270074483,-623.5905508726898,13.706071543641443
1088,-1.4133381277202428e-11,-1.0860712462253641e-10,2.975812972652426e-09,-7.707958398513171e-11
1089,-3.571339315485387e-10,-2.3160740156990173e-09,6.33792470058819e-08,-1.7119470266067296e-09
1090,-4.85767909615782e-09,-2.5739037188071855e-08,7.079500625330249e-07,-1.9738081617009362e-08
1091,-4.2372777610018984e-08,-1.8895089909748067e-07,5.232816207033675e-06,-1.5035405530242577e-07
1092,-2.707379732186045e-07,-1.039486543687003e-06,2.899618782150193e-05,-8.569662964755757e-07
1093,-1.3581131573369763e-06,-4.5850581285213734e-06,0.0001288831154815772,-3.906199486066542e-06
1094,-5.599028769509199e-06,-1.6946164311818593e-05,0.0004802265545134949,-1.4867937685143131e-05
1095,-1.9605050209320465e-05,-5.4151559837405774e-05,0.0015476769648366453,-4.8728551903478185e-05
1096,-5.978919415969527e-05,-0.00015318120463985282,0.004416727558103609,-0.00014074522176822128
1097,-0.00016203253682914553,-0.0003907279401107309,0.011367744274649021,-0.00036490581168185064
1098,-0.00039672741488531104,-0.0009121485424543095,0.026778833227089287,-0.0008620714333622238
1099,-0.0008898781942675497,-0.001972687578334005,0.05843547955834748,-0.0018791417552285223
1100,-0.001850334790129782,-0.003992357241298218,0.11930466424859346,-0.003819653246796882
1101,-0.003602767474418102,-0.0076249658355905655,0.22980245027603458,-0.007305336584797473
1102,-0.006625710667004471,-0.013840780334504109,0.42054935225458473,-0.0132473500218759
1103,-0.011593751648053366,-0.02402119749283792,0.7355676971645455,-0.022925031813410383
1104,-0.019422502982097734,-0.04006251800570092,1.2358275472237794,-0.03806892263983457
1105,-0.03131426799871809,-0.06448439950800834,2.002990203630507,-0.0609434641548514
1106,-0.04880132530800322,-0.10053677875984297,3.1431301958299684,-0.09442324741740629
1107,-0.07378266958281664,-0.1522970996424938,4.790141719026122,-0.14205508262339284
1108,-0.10854907573275263,-0.2247477976859942,7.108462153117887,-0.20809670100009187
1109,-0.15579079043479538,-0.32382251398556305,10.29468552492876,-0.29752194461585774
1110,-0.2185822825579151,-0.45640881115009896,14.577605638468743,-0.4159823260829515
1111,-0.3003394248473671,-0.6302955230408018,20.216232933860276,-0.5697161924028594
1112,-0.4047460941403853,-0.8540544398235171,27.495377994335612,-0.7653994138754205
1113,-0.5356491330747566,-1.1368487939092773,36.7184898624403,-1.0099351937614127
1114,-0.6969226195342102,-1.4881648482159273,48.197576594938965,-1.3101847995758178
1115,-0.8923043547026529,-1.9174675906848244,62.24021252188032,-1.6726454089807135
1116,-1.1252094952180323,-2.433786873840081,79.13384276435254,-2.1030856694885824
1117,-1.3985283831232274,-3.045246019569186,99.12781956355684,-2.606153863355027
1118,-1.7144177671827474,-3.7585505977519515,122.4138337487339,-3.1849775355279513
1119,-2.0740965132337563,-4.5784603857165065,149.10562304444863,-3.8407767902049312
1120,-2.477658283667445,-5.507271981784318,179.21902962178865,-4.5725158408103965
1121,-2.9239142770173574,-6.544342753205309,212.65362421401977,-5.376618428429688
1122,-3.4102787444249723,-7.685688351607586,249.17719524332423,-6.246771985661022
1123,-3.9327084915076957,-8.923685625402872,288.4144035644189,-7.173842572088729
1124,-4.485704907451581,-10.246910191218038,329.8408158059831,-8.145917527411076
1125,-5.062383404824204,-11.640133135956395,372.7833476767509,-9.148485726889012
1126,-5.654610839521036,-13.084494395418405,416.4278757156817,-10.164756851901137
1127,-6.253206933270693,-14.557861572554483,459.83442234585755,-11.176111961613632
1128,-6.848201343510409,-16.035372758265304,501.95990233156226,-12.16266862819229
1129,-7.4291341368118236,-17.49015089676279,541.6879632606814,-13.103935631922418
1130,-7.985384258760244,-18.894166098384066,577.8649881005986,-13.979525244703222
1131,-8.506508338957802,-20.219211814526446,609.3408870417284,-14.769885915951985
1132,-8.982571005978457,-21.43795174888729,635.0129224055071,-15.45701514678271
1133,-9.404448007988464,-22.52498752749006,653.8705153926611,-16.025111903112332
1134,-9.764085038086147,-23.457893121880044,665.0388029375358,-16.461130430072007
1135,-10.054698368479766,-24.21816124736613,667.8186649037838,-16.75520296083811
1136,-10.270908128779196,-24.79200964335799,661.7210351535444,-16.90090741258176
1137,-10.408800938429405,-25.171001204153207,646.4935430091978,-16.895367125531802
1138,-10.465924953305327,-25.35244102886606,622.13789294473,-16.739182021880957
1139,-10.441226434970277,-25.33952501513781,588.9168591529193,-16.436203031680915
1140,-10.334942040568153,-25.14122789356467,547.3503195834929,-15.993173115173475
1141,-10.148464739491079,-24.771932751677888,498.2003466433961,-15.419267779864114
1142,-9.88420332931015,-24.250818271690115,442.4459709295218,-14.725574911952132
1143,-9.545455738406645,-23.60103326349952,381.248801045157,-13.924557434464258
1144,-9.136314488133157,-22.848699794951298,315.9111791897442,-13.029542362533657
1145,-8.661618810611946,-22.021795559469002,247.8289460844752,-12.054276141355004
1146,-8.126962181971454,-21.14897244002501,178.4411541031989,-11.012578950183373
1147,-7.538756868278091,-20.258371094311173,109.1791879685745,-9.918120456567259
1148,-6.904349079371999,-19.376490615780508,41.41772238550554,-8.784327040024557
1149,-6.232170190206644,-18.527168020597294,-23.570229006081718,-7.624416720859378
1150,-5.531902047392531,-17.730714842167757,-84.6522230323234,-6.451544124907585
1151,-4.814628520642066,-17.003248071767807,-140.86771273637376,-5.279025166187002
1152,-5.500483624444489e-11,-7.531509517239051e-11,-1.9980661934294003e-10,-4.348248591249369e-11
1153,-1.0572167627223186e-09,-1.4623049952517498e-09,-4.2659007345818734e-09,-7.837497764644106e-10
1154,-1.121328533268489e-08,-1.6447631718285873e-08,-4.8052298076499074e-08,-8.010555839176917e-09
1155,-7.845677523505665e-08,-1.2177395862976965e-07,-3.574318908670272e-07,-5.3899382152894186e-08
1156,-4.125622930189283e-07,-6.77006215940381e-07,-1.993792348754006e-06,-2.7322729433946375e-07
1157,-1.7480073164280518e-06,-3.022582523159339e-06,-8.921187003973103e-06,-1.1213163389519339e-06
1158,-6.253495423393049e-06,-1.1324867963577322e-05,-3.3455821953971273e-05,-3.915450761663553e-06
1159,-1.9538735950967446e-05,-3.674007092886552e-05,-0.00010847514436648285,-1.206174654384156e-05
1160,-5.46916412765118e-05,-0.00010565293131158712,-0.00031126051853981997,-3.3667196623099185e-05
1161,-0.0001398348905343773,-0.0002742877283916991,-0.0008049406744682313,-8.677037036737725e-05
1162,-0.0003313832508455393,-0.0006523485727550634,-0.0019037368663063464,-0.00020907848161256468
1163,-0.0007358438199119743,-0.0014384356005743234,-0.004167425307721413,-0.0004746463751710229
1164,-0.0015433616809034918,-0.0029697353529291115,-0.008528768287690641,-0.0010200898772958207
1165,-0.003076060297332264,-0.005787874459720031,-0.016455472998048663,-0.0020825542889135744
1166,-0.005853507999390884,-0.010721831537480074,-0.030145775479617148,-0.004050855234432995
1167,-0.0106764764167429,-0.018987447272482198,-0.05275406937907841,-0.0075302272070984135
1168,-0.018728679452669778,-0.032301392562292267,-0.08863989645470259,-0.01342012897455661
1169,-0.03169446390010505,-0.05300552399699178,-0.14362984623519068,-0.023003549519373504
1170,-0.05188847361101851,-0.08419543577031999,-0.22527738762118998,-0.03804507419681986
1171,-0.0823911708660014,-0.1298447957679448,-0.3431006665273607,-0.060893484685295964
1172,-0.12718185982566366,-0.19491485701369146,-0.5087735077804149,-0.09458286632833857
1173,-0.1912586067641797,-0.28543655818241753,-0.7362411264134392,-0.1429241947437383
1174,-0.28073228097464875,-0.4085511521649807,-1.0417302474030121,-0.21057738001101126
1175,-0.4028800225702546,-0.5724946491139219,-1.4436240646266063,-0.3030920852305291
1176,-0.5661421583106544,-0.7865118759052103,-1.962176063819002,-0.42690472958746206
1177,-0.7800464586667524,-1.0606879010711392,-2.6190431919545683,-0.5892793169052122
1178,-1.0550451488298251,-1.4056881018966834,-3.436627983017411,-0.7981813019581755
1179,-1.4022534885778462,-1.8324032015708411,-4.4372306567237505,-1.0620765753584704
1180,-1.8330839704753954,-2.3515019497737324,-5.642025378895701,-1.3896516507170846
1181,-2.358776972404888,-2.9729013609976485,-7.069889122089022,-1.7894561010956969
1182,-2.9898366142746,-3.705172060915763,-8.736126055640055,-2.2694740445027946
1183,-3.7353890285132896,-4.554903756102301,-10.651144147893087,-2.8366377164425955
1184,-4.6024885553309005,-5.526062521103791,-12.81915257546359,-3.496302401505008
1185,-5.5954048078275385,-6.619376896074445,-15.23695747915852,-4.2517076521796
1186,-6.714929546306915,-7.831793148625325,-17.892938469744287,-5.103454311830916
1187,-7.957746471403104,-9.156041036911912,-20.766288137867633,-6.049030055867408
1188,-9.315909069141213,-10.580349688960197,-23.826590983309206,-7.0824177062524605
1189,-10.776471153029142,-12.08834862352784,-27.033806410785438,-8.193820168890483
1190,-12.321311333683846,-13.659181458365483,-30.338702979170353,-9.369533174745296
1191,-13.927186011290736,-15.267849669082286,-33.683768735498745,-10.591991886776821
1192,-15.566035595442676,-16.885791266959185,-37.00459645744881,-11.840009901515588
1193,-17.205555815230795,-18.48168511065295,-40.23171457596758,-13.08921950706081
1194,-18.810030802891163,-20.022456646723285,-43.292806249756566,-14.312710711901568
1195,-20.34140804541312,-21.474446270575392,-46.115232377785155,-15.481854164288944
1196,-21.760578520079015,-22.804688403140815,-48.62875110798209,-16.56728047774052
1197,-23.0288097672794,-23.982238922082427,-50.768308299407025,-17.539976680191806
1198,-24.10926668025644,-24.97948174700237,-52.476761858414555,-18.372450559384284
1199,-24.968545498630206,-25.773342831081962,-53.707398951776376,-19.0399064504493
1200,-25.5781416083682,-26.34634191040469,-54.426109480881316,-19.521372095276504
1201,-25.9157716612163,-26.687419087375325,-54.6130920839475,-19.80071590508147
1202,-25.966475360203212,-26.79248434973348,-54.26399002138765,-19.86749735927487
1203,-25.723431852554608,-26.664652815442007,-53.3903826168176,-19.7176002078509
1204,-25.188439542871865,-26.31414597397204,-52.019591795802654,-19.35360820795485
1205,-24.37202548057665,-25.757858361624525,-50.19380035162125,-18.78489571999188
1206,-23.293170285169253,-25.018608704210866,-47.9685161985817,-18.027419944720812
1207,-21.97865573713095,-24.12411326413128,-45.4104524159758,-17.103217188019055
1208,-20.462063465132427,-23.10573565928232,-42.594924032173004,-16.03962149165868
1209,-18.782473240632665,-21.9970806735541,-39.60288745282311,-14.86823930621274
1210,-16.982926793623193,-20.832508659494767,-36.51776588693503,-13.62372754099235
1211,-15.108736450072646,-19.64565143279963,-33.422213284333154,-12.342433333430591
1212,-13.205726262802628,-18.468009759258248,-30.394969884541094,-11.0609615191727
1213,-11.318496123251972,-17.327706665318157,-27.50795470944946,-9.814739631405544
1214,-9.488796504985979,-16.24846026717255,-24.823724874839844,-8.636650123781441
1215,-7.754093298355289,-15.248825390798066,-22.39340950146028,-7.555795419855126
1216,-7.274415046393622e-11,-9.797232639034848e-11,-1.1612311789272105e-10,-1.303054142400763e-10
1217,-1.413367299468077e-09,-2.0149443920837267e-09,-2.4151540933012763e-09,-2.5479914119615326e-09
1218,-1.7087204857488396e-08,-2.2627192768978686e-08,-2.6892900841053413e-08,-2.9768502499293146e-08
1219,-1.3410942925535316e-07,-1.6774187643225073e-07,-1.9800015768654812e-07,-2.2652610419466708e-07
1220,-7.86569574942202e-07,-9.325590377904833e-07,-1.093436168470361e-06,-1.2895626507059526e-06
1221,-3.6819322858443576e-06,-4.159394964057116e-06,-4.845569877141992e-06,-5.868249885816721e-06
1222,-1.4364831899171737e-05,-1.5554102542353644e-05,-1.8007483494600034e-05,-2.2296842781205993e-05
1223,-4.8177779308933645e-05,-5.031657161346507e-05,-5.790324740620455e-05,-7.296789342852794e-05
1224,-0.00014219256255589095,-0.00014415230034765035,-0.00016492837238916955,-0.00021054314834228463
1225,-0.0003762215272478193,-0.0003725022624227636,-0.0004238392106981253,-0.0005456210646725358
1226,-0.000905988192485521,-0.0008810535244412938,-0.0009972772913327032,-0.0012891286362288607
1227,-0.0020109246508824533,-0.0019303745369487228,-0.0021745475518688863,-0.002811636322914145
1228,-0.004158068305114811,-0.003956863626908346,-0.004438043668838988,-0.00572029673091402
1229,-0.008082449227058018,-0.007651214491264845,-0.008548807153138913,-0.010952557895076877
1230,-0.014883299026699255,-0.014054378160865827,-0.015651608761070756,-0.019884325031128962
1231,-0.026134294297074156,-0.024669572984871102,-0.027398674033529826,-0.034448778568723304
1232,-0.04400464998410116,-0.04158720849464623,-0.04608963277627149,-0.05726039733405783
1233,-0.07138605448718438,-0.06761759973295989,-0.07482328441639088,-0.09173678006827063
1234,-0.1120181399096177,-0.10642406573222002,-0.11765418270468248,-0.14220861647717645
1235,-0.17060253859773997,-0.16264656400955144,-0.17974389178820357,-0.21400577661036407
1236,-0.25289289504930784,-0.24200364867965585,-0.2674933721379413,-0.3135053151703929
1237,-0.365745965304262,-0.35135856320700304,-0.388639906583335,-0.44812571267932017
1238,-0.5171177365792804,-0.4987340519288438,-0.5522999845299287,-0.6262515251724564
1239,-0.7159887890742698,-0.6932603450500601,-0.7689392174733038,-0.857074247811433
1240,-0.9722051118899702,-0.9450420528239643,-1.050251982863486,-1.1503388347676586
1241,-1.2962241884433239,-1.264932581527314,-1.4089370370942709,-1.5159908035400302
1242,-1.698761203255448,-1.6642091984224363,-1.8583604739513622,-1.9637258526674726
1243,-2.1903364548665363,-2.154147862869988,-2.412103660878934,-2.502451929865487
1244,-2.7807322327188024,-2.745504075134894,-3.0834007827484347,-3.1396820938421177
1245,-3.478375122924529,-3.447913781306346,-3.8844781673405904,-3.880884621378586
1246,-4.289667440097523,-4.269236236847355,-4.825815627910513,-4.72882390248378
1247,-5.218298729895241,-5.214868081719907,-5.91535852478536,-5.682931216574345
1248,-6.264574577442027,-6.287064151927176,-7.157717693518371,-6.738748105643842
1249,-7.424804848758234,-7.484305253860243,-8.553401957773298,-7.8874865093580855
1250,-8.690796415929068,-8.800755802837054,-10.098133468251122,-9.115748755916586
1251,-10.049495761057695,-10.225854482623632,-11.782298424145003,-10.405446549844585
1252,-11.482824055936351,-11.744078572449158,-13.590584006475176,-11.733950893871256
1253,-12.967741089682017,-13.334917092652042,-15.501846327592505,-13.074494315776601
1254,-14.47656474565185,-14.973079376558092,-17.489244186617526,-14.396833025967307
1255,-15.977559905014493,-16.62895428112782,-19.520660166811624,-15.668160353991707
1256,-17.435795233986266,-18.269321483923108,-21.55941505765853,-16.854245075422938
1257,-18.81424922695448,-19.85830099034917,-23.565264699372673,-17.92075046621603
1258,-20.07512938594524,-21.358511169123936,-25.49565102243854,-18.83467373055013
1259,-21.181351932374046,-22.73239057378839,-27.307162136976906,-19.56583234139289
1260,-22.098115314067893,-23.943625733641692,-28.957140736583415,-20.088315082768442
1261,-22.79449004663315,-24.958617086129994,-30.40536687402349,-20.381812010519802
1262,-23.244940941429096,-25.747909113770604,-31.6157315344006,-20.432739607505912
1263,-23.430696112592837,-26.287509057751112,-32.557812511817914,-20.23508511786358
1264,-23.340880728554527,-26.560021526742005,-33.208264769324494,-19.79090714573362
1265,-22.973342332118715,-26.555533809033268,-33.551944117623194,-19.110447495047215
1266,-22.33510838944305,-26.272198375438666,-33.58269550123063,-18.211831069380263
1267,-21.442434835676753,-25.716474300532813,-33.303754644302124,-17.120355266788383
1268,-20.320425812142343,-24.903007280266085,-32.72773302840653,-15.867396209902187
1269,-19.002228336442794,-23.85414752239807,-31.876179582565427,-14.488984570239458
1270,-17.52782990537248,-22.599124830627932,-30.77873639084566,-13.024126691279212
1271,-15.94251043551719,-21.172919422227437,-29.47192855632691,-11.512965315967113
1272,-14.295020890550122,-19.614884139463467,-27.99764866140683,-9.994886912847264
1273,-12.635577988144993,-17.96718757541826,-26.401412854506592,-8.506688382470596
1274,-11.013776273614045,-16.273157248192227,-24.730477556876668,-7.080914284826753
1275,-9.476524613376407,-14.575606636636028,-23.03191248732605,-5.74446656702291
1276,-8.06611315216094,-12.915229317463396,-21.35072676936537,-4.517572370243976
1277,-6.818508906648894,-11.329137730035407,-19.72814022670123,-3.413172700214326
1278,-5.761964079730055,-9.849613777383167,-18.200081855421068,-2.4367670944416635
1279,-4.916002178811635,-8.503124442836038,-16.79598255714493,-1.5867190290679423
1280,2.829735526607929e-12,-8.980253479750087e-11,-7.738373368628477e-11,9.19331566698202e-12
1281,1.3533367119573362e-10,-1.890186467121689e-09,-1.5880464534464908e-09,2.44491911496978e-10
1282,1.875614168229691e-09,-2.131876927126431e-08,-1.770034286234968e-08,3.2871613176091798e-09
1283,1.6505125644022325e-08,-1.583826732577774e-07,-1.3031966746970351e-07,2.8041543887504913e-08
1284,1.0375550761852366e-07,-8.818769387435035e-07,-7.197870374881173e-07,1.7303442999434813e-07
1285,5.029326620449678e-07,-3.936306462210397e-06,-3.1908851638577084e-06,8.305987209623206e-07
1286,1.972432615370683e-06,-1.47174182465951e-05,-1.1866565801428085e-05,3.2505664398703367e-06
1287,6.473024646420006e-06,-4.7553066854194215e-05,-3.820294090764187e-05,1.0723409058280394e-05
1288,1.8223190048538526e-05,-0.00013592137202771948,-0.00010901624036691234,3.058222987109767e-05
1289,4.485703858688527e-05,-0.00035002058127920054,-0.00028089254036870197,7.691811504122896e-05
1290,9.798915929363164e-05,-0.0008240714912935865,-0.000663276575822089,0.00017341245233061284
1291,0.00019215054793441036,-0.0017952173622424645,-0.001452879182959738,0.0003552333505693019
1292,0.00034104777472878474,-0.003654956899590958,-0.002982003631257977,0.0006687770435569563
1293,0.0005504817395355073,-0.0070128887895807655,-0.005783155846902256,0.0011682347901913772
1294,0.0008078539519361691,-0.012771334285195555,-0.01067175264975305,0.0019083404371702684
1295,0.0010686698629617446,-0.022208248444501106,-0.018847667861804782,0.0029328825256826336
1296,0.0012406030847141303,-0.03706471907451157,-0.03201453148061352,0.004258436085392616
1297,0.0011655230616195913,-0.059632210593627416,-0.05251306737857527,0.005852318027988121
1298,0.0005995884442150004,-0.09283346169241334,-0.08346154307942857,0.007603226683002003
1299,-0.0008087272654936293,-0.14028960246108096,-0.12889311152239796,0.009282681174138841
1300,-0.0035428224871416818,-0.20636478356064325,-0.19387703489760966,0.01049548401004587
1301,-0.008244194123172012,-0.2961786895653187,-0.2846089421916909,0.010618150576556932
1302,-0.015739867715544423,-0.415577102031531,-0.4084545802597948,0.00872558227881296
1303,-0.027069339315123522,-0.5710514911927207,-0.5739319330447761,0.0035079802782345616
1304,-0.04350862292102952,-0.7696006416697426,-0.7906179941096368,-0.006818297144059241
1305,-0.06658878606476575,-1.018530551071705,-1.0689688182185453,-0.02460091409072171
1306,-0.09810680594693105,-1.3251930998970762,-1.420044822962858,-0.052836953570603
1307,-0.1401275229360638,-1.696668922354345,-1.8551378324556338,-0.09524725240317608
1308,-0.19497652152862968,-2.139405050228693,-2.385302247155548,-0.15633298388986963
1309,-0.26522455233433023,-2.658822755531324,-3.02080002407465,-0.24140726204052415
1310,-0.353664411713618,-3.25891511034123,-3.770477596030537,-0.3565939537780472
1311,-0.4632810020980013,-3.9418567669911586,-4.6411017680296265,-0.5087854965657779
1312,-0.5972147282462305,-4.707650115012194,-5.636689968645028,-0.7055516414692722
1313,-0.7587176697227156,-5.553832201928089,-6.757876800295032,-0.9549919751622924
1314,-0.9511013928664465,-6.4752655659038645,-8.001362507307373,-1.2655270548087503
1315,-1.1776750644783716,-7.464033405494658,-9.359489012525136,-1.645626091990593
1316,-1.4416727615906269,-8.50945528400732,-10.819985317978999,-2.1034731650440794
1317,-1.7461693706155827,-9.598233871251336,-12.365916617168537,-2.646578501930577
1318,-2.0939849746956662,-10.714736186641272,-13.975861072258212,-3.281345965662432
1319,-2.4875779817487227,-11.841404719256126,-15.62432565482276,-4.012612118825584
1320,-2.928927488366095,-12.959285150221387,-17.28239845796277,-4.843175944941638
1321,-3.419405683911008,-14.048648870001719,-18.91862012054205,-5.773341349874534
1322,-3.959641671577557,-15.089680891095162,-20.500042156969837,-6.8004968204627385
1323,-4.549379063836792,-16.06319792755089,-21.993425928885575,-7.918757908477666
1324,-5.187331181195139,-16.95135804778411,-23.366523819855594,-9.118698365590507
1325,-5.871039622306818,-17.73832281926748,-24.58937506367085,-10.387194618533915
1326,-6.596744188977595,-18.41083534233484,-25.63554372243435,-11.70740565629422
1327,-7.359274278294518,-18.958682757868893,-26.48322628392493,-13.058906114927275
1328,-8.151973471904254,-19.37501921112796,-27.116161599509194,-14.41798432225006
1329,-8.966669832188435,-19.656534191458483,-27.524286277206496,-15.758109499585807
1330,-9.793704180325053,-19.80346094109543,-27.704093586200898,-17.050563685424294
1331,-10.62202730019493,-19.819429548500953,-27.658672375423944,-18.265224870561433
1332,-11.439374523533102,-19.711178791783944,-27.397423068175552,-19.37147892522621
1333,-12.232522505758558,-19.488149209791736,-26.935468857652733,-20.339229683500022
1334,-12.987628349879829,-19.16198670695381,-26.292800167593334,-21.139969501383327
1335,-13.690645903087027,-18.745990745420233,-25.49320776068177,-21.747867150665336
1336,-14.327808418769918,-18.254543408095852,-24.5630732728326,-22.140826392849974
1337,-14.886161166222715,-17.702555064503283,-23.530094380522865,-22.30146720999803
1338,-15.354122247955758,-17.104958996595066,-22.42202454250098,-22.217982584445377
1339,-15.722045188594674,-16.476281404729953,-21.265504024925974,-21.88482703298145
1340,-15.982753274053835,-15.830305257071837,-20.085049996432076,-21.303198891638676
1341,-16.132013679368093,-15.179837237994096,-18.902259707761047,-20.481286513225925
1342,-16.16891953538694,-14.536577485294918,-17.735263443644804,-19.434258680911253
1343,-16.096150426075667,-13.911082784474878,-16.598444608327103,-18.183990998645715
1344,-1.0222542251318505e-10,-1.562325225914684e-10,-7.611058637413733e-11,-1.5284222316152776e-10
1345,-1.944298115083564e-09,-1.8766236063197227e-09,-1.665949485339645e-09,-3.254456141506102e-09
1346,-2.2946296388014333e-08,-2.231165053591265e-08,-1.859866171709932e-08,-3.712937889802084e-08
1347,-1.7560226975104072e-07,-1.6448475697266969e-07,-1.3767362467197686e-07,-2.783202831581647e-07
1348,-1.003226062933139e-06,-9.125287594010844e-07,-7.640942006052658e-07,-1.5581012128297345e-06
1349,-4.572445364251502e-06,-4.060438298304437e-06,-3.4028233498692885e-06,-6.967892932068261e-06
1350,-1.7370945946388604e-05,-1.514112814075807e-05,-1.2709510781966231e-05,-2.6012096510711726e-05
1351,-5.675892788230142e-05,-4.882914225655213e-05,-4.1083089654045214e-05,-8.364453995876058e-05
1352,-0.0001633306474393119,-0.00013941919829486192,-0.00011768024447166974,-0.00023723129621498482
1353,-0.0004217523759101678,-0.0003589682026700282,-0.00030427097326051313,-0.0006046135559412419
1354,-0.0009922571499245995,-0.0008457763686128408,-0.0007206806245777546,-0.0014057912979827773
1355,-0.0021541223962031177,-0.0018455619606330893,-0.001582577347315758,-0.0030194805797301716
1356,-0.004361436443500848,-0.003766905075314499,-0.003254022702355517,-0.0060543382966877215
1357,-0.008310595819452184,-0.007251502441484751,-0.006316533146290265,-0.011433395067759396
1358,-0.015018292005901037,-0.013258536637022969,-0.011655472362507966,-0.020489292214305687
1359,-0.025908050071929575,-0.023161168721263503,-0.02056349309614557,-0.03506707225147224
1360,-0.04290234838793305,-0.03885170256383063,-0.03485950581593258,-0.05763016196197092
1361,-0.06851582006662112,-0.06285033705957947,-0.05702022417512949,-0.0913635697925386
1362,-0.10594302870432075,-0.09841049389175663,-0.09031961212091294,-0.1402661671735838
1363,-0.15913209150877952,-0.14961159551665068,-0.1389694497917181,-0.20922152341085562
1364,-0.23283343708511117,-0.22142810709681393,-0.20825179474719901,-0.30403467465732686
1365,-0.33261177665758884,-0.3197620107956745,-0.30463159315006394,-0.43142112787055137
1366,-0.4648094279038417,-0.4514251783145608,-0.43583552056049296,-0.5989349239817077
1367,-0.6364506137548294,-0.6240586596729919,-0.6108817885156578,-0.8148248905136409
1368,-0.8550791010674185,-0.8459780069520144,-0.8400455477736409,-1.0878120568820004
1369,-1.1285251449855123,-1.1259373104554775,-1.1347458707026616,-1.4267860623635962
1370,-1.4646018815460606,-1.47280953694475,-1.507343107910326,-1.8404237941016672
1371,-1.8707359220238513,-1.8951866552776004,-1.9708395004719645,-2.3367391389539387
1372,-2.353541919735654,-2.4009096381519335,-2.538480995738366,-2.922578412911864
1373,-2.918356133446475,-2.996545297989034,-3.22326394869262,-3.603081515862061
1374,-3.5687491770051616,-3.6868335900875686,-4.037356532347094,-4.3811338408562595
1375,-4.306042819524917,-4.474134999615343,-4.991451020581043,-5.256838144908949
1376,-5.12885945251426,-5.357912297925389,-6.094069437330496,-6.2270386251772925
1377,-6.032735279089999,-6.334283865071265,-7.35085110770881,-7.284930969650927
1378,-7.009828946986545,-7.395686406026104,-8.76385599273978,-8.419791700286407
1379,-8.048755864185893,-8.530682987791494,-10.330921802445493,-9.616857311167555
1380,-9.134574547184995,-9.723947605833489,-12.045115134547306,-10.857378338693069
1381,-10.248945100954431,-10.956449981969564,-13.894316680773015,-12.118865746131918
1382,-11.370471542380947,-12.205854062708953,-15.86097746429225,-13.375537265713048
1383,-12.475229589514846,-13.447131202484039,-17.92207703656477,-14.598960209801522
1384,-13.537470301158526,-14.653374903525728,-20.049305855448736,-15.758875458363404
1385,-14.530478353695683,-15.79678927493545,-22.209483271707086,-16.824175710064196
1386,-15.427552714395736,-16.849809262985044,-24.365210398815798,-17.76400059021702
1387,-16.20306790340952,-17.786298421993447,-26.47574440664033,-18.54890264452002
1388,-16.833566621814466,-18.582760752808348,-28.498068242723043,-19.152032177175847
1389,-17.29882965228966,-19.21949773800846,-30.388118223933706,-19.550285593359988
1390,-17.58286692545205,-19.681640781116492,-32.102122099547614,-19.725361553297905
