,TP9,AF7,AF8,TP10
0,-0.11089597120219569,-0.28428831665394383,-0.44890984080272456,-0.39381394414406007
1,-0.4285538656088299,-0.65815229706249,-1.077554745067797,-0.9604488880240858
2,-0.9295441921207908,-1.2171089972899845,-1.9927172444889525,-1.7884329560094159
3,-1.6467115508422832,-1.9814944953898448,-3.1940644004208023,-2.8907280309884165
4,-2.60647809517148,-2.9539843914030883,-4.659839183347824,-4.254151819553987
5,-3.806252472718204,-4.119483981456236,-6.351354581957567,-5.844830902234878
6,-5.212804354788727,-5.454248779497111,-8.216840399636508,-7.622800386526678
7,-6.780059923377924,-6.930499778181744,-10.197252007944808,-9.547076488053289
8,-8.461388716529811,-8.51683125347622,-12.23471576561649,-11.571455153103198
9,-10.212369249719055,-10.181404539749927,-14.286634927784558,-13.645191025387886
10,-11.991705205100384,-11.90408922657229,-16.34804220097048,-15.735866748871324
11,-13.752668036104762,-13.650034684331835,-18.408822570283714,-17.810736510214724
12,-15.472756387916391,-15.383479065951718,-20.459603857973494,-19.844685621030294
13,-17.15074888837117,-17.06858565030387,-22.484882375874392,-21.79994457222189
14,-18.774140361517965,-18.668735314197,-24.462069483896425,-23.62010523669992
15,-20.30921984387991,-20.14768379196685,-26.36410269041034,-25.254608868992882
16,-21.722491588361635,-21.474887504325967,-28.165677313553598,-26.680710257711592
17,-22.996959029594944,-22.628934484589617,-29.84514876433281,-27.90095003904522
18,-24.130420772280903,-23.596740772705505,-31.38329487891916,-28.932840368704355
19,-25.116654421796657,-24.369914710253354,-32.767045173106375,-29.79732071098431
20,-25.92824630273674,-24.943243281680367,-33.991409623577354,-30.514344595374528
21,-26.526012436780146,-25.31948738370786,-35.05448193079876,-31.10667232201689
22,-26.885403666249204,-25.511723176298396,-35.95576280689608,-31.597463415542283
23,-27.006952762758164,-25.53555782044641,-36.696974538503845,-31.994570938499642
24,-26.902876505648916,-25.40498193275957,-37.28041123705371,-32.277468315034206
25,-26.587620555210613,-25.138517112368273,-37.70824222193523,-32.404951353649636
26,-26.080621268600048,-24.76302335012069,-37.98084213352464,-32.33422692439527
27,-25.412086536998334,-24.311506317687957,-38.09424787022246,-32.03322007819194
28,-24.621637912323635,-23.813547563190465,-38.04105793096465,-31.480428202419564
29,-23.745780607249838,-23.28595618279972,-37.81240565813532,-30.667427000150667
30,-22.816144857639713,-22.735513214121145,-37.399395974822205,-29.60609496689284
31,-21.86815908161307,-22.166564975370314,-36.79657499008949,-28.339122746062728
32,-20.943736822590946,-21.586173838422592,-36.006254454463374,-26.944912158616017
33,-20.08793048214292,-21.001086144575034,-35.03615394368908,-25.514389656902324
34,-19.337934628920387,-20.410326365464172,-33.89507754591659,-24.123085725460232
35,-18.71125660453847,-19.808501055986646,-32.59782781374878,-22.818225481193476
36,-18.205112199864555,-19.199602702751967,-31.170128554395152,-21.626961530367634
37,-17.809198413136286,-18.605972724271954,-29.644699353189615,-20.574449755159975
38,-17.51288649410523,-18.06010740359142,-28.05442052839634,-19.674597742261653
39,-17.301079120162015,-17.58524691061645,-26.428865815057403,-18.911075681402778
40,-17.149223602010977,-17.183744078895327,-24.79550571971205,-18.241835498669968
41,-17.022778898850415,-16.844024064014757,-23.179456784427934,-17.624293599906654
42,-16.891690994134446,-16.551600593636394,-21.598309348878576,-17.03552936973423
43,-16.746413547947064,-16.292801902379388,-20.060536297714574,-16.46305175954075
44,-16.596151950788247,-16.05361941156553,-18.56774488723171,-15.884222894669955
45,-16.452615370040686,-15.815107977370882,-17.11447423677384,-15.264817201571397
46,-16.316409442474733,-15.563347974745726,-15.695239621376937,-14.580282678390505
47,-16.18002918427007,-15.30520952136129,-14.317618509848133,-13.836352066662792
48,-16.041959209729225,-15.06305597982657,-13.00260058745769,-13.060455422731208
49,-15.914029396964635,-14.861767979164236,-11.775161760921167,-12.274544558858263
50,-15.805737314979963,-14.721126772918186,-10.660554627805785,-11.487764236529284
51,-15.705193664700184,-14.656352726968546,-9.685271690416942,-10.718425105275807
52,-15.588420018042052,-14.678067611610816,-8.872753340506236,-10.010822205609157
53,-15.443326078911422,-14.779878588579681,-8.234687909433779,-9.412901432516039
54,-15.274600980132126,-14.931014166420885,-7.767367152575711,-8.933368460151371
55,-15.085936170368091,-15.086180848590534,-7.454770918928998,-8.539215716190037
56,-14.865282699930694,-15.201505241700445,-7.2724908510513915,-8.191567809774625
57,-14.586301612203387,-15.242476786635981,-7.189598920147157,-7.861605883364222
58,-14.222768391872696,-15.1803049594072,-7.171021350624824,-7.524155949458985
59,-13.761080924607517,-14.985697103660153,-7.182732347873707,-7.15125362160375
60,-13.191011548480686,-14.632396009596436,-7.196785894110224,-6.712466009527057
61,-12.49327495215026,-14.108140852156549,-7.191810451574068,-6.180931898605687
62,-11.645310164087563,-13.422693736120712,-7.1538705886979415,-5.545002140067513
63,-10.640314665677161,-12.603859929111941,-7.077780921471487,-4.816786311872932
64,-9.501930759841155,-11.676793730253626,-6.961788447651986,-4.023572251420778
65,-8.267347924971157,-10.6537833838303,-6.802874772571742,-3.1963452946817084
66,-6.96200658346752,-9.547104950998461,-6.5956255856799215,-2.3626451257595025
67,-5.602855003896671,-8.377617592798817,-6.331805195518721,-1.5439759847947525
68,-4.215577610211289,-7.17038709494313,-6.000918218507385,-0.7583800217113322
69,-2.834948674269164,-5.9451864859427275,-5.589651697679184,-0.012952894145740024
70,-1.4867474177236972,-4.717238945354368,-5.084509989895626,0.699468849068037
71,-0.18164972018825346,-3.508623362637932,-4.4789899133416915,1.3851410331102596
72,1.0727257868566522,-2.3499172699324107,-3.7783984571156686,2.0423169653287143
73,2.259158955773821,-1.2738633238128887,-2.999163820615788,2.665883082294153
74,3.3469605752608835,-0.31165628132933304,-2.167190311633749,3.2517697879235814
75,4.297611138109116,0.5091962856490851,-1.3152002970449537,3.799879609130905
76,5.077159658959093,1.1681246690966178,-0.4768034043099897,4.308986570685985
77,5.663682780959101,1.6523117258338478,0.318067546931453,4.7625543879710355
78,6.040603397928841,1.9546874262473093,1.045655080547537,5.118851510720601
79,6.191878010813399,2.07847106466537,1.6898984298793773,5.327097304528032
80,6.1038046679290865,2.044172175122408,2.2449202249418074,5.358941711056153
81,5.7834724794538985,1.8823462047430393,2.714036272944388,5.216404357857505
82,5.277981703998585,1.617053081026626,3.100812727556307,4.911542683176513
83,4.6524687239552,1.26474368250286,3.403918227620762,4.447755802087938
84,3.963066579849827,0.8459681342445563,3.6216188548000505,3.826254517953535
85,3.2528294716665944,0.3856318182068241,3.758407736102368,3.0721371984084023
86,2.5539953288757204,-0.09518687431203277,3.8245083853058124,2.245090064181119
87,1.8928717206557306,-0.5790626822485114,3.8327192404465014,1.4120241889256824
88,1.2860747765544398,-1.0461169091512703,3.7998283830341886,0.6144426925756136
89,0.7294758362144925,-1.4745160171381597,3.7460102532509745,-0.13095992689563637
90,0.19738122791439924,-1.8458351702075322,3.691039692537511,-0.8158228094992253
91,-0.3360930206827021,-2.144899880389666,3.65149344455423,-1.431718633480136
92,-0.8698974610837701,-2.3581670720591266,3.638252409989301,-1.9750510665199272
93,-1.3795297200979797,-2.4782687156589676,3.6531227924325584,-2.4523727128858286
94,-1.842803560877269,-2.5092988230397766,3.6886720640280433,-2.8727010948465823
95,-2.2509137950568863,-2.457757810996955,3.733874213998268,-3.233858154344474
96,-2.5885376099328874,-2.316859304823768,3.7779731734745994,-3.515539073882795
97,-2.8074825010958686,-2.0736694751554516,3.810865803119993,-3.6896911176143226
98,-2.844877514977161,-1.72383416813677,3.8253997450851176,-3.7319361744910418
99,-2.6717203383752874,-1.2685418962308075,3.8208449973334844,-3.623143336517448
100,-2.303225322168619,-0.7117830995973268,3.8027586775667532,-3.344545724951838
101,-1.767540048701208,-0.06477945942573587,3.779373362742282,-2.8768496022120464
102,-1.086051927162158,0.6529953616831522,3.759613136963296,-2.218419628355751
103,-0.28007306221169015,1.4139675119300104,3.753343354395501,-1.401331663197366
104,0.6134436838380153,2.1860604669718766,3.7718032818994356,-0.4811674090526026
105,1.5355577899613928,2.939211009358976,3.8280851973041776,0.4955860909041732
106,2.4286676896871615,3.6510728240948485,3.938041014613948,1.5085085820686113
107,3.2637319539790313,4.314298755857237,4.119592292456756,2.54914114971095
108,4.033282374468907,4.932443130253202,4.385690972972401,3.6057530092474805
109,4.728486919728982,5.505272901465537,4.733234953565227,4.6566152497626945
110,5.334134244333115,6.03023330540153,5.1443552746752035,5.675181571847483
111,5.850397420776836,6.512203267708625,5.598401889474736,6.643283279280627
112,6.306102271337488,6.955730760205054,6.075999114697122,7.55852176550646
113,6.734613995918875,7.350883446394029,6.557481343227745,8.42374710504817
114,7.139454272382576,7.678571684762213,7.024540241843212,9.23430083863215
115,7.491662725028852,7.928144463111351,7.46236670602676,9.981983672946457
116,7.754025837224902,8.096850102621115,7.860512261113742,10.657702698223277
117,7.8965548206838,8.179328987707006,8.213741321063297,11.249621569879395
118,7.927533376316856,8.193777085359608,8.531090919175002,11.75568056795387
119,7.796192335927489,8.098215097859372,8.79575173122968,12.130338158408978
120,7.484122079069491,7.88757936890776,9.00136089955712,12.360212480550274
121,7.013279945792856,7.58179398081682,9.149526401017784,12.460835534829593
122,6.442655732345482,7.208949989439562,9.244393021497682,12.457578031947698
123,5.845680241574525,6.796823181017743,9.288141561562613,12.369018759837076
124,5.281221912212115,6.371978974547873,9.282383769766732,12.20829932486101
125,4.786888389789654,5.9612235372648765,9.234870210160858,11.99806364244936
126,4.391065842397682,5.597262680360834,9.16368145459773,11.776996666515469
127,4.114542192384449,5.312591259099484,9.091224707693808,11.588686469129705
128,-0.40022033777200683,-0.40343552969887103,-0.4537176154145968,-0.29132385004627975
129,-0.9205257044454704,-0.8824081475793573,-1.0001631707430905,-0.692892110255052
130,-1.6528383149268522,-1.5531879570545322,-1.7869015684878309,-1.2947762112368455
131,-2.601128950260089,-2.4087870174399018,-2.8148720404218173,-2.116927943354883
132,-3.751742933194759,-3.4257193307285156,-4.0613794712514535,-3.140688814826642
133,-5.055738680887229,-4.56548839348317,-5.487856810713421,-4.318979820288382
134,-6.435345549812887,-5.775217633228183,-7.04854247691828,-5.609600231113334
135,-7.811230886136416,-6.993985250725239,-8.69494288614354,-6.983972687786893
136,-9.122043713453515,-8.16230532110797,-10.378745377276333,-8.41456848151144
137,-10.330419246036918,-9.230964233748896,-12.064616332504905,-9.869774412517408
138,-11.425578450042167,-10.181936717928433,-13.752625788831393,-11.325304321839209
139,-12.380545188749311,-11.001896383426862,-15.429555849622606,-12.745682484905439
140,-13.182877276145168,-11.694953774844162,-17.081312907545026,-14.09988778236166
141,-13.841956202753495,-12.264674635821127,-18.69054677680092,-15.351547509844021
142,-14.375899432884605,-12.711837260610604,-20.237203643157397,-16.457604024392015
143,-14.80007136316524,-13.047737802460409,-21.700680947551046,-17.3889796293937
144,-15.133463106928364,-13.300485511217376,-23.060676188722617,-18.13753545271083
145,-15.40538622820254,-13.51009147412248,-24.293613481938007,-18.701827121535455
146,-15.650504626751548,-13.716078727756503,-25.371911608358843,-19.07566248001163
147,-15.89207095745926,-13.947552011081607,-26.272483230786364,-19.255374436801993
148,-16.137989405791874,-14.22139548733351,-26.984076006821578,-19.26055417368579
149,-16.39829659867743,-14.544000686973,-27.508970443263102,-19.141680438385865
150,-16.700852040374222,-14.918535427623073,-27.862878543381033,-18.964594694697713
151,-17.082969201584223,-15.350481935118378,-28.071071838960428,-18.777558752378344
152,-17.56668386971963,-15.839724956588073,-28.161368746622017,-18.598203250351773
153,-18.15178984207819,-16.369487590806706,-28.158994754444322,-18.43408304832524
154,-18.822684303432332,-16.915195394991493,-28.085036120958648,-18.29597364781212
155,-19.558264847032888,-17.462283555733915,-27.956518355875843,-18.195858783286667
156,-20.339750250745517,-18.001842988722224,-27.785325451232218,-18.14130263530361
157,-21.147043549497955,-18.523064443347593,-27.57628729016731,-18.130594692158255
158,-21.9501761010694,-19.020967857745315,-27.329017661799497,-18.152165750050408
159,-22.703301724449194,-19.499259351989927,-27.041952418661108,-18.19612162546505
160,-23.358007778599806,-19.965434879470234,-26.714225027591194,-18.26524381172228
161,-23.88257873823318,-20.427003795102966,-26.347787729834383,-18.36894209690296
162,-24.26756446294162,-20.8884858551708,-25.951256841195963,-18.515518998062166
163,-24.51907703764729,-21.350818214169514,-25.543362425705542,-18.706701764598204
164,-24.644358135400772,-21.81131113755341,-25.15166207110963,-18.93842046264273
165,-24.650243242530077,-22.261087037377123,-24.805496993204073,-19.20909977250979
166,-24.55084219972418,-22.68533428544511,-24.526957790605156,-19.51131040539973
167,-24.366400292529754,-23.065962088473192,-24.32258342034875,-19.814725603489233
168,-24.115201193079063,-23.383267279636854,-24.1829434745106,-20.0704631269043
169,-23.808413275043787,-23.619659075517987,-24.092597213457047,-20.236220548915842
170,-23.44995533982829,-23.762777244679384,-24.03721712022317,-20.293620741334944
171,-23.045450053948798,-23.80054908705948,-23.99806548547534,-20.23820981127424
172,-22.610911486886145,-23.709258075712455,-23.944376713538084,-20.06487962328474
173,-22.15177952947375,-23.455228329431318,-23.83830512377585,-19.765679841154313
174,-21.637635092654865,-23.01533535498414,-23.647361593568004,-19.331240555950334
175,-21.018425404177698,-22.38767234765821,-23.348345022747885,-18.75485527828197
176,-20.258025968874286,-21.582238392983896,-22.92602395598099,-18.03811929091791
177,-19.34389720882499,-20.60833290689977,-22.376473415836557,-17.181849156090923
178,-18.268579484668326,-19.475806360892218,-21.70711108004594,-16.176165851096627
179,-17.012997130461102,-18.205090104234284,-20.930263410779418,-15.012939672884192
180,-15.565009277462362,-16.829688659929985,-20.05784782285372,-13.69864588471859
181,-13.950792722714377,-15.390615416671954,-19.09870177403078,-12.252751977601438
182,-12.234629598383929,-13.927522924402636,-18.05722871454192,-10.69600375055007
183,-10.488593294967629,-12.473428180595974,-16.935373102730395,-9.04888615684916
184,-8.767165031932187,-11.056729727073753,-15.738220701485325,-7.351929874347239
185,-7.117819535632719,-9.711426704286797,-14.478204892418406,-5.675543361770325
186,-5.6044625979089995,-8.482591389947263,-13.171402208308798,-4.103602208951741
187,-4.299455102614751,-7.418935864553074,-11.830401086536742,-2.707575861900713
188,-3.2554298012276224,-6.5554588077279465,-10.465483410366721,-1.527884988556745
189,-2.490790927966641,-5.890392206843958,-9.08811042613432,-0.5808575927500361
190,-1.9996409533130732,-5.408833091633797,-7.706082208041439,0.12338608427317199
191,-1.7672531785735648,-5.1357271023422,-6.32787057764841,0.5899864697053405
192,-1.754692160634553,-5.13321093726261,-4.977805540785526,0.8672116518524107
193,-1.8768182824890023,-5.476546113507879,-3.6959058024593747,1.0556345610595037
194,-2.026998754203511,-6.225954052786333,-2.526516501477373,1.2753694254782264
195,-2.1257811684499215,-7.382950175211828,-1.5093956826061201,1.6071070241408565
196,-2.1429533277086725,-8.88434612041709,-0.6712438219124028,2.076174660052885
197,-2.0558568440023124,-10.64862556018122,-0.010629202356573386,2.6932695661127797
198,-1.8032399701842006,-12.599047470383342,0.5124135108388026,3.491363942285318
199,-1.2595629682442204,-14.695325125944775,0.9607417160508919,4.55678440730091
200,-0.1871841627303965,-17.010839004530006,1.3947058064829805,6.059696025501447
201,1.7361203654589448,-19.68029665457674,1.8582404888652562,8.24370459929525
202,4.805263341060181,-22.763321464875663,2.3725851845857955,11.358391387161127
203,9.204652911735687,-26.188417008805963,2.937077754102199,15.568207095411903
204,14.938435250330295,-29.742737712260663,3.5260373011719954,20.871986782326452
205,21.77626983105083,-33.08476433051727,4.0911948565572755,27.060696773362253
206,29.278071057133204,-35.83746033300156,4.57782477696759,33.73430513428888
207,36.8569925445853,-37.65967726683035,4.914319973895522,40.360146943230504
208,43.833333818278554,-38.228213567990736,5.010205383672358,46.33106162066576
209,49.55689313822971,-37.26540516840922,4.814759684663847,51.059418017731126
210,53.59378011615946,-34.5411108243956,4.3745741218017615,54.13182903039359
211,55.80412825849799,-29.792102885590282,3.8307677015156174,55.39681021452832
212,56.28943027892844,-22.68068235323597,3.3841933640630675,54.94896519337365
213,55.30976485380362,-12.786985697662239,3.2616375879133876,53.0666033313761
214,53.20053715692236,0.3931915170666578,3.675519997727002,50.11867739149843
215,50.298393222001025,17.41006427552572,4.792689234590311,46.46388883969498
216,46.88273392144952,38.78595073756375,6.73848814222983,42.36685119968591
217,43.10036634606713,64.9534194149168,9.618986461716922,37.96411551806691
218,38.95499706198445,96.13689626048466,13.530808472790245,33.2948131921532
219,34.423466826220356,132.17209261324942,18.55897373077793,28.37109934243828
220,29.539796699401133,172.4748535507877,24.770179123022977,23.240367721439586
221,24.406443789629716,216.13713774115894,32.20410182237834,18.008139368720865
222,19.204803731855247,262.03692316753546,40.87865986095635,12.841213591355253
223,14.179153486731238,309.00454268429814,50.80252527398802,7.9591485586541655
224,9.599181812523902,355.99735183527093,61.990923337556104,3.6037733362900615
225,5.728597294615516,402.16441408165264,74.47156716586944,-0.0075421376247487015
226,2.752549358487186,446.8535243384107,88.23391900895557,-2.7460101391191
227,0.6839782770853795,489.59118285840316,103.16821597741487,-4.630802297429895
228,-0.6069187909834652,529.9931591893637,119.06987445555434,-5.80035938023758
229,-1.255514867391352,567.7245224284384,135.68157058613022,-6.408543186456099
230,-1.346643143421231,602.5170946099124,152.71329805306354,-6.585936181147904
231,-0.9450136164615395,634.1719713673879,169.84202775192216,-6.457573795238912
232,-0.12055346890277746,662.5550357641645,186.72377839418203,-6.137484616395735
233,1.044599134731397,687.5897993540137,203.00468689425082,-5.701400511970897
234,2.4722641992603913,709.2508084980708,218.32264021437194,-5.182539111178854
235,4.1080724452373225,727.557303082044,232.31407228772144,-4.606142152585213
236,5.9126177133196665,742.5671076775728,244.6309253629353,-4.009087277020397
237,7.839400864746169,754.3709638097083,254.965708541917,-3.440762668385192
238,9.82905585484091,763.0872416661053,263.07195658397086,-2.9613803203604294
239,11.81320845166602,768.8518717774043,268.76864900721284,-2.6310878985536243
240,13.722010509207948,771.8053593442688,271.9314082974334,-2.5029057399051657
241,15.492212338287448,772.0992654738177,272.4814768371336,-2.6256486754472173
242,17.06160533705775,769.9246045680494,270.38112764014284,-3.0473123749459896
243,18.364028114797108,765.5261041725933,265.6376382757082,-3.808804475444798
244,19.346197295183597,759.1834385753157,258.3088948815221,-4.933669289177177
245,19.981861946671195,751.1705510753643,248.50151207273052,-6.421880171322941
246,20.37559632008902,743.5207919650504,237.40184533723422,-8.165768827156795
247,20.35188574376381,733.5044680314994,223.44658011096706,-10.31383713839852
248,19.84705296934299,719.8572243969893,206.27518970511093,-12.852670825945081
249,18.891146695646917,702.4424245741602,186.39259192039933,-15.660032848525224
250,17.585930984100877,681.9393031252735,164.85378719549345,-18.567827709542495
251,16.073396189001514,659.5589630471588,142.98813826920187,-21.40815781314691
252,14.500944282234165,636.7899572108179,122.17197478975011,-24.02936760887672
253,13.00201458588434,615.1748805627237,103.64119665091145,-26.299168360207712
254,11.692091627500165,596.1191084254866,88.34477644699422,-28.11821628949684
255,10.659416309084978,580.7325468073583,76.84763368996761,-29.436147408734403
256,0.017578156968344583,1.5053170097547541,-1.6446331755620862,-0.3843967824944413
257,-0.2916669105824529,1.3927094534062325,-3.7899746821836358,-1.0810503952304025
258,-0.8585850392420389,0.17534167179259263,-6.936454863465254,-2.1734831787762583
259,-1.756138308227285,-2.7458761621059766,-11.132392953258707,-3.716352520659944
260,-3.0485971728868284,-7.961599179890833,-16.34290479705477,-5.720831482634145
261,-4.761776610059377,-15.983206823907,-22.45293139256915,-8.159462124715622
262,-6.877094726068361,-27.17792320391969,-29.282938367289677,-10.976377750417951
263,-9.351479145358567,-41.70874502767205,-36.61486767728971,-14.096789535761754
264,-12.136402391523209,-59.49589864682887,-44.227393499156506,-17.434578556273813
265,-15.182136618762046,-80.22313341405275,-51.94580942422432,-20.904545448262347
266,-18.436354522636805,-103.39508655214793,-59.71660410551068,-24.448609855663022
267,-21.83801008140387,-128.50150791668756,-67.43560388383187,-28.014465118402867
268,-25.341683849428016,-155.07609413654905,-75.00869430167052,-31.56709082983295
269,-28.918576442228535,-182.67319090755626,-82.34949292548609,-35.06850039176628
270,-32.52409590330656,-210.84997273040346,-89.38259756139463,-38.47110850272425
271,-36.080465225538674,-239.17731476456748,-96.04411861779828,-41.73579720843441
272,-39.50155569647667,-267.24786041130835,-102.27855116140341,-44.8407849345222
273,-42.72693661605771,-294.6845149076134,-108.03779321183971,-47.76270237978254
274,-45.72199692466625,-321.13970632335645,-113.28223771839563,-50.453508219534804
275,-48.45134392818162,-346.29233938412756,-117.98018535963008,-52.84668814079234
276,-50.8656903099463,-369.8561959797131,-122.10406174901475,-54.88698687331761
277,-52.91755553748623,-391.59474259692337,-125.62809902823268,-56.54419819104444
278,-54.5916366683822,-411.3248194982521,-128.5329836955453,-57.81089949542185
279,-55.9084650930833,-428.9111054234336,-130.80820074974264,-58.698172653197155
280,-56.89095088679325,-444.26108329782306,-132.45017842384883,-59.224340136925164
281,-57.539461864033086,-457.3199510541081,-133.46352721568167,-59.40219158225152
282,-57.838885468934926,-468.0618543718247,-133.86355986379283,-59.246424610657755
283,-57.77833290284165,-476.4793034560365,-133.67379037362562,-58.793619650399364
284,-57.359750704706336,-482.5813947440708,-132.91707207053832,-58.088876231820024
285,-56.59370336069097,-486.4058890119472,-131.6115919459207,-57.154643007765316
286,-55.49959127347657,-488.03426232978086,-129.7772557138013,-55.993388809841804
287,-54.11420164306053,-487.59397879541183,-127.44203863682084,-54.61302505598659
288,-52.495993113916775,-485.2584644072352,-124.64136701238228,-53.0369559533329
289,-50.71120168631403,-481.24394455186615,-121.41526064168083,-51.29379848427593
290,-48.803497960972855,-475.7864790659585,-117.80611968204394,-49.41091898593225
291,-46.798875206575666,-469.1051300025276,-113.85621405315432,-47.41874148645355
292,-44.74134640825126,-461.3703474859618,-109.6096727704533,-45.354479755275506
293,-42.689375929006395,-452.6959083191928,-105.11801264390661,-43.261482595648
294,-40.684231194729755,-443.14139124166184,-100.43435749929944,-41.173711016226726
295,-38.725575981292714,-432.7138093618066,-95.59867968447266,-39.094770293998764
296,-36.76889425793475,-421.3887236549508,-90.63508501523154,-37.00370028461593
297,-34.74770968668223,-409.1403372943189,-85.56612181731127,-34.884834917866264
298,-32.598805927353695,-395.96194363241074,-80.42461787032812,-32.74747586525387
299,-30.272055806079276,-381.8705207474109,-75.24967973784052,-30.61513757971663
300,-27.726420642783612,-366.9141414396436,-70.07730919679882,-28.497969486648675
301,-24.929206486572767,-351.1947783665837,-64.93612225333123,-26.388385838604727
302,-21.87190314271547,-334.86294540451763,-59.84937774706764,-24.29189017755913
303,-18.57108094030557,-318.0900206204719,-54.83740394582126,-22.24244136426695
304,-15.041898282207546,-301.04238297584425,-49.91491933100849,-20.279216396049836
305,-11.302898040610568,-283.85022291158464,-45.087729337121,-18.42092467730172
306,-7.407004588813146,-266.58503512384766,-40.35285207412504,-16.661980364853545
307,-3.452679150522234,-249.270032501318,-35.70216663188054,-14.986627447024313
308,0.4340987371540684,-231.91559287861028,-31.127894932878508,-13.385180876620838
309,4.134902263550417,-214.5367350528975,-26.627329007577323,-11.861093808464098
310,7.548204864991137,-197.14326732327015,-22.206963213550704,-10.427177173597011
311,10.572218158418988,-179.73350335592758,-17.88724098265908,-9.0995762136133
312,13.101583386513509,-162.30863813710397,-13.704469776589697,-7.894276326258211
313,15.048126889675203,-144.89524217180636,-9.702636629201292,-6.824646525523945
314,16.37489449974081,-127.55229186679911,-5.919921123014311,-5.900341969650964
315,17.095767898745684,-110.35950540857775,-2.37925330797969,-5.119701870678287
316,17.240502980146175,-93.39891636073547,0.9134624529219136,-4.4627558757555414
317,16.850193432086726,-76.73769621072455,3.962836922498997,-3.900455235569957
318,15.992917843163331,-60.41507542279569,6.776216813754423,-3.4082944516389957
319,14.76239169919822,-44.447270041237715,9.361321392751119,-2.965979396947142
320,13.260450604937706,-28.845490012835093,11.731796338467644,-2.542407435702436
321,11.570677788383728,-13.618039875955938,13.911803607833745,-2.0917883259271277
322,9.764346709002243,1.2304312320638995,15.929568715364502,-1.5752260111909973
323,7.9339000731882505,15.682974411231067,17.804605913066208,-0.9813719668707284
324,6.182688951010484,29.694921782180465,19.54409992012822,-0.3245691717852628
325,4.590073730845169,43.21248524996967,21.15368276566673,0.38087434148473376
326,3.1997845098976603,56.19985177907056,22.648969289506297,1.1504622127683062
327,2.037664216692618,68.63245137483662,24.062344850332313,2.0309699240679557
328,1.1404931235454494,80.48302433443926,25.438394823554447,3.072581380287682
329,0.5480285842381892,91.72215565856628,26.817652404202317,4.302475168898808
330,0.26667979205617,102.32888519395702,28.23000762495501,5.719556635075287
331,0.2537229033779646,112.30468094120545,29.700251391489264,7.313056836158791
332,0.44463091131787474,121.67360267949148,31.24619334238555,9.079081591001124
333,0.8005618162099026,130.464454150091,32.86760737795465,11.00153932509022
334,1.3099637600769225,138.69506282587253,34.54366564948402,13.029537912004603
335,1.951441210885038,146.36792690269223,36.24534170891519,15.088895674743975
336,2.6798105276721613,153.47408508863583,37.9472882625338,17.10379919470858
337,3.4427678263026573,159.99837642573988,39.62743016561119,19.005797224885228
338,4.206864434773322,165.91680326267505,41.26255345697546,20.731584010400763
339,4.9572584558782316,171.1961748172436,42.83052044267914,22.224741568593473
340,5.6767119689664876,175.80947047532806,44.32058869453732,23.453534264825915
341,6.341038668350357,179.75763816566223,45.73953272599493,24.424536347259217
342,6.931393734100863,183.0706597408282,47.10230351347764,25.1698565744484
343,7.44332106601064,185.78181347887676,48.41873787957228,25.717397998193473
344,7.872547030378114,187.91946863753103,49.688751875698046,26.077717696339906
345,8.194550826894467,189.52826086443375,50.90668449965004,26.257066990028875
346,8.376537141454165,190.68196369071188,52.06814812286456,26.272936279939405
347,8.412122888186808,191.47358951441652,53.166213148204235,26.155659846833814
348,8.32949494312192,191.9939641874608,54.18126966001266,25.93323235801005
349,8.170110026088919,192.31645083785534,55.082871158916554,25.61188932889508
350,7.977321767507068,192.49900498579308,55.84243475586254,25.18193810516543
351,7.795438185463599,192.59490939418754,56.440867829206944,24.64853472199989
352,7.665124364440401,192.6544779375553,56.86512905613917,24.038417885850226
353,7.619609596135517,192.71363270721864,57.10294076817029,23.38050779417294
354,7.679267887853081,192.78167305055572,57.1460986900955,22.699228593161035
355,7.838473601420093,192.8479875225814,56.996940763305794,22.019083599767484
356,8.069979834746398,192.90016458931188,56.67332603933809,21.37247084185936
357,8.357814895632755,192.9330084844473,56.21103645732327,20.800306501539996
358,8.70944671776307,192.94746930343086,55.65398668772509,20.339665453465003
359,9.137269119024554,192.95111437216707,55.03949717981188,20.01048458360026
360,9.640317912716517,192.96662323663017,54.39261297778428,19.807471898634198
361,10.2017346046385,193.03915945546478,53.727137923225285,19.710108197669225
362,10.80974128541245,193.22568097991476,53.04830731984474,19.69807305618949
363,11.471325420917955,193.57661429725212,52.35600796080944,19.753575394501866
364,12.199943012115837,194.13540017397358,51.648983553355215,19.853666803406508
365,13.001422857766721,194.93429179717086,50.92826153269979,19.961777408005787
366,13.870168656650183,195.9775435106105,50.198177346930194,20.043172987474673
367,14.789677451504462,197.2388849493847,49.466373940982926,20.089804819959532
368,15.736183749614476,198.67153891443772,48.74387314373697,20.121138266318056
369,16.68915976109423,200.21861454925605,48.04611240403301,20.16664213950596
370,17.63355260595242,201.8203553602527,47.393779336273425,20.250164610786708
371,18.550510514234695,203.42297657470036,46.8093373986802,20.385117772406755
372,19.411922398143552,204.9851247468402,46.31124017673965,20.575082623676057
373,20.187143087300925,206.4746093516539,45.91011846230219,20.81523439403026
374,20.91348751117437,207.90723622008778,45.57974799326589,21.09747268787539
375,21.481553589620944,209.19091263744093,45.34395278065322,21.353888074193055
376,21.82444484923056,210.26419580090607,45.21339790407422,21.536957964433757
377,21.921259128459198,211.09752901548842,45.19049448549161,21.626227745412464
378,21.795109545793476,211.68510967390654,45.265617144730996,21.621657236443763
379,21.4990389709916,212.03979631344822,45.41696560745625,21.52835944276832
380,21.092663224734352,212.18935570911378,45.61519570729405,21.355802824043035
381,20.63099246799682,212.16914042179152,45.82883712703095,21.128892561579622
382,20.167627459073074,212.02180059693214,46.03005722967403,20.891473067192468
383,19.754373726216308,211.8051513623362,46.198508167974666,20.692363650464078
384,-0.24626315358529877,-2.1473475589980655,-0.32886830396563144,-0.14953517712221798
385,-0.6333107874989328,-4.68923547855386,-0.8362549336490421,-0.6682626588107482
386,-1.2122312070228691,-8.279078233749006,-1.6019221272316224,-1.4708275301243807
387,-2.0081583261685854,-12.89678210823543,-2.6434710116448876,-2.5693165373322855
388,-3.040795174403134,-18.426256850114644,-3.97397122473643,-3.9366822904339656
389,-4.308559567374444,-24.665228996104634,-5.59497273646174,-5.507956014347926
390,-5.778787041784485,-31.3519933260866,-7.477628823059194,-7.194765742436039
391,-7.396263367856988,-38.21010108913352,-9.557681543803115,-8.909166484239652
392,-9.105472407431217,-44.9997874074124,-11.74238076097222,-10.577301372502653
393,-10.862610262888307,-51.57471387284988,-13.927518337236327,-12.14592309405335
394,-12.638907653225408,-57.951422244725094,-16.022876954229506,-13.59763807601333
395,-14.388878809003893,-64.06997728928722,-17.925120058761053,-14.949611361683534
396,-16.07743809732004,-69.87515328334612,-19.54210763262959,-16.228723733573418
397,-17.690828929851396,-75.31575751897157,-20.799480378270225,-17.437628520602942
398,-19.22189415713026,-80.33456605421487,-21.647906625978838,-18.553044046169244
399,-20.650711185853364,-84.8664835453867,-22.067146129229577,-19.54971641453176
400,-21.948901912077822,-88.84767497009729,-22.05966196373651,-20.415529833136
401,-23.10156910346904,-92.22912294951456,-21.64900490459799,-21.157046316153433
402,-24.11023044272053,-94.97662763777109,-20.88309973729807,-21.788152100945734
403,-24.96853492786277,-97.05951562116658,-19.83282055497541,-22.314914623860414
404,-25.649116555689506,-98.45232196408796,-18.583091929793543,-22.74226953578182
405,-26.115765288795863,-99.14425278573921,-17.21454437141145,-23.080264251296725
406,-26.34191229838802,-99.1411769251568,-15.80266437916494,-23.341197235583852
407,-26.31994720300657,-98.46183063864741,-14.431364133636746,-23.53161868686332
408,-26.05307731211864,-97.13479324205503,-13.183693845915538,-23.635415263338814
409,-25.538872478104658,-95.20099512256606,-12.126805597213986,-23.608181646580494
410,-24.772878480491244,-92.71971212385839,-11.309550930513753,-23.405775290055786
411,-23.771849156652106,-89.7701903872188,-10.761924309775647,-23.020149427540392
412,-22.5849956179317,-86.44264241743852,-10.491251164737418,-22.47690014669797
413,-21.27773558174787,-82.82041760238906,-10.47756336469321,-21.813039551281804
414,-19.906835803756607,-78.9691354716336,-10.675978593729273,-21.071312918418403
415,-18.517555855231663,-74.95111248947721,-11.027958680892242,-20.304159983447175
416,-17.161395886716598,-70.84901488382603,-11.47737338786017,-19.57086135539124
417,-15.901644382735476,-66.75585885506887,-11.98696523908954,-18.91743455187733
418,-14.797358484445157,-62.74327209757888,-12.540187531485362,-18.35381039861256
419,-13.891312961276368,-58.85581086795165,-13.125184430500218,-17.857906300051148
420,-13.208856389643104,-55.129832418090395,-13.728078496907523,-17.40652601501039
421,-12.764430166661434,-51.60106469407392,-14.335509936383696,-16.995785752831356
422,-12.57048492812068,-48.29459421083278,-14.93252413694882,-16.63165999441972
423,-12.630289674875316,-45.21809570083822,-15.499629206156943,-16.312392773790542
424,-12.921321076372244,-42.36249479588841,-16.013645891763908,-16.020795076632684
425,-13.390154184046478,-39.704929577584615,-16.454122760455906,-15.739843907610766
426,-13.968731960780403,-37.214830812083385,-16.80728744468977,-15.473528733621846
427,-14.59414717230097,-34.86267436107838,-17.066070277319433,-15.234484024669602
428,-15.215318957007407,-32.62154662349308,-17.231799178291624,-15.009253259381902
429,-15.784472834000274,-30.460484651099197,-17.317151376392413,-14.753637984594326
430,-16.245781923508066,-28.353325820158794,-17.34825718184553,-14.431892992357383
431,-16.553343174663883,-26.29799909334821,-17.362043333400408,-14.040984571557837
432,-16.695645893413438,-24.31399412947961,-17.399026960087095,-13.601697900570953
433,-16.694571400530172,-22.422486963892514,-17.49516528901148,-13.146159414068334
434,-16.588296488469638,-20.639301393797744,-17.675359479651554,-12.709870124614485
435,-16.415698475035562,-18.982648187632382,-17.952319590710175,-12.334056695193802
436,-16.214716450246794,-17.466162190685207,-18.329759046060357,-12.064222445956478
437,-16.021868280806792,-16.081955698081103,-18.801546183662087,-11.93689660987312
438,-15.864676973675568,-14.798177414782893,-19.346789557117848,-11.961952695857965
439,-15.752892966654763,-13.572498049260476,-19.93288328665179,-12.11675524866418
440,-15.680371121420654,-12.363005739464848,-20.525146122931503,-12.365023338207916
441,-15.63878963241744,-11.123036337419087,-21.09346619837215,-12.677534279968512
442,-15.621448484741153,-9.808017066638298,-21.61532399386126,-13.039341306797374
443,-15.615887880508405,-8.398729021218818,-22.07570494136128,-13.432771645594148
444,-15.600368908665056,-6.908287797536493,-22.462800899768357,-13.820276540026505
445,-15.544917822113,-5.374167440409097,-22.763138176894696,-14.16552156422621
446,-15.41760109345203,-3.8534063775903253,-22.96221736589702,-14.45758947348009
447,-15.204151615522624,-2.4137028197615855,-23.047717154369874,-14.701002791335807
448,-14.91284545696404,-1.107720398391534,-23.010296648889025,-14.891049788163373
449,-14.550894565574925,0.0446026020389555,-22.84273105613383,-15.008368662325292
450,-14.114563591152919,1.0448348589488985,-22.540644220035084,-15.031481952097032
451,-13.601705969684177,1.900351600007156,-22.104917566877724,-14.951510618891565
452,-13.024920340799765,2.6170621261621934,-21.541393112132045,-14.781077744373961
453,-12.412151108156568,3.1973318740083574,-20.85719955349245,-14.546302396435747
454,-11.790083064485426,3.640498494578086,-20.060703506271327,-14.268883333162481
455,-11.168178890238881,3.941346656866081,-19.16850136673297,-13.950722840914631
456,-10.540360690374419,4.09350081268767,-18.206625803877294,-13.587684651920265
457,-9.899773636312503,4.0930030188841595,-17.20295219899512,-13.1975207848248
458,-9.253949384459343,3.9318198198678402,-16.182070562430177,-12.804038419317465
459,-8.624596819286259,3.6088958484043725,-15.16058339772081,-12.400752847284862
460,-8.031539323799505,3.164954590397314,-14.144339012686098,-11.952583926000463
461,-7.479981017394064,2.674749787952292,-13.135430715252511,-11.431618555955293
462,-6.9637650887642515,2.1995305167718926,-12.141465929993414,-10.83406834389808
463,-6.482313410143539,1.7741837852512972,-11.176742304183557,-10.163777569229909
464,-6.052630781589138,1.424908283834011,-10.258172580733769,-9.42558017644052
465,-5.691915605773541,1.1775130955645468,-9.403144159804707,-8.636212540061367
466,-5.392406255088355,1.0485015665497337,-8.62950039691466,-7.829219065056057
467,-5.12936269204516,1.0381679693259613,-7.954714389246153,-7.050952494750871
468,-4.88410189775384,1.1438884169082777,-7.391660703465439,-6.349499899728523
469,-4.646937050076947,1.3755598604724741,-6.9483473638340545,-5.758695344349436
470,-4.406874498146498,1.757014893289009,-6.633661173860497,-5.2939829940488226
471,-4.148152719333289,2.320919052271023,-6.455740122540298,-4.967668655216385
472,-3.861168796655442,3.1022578621422014,-6.41293294541779,-4.798898652542104
473,-3.554009600691356,4.126401709267489,-6.487459603994428,-4.7939863008169725
474,-3.249142290187601,5.3982858134458835,-6.64748900411044,-4.90992542605313
475,-2.965922090780836,6.904965957724145,-6.8541853821801615,-5.058958735233557
476,-2.7047569744978355,8.620011127007572,-7.069297998637608,-5.1588213185806175
477,-2.450215768811688,10.496813134385208,-7.262083726425656,-5.1579137858994235
478,-2.185207154061299,12.47741899425856,-7.410001507780509,-5.024629347342115
479,-1.901471051197884,14.52382129551437,-7.493653589167257,-4.736285513346921
480,-1.591239210738999,16.622824710966654,-7.492806917539703,-4.27796170659368
481,-1.2302874610848955,18.758405997708913,-7.389400861562638,-3.6537560937569373
482,-0.7881848321252337,20.89448939693066,-7.174160636740855,-2.8944069326808535
483,-0.25848852274770173,22.98279260383199,-6.8482625764994225,-2.0465118654680867
484,0.3387376196353736,24.980624383052515,-6.420317702869571,-1.1522233071078358
485,0.9850561348703798,26.85826436734584,-5.901909539181059,-0.2334680906580208
486,1.672801148862124,28.59237394000006,-5.303445099690477,0.7078883696833933
487,2.388693149713465,30.16141491332413,-4.630846562819382,1.6760031050391628
488,3.105406971516926,31.54698935741204,-3.8890624026429763,2.6662318826561204
489,3.7866545649846013,32.73585269324169,-3.090360185142587,3.6674995569485893
490,4.401375707517155,33.72426985395767,-2.2533492111650593,4.669757268229296
491,4.935971355491794,34.517908335629755,-1.3970015053140068,5.6586582729050825
492,5.388180679185065,35.11819369252471,-0.5393287373364531,6.609132693886483
493,5.754455489334935,35.506740800662286,0.3013840695948149,7.486293617145676
494,6.029007387197754,35.653615042712204,1.1077258710120348,8.25989668822034
495,6.205924683388467,35.540753716592064,1.866285944515186,8.920376482462899
496,6.2913422147641755,35.16652135880151,2.5664567379886445,9.474969687366208
497,6.3210864198168615,34.540300603458384,3.1959886548500474,9.93114831772171
498,6.346184010358753,33.68704931789181,3.7408828546197817,10.287697663126831
499,6.408159682227747,32.65195592409531,4.189382864000406,10.547958794733146
500,6.531836679796318,31.496381637414206,4.532306946903966,10.734086503626457
501,6.72923937643858,30.287462559301037,4.760980909699858,10.877835557876464
502,7.003245175257015,29.083754559921715,4.888489573368172,11.008466004061754
503,7.368821551272617,27.936108780639987,4.868698148775233,11.109194270162737
504,7.804822554630414,26.89163580894123,4.69088314502431,11.172769944216283
505,8.275500989379154,25.98874523184109,4.372892564532109,11.208401114910137
506,8.747300598635656,25.250572433170376,3.9517323931138253,11.232925604393076
507,9.193898524121593,24.680626993027865,3.473439144926845,11.252473929345003
508,9.592330432680985,24.265889434288788,2.984752279184999,11.26069846713512
509,9.921549604721065,23.98610337862163,2.5288600848221776,11.252688325275242
510,10.168307472312156,23.82290000909112,2.1425568041904164,11.232786184061679
511,10.333510414586575,23.757157822404526,1.8513173831435734,11.209433226246757
512,0.05985285433452178,-0.3751734807068032,-0.5798017520418204,-0.17737295742795206
513,-0.15651770471098742,-0.9364678446097876,-1.3017817338647615,-0.5674657905306756
514,-0.5472413688737735,-1.789018087211431,-2.3382876896351927,-1.1578214022651134
515,-1.148857657833314,-2.9687203328154244,-3.6878799158662905,-1.9600063808401613
516,-1.983056471639285,-4.491139720826366,-5.3160563752135355,-2.9570807531526007
517,-3.0398734601814166,-6.350446721021716,-7.160857878919523,-4.106733269761861
518,-4.273264666668673,-8.523769990624686,-9.143351829355954,-5.3620947087367625
519,-5.614545418108211,-10.972776038254416,-11.179450709539493,-6.688152478171646
520,-6.992271247576674,-13.643204786915327,-13.193642481441092,-8.061953791750867
521,-8.345298805949732,-16.477369022838378,-15.135190852175086,-9.465193670638673
522,-9.630986738850588,-19.439179687140697,-16.99928910950372,-10.893376410928958
523,-10.830033742862913,-22.48202683685402,-18.76482727720213,-12.352527507851262
524,-11.946439993376679,-25.568394562854944,-20.41681995824108,-13.853167990887078
525,-13.003273083120423,-28.658594164726484,-21.94234809343349,-15.387553047246419
526,-14.027020869373345,-31.70078005314577,-23.32447721794092,-16.924858598163162
527,-15.027771586295078,-34.648776951491655,-24.54568775205525,-18.415886598981665
528,-15.99151252400246,-37.483585090611776,-25.594222938783332,-19.805335104955248
529,-16.89789668406802,-40.20803534228248,-26.464371597693855,-21.052635613437346
530,-17.740119321984633,-42.83251280169034,-27.155036855153167,-22.135469947072917
531,-18.51640441513422,-45.36442148822365,-27.669963150006815,-23.03869299147225
532,-19.221858652851292,-47.80057560946069,-28.018525457060537,-23.74856914542995
533,-19.858055895463472,-50.12327352930633,-28.21528997129019,-24.26524986190655
534,-20.442187661220547,-52.298093103959346,-28.27822945258946,-24.616316257778376
535,-21.00280254824592,-54.277698858762434,-28.224826177566488,-24.836218940921327
536,-21.564413100229647,-56.00897067792106,-28.06904213738869,-24.942656476795353
537,-22.131639054591712,-57.43845760137888,-27.822536072617485,-24.94185055520593
538,-22.682286317316578,-58.519826973580614,-27.497680487089337,-24.843565323973884
539,-23.176411339135264,-59.222377830609105,-27.11013151429415,-24.666360263269375
540,-23.570258953472052,-59.53338149203818,-26.675580301984656,-24.42282729397155
541,-23.826718201755053,-59.45473409598118,-26.203368347626327,-24.106967752220232
542,-23.918535656762437,-59.00437369067733,-25.697525914875087,-23.700458308292177
543,-23.829633047894983,-58.22509712334501,-25.165087795051047,-23.191094961604303
544,-23.569252175565715,-57.17890620504692,-24.61876865005954,-22.59790914934817
545,-23.182119300947075,-55.918471388738304,-24.071706909277534,-21.962180340849944
546,-22.732375792708893,-54.47133256274319,-23.532162353701413,-21.304417827361174
547,-22.26789293950925,-52.848646752079596,-22.99844351554997,-20.61223886681967
548,-21.800093370540324,-51.055428608234315,-22.46084037293059,-19.87505377514525
549,-21.318827761413836,-49.10045991480369,-21.911148208243162,-19.111727130407708
550,-20.811014908963656,-47.00370263869058,-21.347580222593027,-18.35616152800022
551,-20.265120059446772,-44.79362879823394,-20.77167224447165,-17.62821523754772
552,-19.668679161505022,-42.50012928871712,-20.185149753814486,-16.927875655878157
553,-19.004244858144638,-40.153251440276975,-19.591154318572894,-16.25295300569186
554,-18.259095620309463,-37.78741563270919,-18.99392634257859,-15.6043519304056
555,-17.444581970402233,-35.43589067003231,-18.396187701881775,-14.978646519819739
556,-16.594913412041848,-33.11751348473595,-17.798357189187026,-14.363511818003715
557,-15.74122022993437,-30.834574615733903,-17.19929533153875,-13.736473605010692
558,-14.887368754345236,-28.581421349542,-16.59993804242426,-13.079662356310756
559,-14.019263816377881,-26.34859738899896,-16.00486602817861,-12.39058207023981
560,-13.134852513539224,-24.116991130509902,-15.416456607068143,-11.673840541085989
561,-12.249100846736853,-21.853212384367865,-14.83049927966753,-10.928843636235573
562,-11.37293734030965,-19.521757740589596,-14.239398927984766,-10.150814011604572
563,-10.49842412790927,-17.10659566163937,-13.63820918487343,-9.348347143413523
564,-9.612359476930404,-14.619039413419602,-13.02813638817395,-8.55120286105966
565,-8.71863349793369,-12.089733551812804,-12.412631221951052,-7.8012852770830206
566,-7.837357163418797,-9.558811427932447,-11.789773838479702,-7.129123868718764
567,-6.988294274109313,-7.065251697943692,-11.15399681449462,-6.54064573228268
568,-6.184856184857902,-4.639589777364335,-10.50395797539688,-6.033890415300355
569,-5.437783561807644,-2.3045790427518087,-9.845709011784367,-5.6113596841828395
570,-4.757829147651654,-0.07478400976122235,-9.190155136846485,-5.2776412200920815
571,-4.156475662935127,2.05006560289311,-8.5496237325576,-5.03335878617864
572,-3.6435520184511363,4.09003383994494,-7.937637180214581,-4.871931045194006
573,-3.22322306149144,6.073683428081628,-7.3691075468251785,-4.7799090101970325
574,-2.8900082762811787,8.018630850309046,-6.859847777276904,-4.748246590569092
575,-2.6345203692082095,9.927065822714663,-6.425675074362801,-4.784777440062845
576,-2.4464978157253756,11.793904915772755,-6.079265015158263,-4.901518145709947
577,-2.301204560406637,13.607809458937673,-5.82816082912441,-5.096550041768912
578,-2.162504997359974,15.343466223994504,-5.674277750957698,-5.347899760696059
579,-2.003641860737663,16.96318095602933,-5.614637572952464,-5.621969851176321
580,-1.8161450627038398,18.430206728892227,-5.644740380728988,-5.8878697062831655
581,-1.6084540635467859,19.718360629872492,-5.7578168658285716,-6.111872441712357
582,-1.4023199981198577,20.82004496179417,-5.939734406781272,-6.239802701428255
583,-1.2204270761970824,21.752474117189063,-6.1656610393139495,-6.201477222065074
584,-1.0654015945517625,22.547148107660185,-6.40138843137772,-5.944301482257794
585,-0.9162150150118527,23.22627019765864,-6.608398033894175,-5.457807079550769
586,-0.7505935343254183,23.790758389383992,-6.74845421061201,-4.761282882303088
587,-0.570704080313842,24.229033317096746,-6.78686586276693,-3.881796834387562
588,-0.38838279354968136,24.52187590674945,-6.698798249933305,-2.851048471674111
589,-0.1857330065041501,24.635144083446747,-6.476508131961919,-1.7143273397031458
590,0.07499667369222078,24.534935527872705,-6.129474868548317,-0.5351321083422192
591,0.4068650781062506,24.220423435084616,-5.67876091158267,0.6176437028809678
592,0.785253010584508,23.725260912160397,-5.150199795222243,1.6939127767356437
593,1.1741903653239016,23.09533456600143,-4.570018952503647,2.668436009718383
594,1.5489109406703954,22.3811349857802,-3.9645191055681357,3.5221314175537457
595,1.8909700762322144,21.638855461428367,-3.3611590547901393,4.228328589269645
596,2.176125685970064,20.92260656825539,-2.784311157519835,4.761924107461529
597,2.3744051668424455,20.276458916259443,-2.245383803720833,5.121408649442682
598,2.4646093266762286,19.731976562908333,-1.7429016842439538,5.333706772309197
599,2.448779793442998,19.299679180542782,-1.2725879231365236,5.432364329981145
600,2.3428970752739113,18.957776249774053,-0.8330893752416807,5.4374982983007385
601,2.151849202406303,18.658489116605068,-0.4275247381742208,5.357060898002268
602,1.8700060080606236,18.35299957091547,-0.06514560930200866,5.199484635922188
603,1.5102241922530275,18.012497810214573,0.23761601425932086,4.980231615850266
604,1.1199103319869945,17.62805125777692,0.4624704875463489,4.717972738727132
605,0.7579311096605611,17.2018156234187,0.5994320776380935,4.427618917785559
606,0.4489819101675555,16.748995049365238,0.6500602367644569,4.11608524717362
607,0.17835318682065188,16.293578304250175,0.6208614220512864,3.7864222195850696
608,-0.06654518865286256,15.854430297386745,0.517276260813375,3.4454059926554854
609,-0.2771749854722886,15.450278152726948,0.34300819306795094,3.098968428526256
610,-0.44494939309386095,15.106046389401287,0.09647591772342104,2.7424070635974815
611,-0.5853756452573253,14.83710752116024,-0.2323617660684758,2.3592193580412393
612,-0.7312545178844654,14.636873824118076,-0.6525897585662835,1.9353812308730705
613,-0.9033504676820903,14.483220444444974,-1.159556111353329,1.474762871104745
614,-1.0967372208783097,14.348827418264692,-1.73512437488538,0.9912341529675431
615,-1.2897537742717171,14.203137352424342,-2.3532630006906197,0.4935551145561695
616,-1.4565365341439307,14.017883524745303,-2.9820383242338258,-0.012632609965206078
617,-1.5758818374131747,13.779600886808508,-3.5848156316877478,-0.510166871946546
618,-1.6398028228793278,13.491877292493218,-4.121565798741915,-0.9575817987839992
619,-1.6491754966592245,13.166367664652325,-4.552912040764858,-1.291861182228344
620,-1.5979731957642567,12.813701441509743,-4.846446862359944,-1.4557368398039308
621,-1.4795690158762507,12.443096255084,-4.980320153189035,-1.428703555365526
622,-1.3011593612861894,12.067114486937998,-4.9441952936528395,-1.222037867139337
623,-1.0767524081555546,11.698027904187834,-4.7379189563787065,-0.8496247870287985
624,-0.8186826872068709,11.340221994893037,-4.368201829171043,-0.3204988092476722
625,-0.5386918415706714,10.984094570771223,-3.8491343986103876,0.3384246145467049
626,-0.25386870602536676,10.599380745931906,-3.2041626496866957,1.0630743708864803
627,0.014584198982118206,10.148576110857729,-2.4584602986156536,1.7763615531618115
628,0.2542653362365189,9.618391336320459,-1.6295601834841085,2.4292342358331065
629,0.46761333151212736,9.031218559839976,-0.7333924656391329,3.0067139939541625
630,0.6639508251810211,8.449730191824843,0.189412946289606,3.506109507280883
631,0.8736914218835706,7.850046628217,1.1215496306023125,3.928412592475374
632,1.1039104789660426,7.229918843468528,2.0304757030350107,4.284247956541189
633,1.3519497118386339,6.604254671841319,2.883321922564601,4.599889819946388
634,1.6163978227705094,5.997235380312843,3.6529344762089675,4.9028102463234475
635,1.9004622115293992,5.434697980669943,4.319222571419161,5.204187867970449
636,2.202781133337848,4.938581713860838,4.870229891043879,5.493032002678335
637,2.500914749583135,4.522890800357025,5.303075443572875,5.748774895049766
638,2.759035469980377,4.193492061671489,5.6215966130933674,5.9602521946487395
639,2.9552380845320503,3.9496182044804162,5.833481180426719,6.1243886657861335
640,-0.12538328522518902,-0.5067272037282633,-0.5635869443716806,-0.3726321558584458
641,-0.46379241206554067,-1.0871669922438465,-1.2820384053181035,-0.8696080001648088
642,-0.9911902256355284,-1.8747146511806898,-2.333617646169349,-1.5996068429672727
643,-1.7015036097308174,-2.854742643295524,-3.7305380914007777,-2.573112325259164
644,-2.5624128354742632,-3.997519288272152,-5.448370931363989,-3.7730081676026908
645,-3.518952788278572,-5.257864403466831,-7.427849283894376,-5.1571970255700545
646,-4.500331684269026,-6.580534872067284,-9.586849232389211,-6.668749811531429
647,-5.429408935333403,-7.911094577848184,-11.83540516994358,-8.249825044158715
648,-6.234315324141471,-9.204062180961937,-14.090794723982876,-9.851974460442092
649,-6.861740891627623,-10.429674962774344,-16.293862390108316,-11.439024219925546
650,-7.2947698930187626,-11.59485391589485,-18.431176001065133,-12.98876202661581
651,-7.532839307418482,-12.706624147774797,-20.47197524974992,-14.459579363758532
652,-7.594468946649174,-13.77380214595131,-22.38888633635701,-15.82227262076656
653,-7.510681707602859,-14.797666783544624,-24.15689352170127,-17.059201558018184
654,-7.306595909681399,-15.7798128272246,-25.751627786493824,-18.147967782645846
655,-6.9948583856860465,-16.729073962853747,-27.149520455556157,-19.060693482790768
656,-6.592858796367154,-17.66039492090678,-28.33081430724891,-19.774785136845342
657,-6.135074401089825,-18.590512222998488,-29.28116992818998,-20.282758511811718
658,-5.6759325429280265,-19.536382750819612,-29.990939106352723,-20.593125214296762
659,-5.286133399469056,-20.510636399886096,-30.455572510204632,-20.724154491193108
660,-5.037855381793272,-21.507953148098796,-30.67853741584684,-20.699474674760932
661,-4.986441879214905,-22.509666846996794,-30.67379282546085,-20.545748635078443
662,-5.161505154231432,-23.509906117130992,-30.46376661674032,-20.285538933684787
663,-5.569544229929167,-24.514459285170368,-30.072737396194928,-19.926667545608534
664,-6.204366174339578,-25.51628308383068,-29.520924298724807,-19.46189699302287
665,-7.0439482837434095,-26.49563180475043,-28.82287294909929,-18.8808387332502
666,-8.033479213172052,-27.437526696828726,-27.991553064824327,-18.187626503192575
667,-9.094898175858772,-28.333304383236975,-27.043662217813118,-17.413362290765342
668,-10.158136400413861,-29.169335593119595,-26.00076415095321,-16.607746848287565
669,-11.181718145906826,-29.926912601701797,-24.887280197344207,-15.815470561344508
670,-12.152159969254141,-30.591631087634948,-23.728963307692215,-15.068961169175306
671,-13.072806745438378,-31.15350061160065,-22.55279448610557,-14.4088281840173
672,-13.961284006044902,-31.602671568254568,-21.388476066035757,-13.892783873177834
673,-14.845718324752845,-31.93006284727155,-20.27100819262336,-13.567638206334061
674,-15.755176362573364,-32.12770556360944,-19.236098935797,-13.43746074981864
675,-16.70738373224068,-32.187947937851625,-18.310511023169425,-13.460669184074902
676,-17.69555423743966,-32.10605450985305,-17.510452766987676,-13.57812330321833
677,-18.69263256627953,-31.888054775255657,-16.845330072240404,-13.74794115684613
678,-19.673019117575954,-31.543379648862143,-16.31663784548105,-13.950707222442022
679,-20.627242452340187,-31.061418451192587,-15.915212748122777,-14.16979045289112
680,-21.548137034107288,-30.417863410309238,-15.623140535625446,-14.37990171700065
681,-22.408119083081118,-29.609938303505086,-15.418970900061186,-14.556198941099137
682,-23.165289952111774,-28.665614886049738,-15.281960073728754,-14.691098860506882
683,-23.79751442187278,-27.622111819255128,-15.191560442258051,-14.798529255543757
684,-24.317566527453963,-26.513973214301558,-15.125458172005297,-14.896574503376698
685,-24.741466243779517,-25.374333017536266,-15.062714310782106,-14.98635207003447
686,-25.057798117250663,-24.23544813876347,-14.988787537068141,-15.054363312569263
687,-25.23901748750623,-23.12804880140555,-14.896397158610212,-15.086770835154114
688,-25.26396009522032,-22.07931191591336,-14.78170093332154,-15.072020647939278
689,-25.118751441006975,-21.105537925876025,-14.637324434810717,-14.98971163984593
690,-24.789225300039792,-20.20058773826471,-14.445380422738731,-14.808587826261105
691,-24.259538818856132,-19.343037843015733,-14.184109549014183,-14.50674556076831
692,-23.51867313834719,-18.518817863044305,-13.845477938353731,-14.081983745603425
693,-22.5713701329245,-17.725925197186875,-13.43581634376422,-13.545006183036843
694,-21.433781233315113,-16.963989948135087,-12.963640308895691,-12.908696131372507
695,-20.11516482737462,-16.228994596474468,-12.435819510667907,-12.184177883691927
696,-18.613415336890736,-15.524884991407413,-11.858575803888415,-11.390942219570965
697,-16.930977133039168,-14.873089507247254,-11.238001614245853,-10.563891770567007
698,-15.09332220534636,-14.297654364849286,-10.579895533815266,-9.744842586516766
699,-13.144637893967243,-13.808556774624822,-9.88889758047399,-8.963488057071556
700,-11.119379333585426,-13.39757684104852,-9.169222309030946,-8.228601525632685
701,-9.025258296626728,-13.039976487465117,-8.425346496375616,-7.534120742596442
702,-6.862698711067064,-12.700004208355582,-7.663410198600275,-6.873260347140221
703,-4.657997916638856,-12.339534893756763,-6.894196088909708,-6.246665211196694
704,-2.464926481511457,-11.922963977134685,-6.1348315068001575,-5.653799624507061
705,-0.33914389251465343,-11.41625832761501,-5.407687178696336,-5.091977253645672
706,1.6693695389741556,-10.786947787756382,-4.737771702829562,-4.565737186391071
707,3.510941112058045,-10.01666734096933,-4.151371563321816,-4.093621349261449
708,5.140018091035473,-9.113234889675233,-3.6708636541263098,-3.7086303528114417
709,6.514164361694394,-8.097626855915083,-3.307318173493385,-3.4405312838939497
710,7.587066911201459,-6.992922276011224,-3.0631048004421912,-3.293846425333201
711,8.321925105225946,-5.82990321395519,-2.938020822347069,-3.246493906278029
712,8.721354742930588,-4.6470800742510905,-2.928631837604327,-3.2741315762026364
713,8.82613655712548,-3.4830693190294277,-3.0272589905316623,-3.373525925785432
714,8.686710351101373,-2.363858058528136,-3.2225069403081954,-3.5521431245311472
715,8.351304888282776,-1.3008372508544321,-3.500480233360795,-3.8034578635376817
716,7.868928884279363,-0.30099509592058993,-3.8477739643420366,-4.103516044072149
717,7.286229206107021,0.6346850675633815,-4.252172611977414,-4.427878466051987
718,6.635247534602116,1.5114916558847824,-4.701318270770057,-4.76959952545788
719,5.935015482044884,2.334016180453996,-5.180079179572319,-5.133126893438465
720,5.1989781946553,3.1089073522249593,-5.666336914350125,-5.509620402984619
721,4.426331103799148,3.845220506185851,-6.131286351936104,-5.871773332800358
722,3.603972319050005,4.543847747774295,-6.547372158502111,-6.187787534661076
723,2.7203846107661396,5.191199352255131,-6.896218013014723,-6.433020332924281
724,1.7740662697322864,5.773574181620701,-7.166859510213817,-6.593142702305119
725,0.7822711859452975,6.302299806297074,-7.3475997133731035,-6.6584134702749544
726,-0.2100607916184677,6.80833008842121,-7.421444099889963,-6.620542201288886
727,-1.133700682248778,7.31057704682938,-7.367110484937252,-6.480631435979145
728,-1.9162286006942049,7.804503552004762,-7.164872989080078,-6.250869723543068
729,-2.5067530868688266,8.27438628320385,-6.8043055719336865,-5.9421021807455485
730,-2.875006661567224,8.706948130087873,-6.288018661007364,-5.551096757409139
731,-2.989770768258593,9.094977565822504,-5.629790171094896,-5.062218154243772
732,-2.8241063834867215,9.434312931999427,-4.84972824101134,-4.461127242600751
733,-2.3793415452611035,9.724554332118409,-3.9721541802225095,-3.747647951835808
734,-1.6897291646132875,9.968543231985752,-3.026624377798667,-2.9497213250533
735,-0.8117214148804824,10.172581966468522,-2.045591180327511,-2.1155769912523374
736,0.19740059186756098,10.353239079998911,-1.060803526095243,-1.2881485123509242
737,1.3013033280208177,10.534987936014504,-0.10527989113061154,-0.5079473993898057
738,2.4870067139241665,10.734033211834195,0.7842608975075933,0.17293408250467088
739,3.7448742480883226,10.944476992410804,1.5750893990949202,0.7038903480402442
740,5.045285818590195,11.142107784609285,2.2498694717843044,1.0600879764400082
741,6.337296120277964,11.297856801436332,2.8051242238894143,1.2472152020834972
742,7.559109667322789,11.375569558724994,3.2396619166892733,1.2910687801550007
743,8.64953384584903,11.328962515828227,3.5458146094685894,1.220720309870254
744,9.551235832195475,11.118280950014395,3.7097694711993414,1.0500882012634634
745,10.199718504438787,10.725224145928513,3.7199797200199627,0.7814918462960131
746,10.534738368160406,10.151053765752014,3.5754405610826545,0.4239210622074179
747,10.531185083821406,9.408067177462407,3.287753647093745,0.0007952364706875631
748,10.208599430112377,8.515744034374656,2.877859258686193,-0.46094908074660673
749,9.616697738294622,7.496126975136168,2.3718693182254396,-0.9457889558461169
750,8.813565079324718,6.365050525546521,1.7992963217570141,-1.4418462058987487
751,7.855945915387139,5.1292874163199045,1.1932121499283064,-1.9191089824113479
752,6.799729891325278,3.7929698097885023,0.5882818651403677,-2.329148286587321
753,5.694969499807359,2.3580566105350953,0.016666162100556603,-2.6366528998503114
754,4.574675628969981,0.818816480403652,-0.493794123506973,-2.835942449474376
755,3.453284641543224,-0.8295284751058771,-0.9176840361533452,-2.9292299858284996
756,2.335847193496811,-2.575847050667171,-1.2337015948135726,-2.915624448172136
757,1.226566082053832,-4.392565323858521,-1.4316990942413663,-2.8039917121447413
758,0.14878937473332823,-6.228037436418024,-1.548867172721295,-2.64722614405105
759,-0.8876680501186207,-8.096568994490257,-1.538851924852679,-2.4124845698753545
760,-1.862644579514962,-9.958504410809638,-1.385887820315686,-2.0911165828003364
761,-2.7485778869803865,-11.742659912758842,-1.095671527705424,-1.6834983026238526
762,-3.5087938666525136,-13.375813438463902,-0.6925343606239481,-1.1971305011542122
763,-4.109917475029894,-14.799842284107458,-0.21699265922636907,-0.660180443161142
764,-4.548886026042575,-15.976277800198226,0.2828197924548407,-0.11944182798905498
765,-4.851481973462578,-16.88790075716635,0.761332422874063,0.378773485945734
766,-5.046486444691269,-17.53979549480162,1.180995510104288,0.8048118937395812
767,-5.153760006190449,-17.955642902536326,1.5142051594284722,1.144769207430337
768,-0.39383006981682456,-0.7313719828577973,-0.4629446439326232,-0.3259671315022007
769,-0.8396348588646412,-1.5648584443090532,-1.0264005717385034,-0.7963554234040069
770,-1.4525789285872888,-2.7665602595476386,-1.8376193275455297,-1.469079689809944
771,-2.2501922331025264,-4.356220366892901,-2.9065916159595853,-2.3483894963572913
772,-3.248130486602125,-6.315332553080734,-4.224160937601333,-3.41723397026263
773,-4.439265421954748,-8.586716171027934,-5.764801777024672,-4.6439223453769465
774,-5.790130182745995,-11.085188601308552,-7.4905841631095145,-5.995687576062624
775,-7.256025206261313,-13.710519812501357,-9.356285259533365,-7.450196079853229
776,-8.80064940954268,-16.35836983081528,-11.31790989405799,-8.99284269234808
777,-10.405270354424735,-18.938688977515877,-13.34364398233626,-10.609599240541081
778,-12.068894278750962,-21.41206166331165,-15.427550957311965,-12.297072695528797
779,-13.761313242728697,-23.722809921422055,-17.539663323995786,-14.043756685598158
780,-15.442207406956513,-25.835538013322893,-19.643667646656148,-15.82905799151472
781,-17.071126189931665,-27.73731034432754,-21.702610590668407,-17.60581457278874
782,-18.61900024438063,-29.433970855012166,-23.683643815664,-19.30605643508649
783,-20.07064248531033,-30.948670184144216,-25.56011917303969,-20.86474243739275
784,-21.421441524837306,-32.31444027689385,-27.31454740371722,-22.241687987931464
785,-22.684283041016926,-33.55622427892829,-28.936030470368173,-23.432534774590923
786,-23.88713934675838,-34.676245265520635,-30.4122190895251,-24.45113278295919
787,-25.04599041853597,-35.65347039936182,-31.72769029269967,-25.3131581717965
788,-26.149356397292145,-36.45645704755051,-32.868551453469586,-26.037961160903784
789,-27.163297808190986,-37.05281886984929,-33.82377762191427,-26.64649511259641
790,-28.049630467547182,-37.41244106218791,-34.585462491242424,-27.15771253747065
791,-28.77998989991074,-37.51234380072185,-35.15219046013817,-27.577921290119736
792,-29.328985618805227,-37.345162557762805,-35.530441114514666,-27.888149078987183
793,-29.664116750994424,-36.928012272135106,-35.73363746343217,-28.052201215915133
794,-29.74566744107331,-36.30046633500999,-35.77941813491365,-28.037209432304493
795,-29.545289436822227,-35.50936232431809,-35.68616795337757,-27.825084902113275
796,-29.06249551024234,-34.59337418219864,-35.46837550204443,-27.406195372016484
797,-28.32444507231747,-33.57679218964857,-35.12986410787937,-26.771728584016547
798,-27.376109311339846,-32.46884176339526,-34.66379865307054,-25.919673248602425
799,-26.261838898298134,-31.271027330166724,-34.06043112829083,-24.86712804772378
800,-25.022863513283678,-29.990449190222897,-33.3128065052785,-23.657289843797717
801,-23.71557303222452,-28.639987223644344,-32.416870569845344,-22.348808020072017
802,-22.41694019034906,-27.230032213929327,-31.373454796270433,-20.995367466746846
803,-21.19864294966926,-25.774070931095082,-30.19517583143064,-19.637703697412533
804,-20.10055107077824,-24.299677052279755,-28.908260736930842,-18.309780743199994
805,-19.135096186639064,-22.845020311274016,-27.54545138207252,-17.041064936588008
806,-18.30314706043913,-21.446573065359733,-26.138365665293065,-15.852540815910283
807,-17.599674487910256,-20.131185233554426,-24.7151697875858,-14.751710133194987
808,-17.00261501883391,-18.911139593651004,-23.299182623939036,-13.735767577182822
809,-16.46647256600936,-17.78066783275571,-21.9120781254387,-12.806340811022142
810,-15.946123170236799,-16.721250440471664,-20.582672922244715,-11.974838378884096
811,-15.42970550992277,-15.713797947140408,-19.343181284780602,-11.258703888847519
812,-14.944327173376763,-14.744629135190271,-18.215580732561538,-10.671169284402522
813,-14.525260372993664,-13.802620160466246,-17.204049405189142,-10.20747909415375
814,-14.184206290769605,-12.8810565690937,-16.299473738797335,-9.85658101073586
815,-13.910241975108914,-11.988518832788001,-15.489657582223858,-9.617446062070748
816,-13.690899667208171,-11.151561846090843,-14.761035760828857,-9.487153598017487
817,-13.520361282715442,-10.400856089903174,-14.097435886754209,-9.444446765901956
818,-13.37993347880372,-9.758589690695434,-13.483051634195522,-9.453813482646908
819,-13.221809492479977,-9.239667584132537,-12.904681824969662,-9.481962377759075
820,-12.988840735746548,-8.851428775866172,-12.351270513913711,-9.509831510771097
821,-12.650956707300379,-8.582303602062133,-11.813319721492293,-9.539655402466838
822,-12.216408926786544,-8.400232247010454,-11.284591679729653,-9.587534329004068
823,-11.713976214614458,-8.26301669924755,-10.763986108995875,-9.660217513308298
824,-11.175742786914336,-8.123508542695141,-10.253520430096863,-9.740834591137906
825,-10.630547488231601,-7.936762099629115,-9.751674486810165,-9.798494267985802
826,-10.10744489901631,-7.672634430735222,-9.250406243559668,-9.806152253536375
827,-9.634407484046791,-7.318950175765486,-8.73866668180423,-9.741405916832843
828,-9.224948683463122,-6.875117799354201,-8.207235686491574,-9.579175094545917
829,-8.871448106486362,-6.352629463570767,-7.654518436260579,-9.298073769546086
830,-8.549305492249726,-5.780176873152844,-7.086436320507399,-8.89911267272695
831,-8.239785088181053,-5.1981915732221795,-6.508645461659368,-8.40956020747112
832,-7.94802303194917,-4.642815586948539,-5.920683275213413,-7.863922070384715
833,-7.6865466509478635,-4.135672679526393,-5.316675737074209,-7.291346601885908
834,-7.457139039525318,-3.6897756326683826,-4.690695159846937,-6.711425086599157
835,-7.249364410567117,-3.320921724268009,-4.04204225333597,-6.135286001797444
836,-7.054090176238035,-3.047820181159427,-3.378880614698127,-5.57390087406048
837,-6.8718037743143325,-2.8815828123511738,-2.7191843086605814,-5.037783687959878
838,-6.700433166235237,-2.8224364698995528,-2.0888311714432386,-4.527100484181506
839,-6.526779692131885,-2.8631179311783304,-1.5164085493221104,-4.026924770053426
840,-6.330000225575016,-2.987397669102176,-1.0285500690267788,-3.5271416153427344
841,-6.093738413040011,-3.171839870969586,-0.649546723174032,-3.049620012877773
842,-5.816295411174857,-3.3906865259155534,-0.39473461172792995,-2.636311189323461
843,-5.510190181816652,-3.615971898544218,-0.25970855285943384,-2.3115456127034952
844,-5.187133104599702,-3.817850595458277,-0.2200023761346201,-2.0706572005383337
845,-4.83555055936842,-3.9749265107341447,-0.24374429301158465,-1.8990356065438279
846,-4.435099779533428,-4.085814255975794,-0.3073310166890003,-1.7859158579403058
847,-3.9982302830714214,-4.163478646118117,-0.39841275313912605,-1.72134323521692
848,-3.5678278086743016,-4.2210631983921205,-0.5054212423551259,-1.6858324462995167
849,-3.1712002807321253,-4.261289409341085,-0.6088128240215822,-1.642310660448043
850,-2.7973450548317986,-4.276984045721424,-0.6863360878708529,-1.55341230695232
851,-2.4201226122636035,-4.257908573580096,-0.7244187187133406,-1.4109500634959553
852,-2.0218690038381557,-4.188526048995517,-0.719920163575964,-1.2341208299917719
853,-1.5941917446698464,-4.044004795863604,-0.6753645603660092,-1.0417550200281944
854,-1.1225666044859632,-3.7963908214730155,-0.5953482114853191,-0.8366117496289323
855,-0.5753506461557012,-3.424541662834026,-0.48264908540518786,-0.6103142121448633
856,0.08089930643120008,-2.9204629683180214,-0.3382391977238402,-0.3524796297912671
857,0.8592392749114335,-2.2950824078414955,-0.16591808224440305,-0.04925621395673485
858,1.7454140776883165,-1.5749969591285757,0.0283254496362879,0.3283651028834196
859,2.703949872250308,-0.7900375799055627,0.23772591406403193,0.814965230408031
860,3.6858458369109965,0.032583879411039574,0.44914759376909225,1.417390979331207
861,4.6327014023073385,0.8663064740163803,0.6444891940445864,2.104234773502579
862,5.479542359777282,1.6830923401817617,0.8124408509820442,2.8242280106660154
863,6.167214450304222,2.464554444825768,0.9542844553716178,3.526010301455907
864,6.666422680681461,3.211480119383052,1.0798521898283788,4.165161600201409
865,6.978832756533574,3.9289523695334054,1.1970092784804003,4.701070535011321
866,7.113102724086474,4.611472826937456,1.301517524625936,5.093069356882777
867,7.0716458717832404,5.248427886563297,1.3814621713622295,5.304428306335957
868,6.855303690740393,5.83762223513593,1.4325895371078274,5.325272863058811
869,6.48240013029192,6.385014078981274,1.464473836500831,5.184774490227838
870,5.999516402822342,6.894450905330022,1.4932371178449084,4.936032400318387
871,5.47102544918416,7.3659920508079875,1.5319003724859495,4.630845863906982
872,4.957598883237897,7.797673872956653,1.5868105357899023,4.292902054113842
873,4.502995450830369,8.189408760426456,1.6615840022615342,3.925001848109383
874,4.1390479044300665,8.552389380534986,1.7648133545370923,3.5378506678786503
875,3.8899965607882936,8.910371650775508,1.9112694782778585,3.149860723616478
876,3.7721458983933345,9.287992811098611,2.113777501575227,2.773344498362606
877,3.789552826119268,9.701658545948975,2.376618655571347,2.413532440769281
878,3.9263167708082807,10.1611507164768,2.69806830930176,2.07596353724268
879,4.142598336387652,10.674055490733497,3.0752170266894354,1.770822067473952
880,4.382764807346796,11.240303124524004,3.5038833887159333,1.5103727148016148
881,4.597264816374561,11.840111751377954,3.97671550876719,1.3022736239072443
882,4.757321335121161,12.435798456818477,4.483167730405429,1.1418235883217
883,4.856220274821449,12.987375454673485,5.013749354223861,1.018913534178398
884,4.9133798420627555,13.460083243648327,5.561861160900199,0.934630420394934
885,4.975637107417849,13.821734801321547,6.118892785088457,0.8995862117410127
886,5.03629467649261,14.090885013582714,6.6599230323029275,0.9094940194291786
887,5.2555296709425265,14.16966914185396,7.185426863873793,0.951655589206393
888,5.7034891825229215,14.022987829065059,7.689749681217747,1.0120481547388676
889,6.387079592117961,13.664743972749216,8.165292577858919,1.0907624535896425
890,7.275246743310782,13.141737593508187,8.601109091835193,1.1951699414125891
891,8.310538775725824,12.514008340661904,8.983896940503241,1.316773123929008
892,9.412003374876086,11.842014741095312,9.301409297994825,1.4336642410733633
893,10.480908368748231,11.185384217902943,9.546907970613363,1.5327219692689789
894,11.41810117084275,10.600364938758233,9.723143960445471,1.612554566335748
895,12.148592017121079,10.131272009403391,9.840128806149208,1.67372227725631
896,0.1008725419770874,-0.506845449030234,-0.4186239445248991,-0.27965771588517246
897,0.13402922330760894,-1.1240636232028973,-0.9609120698980191,-0.742405028773883
898,0.10798458555260898,-2.006838824678634,-1.742057033786588,-1.441891585788252
899,-0.044040075008398794,-3.1614904450614203,-2.7711497252012816,-2.414611862693354
900,-0.39579117764841687,-4.5760305105536725,-4.039563620859788,-3.664857642364782
901,-0.9960489407333164,-6.221225677753525,-5.51957814479581,-5.158045300844363
902,-1.8595434135163709,-8.054626820792611,-7.168805196683849,-6.833119366552856
903,-2.9831485695362687,-10.030724178339815,-8.941031670523934,-8.619358711123878
904,-4.355280417628478,-12.105306302713956,-10.79313789106506,-10.447068349623837
905,-5.944407850119179,-14.236103640611912,-12.689972082837516,-12.254004382417515
906,-7.68231750027928,-16.401480490113943,-14.619989355296191,-13.998314086222601
907,-9.469831691129889,-18.55782115984991,-16.555861538268246,-15.641721193753463
908,-11.202965941823829,-20.65974500900234,-18.466576306149598,-17.16830911539574
909,-12.803552682473,-22.654481656069944,-20.313317870013233,-18.576565732218647
910,-14.22664969724132,-24.482432384698207,-22.052413948508153,-19.863585445440144
911,-15.440851404737336,-26.090942484044874,-23.643757713566092,-21.02166532614349
912,-16.425897294413566,-27.44998421244209,-25.058576490004615,-22.04623830923176
913,-17.188819487405276,-28.55575561013099,-26.28311458134384,-22.94186127623046
914,-17.763779000897607,-29.425717896241576,-27.31593116909983,-23.7108807189484
915,-18.19510859127119,-30.094184424702608,-28.162712724503415,-24.335749197137456
916,-18.52392733962656,-30.603528488241004,-28.835298069994977,-24.785100995957592
917,-18.78393934897432,-30.99525803302867,-29.352516370889134,-25.046734500975607
918,-19.00839475630697,-31.30933705057255,-29.73858353716148,-25.14399395713671
919,-19.23167649350344,-31.579948335918353,-30.01807482865326,-25.116449431491464
920,-19.47137056976329,-31.820482589103232,-30.209263514654758,-25.000376092512326
921,-19.72015768695684,-32.01167625510232,-30.321982996206096,-24.82288541411896
922,-19.957371743747963,-32.12142301401939,-30.364126915288026,-24.60906683546188
923,-20.16720075309945,-32.1366877115383,-30.3468458939285,-24.39176736852223
924,-20.346542474918685,-32.0572706211143,-30.277240596447616,-24.19601271796117
925,-20.496363940534998,-31.875498823472697,-30.150708598025393,-24.012537139548005
926,-20.610124440990663,-31.57879328314103,-29.95592916038982,-23.80278121110445
927,-20.663481252355272,-31.16174531162677,-29.681591680417036,-23.52753635996392
928,-20.624715789545746,-30.631234705587314,-29.317265424600812,-23.15998100959276
929,-20.47723532202234,-30.00214978893316,-28.853782346968885,-22.684600510500495
930,-20.22327269533863,-29.29162520766544,-28.28455501349266,-22.092589410435195
931,-19.87087395929659,-28.51537088842139,-27.607113812760915,-21.375003148628675
932,-19.42081568176812,-27.68625149802357,-26.823758838898467,-20.5369390259752
933,-18.874184247466463,-26.8172853438989,-25.942624062439393,-19.616938944707798
934,-18.254254129268308,-25.923527248071686,-24.97969385641577,-18.668072822374565
935,-17.607835406514987,-25.01730901431718,-23.95642715103226,-17.722178752650745
936,-16.977566473154194,-24.108512254768748,-22.89426503979607,-16.78119953861798
937,-16.382544587907415,-23.214257981384705,-21.814122111023742,-15.84059715506596
938,-15.824748157895879,-22.36118721756748,-20.73906873655275,-14.912017895243803
939,-15.30555557407087,-21.571058803694665,-19.690326075060746,-14.01400985820327
940,-14.83806539791045,-20.8384564317997,-18.67724141562649,-13.146055490161585
941,-14.430037920538954,-20.136360134461217,-17.695756490151048,-12.28344295976807
942,-14.058439589804241,-19.44851597760363,-16.741341222173435,-11.396032069702995
943,-13.682600158158136,-18.77488156456277,-15.817966494521535,-10.462520467646033
944,-13.280684915197812,-18.11216920431752,-14.931627362279464,-9.476683672760524
945,-12.86361097086381,-17.445298476954584,-14.083852917536495,-8.450393649301487
946,-12.444635311532126,-16.75409023105416,-13.273993299251924,-7.407600656843158
947,-12.008584849078266,-16.023265845948192,-12.5025674286094,-6.379553102861257
948,-11.523188929758188,-15.2445118971018,-11.770650916607236,-5.406634255955536
949,-10.96763206497134,-14.415183564092741,-11.078428360512673,-4.529101351528534
950,-10.346477795850776,-13.538562344604863,-10.42578131705288,-3.7649207673074274
951,-9.67090577038845,-12.6221868885148,-9.81242167002419,-3.1112042162233364
952,-8.931343169674296,-11.676640666357306,-9.237631542346147,-2.566935924020916
953,-8.109678824154367,-10.7180133625882,-8.70501262232029,-2.138145188187988
954,-7.210889671583604,-9.770519841385452,-8.228096563927492,-1.8298890028855765
955,-6.2653694930529475,-8.859333629704354,-7.823302805726123,-1.6330522895986541
956,-5.307444062310659,-7.9937881708003005,-7.499812705907951,-1.521997023680603
957,-4.3587158843986265,-7.160548490632673,-7.260037636916672,-1.474441883045031
958,-3.4336790402017994,-6.33690920447771,-7.101273241022041,-1.4829226493619636
959,-2.5611546912934893,-5.506022505837817,-7.015161190672592,-1.5516177716078494
960,-1.7808238442825501,-4.663541524990165,-6.986922073207561,-1.68290681510038
961,-1.1149122287416682,-3.821364805711198,-6.997307388388689,-1.8550845089551162
962,-0.5600372621371505,-3.0054731118636826,-7.0272219849405575,-2.015512650362153
963,-0.1051216728698988,-2.248306980460138,-7.055912822851383,-2.1082280771917774
964,0.24871817561562062,-1.58028687072248,-7.059331306575104,-2.1097028738846673
965,0.4904453340301325,-1.0216551358359363,-7.014904660124099,-2.030007088385535
966,0.6165707617953412,-0.5711854431974339,-6.9042000229851865,-1.8898290227012253
967,0.6395320815775506,-0.19686684995474152,-6.711262140431822,-1.7028832306304285
968,0.584557728638914,0.15470676439977002,-6.425138608142177,-1.479471811524706
969,0.47188976551743617,0.5374634596024626,-6.047140029535741,-1.2395045342864217
970,0.3119722376256536,0.9976664449277506,-5.5883865787708515,-1.0079787002079923
971,0.12246319239819542,1.575830102305021,-5.0583040125229335,-0.7954153033058619
972,-0.06520281286402325,2.3004514636259854,-4.464929527381637,-0.5899300631054495
973,-0.2036212961621629,3.1686283745194235,-3.8265220006350735,-0.37182871378927607
974,-0.2440686713904811,4.134243957417918,-3.170549535105375,-0.12405141410833931
975,-0.16559607208569355,5.127610752593376,-2.521382584006775,0.16727379252663177
976,0.01966011580509395,6.087393580102577,-1.8938055764504624,0.5129607635544176
977,0.2816679656432913,6.9741658999397576,-1.2940153308391629,0.9197121529784609
978,0.5882450563434927,7.767920319065335,-0.7255717379208748,1.3769615957736123
979,0.911428680128002,8.459130356672604,-0.19354699316819174,1.84912926773643
980,1.2187078595459633,9.043223153012054,0.29572396851263466,2.294534473405205
981,1.45833218402505,9.524162088343086,0.7364298627946576,2.695422720804251
982,1.5785266563100477,9.915642865221098,1.1267775872809405,3.0620539456508533
983,1.56701424964026,10.229645321779328,1.4669535024932698,3.4004527614135425
984,1.4530861721867,10.461121305150483,1.7534747475208132,3.6908968974737024
985,1.2770918467306687,10.593761220123168,1.9805718773234753,3.9025119398097923
986,1.066944320668642,10.618337841471988,2.145233735806271,4.020956388822094
987,0.8480101815462734,10.536045002489315,2.2487864420638903,4.056500499317857
988,0.6581484945026737,10.350879080811438,2.296153419557846,4.0271302234980615
989,0.5322490623655505,10.067862056136976,2.297069168460155,3.9454418187658713
990,0.4791481082978385,9.698534541934855,2.266132631670129,3.8184350697529714
991,0.480884885108464,9.266425192776062,2.217483398299552,3.6541047971480705
992,0.5096971999730516,8.803795497321529,2.160189707418315,3.465927729113618
993,0.5374984851148108,8.337702265942205,2.0981839242344225,3.270168923655235
994,0.5391044383323127,7.884602707783852,2.031932436900462,3.0770502254534375
995,0.49689555292649606,7.454571801542218,1.9593603785217268,2.8845647445319207
996,0.4007512758170295,7.050956551565385,1.875159533489243,2.6869165443811225
997,0.24597823661663265,6.667664593240197,1.7703303787987386,2.48228810197513
998,0.04125479015867341,6.288426466410635,1.6358385937669226,2.2712718321326157
999,-0.19042913572426426,5.889934631157746,1.465546806606766,2.0474876282822514
1000,-0.44037237302626775,5.446340885070822,1.2543260182980553,1.787129011269454
1001,-0.7226817323693624,4.946195103906197,1.0046539996545858,1.4656360969863946
1002,-1.0476392625326574,4.409574701058851,0.7372070567685023,1.0819151030715446
1003,-1.4063521821113332,3.874800531813548,0.48714813692400594,0.6577699472661513
1004,-1.7809653387730449,3.374918412396094,0.2898833051293369,0.2218498996496813
1005,-2.17534422436901,2.9269288651823855,0.1667593440255078,-0.2065729668481119
1006,-2.6250549323043146,2.5327815600797363,0.1207977453702283,-0.6225004471139894
1007,-3.1614728427680014,2.188229728006515,0.14346521076022337,-1.0277427577043643
1008,-3.774709110782689,1.8912362883965836,0.2204513278089905,-1.4184087114135864
1009,-4.4092973497496,1.6406582423284837,0.33355850036953977,-1.7875780187348949
1010,-4.988966843229904,1.4318364544602924,0.46265740465943406,-2.138125606178571
1011,-5.455639727723454,1.2592747636538557,0.5886107411677237,-2.4833621256338323
1012,-5.78996790424525,1.1203114404774046,0.6954485656127873,-2.8342196574208978
1013,-5.991571608702048,1.0186458024442493,0.7726522204114582,-3.184549398226557
1014,-6.057721597055536,0.9375150890922987,0.8132248894583793,-3.5287570607904355
1015,-5.959206624922154,0.9347948615196868,0.8152727585848571,-3.8636289706781213
1016,-5.707603628579684,1.0405271957270261,0.7855659412237074,-4.1792666688256475
1017,-5.345863126788254,1.2653763766470996,0.7390714053215055,-4.448743931894714
1018,-4.925302191309317,1.5996272300194019,0.6932613235886712,-4.640088712426554
1019,-4.49649288363815,2.003897661626576,0.6565981316829773,-4.7459936736760175
1020,-4.1088270164718,2.420367866304895,0.626737360688018,-4.788745360758991
1021,-3.8005706636486667,2.8028117502883205,0.5999299669899065,-4.797315723132875
1022,-3.583790303763286,3.127893257607127,0.5762648953988898,-4.788577298381395
1023,-3.4406771875786646,3.3859999183848286,0.5580321552205414,-4.7668961873583005
1024,-0.17605564976102228,-0.3204629052161552,-0.4924432509802868,-0.16433954338476237
1025,-0.41714697605913764,-0.7886412924771335,-1.198232242878988,-0.5370530692337208
1026,-0.7468200539515804,-1.4542364191979518,-2.211494088441776,-1.1342310513740614
1027,-1.1740636333929393,-2.3189753047062673,-3.5263913804455136,-1.9941693243014411
1028,-1.718583027955918,-3.3726126878411193,-5.11024701005888,-3.122546163498132
1029,-2.4049505246113085,-4.588198478444169,-6.908419625054616,-4.492726808531602
1030,-3.2541258672021867,-5.925421178787611,-8.852000407472913,-6.0643513907686915
1031,-4.28042846144552,-7.34529142339902,-10.868899518100681,-7.7986213826025335
1032,-5.493699093692941,-8.815616186528208,-12.894252733747967,-9.658235619640083
1033,-6.890892150823697,-10.304479401300439,-14.879730223226323,-11.603627307597995
1034,-8.452157906434433,-11.796897578258765,-16.816808087405647,-13.599709381189772
1035,-10.128469930591883,-13.28578144271334,-18.697839060670436,-15.608661617029613
1036,-11.865318845457562,-14.776663383746456,-20.519856577465763,-17.596297336531318
1037,-13.618591542601083,-16.26474760144724,-22.270270966307606,-19.523674949745796
1038,-15.348960231582502,-17.732254356782132,-23.92781718463294,-21.33912685720781
1039,-17.01730274867856,-19.162687134945646,-25.471602496446593,-22.990310138860135
1040,-18.597105235041898,-20.544449864643,-26.88537479262385,-24.441981944443654
1041,-20.08567633386091,-21.868057995026266,-28.160376020824415,-25.678696635971626
1042,-21.497963838222574,-23.122683314671036,-29.295777780250546,-26.691852480213146
1043,-22.850258956990672,-24.286672323795038,-30.29175015883303,-27.476149338943575
1044,-24.143792569850522,-25.321248914242506,-31.142462161282648,-28.044741748589725
1045,-25.347737138829718,-26.18273005543361,-31.83791912210593,-28.434503033240443
1046,-26.408467862553735,-26.848760466395778,-32.371822561789116,-28.691564017666312
1047,-27.276390709048275,-27.31824138692122,-32.74306349977414,-28.84730388460208
1048,-27.91915076589063,-27.587472671987992,-32.9531855455768,-28.90656799611546
1049,-28.32048985302625,-27.65235429281508,-33.00833320796855,-28.85863212039995
1050,-28.479451029146848,-27.531119785072796,-32.92351605793713,-28.699924784154618
1051,-28.416522755146147,-27.26109905193305,-32.71895091212511,-28.45217575714099
1052,-28.17154584382979,-26.871400080835897,-32.40908822105893,-28.151170884782044
1053,-27.796090035147074,-26.38006613555375,-32.00207775407748,-27.819595686343064
1054,-27.338941363499483,-25.811302903700547,-31.507160316152834,-27.45885571391446
1055,-26.83391359978566,-25.197124493291874,-30.936121265274657,-27.072643685457553
1056,-26.304622864204482,-24.570010922248304,-30.30194656738987,-26.688866294311033
1057,-25.76452845735356,-23.956755149682596,-29.615168173087113,-26.339829190129624
1058,-25.212038706105044,-23.37343109902898,-28.878527900981975,-26.033328961938675
1059,-24.63617903971509,-22.82396605375173,-28.08890664100952,-25.746641932856708
1060,-24.024295578435048,-22.308432049523603,-27.24559535142888,-25.440769356844168
1061,-23.366844747111397,-21.832804458784555,-26.353279348303428,-25.079867178365404
1062,-22.66487741551604,-21.40050428508378,-25.415408416138703,-24.631267854306156
1063,-21.921838535366053,-20.993850883017238,-24.4264291077755,-24.056106625201142
1064,-21.120788266101446,-20.5767178039876,-23.375339496646845,-23.315515633627736
1065,-20.22752879574079,-20.12321587169218,-22.257322490639513,-22.385857572855947
1066,-19.211791421471943,-19.62834178546714,-21.07959211231865,-21.26766267628017
1067,-18.056571913670016,-19.09491448002954,-19.861220217389803,-19.985841375732598
1068,-16.754311545619334,-18.532948718084967,-18.630839151609614,-18.576006919373004
1069,-15.296627838865849,-17.963227917327572,-17.422860827937818,-17.074874388902465
1070,-13.674677056906848,-17.409180845659673,-16.272833903193,-15.53399082472551
1071,-11.88969639073375,-16.886747266105644,-15.21151132601795,-14.020976582442797
1072,-9.959149176487376,-16.404083782785133,-14.258732835816048,-12.595083485462332
1073,-7.916489899922125,-15.963759198620616,-13.419036220947131,-11.282716933029151
1074,-5.8073460676424435,-15.558335780070962,-12.683843288310337,-10.076715539220796
1075,-3.680974671608417,-15.172722188872408,-12.038962873607224,-8.96083821165256
1076,-1.5778834569317401,-14.796656316095985,-11.46667667324475,-7.921931855705345
1077,0.471646561099569,-14.42243143798732,-10.944036720463828,-6.942014979259534
1078,2.433943865525173,-14.027851698760143,-10.446632380940962,-5.99149942782719
1079,4.261443522428423,-13.580650373754919,-9.955573081237347,-5.039371505422425
1080,5.898691289088887,-13.063643062824124,-9.464704250394238,-4.079387712614934
1081,7.294114100643548,-12.487542792492116,-8.983258762282512,-3.1425607704374268
1082,8.403326072934712,-11.880336445086366,-8.526766297558462,-2.2832360338690956
1083,9.189439901960705,-11.270167385074533,-8.105017867729444,-1.554788447854655
1084,9.630430920624827,-10.68036528781003,-7.719160028142731,-0.9864313836344124
1085,9.730740270369523,-10.130395624659963,-7.365144135762883,-0.5758807773209327
1086,9.528127806379384,-9.635382041353397,-7.03696118898941,-0.30761944956585086
1087,9.08741969454169,-9.209903652955148,-6.728775406736122,-0.17054345340367807
1088,8.482829710142791,-8.862957093461805,-6.4326931911616345,-0.14736340649400917
1089,7.784243549971165,-8.58278024137153,-6.134282531513466,-0.20149047441984735
1090,7.057693165874217,-8.341316086973476,-5.814228329873536,-0.28532676517916566
1091,6.365717609063556,-8.116283527987996,-5.453611141017179,-0.35509775243020825
1092,5.754035488036051,-7.900198817127778,-5.037973800867276,-0.38168311940051136
1093,5.2384768254182426,-7.68970227969405,-4.560555229243557,-0.35040827635120686
1094,4.807359545311664,-7.478780437824829,-4.024068675966649,-0.25256751450447423
1095,4.435388226169017,-7.271101061228628,-3.4380628456802897,-0.08283885871312789
1096,4.096908986562606,-7.083779278557309,-2.815006679083118,0.15809461741501588
1097,3.765406626464696,-6.933115430144423,-2.170428125354488,0.46216496391466055
1098,3.40489662884315,-6.827699868083899,-1.5211947072245602,0.8140778296850412
1099,2.977649139662101,-6.769983134331076,-0.8815344898435736,1.1968955792978668
1100,2.467001790971243,-6.755828684399468,-0.2630613976679196,1.5983320543945452
1101,1.8892240713994009,-6.767375196113511,0.3262760053204412,1.999207759355985
1102,1.2786451733864237,-6.777185964817133,0.884204897758202,2.358545812911012
1103,0.6629478644466893,-6.7690153920567955,1.409640081345244,2.629085502322857
1104,0.051288738780499984,-6.741346364679531,1.8998494381513795,2.791795142460207
1105,-0.5526640050190075,-6.697146152485369,2.352162019129192,2.867605076335225
1106,-1.1262526095162255,-6.646219202178574,2.759934773096593,2.890968614634204
1107,-1.640070163317656,-6.603266577013416,3.109696290872602,2.8832949757416473
1108,-2.0893673609048995,-6.571490189040805,3.3849513245213534,2.8502996382702857
1109,-2.4951387030267975,-6.5369284785341275,3.5700955758738515,2.790960343108048
1110,-2.8857232956314367,-6.483862662488328,3.6537272439066895,2.7067605303033115
1111,-3.2785249472371296,-6.413046744018224,3.6313526037426964,2.597551401136696
1112,-3.674646962469685,-6.338564134641605,3.5070784552656113,2.4547960675094807
1113,-4.066703028215971,-6.269559772609828,3.294842765802137,2.2703511796252576
1114,-4.444437524073354,-6.202956870049146,3.017998669712333,2.051288451532647
1115,-4.7862252474337295,-6.1279761121775245,2.7042371033793575,1.8243796700767367
1116,-5.056079457445999,-6.032033342297988,2.3774600101927854,1.626180837644321
1117,-5.223336311840916,-5.9060071373551315,2.0541559062458608,1.4850438741134808
1118,-5.278583571791328,-5.745357749072623,1.7452625807161293,1.4152985646846532
1119,-5.229077911727731,-5.54482104021605,1.4583443443500255,1.430135406240508
1120,-5.081872312137001,-5.2864746942219965,1.1999941280523743,1.5426047240971643
1121,-4.840359234379139,-4.940320141846024,0.977195955062668,1.7530248123465617
1122,-4.5196374482914425,-4.486658138616099,0.7934448191631903,2.0405764960089234
1123,-4.159812876913584,-3.9263814459236985,0.6464691206626024,2.3649792424570486
1124,-3.813000036788913,-3.27329872893851,0.5343096071116494,2.6894616937967966
1125,-3.507286224038981,-2.5493210220328364,0.46134809407392885,3.000956854118398
1126,-3.235500726794317,-1.7849342515621358,0.43492640602821464,3.3059540758953516
1127,-2.9711083161865655,-1.0176929629025464,0.45771281250863055,3.6105533522276914
1128,-2.690712348324327,-0.2780443551791622,0.5251447508251734,3.903084674414402
1129,-2.3931261210882164,0.42070091654810027,0.6285044652020987,4.161680551560053
1130,-2.0952505089961977,1.0749528499311065,0.7589982582016428,4.370930123033729
1131,-1.8206631490319278,1.6865030738474514,0.908756965366731,4.529478467013374
1132,-1.5974737015445513,2.2659873211899613,1.0701367929936576,4.642990547715212
1133,-1.461618448093048,2.8313917819071017,1.2350377669870687,4.709200921306342
1134,-1.4538480911282208,3.400917547675262,1.3949035132955168,4.722506628682398
1135,-1.6061522927388958,3.9888481038711046,1.5416326722874907,4.692471738599933
1136,-1.9278856677875167,4.6049729155451375,1.6678072974931435,4.649760450001249
1137,-2.3958100930525816,5.252502680422423,1.7654727540372557,4.628412984272247
1138,-2.9569687464473247,5.922613543800472,1.82392727576962,4.642386589683502
1139,-3.54190401083159,6.598324432753293,1.8342300144376484,4.689198673279803
1140,-4.07936835742806,7.270402321178297,1.7991037784993413,4.775931225443359
1141,-4.503949123898375,7.938975705262156,1.7325625691343116,4.925580842292117
1142,-4.770738864892417,8.5804382426146,1.6339827408866168,5.144034137668198
1143,-4.82132336648739,9.20986740200387,1.5395157902364323,5.406556536776323
1144,-4.660812044039376,9.830944199663481,1.4769564605351733,5.682785708250015
1145,-4.334933005212739,10.439847858107136,1.4660780217275766,5.956409154442972
1146,-3.897581681370819,11.022116728512175,1.5148381984496908,6.22206464768044
1147,-3.4002540872872924,11.556209360556853,1.6176403866111646,6.466722445148696
1148,-2.898347233521166,12.02134906191636,1.7584428327238943,6.6679909672648225
1149,-2.4457112101351313,12.400233065924361,1.9166428936658912,6.809549356012584
1150,-2.081877229762012,12.68190492199455,2.070975202161547,6.894977546468288
1151,-1.8237146455643751,12.867198090578563,2.2023225975097174,6.9424127314033885
1152,0.047830733915519896,-0.2615940096497753,-0.4217128084688881,-0.1910828257265248
1153,-0.07012874145252374,-0.5853611055599525,-0.9433620278567219,-0.5685855795686223
1154,-0.3085901751621275,-1.0847420163273802,-1.6927491847657885,-1.1211105221960451
1155,-0.7113093962841882,-1.7916116231039474,-2.676949111633295,-1.8508117496409673
1156,-1.3207692497597607,-2.714407116239507,-3.881647625237042,-2.73898664488791
1157,-2.149654185299281,-3.8357129112334065,-5.272540099174105,-3.7477574435872625
1158,-3.1778266031728055,-5.124598480635526,-6.802736065135799,-4.830340237895676
1159,-4.372095180750798,-6.541163680708232,-8.420072407285717,-5.9473404391892535
1160,-5.697329516074295,-8.034400810182756,-10.074091618018354,-7.075068171009638
1161,-7.118073566148163,-9.552362849856884,-11.728519860060855,-8.207732165254376
1162,-8.600148695122403,-11.061770521731388,-13.379320442384222,-9.362720447210148
1163,-10.105629127652819,-12.52161610652698,-15.009753209473505,-10.570928998862296
1164,-11.607991359970073,-13.90095234649327,-16.60558827819172,-11.86928969655071
1165,-13.097928620243547,-15.184690096531284,-18.156701776862842,-13.272259670693366
1166,-14.565131597462553,-16.373682602546868,-19.65755424794685,-14.753544202320807
1167,-15.993691192462178,-17.476221558747362,-21.105845709053824,-16.260678461128702
1168,-17.369555902719426,-18.50098638494278,-22.50162628040572,-17.738541963299387
1169,-18.67767926603943,-19.455877456651525,-23.849167802581224,-19.14227614411012
1170,-19.893912532802744,-20.34737976435863,-25.150844022146252,-20.430293998788045
1171,-20.976275558527416,-21.175690764995622,-26.39671181196471,-21.553751345202325
1172,-21.866055937584218,-21.93021366527734,-27.565004357679683,-22.465200317844186
1173,-22.50472169163343,-22.597163554163853,-28.628535461713053,-23.134467321678024
1174,-22.857543136284587,-23.164403843727385,-29.55781323193642,-23.5593988669197
1175,-22.91338772896465,-23.617401346937772,-30.32318438882973,-23.763780679656044
1176,-22.663650496633274,-23.944535410377448,-30.90208742164638,-23.779979695671837
1177,-22.101892480272273,-24.147882983975265,-31.286047404308828,-23.632471669114995
1178,-21.239330671207092,-24.24417425439323,-31.479842094409115,-23.344766623577534
1179,-20.111420217015688,-24.259457978210914,-31.496416020994296,-22.956601737839208
1180,-18.769326833390927,-24.225568989653137,-31.353909656233025,-22.513210721785693
1181,-17.263364653800668,-24.171833681438944,-31.07021795767572,-22.03931612559336
1182,-15.632517084221487,-24.1118792139831,-30.6539621566079,-21.536041441672637
1183,-13.905174421567924,-24.045469787512335,-30.107743749883685,-21.006488290151655
1184,-12.109453936100037,-23.973765569578006,-29.441631157404295,-20.473850241479976
1185,-10.284051809874565,-23.898152036302495,-28.674608239685853,-19.96035637546212
1186,-8.485592885846744,-23.804586365035707,-27.824688437137443,-19.465311322051768
1187,-6.782327573986264,-23.664010954155525,-26.908916724467144,-18.970297079773932
1188,-5.235866573480781,-23.45186142631198,-25.952863820951848,-18.4533906931281
1189,-3.892440038838056,-23.165755783390498,-24.9873973655779,-17.895320626415888
1190,-2.7838423431040162,-22.821493236070147,-24.037100229788866,-17.275007605993224
1191,-1.9300614233013604,-22.435788116883817,-23.116208929835526,-16.566527015991074
1192,-1.3396924791017855,-22.018645169487236,-22.227805737786813,-15.746621550100196
1193,-1.0044658493677017,-21.576220502269155,-21.363635200348256,-14.809463865759383
1194,-0.8942449087008025,-21.11602915765092,-20.50781779612493,-13.774691662759887
1195,-0.9584414215896435,-20.64376918453036,-19.645076369531626,-12.677244824053227
1196,-1.1329050721284823,-20.15461733367689,-18.76523169850158,-11.542905461472984
1197,-1.35140228229596,-19.63320356198542,-17.861444647761317,-10.385997217079222
1198,-1.5590526194152248,-19.060358918647808,-16.933571341328516,-9.237185947190275
1199,-1.7160076733419807,-18.423575246767,-15.994802632203998,-8.15314514469046
1200,-1.7929580726270078,-17.724062102639554,-15.068092753154582,-7.195748813570547
1201,-1.7693541921444678,-16.96776032996832,-14.17500543551721,-6.4065971579264795
1202,-1.6317475806804445,-16.161108596098625,-13.331171950009587,-5.801007548480186
1203,-1.3703996504867935,-15.320409581612836,-12.549753975723144,-5.379290319280683
1204,-0.9774565264434549,-14.47015312332327,-11.843956075718834,-5.1360072029107195
1205,-0.45768623038936596,-13.625511755533713,-11.222308751356945,-5.0715732124861805
1206,0.16176008189907828,-12.78074043639561,-10.681166853803795,-5.18806283934061
1207,0.8416308490241844,-11.919426645460767,-10.207386990860122,-5.467621324789646
1208,1.5444397698925851,-11.03020302173677,-9.787626763671753,-5.867832828692803
1209,2.239792509204729,-10.1102627762706,-9.411780886563825,-6.337309837194026
1210,2.9002984079293013,-9.165291018835255,-9.072355469715909,-6.835629452678672
1211,3.4924839887805312,-8.212902586475757,-8.762297804875292,-7.332835507251859
1212,3.980788573756549,-7.280769664092363,-8.472135199634016,-7.7928845155689235
1213,4.3417956542497596,-6.398592048231964,-8.191175063503936,-8.17328390030073
1214,4.568680646385969,-5.596125854202267,-7.914287820568178,-8.44046621149553
1215,4.664180650686531,-4.908450881093073,-7.6458215123779425,-8.577826134479857
1216,4.63002630167845,-4.366287303955497,-7.39344059030247,-8.580333279004874
1217,4.465341208525184,-3.9733720822442224,-7.162634900159432,-8.448564173239554
1218,4.174898214351808,-3.706131996819436,-6.956765579154242,-8.189224000852743
1219,3.7714709125271404,-3.531273817923254,-6.778875399179812,-7.824848811820934
1220,3.267644595333906,-3.414839657843406,-6.635431041815212,-7.4038520293731835
1221,2.6616822291000144,-3.3262408257990574,-6.5335638311042405,-6.990232413867623
1222,1.931713144755318,-3.2460686433481207,-6.473883641216555,-6.634051325410221
1223,1.0588327679870857,-3.1733453192258176,-6.4516359130799845,-6.355172764905398
1224,0.053295104321288755,-3.118853827692971,-6.458494380594459,-6.160950281852214
1225,-1.0505716540576961,-3.0956409002091996,-6.478108968097035,-6.060510532713207
1226,-2.224692910211148,-3.1220623404829726,-6.490003736341296,-6.057164849012843
1227,-3.4796359471872638,-3.2180543759035514,-6.480624109909897,-6.139314212484376
1228,-4.84595363588325,-3.3937599012053403,-6.4466249080983955,-6.284887594157334
1229,-6.322897306632121,-3.6499200939382344,-6.393708880003196,-6.4838400079632486
1230,-7.877168863482535,-3.9872264717254966,-6.333521464377411,-6.745247858263018
1231,-9.470323204767087,-4.401893937965986,-6.2768838693062925,-7.070607501266502
1232,-11.06419259774449,-4.8703987066742656,-6.229353460563691,-7.427121037443132
1233,-12.613957618023816,-5.354076315681716,-6.191659613216142,-7.755381636124319
1234,-14.066999158405693,-5.82051322530373,-6.163241422850018,-8.003039052869283
1235,-15.37459423569881,-6.250117726636108,-6.142913965441411,-8.151356151363968
1236,-16.500211399065357,-6.627531082335508,-6.124199485569589,-8.205547713269802
1237,-17.41639885679545,-6.938824166157554,-6.09207092599951,-8.160777144765937
1238,-18.1014777762236,-7.174588422937518,-6.028098203102242,-7.994866968785447
1239,-18.54030079587083,-7.3327549280630375,-5.9225169769481685,-7.697031391252509
1240,-18.735578724649468,-7.419192197952279,-5.7780118706105625,-7.294156462826557
1241,-18.725722469168467,-7.447977322034139,-5.600913943608923,-6.839558538463509
1242,-18.57523035894815,-7.434819310778291,-5.3938757078947885,-6.379963039798945
1243,-18.33228645555616,-7.380966873547946,-5.153902354250511,-5.943219494183708
1244,-18.00310868440528,-7.270559715205808,-4.873621391300309,-5.541130993129458
1245,-17.575267402463684,-7.085616083043919,-4.5472201034789625,-5.176340549044004
1246,-17.067183156610074,-6.817533409947513,-4.17381165622547,-4.851285205622877
1247,-16.53223779126876,-6.465998457484547,-3.7545001467872803,-4.568591087744205
1248,-16.01051132875544,-6.035834369517432,-3.2903000610775193,-4.334075343275128
1249,-15.503946243009533,-5.5411355705209635,-2.7838827690081733,-4.160968218021458
1250,-14.988286443834282,-5.004725862957625,-2.242599381581215,-4.062666871516091
1251,-14.434279507367584,-4.44947522521377,-1.677009066463833,-4.042382236496647
1252,-13.824262717344364,-3.894467668899521,-1.0944577722632893,-4.08381336667089
1253,-13.154596749450535,-3.3596162761783983,-0.49658040823152916,-4.151376102635063
1254,-12.432374729898934,-2.86921090278282,0.117214249149061,-4.210060187818805
1255,-11.674037397274265,-2.4380954226900085,0.7466791016196932,-4.240090527829164
1256,-10.900183434856874,-2.055695613003593,1.3901719834318813,-4.231194448718194
1257,-10.134828032631168,-1.6918189365827592,2.0452319308344213,-4.1657354396497945
1258,-9.409641676402806,-1.3270411125391526,2.7036517119544983,-4.018721744581781
1259,-8.75132074986711,-0.9994538685973258,3.3480008542447903,-3.780947759175855
1260,-8.168171991612127,-0.7947410771846231,3.9625034356194515,-3.4613676541383027
1261,-7.656042787567961,-0.7784702957016061,4.553691066748434,-3.0713604127799568
1262,-7.176057010108915,-0.9801219365214483,5.134849066756726,-2.598951717791517
1263,-6.656211333317813,-1.4142456652678193,5.66985150053554,-2.0110498693370964
1264,-6.079768564380139,-2.0708177102257097,6.056775935373892,-1.3153979587083549
1265,-5.457779305001345,-2.944011380114621,6.191563453944908,-0.5430120833475741
1266,-4.686814561859549,-4.100920085956206,6.051004685731718,0.36008697394513134
1267,-3.535913007556058,-5.659914731625407,5.707258643686079,1.560121755730945
1268,-1.7363158018201579,-7.698388695404088,5.2857088773984255,3.290413089480078
1269,0.9600188797630482,-10.226392195673716,4.919368702963437,5.803501950484028
1270,4.72309278302636,-13.347347382685502,4.6897848897613255,9.222431136503406
1271,9.75822053970734,-16.87461182246749,4.682630994900834,13.80256105850452
1272,15.930234500153329,-20.57195944017972,4.933722050804077,19.470131668986014
1273,22.871429499796466,-24.201277505294744,5.4341111398443,25.92806338193959
1274,30.084877449107754,-27.539668110266636,6.135147611724955,32.74173203041898
1275,37.041931552551276,-30.3820434601077,6.955326125930076,39.41532966706358
1276,43.25648526505287,-32.556094995882155,7.790120776651524,45.47382474387518
1277,48.336425294002915,-33.965141136816996,8.52251662952347,50.532381085569114
1278,52.04123827250905,-34.64794447705655,9.045306234188491,54.33851142500852
1279,54.326412851440566,-34.76722958749279,9.303470812429932,56.80601468505246
1280,-1.9750808554864863,-0.739544719880094,-1.305217283469063,-1.8966188201324716
1281,-3.3931922002380976,-0.8755853313227142,-1.8407172826763034,-3.449633761584115
1282,-5.158437725133226,-0.4861350599334546,-2.178984700958138,-5.436095541369508
1283,-7.250111894187705,1.0215870092986323,-2.1271497748948898,-7.810416211545843
1284,-9.639450349525479,4.463758048156483,-1.496376476494115,-10.492166314403336
1285,-12.26468063789477,10.785432346998881,-0.11161697014210215,-13.358440746385567
1286,-15.0233378865569,20.93058555974101,2.1910023571749293,-16.2604459976727
1287,-17.796648669359858,35.70403963917357,5.560380224610193,-19.053798536621407
1288,-20.4758869963276,55.64877914184024,10.11736087496893,-21.61579368756737
1289,-22.981858003128455,80.95858157838943,15.942104946057151,-23.860286861255133
1290,-25.293973957120237,111.44252929220121,23.060965130298342,-25.778894962481548
1291,-27.232744940489496,146.5747019540374,31.575309270301922,-27.251195208967673
1292,-28.565718553591058,185.56492152572693,41.59667558771402,-28.126612591086925
1293,-29.10442546697982,227.46175704161087,53.172350455438064,-28.27932679429625
1294,-28.74638030664884,271.2157431875088,66.27031758275524,-27.6442150395
1295,-27.467201190208396,315.71640462909915,80.79289020716973,-26.207038608638758
1296,-25.313471255524277,359.9365212726317,96.57285665616712,-23.995907993663593
1297,-22.394085759182005,403.11756360042887,113.36587060245803,-21.094269843691627
1298,-18.861626142939144,444.77140996652804,130.86240107819046,-17.633262113334833
1299,-14.874662259073503,484.4976106265079,148.7245730210688,-13.751222236209053
1300,-10.56975864015706,521.9177809277742,166.61411022164222,-9.564945630840155
1301,-6.072941628129145,556.7227968644545,184.2064338074596,-5.18318840949094
1302,-1.5163855755463223,588.6755685654944,201.19290716857944,-0.7255671814368295
1303,2.9668346933797003,617.6042817038772,217.2713081987007,3.6920515694684855
1304,7.262333624986363,643.3901960786415,232.14214887228886,7.97961714304192
1305,11.280854136658268,665.9510490228167,245.51362684081707,12.06333713072313
1306,14.941857418291143,685.2545747868458,257.1017587106026,15.856037078206063
1307,18.166702009937307,701.3566473367091,266.6300534355863,19.24739840689916
1308,20.890045507385302,714.3990121360507,273.84593993872255,22.129950874933805
1309,23.075780165051192,724.5583447232274,278.54069963659134,24.4362311494735
1310,24.717431548526157,731.9947980143988,280.5536702285858,26.147793652588337
1311,25.83535770465515,736.8114677982518,279.77423834106713,27.2716080147453
1312,26.482081578744992,739.0069248656491,276.1489860229027,27.818728772883755
1313,26.728463536672066,738.4316519511028,269.6871155901559,27.804775143488378
1314,26.637114183699516,734.7678085251815,260.4586746803647,27.26423224210808
1315,26.255353895660775,727.5410704659815,248.5868999482307,26.252225785285134
1316,25.62220932074238,716.1727881008528,234.24117534210126,24.820174862746402
1317,24.754427131420574,700.0528771481174,217.63064195474598,22.998038254592498
1318,23.633626441936222,678.6062652952106,198.99580738925678,20.804862700696727
1319,22.2170927439733,651.3647019587205,178.59949630702133,18.26769872018053
1320,20.456110607430382,618.0572160115615,156.7196749795913,15.426520798303455
1321,18.321088090809873,578.6700010494052,133.64030525614837,12.31791390605681
1322,15.808064087392395,533.4278796340261,109.63910988031307,8.965365548357028
1323,12.924870332838935,482.7327756357655,84.98089979218753,5.395553338381917
1324,9.686403993723578,427.10904396041104,59.91738079160534,1.649041114580978
1325,6.123003628449356,367.17551983077885,34.68575253864708,-2.226014910859967
1326,2.292382824202924,303.6336219351639,9.505938518940546,-6.183377416550309
1327,-1.725554495007201,237.2380960261241,-15.418777042126184,-10.187131275560532
1328,-5.853432907239633,168.75444544195832,-39.90169068499537,-14.211399157915709
1329,-10.04066339410416,98.93431096884783,-63.775268730281454,-18.229088693619797
1330,-14.254656381344946,28.50937962817388,-86.8873534033205,-22.20528369552291
1331,-18.447613875469305,-41.81902193607084,-109.09384232345467,-26.100323786736187
1332,-22.55557690138842,-111.39386620775365,-130.259376602226,-29.875098325307267
1333,-26.522507610153582,-179.61498507672866,-150.26352368898318,-33.48876702170708
1334,-30.3036174449159,-245.946123882112,-169.00444127055408,-36.89025503892186
1335,-33.846893145517114,-309.9040556879006,-186.39916702631666,-40.02243061482313
1336,-37.0914371089697,-371.0589313006746,-202.38448397805655,-42.83834236779739
1337,-39.98702483550845,-429.0611709969656,-216.91878230357852,-45.313416158813084
1338,-42.50953932874913,-483.64537562128834,-229.98002281726806,-47.44048475327776
1339,-44.65907654277722,-534.5841113472843,-241.55610384424745,-49.210989906189695
1340,-46.43851729775912,-581.6499118808821,-251.63597293612276,-50.60850775659688
1341,-47.845919197494936,-624.6359736159305,-260.21562849380865,-51.61872200529589
1342,-48.885823728066214,-663.3954813804613,-267.3102416592417,-52.24330375605881
1343,-49.58199777518921,-697.8616571616124,-272.96015801196523,-52.51820627913812
1344,-49.98303762024817,-728.0520342040999,-277.2286669195131,-52.501183581632965
1345,-50.142624901622696,-754.0605680883301,-280.19166927426335,-52.22753160155176
1346,-50.09249770507335,-776.0284877243076,-281.930624503159,-51.70212007011771
1347,-49.83620221787899,-794.1033224690656,-282.53097272848186,-50.92825323468963
1348,-49.363138971464146,-808.412679588403,-282.08345001691026,-49.925987377453076
1349,-48.66526769412271,-819.0610286526448,-280.685797922613,-48.72955626358145
1350,-47.744525073290525,-826.1417602398311,-278.4369230722674,-47.37695396795869
1351,-46.61245722687571,-829.7452963474882,-275.4300172044947,-45.903729645440194
1352,-45.28809257343735,-829.970629543136,-271.7552803453327,-44.347711868636765
1353,-43.80140388111814,-826.947986293558,-267.50262370107856,-42.76039731472874
1354,-42.1954750591941,-820.8451079406394,-262.753463131887,-41.19519746884726
1355,-40.520283711979566,-811.8648050463862,-257.57262859319417,-39.681585957484124
1356,-38.822185461423686,-800.2499203745581,-252.01203422860647,-38.225100940323394
1357,-37.13511255983544,-786.2861307114662,-246.1192030462266,-36.822522909770605
1358,-35.48424447422116,-770.2913261636746,-239.93512372319142,-35.471119723927075
1359,-33.89189367626192,-752.5843650745725,-233.4861061906932,-34.17126864831058
1360,-32.36989508931043,-733.4494104251122,-226.78672085136535,-32.915022544282714
1361,-30.906269058205584,-713.1189202670749,-219.85048727351494,-31.67722175455208
1362,-29.4670302483895,-691.7809632203735,-212.6962385203429,-30.4343004961005
1363,-28.019733500848343,-669.5974369219274,-205.34756781308363,-29.177023400293383
1364,-26.55450105147063,-646.727293934622,-197.8316075340551,-27.90259873637771
1365,-25.08613370259643,-623.3401992498425,-190.1821047679372,-26.61038295309767
1366,-23.635915043893263,-599.6080278247076,-182.44139281437882,-25.304019559677123
1367,-22.214548509931173,-575.6897054539594,-174.65855165097128,-23.999685531726286
1368,-20.825079378396264,-551.72955956075,-166.88762061108096,-22.7285214814519
1369,-19.47565829174541,-527.8621383575166,-159.18256579005723,-21.52401919375857
1370,-18.185679642355048,-504.20495680530246,-151.58777610087424,-20.405893184420528
1371,-16.977562873627637,-480.86421400365583,-144.13652075451392,-19.380525732843527
1372,-15.868651632505205,-457.96287468168833,-136.85953531732432,-18.45594817113914
1373,-14.870010645707838,-435.64875256032366,-129.78716658755476,-17.64023217460226
1374,-13.98849766035753,-414.0685853021577,-122.94043035685836,-16.92760444819502
1375,-13.22630520409313,-393.33222437195695,-116.32516894800965,-16.28954065179269
1376,-12.570001149324916,-373.49903268975083,-109.93461272429069,-15.67069024747174
1377,-11.988700267381413,-354.58711770770077,-103.75152806162461,-15.00390527025651
1378,-11.447592351053785,-336.5911741787627,-97.75165354608923,-14.241570392602531
1379,-10.914431905213043,-319.51114352865176,-91.91296198362353,-13.372393359259622
1380,-10.35556047773747,-303.3664113781807,-86.22305822572962,-12.402152497078998
1381,-9.733399522147677,-288.16975969776365,-80.6773541424883,-11.325809206113338
1382,-9.007557298427765,-273.89393693142074,-75.27343723648518,-10.129193085653796
1383,-8.140140321905243,-260.47680496061855,-70.01382226436984,-8.811745375901443
1384,-7.115224741136026,-247.84515540395097,-64.91413963179058,-7.4014326414059175
1385,-5.955790143497851,-235.92337233137442,-60.00193950323721,-5.945375055299589
1386,-4.720946107461397,-224.6322632704085,-55.30706999792446,-4.494277257954027
1387,-3.482098702390477,-213.89151031572263,-50.85597841438617,-3.096470321340017
1388,-2.291033488739493,-203.6228375339875,-46.668146855123034,-1.794734881559
1389,-1.1793018119618455,-193.75013241983984,-42.74916502278294,-0.6221969923860797
1390,-0.17942162352267094,-184.2103035431809,-39.088955948179915,0.40410752888301715
1391,0.6841276615979704,-174.97341973572702,-35.66883945607036,1.2943682034047057
1392,1.4263385314465595,-166.04985543352123,-32.46643826067592,2.091792707379119
1393,2.0977808987966156,-157.47890196345796,-29.45355772803119,2.853474299257838
1394,2.7550015600049518,-149.30848388158984,-26.595062747559997,3.6272021209663836
1395,3.4409782869431123,-141.57379160586464,-23.85254438162163,4.452742006009161
1396,4.169694127419639,-134.27506281943022,-21.187629580847535,5.369200113845455
1397,4.926754556634513,-127.3687836098089,-18.563425943365818,6.408253948479162
1398,5.620213928359987,-121.04776886405435,-16.04310906327422,7.52687166543883
1399,6.3325236075220745,-114.8380090997412,-13.467640581730967,8.725787942946143
1400,7.08920753929432,-108.56230830496025,-10.795656822606615,9.965733527380046
1401,7.8784974547544975,-102.23650749177027,-8.063757839749282,11.198772554261355
1402,8.680359960365474,-95.99778250138404,-5.357419616120432,12.376400541487948
1403,9.480108305186707,-90.05414746925979,-2.7886873588944403,13.449907030317377
1404,10.25811560911724,-84.63528447498238,-0.4730004311530846,14.376522158051307
1405,10.977984059237187,-79.95042854729486,1.4915479370153715,15.128055932519663
1406,11.598699113173474,-76.15717409474306,3.038324059955008,15.696045634975162
1407,12.100786718064516,-73.34032992405923,4.142444932803586,16.09046339363292
1408,-0.029427495637571938,-1.9958803532386133,-0.7510840388840101,-0.08821935400663061
1409,-0.02926115668281585,-4.434817265082467,-1.6558672187921535,-0.4835372867509074
1410,-0.0020836034108165993,-7.904488546793603,-2.9575124338730685,-1.1077042525864766
1411,0.04707362157320295,-12.406654922895877,-4.667042324847949,-1.9797139896462663
1412,0.09495685314590344,-17.852728145760736,-6.75226990806136,-3.0859753223846496
1413,0.11183940325920641,-24.062201186102886,-9.140432388611028,-4.379772790755614
1414,0.06754878699041075,-30.782790606486568,-11.733593408304799,-5.79354123489942
1415,-0.0710998535610384,-37.73115879446621,-14.424115250076175,-7.2493246767476185
1416,-0.3444025271382207,-44.644673780504796,-17.10978043667503,-8.664668143777174
1417,-0.7912969701469988,-51.343836608759666,-19.714108222808076,-9.964261472476656
1418,-1.4309468474866107,-57.81419729346032,-22.21866418751004,-11.099541604029742
1419,-2.258798536830121,-63.997438792345,-24.588142756062474,-12.059011145084543
1420,-3.2557398011904786,-69.85483323558232,-26.79846619807048,-12.859938053769083
1421,-4.3941074513416405,-75.35243022119016,-28.832189689591914,-13.535771054292534
1422,-5.637994630140261,-80.46088913180404,-30.676188665162364,-14.127675259712666
1423,-6.9417397721970175,-85.16348150454225,-32.32130865319114,-14.673553120523035
1424,-8.258514329083013,-89.4500333729328,-33.76325733382773,-15.206278991418788
1425,-9.561061226613361,-93.31405102145774,-35.004168981375855,-15.766500228832871
1426,-10.846604568523004,-96.75412923638967,-36.048289686377075,-16.38982541801631
1427,-12.11620871700754,-99.76223365699548,-36.897614713212896,-17.074324850314984
1428,-13.354167364914534,-102.31404954156653,-37.55391313054401,-17.778680021859717
1429,-14.525376233899399,-104.39310594893121,-38.022437183754676,-18.4492829179742
1430,-15.591062942203303,-106.03106893032339,-38.31158831405267,-19.041154301703312
1431,-16.526948802307235,-107.30726746794782,-38.426479788431834,-19.520145464823933
1432,-17.332410131634287,-108.31582074477717,-38.36993960523475,-19.865922525573055
1433,-18.019706553792002,-109.1392918198894,-38.151507873111846,-20.08091127604326
1434,-18.592740852601096,-109.84707541406091,-37.78965256526238,-20.192344813540828
1435,-19.05248098363006,-110.5080159410228,-37.30436514227075,-20.242933749552655
1436,-19.41267784615203,-111.17594829506302,-36.70658671060013,-20.27488248176403
1437,-19.69870819507933,-111.86166326955406,-35.99868158062307,-20.31339577991881
1438,-19.934228540051993,-112.53298232649449,-35.18256917980491,-20.35933624984274
1439,-20.124299032850207,-113.13419463297484,-34.265090466516995,-20.399316035424157
1440,-20.25556435837831,-113.60301809036667,-33.264791643758976,-20.421448786369286
1441,-20.307299956136035,-113.88270603134626,-32.21267887746882,-20.40708766855571
1442,-20.258082347649587,-113.92739221329087,-31.13825880015416,-20.304726987328074
1443,-20.08974192855735,-113.70003241059896,-30.058921532302982,-20.04342940509702
1444,-19.789464319259945,-113.17392267638643,-28.98449238229506,-19.583955770171162
1445,-19.363530304054894,-112.33920192126418,-27.922651520991593,-18.937161131884785
1446,-18.85440558403987,-111.20142248374911,-26.87722481791067,-18.141569141921348
1447,-18.331576905010145,-109.76563425286913,-25.84415326890739,-17.24308902123613
1448,-17.857225690898204,-108.03458993966473,-24.812940801933834,-16.2860568129681
1449,-17.455950575818193,-106.0296359877583,-23.771988086006534,-15.314591223774066
1450,-17.12430718756538,-103.79209981458456,-22.711246001445087,-14.376619299184386
1451,-16.864649732003723,-101.35961343587408,-21.625372295822356,-13.520257991789618
1452,-16.685018134205393,-98.74286112722965,-20.517951258881087,-12.779852690785138
1453,-16.56999373789092,-95.92750594244679,-19.403671738878646,-12.16009505091026
1454,-16.474312045505908,-92.90550929323915,-18.306333839042235,-11.641575675863336
1455,-16.348732749972406,-89.68723360594714,-17.252028087678486,-11.197924213293554
1456,-16.168704049588047,-86.27569115367379,-16.26265609037789,-10.801996435734457
1457,-15.936635275906648,-82.650544316127,-15.349288862757094,-10.422053833957902
1458,-15.656027007621367,-78.77985288668856,-14.50854344530106,-10.027198201015079
1459,-15.310927329874565,-74.63444461428472,-13.72964792265871,-9.605693806379785
1460,-14.878260981566656,-70.19814571367688,-13.004708153739063,-9.170485536774052
1461,-14.35513686923681,-65.47641939991234,-12.329008033298548,-8.753398474540086
1462,-13.761647373466536,-60.49789970853342,-11.695165598218146,-8.390682899592955
1463,-13.118327980652175,-55.30789660136618,-11.094097630754572,-8.102871163418646
1464,-12.436492337631707,-49.96201361157969,-10.52045320526214,-7.894927712989027
1465,-11.734604599122076,-44.52754306322734,-9.975033570076798,-7.767189898621585
1466,-11.05513807046936,-39.082139332693366,-9.462077317167644,-7.7168202525411544
1467,-10.457169793724434,-33.70087903999876,-8.985053419355332,-7.72834178230127
1468,-9.984346808227345,-28.448031512564565,-8.546073139589389,-7.766339990023256
1469,-9.642639722947996,-23.377571411182462,-8.147939682943456,-7.782050043629842
1470,-9.40766810385538,-18.53075843972934,-7.795853826869832,-7.738960255382101
1471,-9.24452987931222,-13.936271600874575,-7.4955731007079365,-7.637841346292685
1472,-9.124986446657017,-9.613100619080575,-7.249757093950405,-7.501635408681983
1473,-9.026737802706043,-5.572512909673204,-7.05725573169474,-7.350261929460481
1474,-8.92844715848122,-1.820807881594643,-6.9152121403291185,-7.202717731314615
1475,-8.819505558634697,1.640515584900574,-6.821407538315372,-7.085298544016404
1476,-8.71160340758179,4.810750587635877,-6.774102255913154,-7.028692112848432
1477,-8.634131334280987,7.691653721056131,-6.768197367724502,-7.051733572892422
1478,-8.615500240074724,10.302935729615927,-6.794128017344521,-7.140709077250394
1479,-8.672541012516312,12.685169262216446,-6.842791570612925,-7.252416144927795
