,TP9,AF7,AF8,TP10
0,-0.47000084210818255,-0.7916516656204107,-0.531172844470198,-0.36079514497505927
1,-0.9142125845297282,-1.6758116705853374,-1.2334932904372833,-0.7424424412915286
2,-1.5455305267218749,-2.8971726652685774,-2.255899705957985,-1.275265781410678
3,-2.340990406788973,-4.431797298055896,-3.5960486673571226,-1.9472809313953574
4,-3.268518951063489,-6.227269655783092,-5.218054942000541,-2.7305704172561347
5,-4.314445704180189,-8.203962531941285,-7.058250832318282,-3.591072860140103
6,-5.476676557875449,-10.254117107196631,-9.03294982629696,-4.494791324019333
7,-6.734620266502789,-12.265359428487633,-11.04739481369918,-5.411219419514556
8,-8.048842170483834,-14.162113908279371,-13.009983337424776,-6.319111174372587
9,-9.393535455292728,-15.929771898718926,-14.853989602251081,-7.216133894095117
10,-10.791638981265153,-17.6275815523976,-16.56475026815655,-8.131227731182168
11,-12.249719951666624,-19.29304571933198,-18.122303636130997,-9.082024915152717
12,-13.743135509225967,-20.954534356499973,-19.523130426101332,-10.079222620471619
13,-15.22473646976396,-22.625227495242214,-20.775136808959314,-11.124412597679616
14,-16.670767462164093,-24.304970086441628,-21.893311743979297,-12.215739178121693
15,-18.090226075404022,-25.97564879644481,-22.89125104226361,-13.348172630686895
16,-19.47930812606759,-27.598880541401662,-23.765887467290884,-14.50533958657975
17,-20.792705867856178,-29.12653835971913,-24.499724552302865,-15.651572746144208
18,-21.961982837651277,-30.512677894893653,-25.077305773834457,-16.733957096576745
19,-22.936721661530115,-31.71760222514201,-25.493693217194966,-17.698430651926035
20,-23.70846936168637,-32.707790361140034,-25.754659675033828,-18.511284075869924
21,-24.283442951955795,-33.46017503301135,-25.875031571813537,-19.168879943568598
22,-24.65580586738261,-33.969430515043776,-25.874847065547993,-19.688113404181692
23,-24.819221181267068,-34.24829006732934,-25.774759300042305,-20.09241755302622
24,-24.798379333810743,-34.3168248516176,-25.596815585300725,-20.405663994918942
25,-24.655341224992714,-34.188087956020254,-25.36637215208381,-20.649557613134355
26,-24.45120836899425,-33.87145637164643,-25.108904200531327,-20.84039325799549
27,-24.22121280713266,-33.383507041876605,-24.843221480497082,-20.985456446611817
28,-23.982708979160904,-32.7397464626745,-24.57653954963952,-21.080832335996647
29,-23.748892576016054,-31.94966778002204,-24.305963615848093,-21.11446021504538
30,-23.518814008381547,-31.026178275407464,-24.025871605989963,-21.07205505087925
31,-23.251364618913605,-29.99171600002291,-23.736277568600443,-20.94208028357023
32,-22.869705238178653,-28.876391004902402,-23.446669153426924,-20.71927523651535
33,-22.29740657924702,-27.710846166637104,-23.177811918847766,-20.408658908947533
34,-21.493349364044875,-26.518186887742196,-22.955805577796745,-20.03244194894207
35,-20.455466466989858,-25.314353430751936,-22.794943730744688,-19.633691574761432
36,-19.19480145748468,-24.117977324982824,-22.69101955313465,-19.266851993136818
37,-17.71548827778371,-22.949493075962724,-22.62697084206145,-18.975212175957346
38,-16.02522702485944,-21.820253869086258,-22.576299779799513,-18.77246203473936
39,-14.160738865050542,-20.732815950902914,-22.50876534073983,-18.650164072396855
40,-12.18395798283471,-19.68921983443063,-22.39981671643112,-18.599819353646637
41,-10.158729907046226,-18.694922687878297,-22.23337258822851,-18.619198517458173
42,-8.128689345428864,-17.755264728255817,-21.99884652341032,-18.701198219596083
43,-6.102895853620503,-16.873815927465355,-21.690099799482734,-18.822949508333195
44,-4.076359034229106,-16.057881287370257,-21.305395201138065,-18.951002849448283
45,-2.06329254760605,-15.320732722022276,-20.848203211065783,-19.055816872877244
46,-0.11413023908930048,-14.677795763530401,-20.327460265750435,-19.11743101102725
47,1.6996946973216098,-14.141885483600785,-19.755074599500634,-19.122128258205773
48,3.32247417693093,-13.719841072040609,-19.14512901250301,-19.05839692144643
49,4.724925873192166,-13.408599920674307,-18.51711350869297,-18.918526038456413
50,5.88707792736949,-13.191860940983247,-17.896806286988447,-18.706621195525173
51,6.781128038853083,-13.044646470549617,-17.312135347185173,-18.439991761895975
52,7.3839897334240625,-12.942650129386907,-16.78942647427343,-18.136636776299937
53,7.708965796909585,-12.86546429222867,-16.35104619821085,-17.802868839316012
54,7.810268022688013,-12.797331762680141,-16.012755549990114,-17.435475269946146
55,7.75709531279755,-12.73262532402633,-15.781979560592685,-17.033376656651548
56,7.599767516422237,-12.673657822788677,-15.65624361531715,-16.59706507578717
57,7.364786749252353,-12.619109605193938,-15.62042865542507,-16.11364471037904
58,7.076833219026969,-12.560488957123694,-15.648374987518004,-15.551010372869078
59,6.766688676526576,-12.484292549099349,-15.709109132537023,-14.870333675147272
60,6.448231273610485,-12.375259613918017,-15.775732477187145,-14.04584589681522
61,6.096123246424779,-12.221778007789887,-15.836429295727228,-13.07920829256939
62,5.675616014606075,-12.012927379741702,-15.89386785254708,-12.000001365581134
63,5.179444518272461,-11.729354424761455,-15.954384750885115,-10.85803190565894
64,4.62204569357166,-11.34466073436061,-16.023124294629216,-9.7119831373215
65,4.0070172736258955,-10.841156976365799,-16.10325248831636,-8.614634772170414
66,3.3064367140465576,-10.222480618435595,-16.189436784152836,-7.605409765689005
67,2.490737441098585,-9.50904439523158,-16.259376999995666,-6.710203019312497
68,1.568366706033934,-8.727169091226498,-16.274626834664364,-5.940409840208147
69,0.5842907837837552,-7.902051903096106,-16.18978104136424,-5.2938346148742195
70,-0.4187517141588391,-7.057792667900033,-15.961104208192468,-4.757873692534648
71,-1.4276120073897691,-6.221782337755633,-15.550472685253187,-4.309028567979933
72,-2.446312503121029,-5.4242545264778155,-14.929616829440887,-3.912451887955349
73,-3.472680889000157,-4.695388979342432,-14.088608324143774,-3.530265890918885
74,-4.489236765144433,-4.060593414775997,-13.041822643734866,-3.1343136650607706
75,-5.486574299914997,-3.5339473705610573,-11.825200264446963,-2.7139405535022316
76,-6.480551008937606,-3.1177222713070334,-10.488778698859717,-2.2739882019187574
77,-7.491839367431416,-2.8071080166081104,-9.0888919168067,-1.8240039592916755
78,-8.511961423289652,-2.5907363101512377,-7.678008628792738,-1.3628231392714474
79,-9.487755611956652,-2.4552322771823047,-6.29683294547238,-0.8674888550996485
80,-10.35646046061083,-2.398476916078305,-4.97240630437128,-0.30732407958012975
81,-11.078454560023227,-2.4272234583644976,-3.7165002435417334,0.3298509415235962
82,-11.628434766428505,-2.5409563002912328,-2.526775880276257,1.032547867929896
83,-11.970892646849173,-2.727330592743528,-1.3936796551747697,1.7800761398038178
84,-12.05309225700361,-2.9658973975447345,-0.30846140367599495,2.5593023587369097
85,-11.845370895744031,-3.2276791989289793,0.733238978238347,3.3666656763511527
86,-11.373696486686558,-3.476752274088537,1.731393393342321,4.197599273702255
87,-10.699319003431393,-3.675655815840637,2.6787754099739476,5.03937193137507
88,-9.879934973420358,-3.787696532294397,3.559516225706998,5.876003559667825
89,-8.955347772556623,-3.779839462147149,4.354684347564618,6.697156126104711
90,-7.9620642759716915,-3.6319159070087506,5.048166599404541,7.497509312675884
91,-6.943302535983882,-3.3498080849955083,5.626603786678518,8.267218472551544
92,-5.934499462261668,-2.9699082221748285,6.080036084266363,8.981324538935434
93,-4.938833729201065,-2.5431652289269975,6.404224037411525,9.602485657511773
94,-3.9285753940996857,-2.110628162081137,6.598165288435083,10.094240969211368
95,-2.873043756544858,-1.697823026488054,6.664742536741001,10.42702600226465
96,-1.7611055824191597,-1.3274898608930439,6.620417532799032,10.575505159630048
97,-0.5940920617463128,-1.0233171448703302,6.49899677971848,10.5238810783617
98,0.6285261168956935,-0.7999335280867523,6.3415632892764835,10.280946104190118
99,1.9144161927041718,-0.6615502909880747,6.1838266962142345,9.876426238186877
100,3.2906669325933584,-0.6113353395801084,6.044612509935446,9.336761777112596
101,4.7755165454428825,-0.6460502634693498,5.919575419606008,8.667495168582898
102,6.336276847898282,-0.7371896402122805,5.786331903146763,7.848671383348641
103,7.904702746675718,-0.8300351380896993,5.613691471630183,6.84435465751829
104,9.404353077818229,-0.8630181714734966,5.3699859522112225,5.618721212650018
105,10.759827133550058,-0.7896176063326343,5.026988006609201,4.139892558814899
106,11.88902479492268,-0.5853638485311724,4.556022468943206,2.375701090182816
107,12.68528691616448,-0.23556949437631802,3.9243707396625975,0.2953785752360608
108,13.021012153107405,0.2761745347305532,3.0967290027601297,-2.1219844362600906
109,12.786096947091501,0.9649105899510122,2.0401008792162125,-4.872408405374606
110,11.94261468810886,1.8313038552808039,0.7312227852189693,-7.912071920232564
111,10.529210630222131,2.8557457531457233,-0.8370374845146601,-11.170620182718459
112,8.61849719374956,4.010404469147418,-2.6567216840175756,-14.58198809757219
113,6.301863264669413,5.280636926616716,-4.718419591323798,-18.090501428515456
114,3.7021272939809644,6.672825630455418,-7.021765371832058,-21.639511053026112
115,0.9800790814143059,8.203076066454084,-9.56276551898835,-25.16465124232067
116,-1.6984076009104412,9.886421345345921,-12.315368784111895,-28.59193019864092
117,-4.22453570327681,11.73596848286633,-15.228373509196059,-31.836203567209704
118,-6.567732118083755,13.678054134292935,-18.198704288102526,-34.86325598192263
119,-8.670500898285956,15.823188127526299,-21.211517056455794,-37.4853936730193
120,-10.468502560397742,18.15647924497157,-24.18988287978835,-39.57624626199065
121,-11.935542007362125,20.597485031188853,-27.03194518768979,-41.08412334734937
122,-13.089472602373052,23.039894308886385,-29.63715862835241,-42.027859011022684
123,-13.967607595949762,25.37106069531231,-31.920265534860615,-42.47527873026461
124,-14.596566515524543,27.4838209971038,-33.81754962216701,-42.52345557336699
125,-14.991829346162964,29.285938081043536,-35.29315761109409,-42.28500440677359
126,-15.18770173361944,30.712544691839245,-36.34528257896319,-41.88138727105583
127,-15.251854777228816,31.736127643853777,-37.00894642887732,-41.43825363075037
128,-0.9420508630247715,0.007409792024944725,-1.0227639935569748,-0.9641857999298205
129,-1.8340579090543325,-0.07207833241872878,-2.2944743492245077,-2.014614258316746
130,-3.0600384018429923,-0.22521445271188945,-4.123825000930134,-3.479940054108107
131,-4.574704430839838,-0.4589914011482735,-6.511724637326067,-5.340977388268911
132,-6.295093479555645,-0.7669228965399146,-9.402677449197133,-7.5333392853821595
133,-8.12460176150294,-1.1350736110090176,-12.688640883578602,-9.963726574182893
134,-9.962626265140795,-1.5435657777378675,-16.220497746888746,-12.521339657481912
135,-11.70869958525089,-1.9688017097699202,-19.828137749949658,-15.086133816221768
136,-13.27709515947269,-2.39015863054416,-23.349761953543847,-17.54526515504094
137,-14.619782744535986,-2.7974786373146405,-26.6685320818262,-19.82038395458481
138,-15.75438361376361,-3.197551869664814,-29.75625552183516,-21.904889004141587
139,-16.65311809227314,-3.612819612288349,-32.560985788815806,-23.759084043566062
140,-17.281801188899596,-4.081474195392007,-35.04543391284415,-25.343442978690724
141,-17.623804655704756,-4.649065319809301,-37.186049741529686,-26.62249007450749
142,-17.69321427804257,-5.357819679098238,-38.97124208355216,-27.57049722009852
143,-17.519844759668942,-6.241451934868175,-40.398025761489286,-28.17709035559123
144,-17.11938797256663,-7.323068772394807,-41.47217346780406,-28.446588974593816
145,-16.4905494233946,-8.610132735372908,-42.21011153048425,-28.38877707272935
146,-15.644566923740017,-10.08597135595808,-42.63562079441625,-28.011024972068792
147,-14.623014937750524,-11.710555194049803,-42.77616354405958,-27.326880176188332
148,-13.484993960055698,-13.433953611645357,-42.66079144598499,-26.370736121590287
149,-12.279863522285796,-15.203675015343157,-42.316852323170565,-25.19508207024376
150,-11.026152465134457,-16.96154379439588,-41.7669623846292,-23.85105557744283
151,-9.713518795823605,-18.64638639529755,-41.02986512264274,-22.378855416198547
152,-8.336631588682073,-20.202498927291394,-40.12481571653271,-20.81711414300721
153,-6.93128029896124,-21.58324407356079,-39.07246907792278,-19.20838959152054
154,-5.57186676655217,-22.754199525355933,-37.89191202588849,-17.599661950100867
155,-4.339694895949479,-23.699243643964763,-36.60200166588803,-16.040810006078367
156,-3.2975016937702195,-24.425270446166838,-35.22812234946387,-14.577598830303216
157,-2.4948407311935243,-24.962944487412486,-33.80859247452722,-13.248458029455842
158,-1.9910356441368513,-25.358858882035808,-32.39382256372557,-12.087275668099965
159,-1.859254504259401,-25.660659094091525,-31.03707389243851,-11.128090798911064
160,-2.160570862672794,-25.904838042458607,-29.787543601939138,-10.404244223335121
161,-2.9054016093675443,-26.114582497986476,-28.688429149823747,-9.941163177980275
162,-4.0516944329876,-26.30592710835438,-27.773914826270953,-9.756437339878486
163,-5.539099399914157,-26.49055682360137,-27.068448108493538,-9.869043796667128
164,-7.310066854635719,-26.672328713399985,-26.589754547789212,-10.295621094698129
165,-9.304949519312531,-26.845565866553027,-26.34998207013095,-11.032045942023107
166,-11.444247583634143,-26.998842122720934,-26.354569742170828,-12.045975423483728
167,-13.639123518349649,-27.12149782510502,-26.59936546947657,-13.283739852224802
168,-15.824447420209566,-27.207695710033036,-27.06588555326234,-14.681556314526976
169,-17.961405047020108,-27.253919573520122,-27.720325530781775,-16.174486277758678
170,-20.00750459855071,-27.256311302325365,-28.51879432544242,-17.697054127841355
171,-21.905161820442657,-27.209905682324635,-29.415593796609233,-19.182747612423448
172,-23.60652100704636,-27.103177447045955,-30.3654926170875,-20.56779416500028
173,-25.092016395593742,-26.919091668625512,-31.317659445511946,-21.800928658384578
174,-26.367937771670345,-26.64588325866065,-32.21669433687214,-22.85144522205798
175,-27.438389666663237,-26.284158361347007,-33.01402641289539,-23.706857515301476
176,-28.284107055262528,-25.846285556137033,-33.67953397092981,-24.360008675123634
177,-28.8829657012269,-25.34889608415813,-34.20380430535161,-24.79601001921382
178,-29.23689051666271,-24.80514674178356,-34.59046794565042,-24.999555598822546
179,-29.37592333522348,-24.224065600342904,-34.8524459522261,-24.965199302745184
180,-29.323107692076615,-23.61630248010799,-35.00982590497072,-24.69432695430569
181,-29.068630053060257,-22.997721677235646,-35.08074827464111,-24.193603863826976
182,-28.592384728720738,-22.38879304460563,-35.076872536081375,-23.47960254875816
183,-27.90193020556906,-21.8152972380722,-35.00716979057466,-22.58708948766516
184,-27.051463788544925,-21.30513358604873,-34.882547141096325,-21.57453981637489
185,-26.10792736164947,-20.87959372483655,-34.720048462585744,-20.520193779695784
186,-25.114519202650587,-20.545421624266837,-34.54093560109841,-19.50235551347732
187,-24.09879839086001,-20.294410093673566,-34.366121060361735,-18.57733299169738
188,-23.10051025753566,-20.109520343570118,-34.21588977327886,-17.77802596822899
189,-22.186542598621166,-19.969027515162747,-34.1078127246933,-17.123591390831333
190,-21.4211266144255,-19.843652323523692,-34.05415586161227,-16.62610841041699
191,-20.82011732030798,-19.693705879748755,-34.05699574312061,-16.284861365029627
192,-20.34406801068625,-19.478830567003538,-34.100897916854,-16.075110468489665
193,-19.941457455251253,-19.171801710971096,-34.15325390773079,-15.960456476969417
194,-19.5818121096496,-18.76285902065247,-34.1704647987885,-15.921691553542916
195,-19.243932501457103,-18.257919772348153,-34.10629136297262,-15.956815961313795
196,-18.89864705607,-17.671404021511602,-33.91927069609397,-16.0555170809494
197,-18.50633158465531,-17.013326430604987,-33.580515900610145,-16.191730882784835
198,-18.047376116427902,-16.285781232432164,-33.08552209205791,-16.33751625959774
199,-17.546111271215693,-15.49175684573164,-32.4564376870165,-16.480382574219732
200,-17.0426150681021,-14.63782725950565,-31.728175317216053,-16.622924935375682
201,-16.552023267402856,-13.732662678406374,-30.932538282607208,-16.765516976166488
202,-16.050858799907378,-12.790886574885262,-30.088765637475642,-16.89690785599349
203,-15.510964553171295,-11.83334070563974,-29.200966037861477,-16.996693374768096
204,-14.928975613190458,-10.881251412138369,-28.26079844078632,-17.0453917251967
205,-14.313116165604189,-9.952492901764852,-27.24948281086367,-17.027531802541958
206,-13.654000578736804,-9.066679175518185,-26.143203857138207,-16.91985902858709
207,-12.908848366918901,-8.244524562887326,-24.921441027707942,-16.687055188804827
208,-12.038690343324786,-7.4926545056563025,-23.571237657320026,-16.293226410132853
209,-11.045346161171718,-6.798831723336633,-22.090898200684176,-15.71594358019028
210,-9.957518675348556,-6.143304893364306,-20.490965603590894,-14.943619475694948
211,-8.79589880078809,-5.509256684185835,-18.792093059078336,-13.960482245453237
212,-7.557064361544159,-4.888011432709199,-17.019487566285907,-12.75181352343538
213,-6.235402851692264,-4.280215988039814,-15.193086924051569,-11.326252533638764
214,-4.846753563222359,-3.695983785291633,-13.323987235163825,-9.722048268815959
215,-3.4318305668626787,-3.146660007312862,-11.41450605873167,-7.992956115973524
216,-2.0280100887232186,-2.6264718249670223,-9.46199398275002,-6.188804622765213
217,-0.6451857181729966,-2.112178085682968,-7.4719584248743685,-4.345639054658749
218,0.7126900637358535,-1.5815137991247796,-5.465455213469154,-2.4914019133622087
219,2.0171884283164405,-1.025798576157671,-3.474492331620694,-0.6558991748052251
220,3.2070289752447247,-0.4510975803634317,-1.537739022683836,1.1207613352977333
221,4.22749634310277,0.1271442917616954,0.3025585134022031,2.7939040648619575
222,5.069485353213515,0.6891279224683687,2.007598606654602,4.33475947423239
223,5.746767847328742,1.2145938540233883,3.5451536523635903,5.733723481412321
224,6.256310673370883,1.6823808147467938,4.885950230842505,6.982511823318182
225,6.57553996327483,2.0654124867191426,6.005421963471832,8.06304671674752
226,6.702414818363632,2.339678853118354,6.892394990622101,8.953792193014142
227,6.675938771760102,2.5025719907363695,7.551198720629482,9.644353647062871
228,6.553405848977888,2.5719473727546287,7.996209576970433,10.144581924808719
229,6.37848668041376,2.5750319444347567,8.247832408810101,10.480586392018186
230,6.162927512144422,2.540020749491818,8.329435394201013,10.68285227769502
231,5.904776122873915,2.4943440746639913,8.266848922408407,10.778692933124445
232,5.610630457420146,2.473270604947604,8.090480645470777,10.792560208693997
233,5.291911140509596,2.508715485669144,7.834320256687367,10.74846833119753
234,4.950538503117385,2.6051597409633125,7.532665407888049,10.665785260338215
235,4.588835537335124,2.746515979340012,7.214540342621946,10.552238183893966
236,4.240755709594338,2.919897521217336,6.9014535018541325,10.411343892307718
237,3.977679800588078,3.118138157764776,6.614248203153648,10.255947422947653
238,3.8796255569070044,3.320455710797189,6.376849926415997,10.109132462375893
239,3.9965156747732253,3.4978311211332644,6.208017536499564,9.990402867267894
240,4.348022284371161,3.653505007331187,6.114048131520919,9.908635186130555
241,4.953763061116332,3.815527604607422,6.092514844952538,9.872008078309976
242,5.82564828555799,3.9760662056029052,6.142355529898752,9.902885821091122
243,6.950173398725965,4.064554494316076,6.272505677562924,10.048382639676259
244,8.30361645772877,3.982731340071571,6.5072726311145574,10.3657585002885
245,9.855835060031644,3.673105340868744,6.881101224463598,10.898251127011251
246,11.554165506149854,3.186539976432853,7.310487581246871,11.660530149305734
247,13.312362858821912,2.55976696735556,7.961342767463308,12.588758782214693
248,15.047020558446139,1.8474963956874841,8.899654393284886,13.609952010315949
249,16.673719775881587,1.103949451945064,10.115896462960878,14.643794778538158
250,18.11258783039678,0.3796568600995347,11.546567683338626,15.606461220506635
251,19.3030070677606,-0.2667323271943585,13.0940365961183,16.42412882831709
252,20.21050214588867,-0.7779171514967985,14.646274531667164,17.049013296104974
253,20.829124089878334,-1.1239463389796303,16.091746653867844,17.46270052419161
254,21.18073678654128,-1.3054811974882496,17.32831691861879,17.66890607258803
255,21.311393803113756,-1.3414687119037607,18.27805601895352,17.6937072111315
256,-0.28795561510703416,-0.20882017585024382,-0.3225689535363234,-0.17856972072335875
257,-0.7066906790447858,-0.7830174813536646,-0.10094272199847643,-0.5346485366935698
258,-1.31010769473278,-1.8137384731145727,0.4792657464205332,-1.0482113605650512
259,-2.0692987854303193,-3.380162977947409,1.5366549833451184,-1.7174413841408236
260,-2.92569471490178,-5.506766775652629,3.164577391645685,-2.527072429587916
261,-3.8404518333571476,-8.178087973042572,5.4086758197261915,-3.4593239895989525
262,-4.800377086511984,-11.328969881671664,8.254067797268721,-4.4961097163489985
263,-5.7964151243069075,-14.844613709971966,11.623319040255144,-5.619320414909878
264,-6.815035160607768,-18.61852036379689,15.403017654402152,-6.814462563432351
265,-7.837065484116204,-22.639503151187483,19.494521191862013,-8.065004459285323
266,-8.850060979074092,-27.006299328208996,23.843432538443874,-9.347850290635508
267,-9.826327312677783,-31.847745557866286,28.436622365484887,-10.618071301341452
268,-10.65409836324577,-37.2393427440707,33.258349897087896,-11.778518374148543
269,-11.164871475187635,-43.15128601025611,38.25827585935325,-12.698166181032057
270,-11.255503687930585,-49.451468987459045,43.37110682718247,-13.268585150583037
271,-10.922466775780915,-55.92920938348886,48.55486981822702,-13.425001369576174
272,-10.19234862660974,-62.28034541717761,53.817560921401956,-13.135881632601489
273,-9.082100953640495,-68.06750501055642,59.218099129700406,-12.39028773778023
274,-7.621083640384883,-72.8099983987665,64.84859259139243,-11.199554938636805
275,-5.878356062756359,-76.13372797724307,70.82200996350568,-9.60782390613047
276,-3.9709516014447135,-77.83043685408761,77.25016407058101,-7.689691081971054
277,-2.0180306239469927,-77.83865570803037,84.21805439863863,-5.530192655988618
278,-0.057188166143959496,-76.16636562682504,91.78402200660076,-3.1954503480738934
279,1.9683315101188135,-72.82419711246588,99.98591284438797,-0.720381003301745
280,4.139520946106987,-67.77562932763448,108.83328350090284,1.879012303516091
281,6.505477850122132,-60.86509220898605,118.29208027607267,4.589653684713881
282,9.07231471371593,-51.775835133310004,128.2635620531253,7.383870259292092
283,11.810085501374564,-40.10630930315039,138.59180327161312,10.209495819581715
284,14.663331844874081,-25.52323775583242,149.11852321319134,12.999823012990491
285,17.542214712207638,-7.863535361487371,159.73175976108166,15.685623387997001
286,20.324439460816475,12.815520042705216,170.3586244196928,18.20585347846109
287,22.90704684911837,36.234057233933356,180.9243819644352,20.524093393711386
288,25.246298749746877,61.91716786348695,191.33778560619473,22.62990092169417
289,27.349740368654086,89.22728621905854,201.50201419757505,24.52316629145859
290,29.23846485510324,117.42822039503612,211.32159407154037,26.20419135931091
291,30.919581434969135,145.78060377749696,220.70825932107277,27.676392458473565
292,32.3933839754775,173.62940071706646,229.5812804907294,28.95624299298738
293,33.67421035229772,200.44331374258167,237.86088480307143,30.070151745736794
294,34.79709089713887,225.82641724784895,245.46623601356225,31.04197249801519
295,35.78725675208739,249.47992926532288,252.30103507196822,31.88790438003186
296,36.63975753167954,271.13367424718206,258.2356237542415,32.61585102845077
297,37.33467746630292,290.538585929263,263.1152690739374,33.227193144163664
298,37.86480936891134,307.4837856548001,266.7840560492221,33.72436235905312
299,38.24845126517897,321.78896448498404,269.1165702952594,34.1195454087822
300,38.499672577982324,333.30580899702505,270.0499836815633,34.42245227481998
301,38.60236969174611,341.9375568243651,269.5925012039694,34.61889659025079
302,38.519894184945606,347.6433944532773,267.80418941232324,34.673743967148376
303,38.22359365632413,350.4269749658884,264.7753933243348,34.5477799821256
304,37.70898796641752,350.3225447599345,260.61506300438873,34.208235414452126
305,36.978467690604035,347.38451323054903,255.43245775306386,33.63576972240867
306,36.02223666029794,341.69463713713105,249.31444778729724,32.8233075714342
307,34.82255485984367,333.37651216605275,242.31661576433774,31.771627097459426
308,33.38542963194128,322.5938721232842,234.4642434342305,30.491150212704234
309,31.758726131175496,309.54222840397756,225.75087289299972,28.999032604989182
310,30.002446596808134,294.4608217742193,216.14432647336582,27.309391806571202
311,28.13953059765368,277.6345502437693,205.61060773776737,25.425180454297404
312,26.13324519035101,259.35919465350116,194.1367082677887,23.33227725042829
313,23.92449281569003,239.90298498168912,181.73798147739262,20.999537181988774
314,21.47823193481746,219.47898907569677,168.45536293744345,18.389582302692546
315,18.78634343099242,198.2237111910343,154.34962941614322,15.469558870872948
316,15.838400304241537,176.19510960519216,139.49613512086066,12.216607445061232
317,12.604673928387838,153.40480922636647,123.98478349874512,8.630684782907935
318,9.070589385072175,129.8720637474248,107.92591435947381,4.750574815645873
319,5.268256408593888,105.67072423644899,91.44369517969685,0.6516680244380461
320,1.2647497779552106,80.95592780363339,74.65449746959692,-3.5687774786471373
321,-2.869453428955588,55.9709675493175,57.65142034833792,-7.806394763256622
322,-7.085330406772295,31.047729157836617,40.49920355587761,-11.966981949602992
323,-11.343101156645432,6.5918799586312655,23.238554489738764,-15.977259956094366
324,-15.585926528441526,-16.961671088595036,5.89422346451571,-19.78311278111917
325,-19.734384581750245,-39.19913559744835,-11.523010801729804,-23.3475811303478
326,-23.7171145517289,-59.76820028963343,-29.008209718134005,-26.655995224641718
327,-27.502225594884266,-78.41694000643767,-46.53856944531007,-29.721669170317984
328,-31.07822225941841,-95.01410713923684,-64.06069153515398,-32.57601924563673
329,-34.410782405314286,-109.51613986079937,-81.51225010230304,-35.24129987458473
330,-37.43015080469449,-121.92284084356177,-98.85340281061914,-37.70923010831377
331,-40.077158475606225,-132.2696450714211,-116.08505298220108,-39.94695187868931
332,-42.34100115865944,-140.61992053164786,-133.25688473384437,-41.918657280961604
333,-44.24743981733299,-147.05121396248344,-150.46611605532783,-43.5997514293623
334,-45.831718302243004,-151.66759517593823,-167.84746364127557,-44.982881903416164
335,-47.123648224481755,-154.6275942246826,-185.54856465590768,-46.07933641828649
336,-48.1652611306264,-156.15380054998678,-203.68511914488886,-46.91930890473072
337,-49.018348608580354,-156.5232814044209,-222.29625046185336,-47.55597668548159
338,-49.75314701811604,-156.04969150253984,-241.3301215451342,-48.0650594164233
339,-50.425754728673994,-155.05558461445773,-260.6512189605611,-48.53290027802101
340,-51.051626130704335,-153.86026106535624,-280.04581398259836,-49.03900094941239
341,-51.62683352067781,-152.7806056132793,-299.23742311887537,-49.63817813164387
342,-52.16590411729246,-152.11455372563867,-317.9198419314794,-50.35285470527275
343,-52.704459485154935,-152.113619778367,-335.7943512706569,-51.17537325144966
344,-53.267020454351034,-152.95683976978998,-352.6095401159367,-52.070358536771195
345,-53.849248420513455,-154.72986587465425,-368.18476065156966,-52.984669936186165
346,-54.44056247242552,-157.4184819760236,-382.3958192762103,-53.865773270822274
347,-55.04991271018138,-160.91599476608062,-395.1506899247372,-54.67762790493139
348,-55.70925972100622,-165.03742287186418,-406.3847144914457,-55.40587147944893
349,-56.43242567347009,-169.5440388693379,-416.0558229423434,-56.05030461852111
350,-57.17846442693212,-174.174227633666,-424.129921462426,-56.61677427662281
351,-57.877084345221995,-178.66609568011165,-430.58070117325417,-57.11038667030144
352,-58.48033260240709,-182.7777361503382,-435.40385989034183,-57.537104516146606
353,-58.983542531460486,-186.31518309705092,-438.6268999878572,-57.91368274758135
354,-59.39251655383775,-189.14739917549582,-440.307155745857,-58.25331838269267
355,-59.68441817026034,-191.200974342385,-440.52340367015796,-58.53781970310819
356,-59.810654120233096,-192.4561973517232,-439.3757424351905,-58.717909959852506
357,-59.73957372244155,-192.92809144476507,-436.996089413858,-58.737382118237804
358,-59.4814796509862,-192.62301430267755,-433.5517594046676,-58.55424412845277
359,-59.04814462994254,-191.52633076328343,-429.23416889629834,-58.14365871745519
360,-58.41815438207323,-189.63117869338552,-424.24680756393434,-57.488032373542566
361,-57.55588607074896,-186.96106905523638,-418.80136733407403,-56.57677032793771
362,-56.45130162755144,-183.57664104540112,-413.1123870079384,-55.4187731520656
363,-55.14723624136077,-179.5850656717764,-407.37917157910397,-54.052598288818785
364,-53.70782977196748,-175.14335278801082,-401.7519975318734,-52.53135541086701
365,-52.15663320307108,-170.43378084415903,-396.3103230032846,-50.88545536727054
366,-50.47279057340493,-165.62626290166475,-391.0747140358452,-49.11329103694643
367,-48.64989371711183,-160.86044557205324,-386.0179617669498,-47.202544355872476
368,-46.7254252229266,-156.24406312093237,-381.055669761665,-45.14625958417872
369,-44.74844566922499,-151.84599256420796,-376.0429892858851,-42.95016918855401
370,-42.75076088952476,-147.68689004612386,-370.7936685667284,-40.6322765594522
371,-40.748117505332814,-143.7362171013146,-365.11307148403836,-38.22586382866608
372,-38.77147659079891,-139.93028875804353,-358.82980976608,-35.79640173301676
373,-36.882330627661524,-136.2034851565346,-351.81196983349327,-33.43808612413525
374,-35.19402681416379,-132.65803324933202,-344.58757111774906,-31.288014166110234
375,-33.676163959184066,-129.0168242317137,-336.098548438849,-29.358818150798946
376,-32.30726598582986,-125.19880120717129,-326.00509945707023,-27.673425146543575
377,-31.092894858181232,-121.25951039253802,-314.4971469428391,-26.251853033030347
378,-30.054218426946896,-117.33697953479177,-302.11156553184315,-25.098541212368673
379,-29.19382636187823,-113.60601539798436,-289.56486151746446,-24.19192655046437
380,-28.483079129958305,-110.24000461028989,-277.6180786905418,-23.485389205310963
381,-27.88327079262303,-107.37759666019512,-266.9739009907409,-22.92656486192941
382,-27.388930661155662,-105.10509634877961,-258.1876695257227,-22.48388458247232
383,-27.027337409105897,-103.45678562390943,-251.58886341129212,-22.151135373535915
384,-1.2837447201752215,-1.093516124381583,-2.7981635158610305,-0.8833890769925682
385,-2.478439111226205,-2.2966595614463614,-6.112564091977064,-1.768735348598123
386,-4.104564025300565,-3.9661012357665584,-10.83475135058083,-2.977841247819061
387,-6.109639346805646,-6.086218016051216,-16.949141794853354,-4.487114805954702
388,-8.407965248412221,-8.596591904701954,-24.305655876260754,-6.247344731211456
389,-10.91256265364777,-11.398608946869878,-32.634043807627165,-8.196005345320447
390,-13.535641060656442,-14.367154900576121,-41.57217231246655,-10.262586743872758
391,-16.17320789224597,-17.36459551180045,-50.714530092993584,-12.371458248591901
392,-18.719982923563776,-20.258874292448116,-59.68804853151987,-14.453981507428148
393,-21.114967688047514,-22.957676583043526,-68.24484620973912,-16.472230308953343
394,-23.392883958701095,-25.457596982716723,-76.36680265351997,-18.450504675634996
395,-25.531328324898087,-27.730637346637604,-83.94795297438458,-20.377804036262614
396,-27.479880340849203,-29.747859167670704,-90.90177401353253,-22.231025485114838
397,-29.174410260388726,-31.477179616265204,-97.16242806520474,-23.974260741242986
398,-30.570276375616572,-32.89891700414176,-102.67657790712536,-25.570225258349172
399,-31.666568884746557,-34.01584306828373,-107.3986468071019,-26.99776442470132
400,-32.482866448610366,-34.84730092991184,-111.29489573029305,-28.250636333943643
401,-33.02601617265893,-35.41882059326227,-114.34756667056668,-29.323006903975834
402,-33.29599618018488,-35.75480388086502,-116.55572401685279,-30.208110105207492
403,-33.31986545261012,-35.87384594262877,-117.93779275578162,-30.908902652635884
404,-33.17124399703399,-35.78898949404552,-118.53048359448222,-31.442164636459623
405,-32.93024162632034,-35.51417540653105,-118.38136562684284,-31.828522562383053
406,-32.63838821465402,-35.06935541356461,-117.5458481210126,-32.082362703125085
407,-32.30461157211491,-34.48046207091403,-116.09137703459356,-32.2160765205839
408,-31.941073733913363,-33.77680132555709,-114.10076935905528,-32.25075161550772
409,-31.58137012616348,-32.98659546530778,-111.66208869449626,-32.212867856620115
410,-31.254646058594524,-32.13018378925818,-108.85909554509993,-32.12217497678048
411,-30.9567856994308,-31.21628183085936,-105.77512032785144,-31.985619640300776
412,-30.651265894133218,-30.251556816728062,-102.49037541493692,-31.79898488197477
413,-30.301953428546796,-29.249920047085087,-99.0718782221584,-31.55564543167235
414,-29.90377228524489,-28.227014548131883,-95.56858840711472,-31.252743418769512
415,-29.469787908663303,-27.191556032194363,-92.01044035023547,-30.886652285850808
416,-28.99504503604898,-26.141050307807294,-88.40768426268474,-30.44646423186628
417,-28.443952265309225,-25.06907107865927,-84.75415941718565,-29.92359671924403
418,-27.791657814375522,-23.981422493294193,-81.03592846181344,-29.3263341149136
419,-27.057746804736787,-22.894547402232632,-77.23857731925239,-28.676160137187026
420,-26.282643802279907,-21.820307393834145,-73.35070522731138,-27.999254610689523
421,-25.485191655954885,-20.756457069712166,-69.36655265879443,-27.313884506100717
422,-24.645329706017083,-19.681200585463646,-65.2922655321512,-26.6123995518381
423,-23.736961839258917,-18.55986716084541,-61.14882779886058,-25.863914966827416
424,-22.758938769466795,-17.36896643724796,-56.966143061389204,-25.033892213900504
425,-21.73206008117544,-16.117200268713905,-52.77925927315296,-24.098967343009686
426,-20.67240186689358,-14.843519837922955,-48.63008185246313,-23.05242689016735
427,-19.56970149012573,-13.599730734871105,-44.56387555195529,-21.89869220814215
428,-18.406889527060343,-12.430916506811048,-40.61512385531839,-20.640896543718338
429,-17.182894332405972,-11.36100889635919,-36.79991064472253,-19.28083997514923
430,-15.915839690480166,-10.396736020575135,-33.12202114833471,-17.828136739534223
431,-14.623425477919653,-9.545694133003266,-29.578105190742022,-16.303152838452107
432,-13.306417886446082,-8.814111177400347,-26.1603615706374,-14.73329806110148
433,-11.964278435174958,-8.187771553806634,-22.859600744663027,-13.146624974176651
434,-10.616332551553674,-7.630254467232267,-19.66877876585425,-11.56906222451998
435,-9.305836940101843,-7.09560857744996,-16.585792615488522,-10.02869350229974
436,-8.068432872633059,-6.543228789694175,-13.613889963176119,-8.562282894863321
437,-6.9142656161676905,-5.951156888241609,-10.762960467932931,-7.21136609558286
438,-5.850193227826416,-5.319917629794866,-8.051031361619208,-6.0119886703499335
439,-4.904587953170209,-4.670493962703181,-5.500572810154953,-5.009736543543786
440,-4.137484615084897,-4.039883363187704,-3.131683343886662,-4.274612264140586
441,-3.59767442229458,-3.4623938085009183,-0.9553115285790257,-3.8705003220829917
442,-3.2744893734946303,-2.9492002624644487,1.0345426229870196,-3.816604900443198
443,-3.114377449593111,-2.4966221377250752,2.861656247689534,-4.077127813653071
444,-3.074093504235728,-2.114267545430996,4.552522683850145,-4.58317578594607
445,-3.1465204255448667,-1.8367299191481181,6.119335083764554,-5.266920031150362
446,-3.3282013131767,-1.707668795356282,7.561943871670938,-6.070083405934887
447,-3.5805595227745464,-1.7556213050131189,8.881750804473398,-6.930660383585634
448,-3.831134910714837,-1.972351750986273,10.089097264993338,-7.7743883366777915
449,-4.013471865321121,-2.307456399066407,11.201731896807006,-8.52722185929335
450,-4.098876519035558,-2.6926525944038655,12.241748277063413,-9.140232198049235
451,-4.079455723893095,-3.061661543649445,13.233218432131101,-9.588808576855136
452,-3.93401677358884,-3.3556944663524986,14.200299730410222,-9.853226042536404
453,-3.620910629463484,-3.537637920398233,15.165911639754947,-9.912950386407621
454,-3.111547459229853,-3.60264611581195,16.15232216564816,-9.748690314966527
455,-2.415075993493354,-3.570228700786585,17.18557498897984,-9.349957123538408
456,-1.5640668175679018,-3.4653709141585796,18.291058315852602,-8.719909133136834
457,-0.5864659373163208,-3.307535373330755,19.480075842763025,-7.8568678109546
458,0.5059261796612335,-3.1145219768900225,20.74640546601436,-6.751223534987684
459,1.6823553895496175,-2.910637664214012,22.070776617116064,-5.41679909265553
460,2.8751350614174305,-2.7209052515892336,23.430010228276565,-3.89971137155496
461,4.01431524487576,-2.546986854812327,24.812020172271485,-2.254855011983762
462,5.061966940684505,-2.3553826335945387,26.22280373434721,-0.5227254715608289
463,6.017192572214465,-2.099784858294265,27.67775447248179,1.268595456310491
464,6.88112255609511,-1.7542597149890433,29.186202564876712,3.0819664548379344
465,7.63115043806402,-1.331503144580155,30.743042068503307,4.86159322952334
466,8.23027024960124,-0.8869385766072482,32.33126580836996,6.542417535325666
467,8.654478059603457,-0.5074049579557569,33.92596104458859,8.07415574275952
468,8.912592516759004,-0.28761627129201195,35.499563613062456,9.431566938843767
469,9.02117041691973,-0.3038966611028059,37.029846117417826,10.590548166008722
470,8.969619856216703,-0.589694065029823,38.499165632775956,11.51079597633729
471,8.716963643285547,-1.1310176287000184,39.886727134704714,12.14422399574167
472,8.228676960238817,-1.8821154092423829,41.16537304491561,12.450632711544078
473,7.512246401617118,-2.7812093139195797,42.30960383027416,12.413744543404194
474,6.601693449178799,-3.7575568645272557,43.30662169273917,12.042721348076467
475,5.522404076107825,-4.732044114821099,44.15261130768307,11.35878010891223
476,4.284170167211676,-5.6233721669748995,44.845978782208476,10.393627818275728
477,2.9138023810047398,-6.361766303655022,45.391121574898804,9.197414019090768
478,1.4722021729575734,-6.906985132571774,45.798117550841106,7.834217203254443
479,0.031734988620640225,-7.265894252156765,46.077039928809704,6.371756417244449
480,-1.3528457391551134,-7.487851332710438,46.239378183718685,4.875920799634056
481,-2.6605203074711707,-7.635144895164756,46.30499244666182,3.4072379172680454
482,-3.876170246607735,-7.755136416571664,46.30583120167731,2.0148824062843445
483,-4.9593366572565625,-7.8670320188795,46.279708738651344,0.7265192007286905
484,-5.861747520787447,-7.957739327261758,46.25743306892978,-0.4545536314119012
485,-6.566405157632807,-7.9881390981680465,46.25567897338199,-1.540290830155532
486,-7.098152535307799,-7.906039640008744,46.27539040993675,-2.5418905448623295
487,-7.4841153133467975,-7.656240617239523,46.30756448323793,-3.452520680956635
488,-7.7157778334895,-7.190345762451951,46.345737746520385,-4.245099343478271
489,-7.755896699759589,-6.4778860572343016,46.38993158282547,-4.888941369907393
490,-7.584300302449979,-5.524744640054465,46.44263787708141,-5.365973681873625
491,-7.224732138085469,-4.3873036867915385,46.50175460181062,-5.668431560241649
492,-6.713751356365126,-3.1585358366024954,46.55105856110128,-5.785962214816699
493,-6.070338748621369,-1.9388490256433986,46.555553241269735,-5.704670334315937
494,-5.299573057528852,-0.8122980208748662,46.47087494527698,-5.421503763412437
495,-4.420242589479187,0.16887252906177488,46.26913741078414,-4.9567302027968445
496,-3.4835428873567302,0.9951698016358484,45.96257929673429,-4.349548603686277
497,-2.5499673131001495,1.7008428566152212,45.60587119263901,-3.6429933616003924
498,-1.6518519003314902,2.347905151620659,45.28459163296556,-2.8710984842864242
499,-0.7833413121970393,3.0040774945955406,45.102013882354186,-2.0577379256227224
500,0.06100316404007891,3.725540686109343,45.16351941852678,-1.2236172995322605
501,0.8616131024242493,4.548553660849398,45.56292247561221,-0.39123823658535795
502,1.5528394183521486,5.453329093048757,46.291899123555254,0.3893796044725327
503,2.211869095966929,6.481714161587541,47.533178042024645,1.1263070266309552
504,2.8912448789821585,7.60650502643549,49.308653125682504,1.813830710250945
505,3.598950834319586,8.756322885884886,51.51667650043451,2.442285145860238
506,4.3025683439468585,9.853438112601014,53.97391833211077,3.004015490282312
507,4.961784925106861,10.838609163696832,56.46256073543892,3.4994114613336524
508,5.557633909040832,11.679613819101446,58.77656372411656,3.9330282650134185
509,6.086865793313205,12.3652429083581,60.76018534517299,4.3013560990386335
510,6.533950880172295,12.891362421158243,62.32663944688889,4.592819383777574
511,6.8703602424192844,13.261101490274184,63.45060997058282,4.80084520950996
512,-0.7733396653129011,-0.49632728979529667,0.030546801213372693,-0.346798249240125
513,-1.462498704095721,-1.001903971725967,0.07093915241523524,-0.8226543787095897
514,-2.436702281381432,-1.6904343961453407,0.10993908935528693,-1.540602006667645
515,-3.68143587317637,-2.549242787985833,0.13056434391635818,-2.5117823236375547
516,-5.160161247052294,-3.553929675841889,0.11341678141570875,-3.7223735772841144
517,-6.838029784070592,-4.670178480557525,0.04202962122650626,-5.135494476241862
518,-8.676529866348552,-5.855546527800599,-0.09434896970722569,-6.695929256371495
519,-10.611562055102317,-7.0628100488142165,-0.3001847414616695,-8.33621651645524
520,-12.558430446341303,-8.254525693174648,-0.5740018712824798,-9.987843338560623
521,-14.447664556977537,-9.424768916783846,-0.9093462217952022,-11.60216030629979
522,-16.274456769981533,-10.61383417890568,-1.2957407155272587,-13.175548920970659
523,-18.001439062013656,-11.845282137734086,-1.7195740263739687,-14.704925148454624
524,-19.57701057590989,-13.13885171770934,-2.1690521899033635,-16.19667656362826
525,-20.956752587536208,-14.517042806131542,-2.643018655208217,-17.659397336495907
526,-22.12947826359739,-16.002892420803633,-3.1520505477526126,-19.094073736699947
527,-23.124263420568305,-17.604604046055247,-3.7104767581187024,-20.49040609463532
528,-23.979998519800063,-19.304144402963527,-4.330297372732271,-21.830359085538944
529,-24.71499545663203,-21.061529507925336,-5.0182986083639385,-23.09090368262533
530,-25.327429645363548,-22.82830868448482,-5.77404596024242,-24.242036396026787
531,-25.81697057173968,-24.548925575542324,-6.587770825511242,-25.25419115492982
532,-26.20356156416841,-26.15554788930673,-7.440153365861218,-26.11942965330394
533,-26.507942628926806,-27.57889273732725,-8.30714967980887,-26.850137083295955
534,-26.721325280652433,-28.76794285314492,-9.166315534075858,-27.456170675460157
535,-26.80414083651724,-29.70165948066504,-9.999255585186685,-27.937437018138983
536,-26.729014747657587,-30.39105809633132,-10.791335657254033,-28.2936409911914
537,-26.51712953577089,-30.868700396967522,-11.534386871248948,-28.536245777017577
538,-26.218805942352375,-31.169328057238836,-12.22822747198343,-28.688084043896417
539,-25.87605448440566,-31.326188610585252,-12.877533542692944,-28.772461019581357
540,-25.50473096999284,-31.37884507025264,-13.490038009876521,-28.80645721224502
541,-25.119287747573935,-31.37042794560537,-14.076958803706749,-28.799522689091933
542,-24.760931858646067,-31.334395301355837,-14.65042484964,-28.757100567220007
543,-24.486271061060332,-31.294805005837365,-15.221197787035717,-28.688563071708835
544,-24.326877371673184,-31.281590234043282,-15.79993930990711,-28.605107213282263
545,-24.26041008792176,-31.32740413716855,-16.39704739340189,-28.50875774688636
546,-24.24274765470126,-31.452372765156227,-17.02289950662639,-28.391022713928557
547,-24.25090163247647,-31.657074280415237,-17.687644713613246,-28.240334955806055
548,-24.278778141067935,-31.92273944792825,-18.398625141692147,-28.039920958332154
549,-24.30556918671599,-32.2126434339681,-19.162807141241412,-27.760589956806676
550,-24.28810450797215,-32.475082286298715,-19.991288166316142,-27.375441603491225
551,-24.19216045778293,-32.65627683312031,-20.89832796974549,-26.88352356563891
552,-24.01216229876809,-32.70464241613361,-21.894110095290692,-26.30264797796458
553,-23.75570263391651,-32.55964977575765,-22.977352112965203,-25.644908837333716
554,-23.40877225978538,-32.166524607203186,-24.137429590733912,-24.90839137489197
555,-22.930418015768424,-31.511562480128184,-25.364215461185246,-24.079521368994005
556,-22.290194468529688,-30.625891310635723,-26.652801592845243,-23.139727705662835
557,-21.494293453680672,-29.558945013310133,-27.99606135152953,-22.079554431387166
558,-20.58103621461895,-28.359563287566086,-29.38014397904024,-20.91047794739435
559,-19.582466664191973,-27.074575664967274,-30.791344575348013,-19.66054468850064
560,-18.494672215303577,-25.750173191179652,-32.22351163296757,-18.357057219670324
561,-17.305458805923646,-24.423565435417235,-33.681908937826336,-17.025326890326966
562,-16.04092865513716,-23.11637687043209,-35.184460626060435,-15.70318160025827
563,-14.771880492424923,-21.84116570155553,-36.75731082228149,-14.439785516180272
564,-13.563046613697452,-20.610849837161915,-38.4240419100593,-13.28108766636021
565,-12.43559479798524,-19.445994405996693,-40.1993910883511,-12.257127821605613
566,-11.384809544492494,-18.377050237667202,-42.088255373014874,-11.375015787220589
567,-10.41074079407705,-17.435511510595664,-44.07873860854924,-10.619569651681761
568,-9.532158527243576,-16.640036935625858,-46.13664462169188,-9.959975462603424
569,-8.769520477766152,-16.000905649455483,-48.21077870710465,-9.358512628161673
570,-8.11848742010514,-15.538870774139738,-50.246876358291594,-8.77748629243159
571,-7.5457181106711015,-15.27953099814212,-52.19621246727782,-8.184029161792175
572,-7.017572808685638,-15.227212796550962,-54.01030206359585,-7.554165171425697
573,-6.530098613330482,-15.3686947309593,-55.63967455589135,-6.882643743298615
574,-6.094885721906759,-15.700834465864938,-57.04248645687665,-6.192310049951096
575,-5.711803027209378,-16.24056627469803,-58.184896132411,-5.519626380341303
576,-5.367475114529919,-17.014453968590633,-59.03323142812602,-4.89160633317028
577,-5.059261577394637,-18.040415096128434,-59.5556520599604,-4.326461382855896
578,-4.80754821890828,-19.317767795618895,-59.72793657843871,-3.8411478113922697
579,-4.631432188636926,-20.827591739047357,-59.5330215984391,-3.4453200898912546
580,-4.527421796253768,-22.5282917526789,-58.96067323428254,-3.134468453390962
581,-4.476595592000197,-24.34645972814759,-58.00889439116133,-2.888537397414994
582,-4.463305279437999,-26.18295955112874,-56.68495075338586,-2.678166108793502
583,-4.4691744084247365,-27.93979852398699,-55.00624808063127,-2.4768501931154017
584,-4.44948760591236,-29.53909197512529,-52.99994690053079,-2.2659759135130018
585,-4.331971511099397,-30.920990330383535,-50.70062516011059,-2.0372308620976045
586,-4.0412555720093355,-32.049076685913754,-48.14553147185568,-1.7997497243938907
587,-3.530894704941677,-32.928358064601426,-45.369726563683024,-1.5744977269285687
588,-2.790174853668522,-33.6081634378266,-42.404927251776606,-1.3755890717760366
589,-1.8214929628138805,-34.16529577445686,-39.284834019050166,-1.2075827943159918
590,-0.6237365253691229,-34.675729251216005,-36.049404927006556,-1.0725803110793424
591,0.8000880498443836,-35.184894870857605,-32.738571614840595,-0.9649358109768993
592,2.4260546039080815,-35.695666100943754,-29.384361298623393,-0.8744962320408275
593,4.206024995533292,-36.17424261403843,-26.008547334920724,-0.8060706279477277
594,6.074335208286279,-36.56668312708635,-22.621700327764685,-0.7738642193453241
595,7.969975459430623,-36.82224737945564,-19.22554735713955,-0.7767071720968468
596,9.860803543616656,-36.908718413508296,-15.819578379521783,-0.7964494131256454
597,11.726822791020599,-36.81349126771737,-12.405532247195115,-0.8110575599197204
598,13.527000681022676,-36.53899634042008,-8.98946046200578,-0.8053300175579321
599,15.187823733473753,-36.09250115152086,-5.583044920357992,-0.7743556055810845
600,16.618453804458216,-35.47537028057603,-2.2048249073253627,-0.7163548801384044
601,17.740057408683484,-34.687093684456485,1.1150334405574873,-0.6298474417617617
602,18.500421971999298,-33.735267910607696,4.33134442000768,-0.5163328317791122
603,18.86627750484118,-32.62725748861795,7.392231150735201,-0.38179850733877685
604,18.81022004897584,-31.348524727697406,10.255603753646442,-0.2456400966041256
605,18.321219703804186,-29.86556758636127,12.897836253997802,-0.1425781558973415
606,17.430444657760503,-28.15609285035323,15.312881588507883,-0.10225434067606687
607,16.219455029149596,-26.23305644001823,17.50879472752201,-0.13035994999620076
608,14.794509620243012,-24.1528544821916,19.5007424549773,-0.2156477053687311
609,13.238775977114528,-21.997760515284277,21.304320427254577,-0.34609964220947
610,11.605292854987171,-19.841663541035913,22.932161738103034,-0.5104225876882538
611,9.951792434697204,-17.732925424942835,24.392473256495833,-0.6919081635721843
612,8.352267430982161,-15.686487296197319,25.687933949550214,-0.8655018227867948
613,6.865202687674481,-13.688143248106876,26.814369069592452,-1.002788422126745
614,5.505157232456132,-11.720699166649533,27.76074472910276,-1.0873898604840646
615,4.269720948585713,-9.776830931609249,28.511996412265702,-1.1252561647616472
616,3.175186399719815,-7.853177823322204,29.055294210609638,-1.1329976636878458
617,2.2533692341318825,-5.94551085558388,29.386290302536516,-1.1203930793991546
618,1.5219227683960288,-4.043661402175556,29.511139046624095,-1.0895991679498411
619,0.9638891609139381,-2.1365890521317152,29.443909933014556,-1.0423496571954811
620,0.5453176115351239,-0.22647614214723988,29.203356815683783,-0.9789145246048251
621,0.24637234804267488,1.6703552745598174,28.812462536545723,-0.889344688081214
622,0.07526563578067083,3.534090248545564,28.296314183422894,-0.749413637577765
623,0.0376858742535561,5.3543006768064325,27.67549367752464,-0.5404472694061827
624,0.10101067337348972,7.1348382987345325,26.961035754270807,-0.2694020430313398
625,0.21452567930029692,8.882399526357984,26.15836408470012,0.04252494959403329
626,0.35864019319895646,10.594537787803773,25.278825080039336,0.38389867511163817
627,0.5626464983473697,12.256918788793849,24.346659526811955,0.7646128296035773
628,0.8590161427050259,13.848282804159561,23.39699302297165,1.198311646319931
629,1.2420285407627374,15.353308462984854,22.46713168485528,1.6760960590821221
630,1.6598724542416385,16.767686478129054,21.614169942755534,2.165097031130389
631,2.12124362709767,18.12668479165552,20.80806818683989,2.6493017284335014
632,2.6310221800948046,19.44496415927544,20.040568094827194,3.1203103037547435
633,3.1632194897325414,20.711163030421655,19.31527860203336,3.57033348500681
634,3.6668261069005457,21.893403132981685,18.640694072207605,3.984183681021538
635,4.1004899637291725,22.950586408455635,18.026934731595563,4.34391160049062
636,4.453570180293836,23.843144668862195,17.48461823705052,4.639550343627267
637,4.736452274735049,24.548464075939563,17.022386852666827,4.868668685126126
638,4.952348449877174,25.063949448343624,16.643940495710343,5.02869682008067
639,5.088329557923251,25.39923476367714,16.349284352289335,5.115598567610268
640,-0.6906102970554513,-0.70063602408806,-0.42694882438281995,-0.47358312362613436
641,-1.3503790625950214,-1.532310744410797,-0.9152971126969508,-1.1088668829519084
642,-2.289967082838832,-2.6704787558834977,-1.6165924362202797,-2.039933359153495
643,-3.4953872550420053,-4.087748050368253,-2.543865310796774,-3.2735890270434536
644,-4.934183596424343,-5.733072674475089,-3.6932584800116413,-4.7953339315346035
645,-6.583502390489047,-7.537548935295787,-5.042900029581534,-6.569510411511846
646,-8.422543851960562,-9.427655230079989,-6.555367594977317,-8.536861509083517
647,-10.402469201861312,-11.338621142985447,-8.179970033535707,-10.620189229869599
648,-12.438936471397762,-13.227035178129185,-9.869616493642315,-12.736466821742923
649,-14.442970569413713,-15.077333907992653,-11.610316880000603,-14.814498232546224
650,-16.37186865658255,-16.905190995471028,-13.428506517464973,-16.818642061981986
651,-18.155668731154886,-18.68811865196296,-15.315603841222838,-18.702629484598422
652,-19.717564045426112,-20.402077847738678,-17.223429747594487,-20.418137552114615
653,-20.991573395409844,-22.022234902718456,-19.06073117993711,-21.918264059248322
654,-21.956297460331026,-23.520950418643586,-20.70598069174118,-23.17331999922615
655,-22.650049919786948,-24.881226470966975,-22.026833086658947,-24.181514841821492
656,-23.13482608468525,-26.112481873678238,-22.898841202151882,-24.95985854713851
657,-23.4512395898396,-27.245977939232006,-23.217959554069147,-25.52449515237305
658,-23.612163554077686,-28.31756545792865,-22.909833339149987,-25.88789415635288
659,-23.6347018249019,-29.356268699003838,-21.94543269204585,-26.069704932738272
660,-23.56433078901211,-30.381751454784,-20.352371658475498,-26.093320966838146
661,-23.44254098911072,-31.401673980285814,-18.206950071997472,-25.971368454746685
662,-23.26370156942934,-32.40284560509462,-15.618375804854727,-25.703643477743064
663,-22.98127186624314,-33.34296985924274,-12.717564182100865,-25.282279061281002
664,-22.56431967121105,-34.15796550521849,-9.6448666943379,-24.70230721978338
665,-22.04366460137689,-34.78549879452472,-6.530511576675575,-23.98151700919778
666,-21.48988165523816,-35.18563478362629,-3.47251409254447,-23.161900795536113
667,-20.9600393318331,-35.349914029261924,-0.539323725548616,-22.29195406505417
668,-20.47548662003608,-35.296457427116714,2.205178124766432,-21.419406356297298
669,-20.047573711741567,-35.0573243801134,4.693704929267986,-20.59372786782053
670,-19.704573370566266,-34.67673213963727,6.864283156090814,-19.862628657307205
671,-19.480911392352155,-34.20753369326189,8.66895269345565,-19.26172429336187
672,-19.38830854834567,-33.694881566844835,10.077940497135884,-18.805767763837828
673,-19.4044654300475,-33.16494783357552,11.0787092421355,-18.48896960167002
674,-19.503349125831722,-32.628624163369636,11.67758102795747,-18.296533078265064
675,-19.679393226110392,-32.08838366311383,11.906108252745094,-18.211942624347117
676,-19.932914895085826,-31.53282928919418,11.821007209979793,-18.213895960485395
677,-20.239976810620846,-30.929302107691456,11.492413104493208,-18.2761772116818
678,-20.54382479723943,-30.234451682689567,10.985476204452924,-18.371347432154597
679,-20.793682537796794,-29.415399778610155,10.345740639291952,-18.476332563478103
680,-20.97821268592927,-28.458751465824346,9.60155080773507,-18.58287801839325
681,-21.11450577122701,-27.367250898139837,8.774809991936719,-18.697050992595603
682,-21.20668113182317,-26.156005466708944,7.8854653731753555,-18.817303076845302
683,-21.22475940559138,-24.85487335744077,6.949924913240719,-18.925120707436193
684,-21.143956329089985,-23.514294041633335,5.976623088130122,-19.000365386907248
685,-20.97622457007189,-22.193640660713626,4.9701785076717515,-19.023656388702694
686,-20.746910889191923,-20.93337001560423,3.94431952487401,-18.96470940692428
687,-20.45169914614765,-19.743883837292046,2.924854510336687,-18.785405233219237
688,-20.043389811895313,-18.617307559891927,1.9402315658456812,-18.4526693095076
689,-19.464967990360208,-17.53889570384515,1.0109153448806834,-17.94387587137749
690,-18.68772185698222,-16.49141442325652,0.14426044460073237,-17.2504844725479
691,-17.722805982670604,-15.459279822934624,-0.6669339811076405,-16.38459896460679
692,-16.59820707180459,-14.433564627573036,-1.4451255387492525,-15.377603348524794
693,-15.33352525193131,-13.415823793254141,-2.222982657053136,-14.267670675649399
694,-13.943594870418789,-12.418743940201317,-3.033260213831622,-13.087027098510452
695,-12.464366379181158,-11.465881151832521,-3.9015840056892817,-11.865420468450768
696,-10.969296008178858,-10.583306288210924,-4.843511534020379,-10.639411481840897
697,-9.531903209109776,-9.78325806940138,-5.862744437176093,-9.446672005782519
698,-8.18260807234938,-9.058624888760878,-6.950417785396152,-8.316302584331693
699,-6.922169808227213,-8.387806303917898,-8.08964867939123,-7.270668041978376
700,-5.76521983843842,-7.740570039975007,-9.262193740749467,-6.333780282392151
701,-4.7580884609439815,-7.082854535466247,-10.451599860275266,-5.532306825664987
702,-3.944522185625793,-6.384848412139415,-11.648839451063365,-4.891274526451709
703,-3.3345001335256024,-5.634642215117044,-12.865477919373625,-4.432014615240056
704,-2.9100624825308827,-4.845622459547903,-14.135429672348717,-4.168117879692011
705,-2.6500016660230648,-4.055310502542993,-15.493942519531599,-4.101535905078494
706,-2.548317814180758,-3.3152137592981687,-16.95853358258923,-4.226477876523933
707,-2.6023901267395133,-2.672622660009548,-18.52486920785477,-4.534378489609111
708,-2.793723106015856,-2.1603474087420733,-20.169731046312833,-5.007641900322723
709,-3.079807227931354,-1.8017664423475623,-21.854247051064014,-5.614925376615399
710,-3.420208255379593,-1.6130343281384962,-23.527479769289695,-6.323493218597098
711,-3.8097464779343273,-1.5933315901557612,-25.134813298918147,-7.113101429655473
712,-4.261943490961356,-1.7148388770685623,-26.626330337272954,-7.969470147579697
713,-4.767890842913455,-1.923695586659128,-27.960084507888,-8.866932300657759
714,-5.280100644344378,-2.156989815084553,-29.106758421180736,-9.76958206101191
715,-5.7522136232376715,-2.3543242511131655,-30.057149298104576,-10.645183149580985
716,-6.174020729429792,-2.4570734643989987,-30.819234802873353,-11.465694455647256
717,-6.544023557564069,-2.414166146644994,-31.40483661361423,-12.194394282065684
718,-6.831592977277475,-2.1915818876241224,-31.81947619306522,-12.779395979951897
719,-6.977428312616154,-1.7767662106793316,-32.06181513796577,-13.164863553147224
720,-6.941398614454273,-1.1803938646971308,-32.12763304639328,-13.309318061020695
721,-6.739931625297722,-0.4358161179896651,-32.00864033649233,-13.196712766000532
722,-6.423835085705238,0.4099885307685583,-31.69184017169256,-12.833989334892687
723,-6.031423606621706,1.304314321554996,-31.168314534473243,-12.240027482402194
724,-5.569751352152892,2.1862788240104636,-30.441326342622478,-11.435257644503043
725,-5.035468050193002,2.9971523279945154,-29.522539227508386,-10.438540613725243
726,-4.440730973923439,3.709466507098663,-28.424172240381793,-9.280577589467807
727,-3.8203537513357646,4.338151759827127,-27.15492165937248,-8.018874978743723
728,-3.200149199120691,4.916301306498592,-25.717905473373577,-6.722448288635037
729,-2.5734938176947604,5.463843773723754,-24.110251166404076,-5.443288223884158
730,-1.9309006468665955,5.975845437284609,-22.326469472944698,-4.210418902044203
731,-1.2922824925283316,6.426677583392178,-20.36306978202237,-3.0400201929382447
732,-0.7075577276663998,6.776872614682159,-18.219709413433765,-1.9460952952448047
733,-0.21426732544115712,6.984917143779471,-15.902946497092993,-0.9480416337738362
734,0.19258300086931246,7.023645136501008,-13.431014886887253,-0.07179629626991636
735,0.5305214352307839,6.8853757818995,-10.835573890377322,0.6562282602158529
736,0.7966670813412886,6.57816934193834,-8.162579801760728,1.2188740924998813
737,0.9691969649306853,6.126169344074464,-5.461978672483994,1.619208187965518
738,1.0417473809916968,5.572463488563384,-2.775330639347764,1.8852954994667146
739,1.0461868720112784,4.975426236924598,-0.1352164827747835,2.0634105689892666
740,1.0349886877753063,4.394597950917705,2.435100430824946,2.2084104083994447
741,1.0519246945782739,3.876399499690027,4.923497601597006,2.3705624014505053
742,1.1135678198029262,3.448158410973598,7.322782308786222,2.5799143349574494
743,1.2249708181082033,3.1142766991306874,9.622525427096004,2.845677477399897
744,1.4085041155955595,2.856892563109262,11.811505928963237,3.17304156782367
745,1.7061645049467358,2.6499585986301715,13.882902350102057,3.5682177319355657
746,2.1428309450375282,2.4722369184852826,15.833634866379017,4.021909625887627
747,2.698437528656791,2.3071717073343794,17.6611624891293,4.506619380434862
748,3.3337326214042093,2.14440149422328,19.359961464303765,4.9896811586960546
749,4.026797073806276,1.9900710804256792,20.921127467780693,5.4462717960177205
750,4.78260696793186,1.8677215577355981,22.335594957218866,5.87495263689266
751,5.596417075866944,1.8042842583701437,23.597187623972257,6.294512349253974
752,6.423429242587825,1.822920507712092,24.702634423531883,6.721899152670014
753,7.208657169172092,1.9465586488084685,25.652530013334562,7.159931413666733
754,7.926578402676347,2.1929935487654966,26.452690956053527,7.6010712677272
755,8.5896744001017,2.563956508989929,27.1089542488298,8.035868687905714
756,9.215796674439426,3.04334327034194,27.62174159362599,8.459275621055681
757,9.797688855986477,3.6047160818074806,27.987010056788023,8.868597343656704
758,10.310259020630902,4.200905464422791,28.303910273211276,9.246005325498173
759,10.730556393476501,4.84059250040428,28.397812398656953,9.604420756148437
760,11.060688239295578,5.50379745256141,28.184663885434144,9.955193455197511
761,11.296951343443,6.154674986571522,27.648765261078672,10.302404526111532
762,11.424677289805139,6.759038677201033,26.824852251572576,10.638402720733067
763,11.442162312236322,7.295976692520786,25.78456055388796,10.949636499934206
764,11.380441380964086,7.760240030330196,24.624077848732824,11.22750703637857
765,11.288515480701378,8.154232776475434,23.450876761346393,11.4704714223779
766,11.194832760813732,8.476276065579851,22.36920314573013,11.675669846594053
767,11.096412466567072,8.72006420750591,21.46580616610666,11.829031365928502
768,-0.7274678459358419,-0.5007855701555561,-0.5350557620271215,-0.5700474632569839
769,-1.330443514432367,-1.174284118378556,-1.1966008122258152,-1.1671058068845488
770,-2.169733388926299,-2.133790658159042,-2.1319724506248487,-1.9979087264700384
771,-3.2367509740174714,-3.377499626596552,-3.3407585166909284,-3.0655249274367087
772,-4.503576268878354,-4.888859001096267,-4.8019842480251045,-4.357292871491369
773,-5.946990930104348,-6.631265052510866,-6.4754734494074855,-5.8485847717665
774,-7.543880974091247,-8.54414293033472,-8.305642489514483,-7.500908733143792
775,-9.24722804075554,-10.548585616056855,-10.228155585171983,-9.256554762820532
776,-10.986879024771131,-12.561549172194592,-12.181232620253684,-11.048366401709732
777,-12.701062387361194,-14.517411318688929,-14.12436426161904,-12.823351935556069
778,-14.382323677242487,-16.39103607191187,-16.062321992197276,-14.56567557992923
779,-15.994650450009104,-18.13863285914703,-17.99320462943576,-16.23345359845853
780,-17.47919414412419,-19.722645916603238,-19.92079246825146,-17.774982859696408
781,-18.772329934592015,-21.11854569057639,-21.846101841470222,-19.140562580724634
782,-19.850687935796643,-22.3077921756787,-23.766790785038147,-20.30157174175607
783,-20.74820486946055,-23.279823413996883,-25.68408057226013,-21.25900196181432
784,-21.517989245580925,-24.04567824157824,-27.600398074687355,-22.040629463229163
785,-22.183616270773385,-24.637370633837982,-29.511891707670884,-22.691577292220657
786,-22.732143986237666,-25.09270994557641,-31.40888065882809,-23.261187922937037
787,-23.15646788541968,-25.433510496799293,-33.27613270989688,-23.791741591188302
788,-23.484611159055923,-25.648998881520605,-35.09079400220832,-24.31116415491686
789,-23.75252377249137,-25.70739387739854,-36.82354909426434,-24.831066594039523
790,-23.967832969181377,-25.58934946059396,-38.442204059790114,-25.345171369819738
791,-24.105359628332494,-25.30011197504107,-39.9167162687021,-25.82886543988622
792,-24.14760005479818,-24.857904358076258,-41.22266867566691,-26.25180925931398
793,-24.12016152436491,-24.286943193686586,-42.34167712125045,-26.589109749811364
794,-24.068918437970517,-23.615689063329356,-43.260495317980855,-26.820033875420254
795,-24.017089214776394,-22.88027468102347,-43.970339447376766,-26.92816471194113
796,-23.95099098409875,-22.130589944174943,-44.466504695963266,-26.90417824934538
797,-23.85175683586945,-21.42428958350762,-44.74663969636872,-26.749110774692543
798,-23.723994272975936,-20.811637378250815,-44.80940997983636,-26.47629898910099
799,-23.57956377117113,-20.325436573439397,-44.656581237715365,-26.10587978398656
800,-23.408783348341785,-19.977697843236125,-44.29757488828004,-25.65398891454415
801,-23.175480910415896,-19.7615332313092,-43.75157505675987,-25.127568034659898
802,-22.858734378426345,-19.659913264572488,-43.04696970884046,-24.527233765728674
803,-22.49234440026185,-19.657138042028482,-42.219771102605094,-23.859259306274108
804,-22.147431252529632,-19.748546916752442,-41.30916034179105,-23.14955296826493
805,-21.881630470036132,-19.944502888943887,-40.35177879874288,-22.438584739582463
806,-21.709525151774677,-20.254054496799046,-39.37620825368458,-21.76307255977616
807,-21.629493583115135,-20.65846357509777,-38.39894485509523,-21.145596200191964
808,-21.65260927267765,-21.11629454149247,-37.42536936250909,-20.59822010628209
809,-21.78868558459009,-21.592034332815047,-36.451830422992465,-20.127173699536076
810,-22.010590501709355,-22.061407698546848,-35.466135471241024,-19.72751703731075
811,-22.248318689024366,-22.502523448500188,-34.45206019797863,-19.37929189987682
812,-22.429773342383857,-22.894611663075572,-33.396385409981306,-19.051384217206657
813,-22.51410938657656,-23.21424286996468,-32.29439897955921,-18.71297588199276
814,-22.499337143998957,-23.434804502386307,-31.15472863690407,-18.344376265401554
815,-22.394360051819874,-23.53114567368816,-29.998792277555925,-17.93633092552781
816,-22.190687427234632,-23.482619369416668,-28.852122368136975,-17.488440574097137
817,-21.881146295991133,-23.278269225153494,-27.740307840072642,-17.011039770117577
818,-21.486821268300183,-22.918239890161033,-26.69209183851246,-16.52455406135815
819,-21.060050615123703,-22.40900953585225,-25.734257197015786,-16.056400746317127
820,-20.644217297685337,-21.759390892541386,-24.881776919074333,-15.630682441611135
821,-20.239196421270595,-20.979242032427532,-24.135473645827293,-15.248515886628542
822,-19.825366167282276,-20.0780746173888,-23.486479392749132,-14.893928699958366
823,-19.40539239538456,-19.06456215044662,-22.923311207113827,-14.564892235708957
824,-19.01631500443511,-17.950944894209833,-22.435262966353527,-14.277697925916232
825,-18.690054759112797,-16.758507974712256,-22.009397007978478,-14.049849565878421
826,-18.416645086943817,-15.523810793065934,-21.627246539622952,-13.887397096476926
827,-18.151097123352677,-14.303406988844477,-21.267048953284373,-13.785119037160412
828,-17.84450754026624,-13.16360935806868,-20.90478093966321,-13.736395789465215
829,-17.468944756044557,-12.157761139140897,-20.509691810143362,-13.734729634500209
830,-17.004245692604915,-11.314495413097049,-20.044639835377374,-13.763644752283197
831,-16.413993958463745,-10.640571787297004,-19.476331585985807,-13.78550056538176
832,-15.651873809018346,-10.126643437198737,-18.787256951579394,-13.749538310876751
833,-14.704575191583801,-9.749795831238654,-17.97867958435452,-13.614387334906892
834,-13.611239897529924,-9.471839725060008,-17.06170156529438,-13.35630102749487
835,-12.426050014888254,-9.241743987950558,-16.047293924306242,-12.962750604425407
836,-11.178895060014757,-9.007636138514512,-14.950233826198284,-12.426921495184011
837,-9.872776505159754,-8.73314418860976,-13.796705619664623,-11.748804586971659
838,-8.52562488750777,-8.404850475640584,-12.617874032262016,-10.937589891538696
839,-7.193898815178579,-8.028859615392706,-11.43783906327762,-10.007802532444265
840,-5.941210715711761,-7.630771023752459,-10.268262369894375,-8.970181223240981
841,-4.799924243417038,-7.25422342622685,-9.106299846070605,-7.834702357143124
842,-3.759036630435941,-6.941535442379792,-7.935338998938692,-6.617538736743808
843,-2.803324889075967,-6.711707102487809,-6.734500839289938,-5.334532349219193
844,-1.9520144741846452,-6.55937907963382,-5.490367300707265,-4.001149062372919
845,-1.2454122125737384,-6.46885655861611,-4.203836454037213,-2.6408894854299576
846,-0.7065549965966802,-6.424450444934909,-2.892792583952717,-1.2895237633739958
847,-0.31666852442501436,-6.409468158590817,-1.5897574401856627,0.008396147070483334
848,-0.04165200871245599,-6.399280917662419,-0.33454533820034815,1.2114065125854405
849,0.12950707943184991,-6.360109330110351,0.8333663365364063,2.2852485285879176
850,0.1838829558333458,-6.258007033369086,1.8761165047087949,3.195832875035464
851,0.11731933493328925,-6.067787866593478,2.7579525593110397,3.9055923411490783
852,-0.03806302121778494,-5.7714470658356625,3.4532919196444145,4.377741147573082
853,-0.2414907710153651,-5.356824905790844,3.9558501568828937,4.589670749952669
854,-0.4796339453040695,-4.817993693357187,4.278093218894517,4.543149741510472
855,-0.7543701576810139,-4.149718938888454,4.4451157046490195,4.259857119968227
856,-1.0470618665439688,-3.3597822616413064,4.491544743473354,3.778181306422386
857,-1.310939646975956,-2.487541205657704,4.4570012416578075,3.1551497682079823
858,-1.5001883266901634,-1.5925656048209622,4.378427696860051,2.4604775542539032
859,-1.6014607833234598,-0.7378118676594924,4.2794201641018965,1.7607911615680516
860,-1.642014821707074,0.021213634136905038,4.167215030632136,1.1034379107388774
861,-1.6487949240592976,0.655146456667299,4.044227518128427,0.516493597211316
862,-1.6176049759148048,1.163859051023641,3.915176578058019,0.02065569207575852
863,-1.5359331407128936,1.5625143342137755,3.785392349958502,-0.36682341148792547
864,-1.4156166200592109,1.874803442926287,3.6588872709679903,-0.6392565941826908
865,-1.2992625160636282,2.1305805880163087,3.5410665609012266,-0.8066154684386916
866,-1.2190901486048373,2.360470407715876,3.4451892245161533,-0.8858108574481944
867,-1.1641369843392426,2.5932456432614064,3.3944162804066194,-0.8799299631639085
868,-1.0924883076331737,2.854106236152878,3.416553740465751,-0.7707714334370521
869,-0.9676103781476322,3.159251606046302,3.5358049356459222,-0.5350004029672009
870,-0.7807360348552969,3.515289577349326,3.7694634213739637,-0.16194383187794703
871,-0.5238625645812679,3.9213530872680833,4.128945838863686,0.3455116977930042
872,-0.16892896773419178,4.359577152035414,4.616721602665197,0.9799535809296577
873,0.32029770125268586,4.79070260569432,5.220384767825489,1.7382703437886131
874,0.9635864555061568,5.174753022305684,5.913694202245835,2.621901499383122
875,1.7404433166669997,5.483966263469845,6.665225465205565,3.6326394249920284
876,2.608080201963804,5.698001682516646,7.448290554328868,4.769081482788696
877,3.5470789592521745,5.804966923831238,8.247040933748965,6.0259419486265315
878,4.570454816692632,5.799734783976917,9.05249836161898,7.395358838711475
879,5.676430103171997,5.684582257079663,9.854595052298302,8.85447018881988
880,6.817372480715273,5.480052691155062,10.641089832567701,10.351064767306166
881,7.922993530938431,5.221656542986887,11.398636668224142,11.808540230599627
882,8.935356602972488,4.940761085642518,12.11181326363333,13.143455043107878
883,9.826367720995092,4.652861373685744,12.763695390509014,14.281315297451235
884,10.566648277174478,4.359099824036421,13.335326919899892,15.158672291757703
885,11.094787466597351,4.051312420947095,13.80361718078674,15.7208784433035
886,11.360672835364491,3.7079582541017504,14.165151364416879,15.965887133552329
887,11.274070907454693,3.319753145138479,14.366192307558498,15.826992854931621
888,10.840723722135673,2.8849405437741438,14.38671223583764,15.323405976505333
889,10.11142130458914,2.417066124980952,14.235227209387203,14.529379240621854
890,9.157038303663288,1.949584053645943,13.945112699994533,13.547823228427085
891,8.073112938651047,1.5276471406949732,13.566291061669771,12.4901021676665
892,6.982399464365423,1.189493110911425,13.15311415853776,11.461590901784078
893,6.007477477931947,0.9536578611434556,12.754242968097094,10.550254054232312
894,5.223798058865464,0.8188047668395326,12.406673331140885,9.816001394891611
895,4.647804154953784,0.7697570764309107,12.134815325798685,9.284673331074874
896,-0.8700608758320113,-0.648398492489767,-0.5963085940813352,-0.5977010870351633
897,-1.6189784425520066,-1.4539151171671927,-1.3057613492268534,-1.294301052993424
898,-2.647800649972947,-2.5889465088491765,-2.3154323653769806,-2.2833308171889657
899,-3.928173873972673,-4.03964256822826,-3.6234419205608766,-3.537959790021638
900,-5.404126135662605,-5.762381941621863,-5.204103455095777,-4.995823276084645
901,-7.017426976757239,-7.6923060225994,-7.010200901139401,-6.581934688399116
902,-8.706404376234126,-9.749100043930511,-8.975602390582472,-8.219754770035292
903,-10.38620487887557,-11.843865899987541,-11.02323514746717,-9.83411372440128
904,-11.96064606138343,-13.891091265805501,-13.079822538003674,-11.35907101922815
905,-13.367728407349148,-15.82529087925419,-15.096982134047702,-12.755399017788974
906,-14.626946774614272,-17.631132906958523,-17.071382468950684,-14.037466376750793
907,-15.727749331921721,-19.28122244199794,-18.971300693918565,-15.203399976634818
908,-16.634772219899734,-20.751229715625165,-20.75304507213275,-16.248176419595495
909,-17.307417920145955,-22.019619456084506,-22.365813958450524,-17.16027210209871
910,-17.74176435356985,-23.078108082274305,-23.76486886004624,-17.926183031264742
911,-17.981151263601845,-23.93814169047864,-24.923344664048166,-18.538184300523824
912,-18.07653209977404,-24.628659313388034,-25.832239091294284,-18.990698003766298
913,-18.04151672849643,-25.190098617930197,-26.49187413520614,-19.266094115253434
914,-17.850288727741507,-25.664960870211694,-26.90745639734871,-19.33752334846286
915,-17.480978053737662,-26.08391844284327,-27.091565280139474,-19.194752472506288
916,-16.94768276481427,-26.456936812460725,-27.06662467270081,-18.855165444856077
917,-16.282042008655345,-26.77745057918339,-26.861425927511405,-18.347662017748405
918,-15.508487789809,-27.031257823074185,-26.507193409818434,-17.69953981906884
919,-14.645158049175814,-27.20356597907294,-26.03879631743107,-16.94286560686972
920,-13.735567836065536,-27.288249826489672,-25.4947510872326,-16.12854407532089
921,-12.86976986982191,-27.292941206118282,-24.91554072409842,-15.327588437507524
922,-12.143991336711977,-27.237168682139107,-24.340448514317576,-14.618811339917222
923,-11.611467212198411,-27.146037219465672,-23.80512755269248,-14.072676720908625
924,-11.27924220533961,-27.042244088543463,-23.342863557478562,-13.739623611344928
925,-11.142941175117864,-26.94515630304088,-22.984717545249808,-13.653054362826378
926,-11.209862312880361,-26.865363500660155,-22.755653315634305,-13.835538679385683
927,-11.478032846945522,-26.790925460866088,-22.665439654319574,-14.28987796699732
928,-11.907778394421495,-26.69021670045698,-22.704260156451,-14.988358302244565
929,-12.422821207867528,-26.529106575129262,-22.84845407510062,-15.874679535245194
930,-12.951477511764057,-26.282408255137856,-23.0672358170954,-16.875566372540636
931,-13.466055733461934,-25.942346200466076,-23.327178015998143,-17.914019888101045
932,-13.977530618481783,-25.526854486663535,-23.595752704367076,-18.914742112232453
933,-14.49783446644759,-25.07445610455028,-23.844171847206905,-19.808916982991466
934,-15.018336348376941,-24.624326285819983,-24.050351104690463,-20.545336516989167
935,-15.530742926367838,-24.204535665150292,-24.201541660367344,-21.095951897033924
936,-16.046552469587915,-23.83686292022377,-24.292349749523428,-21.45311364749889
937,-16.580727950101917,-23.539369203344425,-24.319137683368293,-21.627164826066256
938,-17.119891996629587,-23.317943968438342,-24.27561896930942,-21.638944609510382
939,-17.624991037743335,-23.160349332152634,-24.156026405036656,-21.508660220049816
940,-18.067230044647317,-23.040614649855613,-23.96566591388615,-21.256115811143037
941,-18.431302283292965,-22.924175812699378,-23.718235521677553,-20.904940291553455
942,-18.686428095542556,-22.770731486405065,-23.418930736172197,-20.47528479617383
943,-18.771265731100694,-22.542869868880356,-23.054918317784505,-19.96875717294752
944,-18.613273232530755,-22.21835094167414,-22.602422767313403,-19.368143375942836
945,-18.167736866982175,-21.793056057638506,-22.041752023451522,-18.6563934740244
946,-17.433450320563864,-21.274320777787864,-21.36427660212218,-17.830503561536524
947,-16.434568512938778,-20.676062229317058,-20.574922465579007,-16.905947168363777
948,-15.19235471395849,-20.01550508432995,-19.695439861319233,-15.913262040042614
949,-13.7189502604997,-19.304395888308314,-18.761089479212416,-14.885258719375928
950,-12.038573788236203,-18.542453714263228,-17.808922491781402,-13.849502937607157
951,-10.205131721652918,-17.727003361230658,-16.86568052220733,-12.830925479531569
952,-8.288102791928287,-16.86512568513593,-15.94553095800908,-11.85452289068177
953,-6.337375473972413,-15.96871542956488,-15.05413379701748,-10.944747613948554
954,-4.367759856724186,-15.048499957863642,-14.1935861178353,-10.122986819452175
955,-2.3751526909293403,-14.120209725348113,-13.368085371711036,-9.406407327500219
956,-0.36646879353986017,-13.20869458017736,-12.58099246315422,-8.809595009854057
957,1.6164306254336438,-12.344050737896131,-11.824618250831596,-8.346052915095827
958,3.4962763662050937,-11.557469195848524,-11.08459435922608,-8.030216776382906
959,5.178828122318728,-10.880361642987664,-10.35733503814321,-7.8756805500501805
960,6.5788881658292855,-10.339883778297146,-9.65502205828668,-7.889162726506384
961,7.629064283991698,-9.94904166262789,-8.997520103460959,-8.0670618225911
962,8.267268495669883,-9.702757972996991,-8.406389291605686,-8.396806858729416
963,8.442568302692973,-9.58359868968832,-7.901437125131159,-8.860380096680773
964,8.145231961157313,-9.566440268567272,-7.495643740146728,-9.434943906328373
965,7.432936993102459,-9.62391655857219,-7.190361798934136,-10.091168338158674
966,6.415399142385229,-9.737202360016143,-6.976977966726533,-10.792085564736025
967,5.208291507464595,-9.895854473937858,-6.845623566648722,-11.499514636635212
968,3.9050902565589327,-10.082490158074961,-6.793246380940393,-12.18235296384031
969,2.5767888527274456,-10.26013668462947,-6.820607038034242,-12.812195729419225
970,1.2860570254128152,-10.377648839844111,-6.92006247743983,-13.351941033501312
971,0.08038061844011307,-10.38692152802068,-7.070244383416423,-13.749005329472011
972,-1.029598268712035,-10.252810436329014,-7.239312172078306,-13.949807526634345
973,-2.0647602820099813,-9.95542303316289,-7.394425615530666,-13.922178848304956
974,-3.044081623779039,-9.491425669226441,-7.51678674465609,-13.65585913222773
975,-3.958421217099899,-8.872387460250364,-7.607226956062525,-13.152414548789501
976,-4.783693264922559,-8.119637736204112,-7.678493138739469,-12.423407687440616
977,-5.506395105838866,-7.258088643280938,-7.748342693534861,-11.495732276428754
978,-6.128513110389644,-6.312247276385369,-7.835374022943565,-10.407758362605962
979,-6.642788626731961,-5.305646247024064,-7.95517525069344,-9.198509636008042
980,-7.016801912456892,-4.261018901841228,-8.120760515535148,-7.903271599740602
981,-7.222871899439704,-3.198152598062058,-8.340202922678152,-6.549310998498215
982,-7.263598730942123,-2.1318666217952718,-8.608198465380717,-5.1528805122728105
983,-7.162820206629987,-1.0712372952276565,-8.896951432310603,-3.726031687212908
984,-6.932463203526523,-0.021194545637828216,-9.153410065887819,-2.2853670437508753
985,-6.558158525814,1.0105943983742718,-9.342235277927891,-0.8534422920990081
986,-6.029204228983582,2.0120237084322734,-9.497695310352016,0.5375303192400008
987,-5.374130364112034,2.974552169969081,-9.696338399109234,1.8339568771138761
988,-4.6684092122501175,3.89215948406497,-9.989526006515865,2.9564817068863865
989,-3.992810874611078,4.7491775657367565,-10.357901029681067,3.825190537488861
990,-3.3941973090020645,5.515900781250378,-10.69858778469522,4.398854264211172
991,-2.8955970221593983,6.157657602207367,-10.838813502949064,4.680639990070506
992,-2.5233547899547606,6.646890988469631,-10.556555812008424,4.697039117171627
993,-2.3159757454767798,6.974207215300886,-9.60786102553883,4.484136449905143
994,-2.2932558531230334,7.155573657116729,-7.766746071865482,4.079916728942907
995,-2.4300520377113703,7.2260021222766575,-4.866308439557337,3.5273885116602783
996,-2.6720798108676953,7.218526727233256,-0.8298654325572121,2.8840590099318884
997,-2.972524749766095,7.14257204794932,4.308997289814426,2.214570865516708
998,-3.311888625560415,6.9874288076251005,10.399437026093013,1.570384188785524
999,-3.683317486374665,6.744711476265373,17.183397736484736,0.9756088912064761
1000,-4.077527102427162,6.420537290833263,24.328040881762085,0.43424604155442115
1001,-4.478670217661294,6.033297918585466,31.484424228412866,-0.05556009350981715
1002,-4.879279932949039,5.599720474156205,38.36492774520242,-0.5009612377892932
1003,-5.294453764338682,5.120986558277152,44.79753558973508,-0.917450439317446
1004,-5.737519264005721,4.5859844522120286,50.697603960053996,-1.3264352453482946
1005,-6.1893362118650534,3.9907997359724394,56.005185456014196,-1.7434119854572379
1006,-6.595067912145801,3.363845690042435,60.67344664885864,-2.1670752471205894
1007,-6.905663833644106,2.7631332221270193,64.67715410445672,-2.588880999445152
1008,-7.114720422533341,2.243019385511713,68.0080819994238,-3.004384407034761
1009,-7.241614147587931,1.8312372066953257,70.66410848777714,-3.407421065019229
1010,-7.296350006245082,1.5252596652968367,72.6404816804746,-3.7800175936127163
1011,-7.259588257153426,1.2971188129916367,73.93515022175808,-4.086892730297214
1012,-7.112356613132351,1.1108969657929118,74.5598447273281,-4.286382388851907
1013,-6.870727143116126,0.9482682321313671,74.54536260221296,-4.353232426282464
1014,-6.621842341768397,0.7838657956528172,74.06221174485043,-4.360771952406595
1015,-6.297670771261221,0.7012682120783504,72.98464193388477,-4.174514248847912
1016,-5.858946377521516,0.7386663179747696,71.33096012854944,-3.7361590625366317
1017,-5.304940870687543,0.8914225431209549,69.21878188414294,-3.0475873133630027
1018,-4.669871047707084,1.1344679343250048,66.82497950661912,-2.1547609726120145
1019,-4.002055800419066,1.4391886431997452,64.34714454719386,-1.1300305888982114
1020,-3.3397731655114,1.7825579200774202,61.97258320806604,-0.05610909359726558
1021,-2.7112930179359753,2.1453977659958405,59.86040498142057,0.9846170910806855
1022,-2.1558076564797957,2.5012423793508183,58.125862752667494,1.916172147492925
1023,-1.723458236152496,2.814018984327211,56.83026965568437,2.670589459087016
1024,-0.8144540008419812,-0.5643153660079534,0.24316253404042815,-0.3302321021191735
1025,-1.4902321306239807,-1.2493934868227106,0.406425546145758,-0.7866365104146931
1026,-2.4108626948401204,-2.253684603624894,0.5803787785816638,-1.497075351403434
1027,-3.5542794428622155,-3.5895512430228917,0.723535683628069,-2.501216010690821
1028,-4.8868182028718925,-5.240753324023907,0.7801563163696794,-3.8243687616734277
1029,-6.388938794541831,-7.16266420026898,0.6898293457240282,-5.483622732598716
1030,-8.050961760436506,-9.283796729635714,0.3944010229287354,-7.47792486086383
1031,-9.846216849842142,-11.517627475742877,-0.15085194869200613,-9.769403434569004
1032,-11.718714769396515,-13.781509446874688,-0.9624508457463004,-12.281047243576271
1033,-13.612101012775279,-16.02021443814747,-2.022354396309316,-14.915274566253558
1034,-15.52331521014283,-18.234373985557603,-3.27990939239075,-17.584097931597256
1035,-17.41153080875969,-20.41167892585676,-4.684223507402347,-20.184011701354027
1036,-19.216827636606318,-22.546297200221936,-6.184283506051966,-22.61989941773747
1037,-20.881516012356087,-24.638534455604862,-7.729206356128202,-24.815322430719686
1038,-22.382167302289155,-26.688416447887423,-9.271320797807027,-26.727008857824146
1039,-23.742204131726623,-28.68555929350905,-10.774983935904537,-28.35450291628565
1040,-24.997955955710147,-30.605066400617766,-12.223519094205887,-29.729960829837363
1041,-26.162482211883813,-32.4075209816686,-13.617796890196672,-30.892103511762325
1042,-27.22696601042983,-34.0461675862446,-14.968763832313051,-31.870151609239873
1043,-28.187068047001507,-35.48315340066463,-16.286858805571228,-32.68332465952968
1044,-29.05712008217069,-36.695874595213155,-17.570686847484197,-33.34552515784956
1045,-29.839365434295715,-37.67209601831794,-18.803241949437254,-33.86358344357932
1046,-30.494172386125715,-38.40728107517278,-19.955961798186554,-34.22693702468672
1047,-30.95184620190705,-38.90581312083781,-20.992396762908236,-34.40998848076183
1048,-31.158073280919268,-39.181039449568935,-21.873126442301803,-34.38917167814435
1049,-31.10806878721943,-39.2450080654568,-22.565189203114873,-34.1523842624656
1050,-30.828750447218614,-39.09593240685997,-23.04813243604748,-33.698416908692195
1051,-30.335628112953444,-38.71849743259444,-23.313992094242046,-33.034083056537284
1052,-29.617721243889882,-38.09575450148279,-23.369241088635565,-32.1702052148874
1053,-28.67121219275754,-37.22275811736856,-23.237150606209934,-31.12291417437376
1054,-27.528354653887654,-36.114816827084745,-22.95534166783024,-29.917208504637678
1055,-26.24385108070394,-34.80487259278664,-22.571019606935085,-28.58129188818377
1056,-24.859474074987276,-33.33183812293585,-22.133296565702068,-27.14152359975885
1057,-23.38398334845755,-31.736047490498137,-21.68127604348682,-25.623562665022863
1058,-21.827786708395664,-30.063462689078854,-21.240361299027207,-24.051284094723453
1059,-20.23859659023732,-28.367050165716762,-20.828959230935414,-22.44860299207869
1060,-18.690395334487953,-26.69764249115003,-20.460406039027774,-20.842051999167317
1061,-17.246818360407303,-25.09589085261323,-20.14310219387674,-19.253063079427484
1062,-15.932307096097373,-23.59528205759862,-19.880340977018722,-17.687546438844677
1063,-14.754735394775288,-22.223374002018346,-19.66522569478415,-16.140670264337697
1064,-13.738440988741793,-21.00069564414084,-19.482485278370767,-14.614636929828869
1065,-12.919120359417638,-19.935112552898147,-19.318053374715078,-13.129347111564012
1066,-12.313077509307389,-19.014662471306785,-19.163409345504682,-11.719391470887958
1067,-11.901375086393967,-18.21561550252351,-19.012496844225165,-10.422326118608677
1068,-11.653731045593576,-17.509715483025204,-18.85974512772963,-9.265560096656156
1069,-11.553249335628658,-16.863856831165666,-18.701926494184526,-8.273318497699615
1070,-11.59446317137783,-16.2417278062707,-18.53723228372295,-7.4840320859985185
1071,-11.755672229791308,-15.60340291581649,-18.362624364313366,-6.938580943730289
1072,-11.985289912695805,-14.916747827648736,-18.17658702817732,-6.657729280871626
1073,-12.234458684819211,-14.178110891746805,-17.985984017771298,-6.641959255784637
1074,-12.496677662155106,-13.415261176985137,-17.807895050847467,-6.880950564141237
1075,-12.804715570577065,-12.676550529255115,-17.661430073511788,-7.355152519347825
1076,-13.176843386767601,-12.023402017926411,-17.55744475324859,-8.02797504876188
1077,-13.583983532333026,-11.518175862455987,-17.4971717008744,-8.838387273695608
1078,-13.970406776983626,-11.207183138406586,-17.477035282624733,-9.70952409795459
1079,-14.292783735519233,-11.108736014067512,-17.495255839767175,-10.572905049530704
1080,-14.54428553692142,-11.210695623367569,-17.558060628347008,-11.381845097178502
1081,-14.722487111917243,-11.476520104356315,-17.67472313571031,-12.104681792147796
1082,-14.789046883048254,-11.854254852165665,-17.842818907864284,-12.710036167638394
1083,-14.675719260531588,-12.288273319883311,-18.04201035844764,-13.157588588406663
1084,-14.323946298863282,-12.722745901034255,-18.24150940806892,-13.405257063526062
1085,-13.717852685020768,-13.10160804211931,-18.40824458175263,-13.42264474793371
1086,-12.877995116858795,-13.381221253586304,-18.512516535646164,-13.191677748457744
1087,-11.836873210301487,-13.540015856632966,-18.532992213749907,-12.689493616914977
1088,-10.622073531430118,-13.580438086930855,-18.457520763852827,-11.88700109456484
1089,-9.275990322739123,-13.522851029031413,-18.28161220425268,-10.781552648227107
1090,-7.877989137587974,-13.38867592671289,-18.008240084147747,-9.415857019127595
1091,-6.5133215368160196,-13.189975794323905,-17.648830809564686,-7.864295418542635
1092,-5.239123143097754,-12.92489111032722,-17.222795085270327,-6.215597853294663
1093,-4.0923127596057585,-12.578349974188239,-16.755677568053045,-4.559485180064306
1094,-3.1194120572867723,-12.138613983184367,-16.27625805827662,-2.9812361083158323
1095,-2.3856523737272277,-11.616132453264735,-15.813562276330037,-1.5615063398575302
1096,-1.9494938949595433,-11.0384120158327,-15.392462648920349,-0.36240765034144184
1097,-1.8243410285203427,-10.430882909473441,-15.027988310213978,0.5889605022701796
1098,-1.9620064912719204,-9.810154034682473,-14.726095918089253,1.3002385106927548
1099,-2.301001034365491,-9.18704063920993,-14.489835120872389,1.8008701121097472
1100,-2.814165617568235,-8.569736049967279,-14.323918280783888,2.1242254388289497
1101,-3.4876927960316135,-7.96479225269942,-14.23033944834664,2.3023086394916232
1102,-4.276076713388724,-7.373049352888191,-14.198758163705765,2.3754245162242262
1103,-5.089506697202133,-6.782874679110459,-14.205972631818467,2.3916749326393227
1104,-5.837309900931101,-6.174487575497604,-14.223957458631086,2.3895386066788777
1105,-6.482277122637867,-5.535260228914217,-14.229582551492774,2.380081150784146
1106,-7.044066185948164,-4.862739624429451,-14.207613058819272,2.3509355998304975
1107,-7.548916538509844,-4.156720601526325,-14.146020970415425,2.2892013983681907
1108,-7.995825371395111,-3.4213174219847455,-14.034857528283938,2.1895993541242857
1109,-8.377704418543141,-2.672754126014248,-13.87166469136034,2.0441628979659163
1110,-8.705560701941833,-1.9336233063928303,-13.662286525137645,1.838772881290833
1111,-9.007841944250448,-1.2159143409501367,-13.415653734906353,1.5621188905803538
1112,-9.299514285610103,-0.5182639079352541,-13.142779653313251,1.2192757698379963
1113,-9.552201624989927,0.1588335648107464,-12.85534296587331,0.8311150277881809
1114,-9.713196931804122,0.8026161922126644,-12.563618214758383,0.42131133657388575
1115,-9.748961018464426,1.3943550999045289,-12.277477331814234,0.009817894036179206
1116,-9.660981879682806,1.9191039607809885,-12.003476480209331,-0.3914445565514093
1117,-9.448639942594362,2.366464970566293,-11.739052095117422,-0.7803718787205162
1118,-9.082752205600633,2.7319549585187493,-11.471348546111832,-1.1568835847847492
1119,-8.528638985762267,3.0218853960395995,-11.18138170031828,-1.513841112265583
1120,-7.775607295834369,3.2501963369325058,-10.846510952763314,-1.835605712382038
1121,-6.844170901790123,3.4316496043117364,-10.438391786965914,-2.0959832169838006
1122,-5.754770289889982,3.5846396075001166,-9.922811692600465,-2.2538319900503505
1123,-4.505282731288651,3.7337281990838145,-9.268094815804188,-2.2585667005247814
1124,-3.0920145550036295,3.901478950899069,-8.459098581291785,-2.0702117536481386
1125,-1.5463924557264805,4.103827064830955,-7.505797113812231,-1.6785437969683141
1126,0.05186157142378184,4.35788241627658,-6.43774508801453,-1.1056698864789098
1127,1.6162956561067356,4.685420841324147,-5.290790260288555,-0.39772896056894136
1128,3.0950449164179257,5.10162869513967,-4.099849087490961,0.3872250213265127
1129,4.462746477404871,5.602980464689761,-2.8977539268407946,1.1926244494802465
1130,5.686899735240527,6.1661917673988365,-1.716718365219024,1.9663950974522477
1131,6.717448480656012,6.753380073901326,-0.5865637313673802,2.6571945183947623
1132,7.524828039793126,7.320681349290865,0.4726420639124626,3.223646119497918
1133,8.138857189465666,7.833212200668384,1.4527828918754082,3.6532988486403783
1134,8.638453600051367,8.272033629205607,2.3533946460888266,3.968472999421293
1135,9.098115296269508,8.62792253739206,3.1772023569914447,4.209103248374792
1136,9.551381791403706,8.89463084851153,3.9259800147747352,4.408964318574166
1137,10.006081890697006,9.074516622495773,4.600336234161155,4.591389451968997
1138,10.477925504954381,9.192245964455978,5.203207292374273,4.778321608055565
1139,10.996873865875905,9.289848094713566,5.736523355046776,4.985242673208583
1140,11.567766339793371,9.405082887418853,6.196960880819567,5.211263690905203
1141,12.142836955260536,9.558513478870541,6.579647015772489,5.441587119904246
1142,12.70472937486954,9.75632746952863,6.903492392791075,5.693199375749178
1143,13.064272876993229,9.96890970409806,7.120088916048042,5.88103727745006
1144,13.126253376747803,10.158831320643566,7.203297678017896,5.953956824936037
1145,12.850849082340625,10.290373970561095,7.145766562175214,5.886645722716059
1146,12.243926868574626,10.345833512256975,6.960529124577034,5.673963639968397
1147,11.368503934224766,10.331415896003534,6.67882135156341,5.332139942793454
1148,10.339683602316171,10.267554969761136,6.342276513556342,4.903197165149745
1149,9.294048658180916,10.174928746066582,5.992795905756502,4.445527240333323
1150,8.343586911778395,10.06884882398559,5.667185340140893,4.013646142183282
1151,7.557372825318349,9.96239308404954,5.395800839690098,3.6482992502639333
1152,-1.0108080216937512,-0.5299409792358337,-0.4067885014444922,-0.779259180069659
1153,-2.0035922156701997,-1.2090864406720847,-0.9987034177235232,-1.7822209146602999
1154,-3.3832124321178556,-2.192592842736908,-1.8825695646825986,-3.226442660066616
1155,-5.116228677427429,-3.4898577794213708,-3.069879846893803,-5.09811143389325
1156,-7.124984186218947,-5.078506795742493,-4.544348461635769,-7.334913953655974
1157,-9.3211396321696,-6.902640834598721,-6.263126281812253,-9.8396039640419
1158,-11.613504931887412,-8.88251160331365,-8.161177923846266,-12.491766238942393
1159,-13.89207582400194,-10.932039388378799,-10.160216191751767,-15.159180893982693
1160,-16.04270839090558,-12.978428797954923,-12.183209441844348,-17.719242048657446
1161,-17.995631334246653,-14.978690681491575,-14.172162355453667,-20.089123272190715
1162,-19.78255687108758,-16.937540168949038,-16.108917134573186,-22.261379389674232
1163,-21.41252597780903,-18.84204669316313,-17.964938919893466,-24.2164421807979
1164,-22.87744040875099,-20.676550690799292,-19.716394214129277,-25.943925566256894
1165,-24.15978395727815,-22.425295140862552,-21.345122629306758,-27.44001670479561
1166,-25.264247045947783,-24.07826438649242,-22.83863420145336,-28.71085157027181
1167,-26.230709548753552,-25.62531653218894,-24.186944869129086,-29.770192622670542
1168,-27.10085878652206,-27.050760876545894,-25.37974255198614,-30.630570495979786
1169,-27.87925143860294,-28.3371552337803,-26.412046371823138,-31.298408593389286
1170,-28.53724235017729,-29.4660963806274,-27.29168372714502,-31.779757178326747
1171,-29.048256433701166,-30.415559959395342,-28.039808208145853,-32.086579936546904
1172,-29.413794280014862,-31.166434595022416,-28.686927222143627,-32.23804788974277
1173,-29.64650169788991,-31.714160161100054,-29.26811630278971,-32.25624231567557
1174,-29.73880852341734,-32.07312405467901,-29.821914092676966,-32.15829010429253
1175,-29.664727319675215,-32.27375492867333,-30.392619781492336,-31.956322838097794
1176,-29.419422626084284,-32.35182299851858,-31.02227375411372,-31.66322521929037
1177,-29.037697951935037,-32.33173293741358,-31.733397491930237,-31.293610518749983
1178,-28.561054222160394,-32.21793104637689,-32.525333628769275,-30.864214191438588
1179,-28.004079186453396,-32.00409770837556,-33.38451916929214,-30.392149468022424
1180,-27.354755489397103,-31.6888611695717,-34.29324316020337,-29.885815153983813
1181,-26.609246678887764,-31.282726444345126,-35.23407250666718,-29.348380974791667
1182,-25.792302724793288,-30.802227529839904,-36.18971044150701,-28.790479300869652
1183,-24.939743675426968,-30.25645120684748,-37.139374344911175,-28.224683888330834
1184,-24.07127877441751,-29.643267775871657,-38.05863629078624,-27.654941753026318
1185,-23.175017922282418,-28.960063742252537,-38.92304647537776,-27.076158539856348
1186,-22.238890950715156,-28.214128160314587,-39.70736478647788,-26.47864938824268
1187,-21.28445588621839,-27.42472381314672,-40.38079227814581,-25.85422308207434
1188,-20.353836477028274,-26.617628939188204,-40.90871929701265,-25.19773191225443
1189,-19.47546465266735,-25.818171449979975,-41.25987625948867,-24.504403696462465
1190,-18.64450268233014,-25.043708112136102,-41.41050673507632,-23.7690569884203
1191,-17.8438734938207,-24.297731577100635,-41.34433621951275,-22.98647804632809
1192,-17.070461413177764,-23.570462696634802,-41.05181563086836,-22.15323200037108
1193,-16.338858239104425,-22.850302100501487,-40.533986213988754,-21.271921153565163
1194,-15.658798798474484,-22.139989143485817,-39.81122381336489,-20.34965399729255
1195,-15.013441859828822,-21.45632812811449,-38.91708758690014,-19.39135413709112
1196,-14.378742710030414,-20.810004625521596,-37.87873975550429,-18.39810218058857
1197,-13.747497292603915,-20.197314223412853,-36.71198809179961,-17.372962574394712
1198,-13.1285056498804,-19.617996487322856,-35.42693282830642,-16.317531551065823
1199,-12.519393930246753,-19.08619380805883,-34.03149741243236,-15.218224317081718
1200,-11.886595815789887,-18.624523952552007,-32.53598877055064,-14.050350029258684
1201,-11.186450311942322,-18.25444194056334,-30.95919013497736,-12.793434906968095
1202,-10.403064993545074,-17.98413106816902,-29.330780593205617,-11.444585516719515
1203,-9.563660010157436,-17.798827136596337,-27.688530028246742,-10.029020803378096
1204,-8.699071866233853,-17.659785134301416,-26.073368044019993,-8.591909985050695
1205,-7.811628819630892,-17.512694504626356,-24.523025945817928,-7.1809435343098835
1206,-6.894416523345764,-17.30336992047685,-23.068896135916773,-5.844553364949774
1207,-5.96086091881824,-16.995423261095386,-21.737485479706997,-4.6390163132402495
1208,-5.05611819276476,-16.572113287304195,-20.54531786518391,-3.6186057464485226
1209,-4.223140590500448,-16.022402073261876,-19.490241786092497,-2.8167285473281445
1210,-3.4625724841817136,-15.33960496908796,-18.55248759836444,-2.233713801670284
1211,-2.740142074838088,-14.538381022220422,-17.703845996510257,-1.8339497808298135
1212,-2.0302222415253453,-13.669404051048234,-16.916735736632983,-1.5605586144397219
1213,-1.3414196160979428,-12.810589102295395,-16.170086711917474,-1.353872576094943
1214,-0.6926786761799821,-12.037594109685624,-15.448411889036151,-1.1613417768571823
1215,-0.08416690347878393,-11.391491796877709,-14.73802563031842,-0.9435669009116204
1216,0.5022117551152904,-10.875504591334604,-14.02864703976094,-0.6830139224660742
1217,1.0699794312395574,-10.480486448094473,-13.314166996846923,-0.39006882828282186
1218,1.5867303067964733,-10.192557682195618,-12.58897053342741,-0.09909020185452484
1219,2.0095499391765275,-9.98623355778625,-11.843512947945149,0.14578651888929922
1220,2.3209842957148354,-9.821907946616435,-11.064107598055864,0.31446203652336013
1221,2.540674556987147,-9.644780028578268,-10.238188123445363,0.4000005982404867
1222,2.6879967127700093,-9.396536164850847,-9.360582997210223,0.4028831758654906
1223,2.7487383099103924,-9.034977237062792,-8.435376356232325,0.3203435607943508
1224,2.6969363373585447,-8.54198094381695,-7.470940998804772,0.1553911859036307
1225,2.533927415482138,-7.923679538657662,-6.47852405613328,-0.07698645980517885
1226,2.304191117122577,-7.211930082018246,-5.478273747400738,-0.35454843634442434
1227,2.0556210747401633,-6.455485897375941,-4.498541367201274,-0.65360795589478
1228,1.7997299853169275,-5.696105476747246,-3.5670574834341484,-0.957522645237143
1229,1.5300863345813467,-4.95148967962513,-2.704083132689883,-1.2598069193289911
1230,1.2589979247999645,-4.2210678098589565,-1.9190499512722452,-1.5499048616243316
1231,1.026103660444262,-3.504170499283883,-1.2089061571549728,-1.7981325702160802
1232,0.8599100698169798,-2.8085100868493296,-0.5586687803484367,-1.9651076007999748
1233,0.7422398868452558,-2.143636177665848,0.05473915688509043,-2.020395373087355
1234,0.622945228447764,-1.5112731870716885,0.6557939166162515,-1.9528241226367928
1235,0.463040754919362,-0.9097601088666523,1.2627715000959923,-1.7806476883882916
1236,0.2580078512063307,-0.34977318592780876,1.8835876594211416,-1.5450455061390111
1237,0.014727510066053419,0.14609448137382205,2.5179910549702424,-1.286557172003584
1238,-0.2734033734846604,0.557809407306772,3.1624812328757743,-1.0340443494285019
1239,-0.6190134040389622,0.8818479457648631,3.814573525690936,-0.8011296001413608
1240,-1.005729214552875,1.1422585718015918,4.475277393988511,-0.5782192898143467
1241,-1.3737610960318922,1.3841552489602909,5.147230794674996,-0.3364313476410049
1242,-1.660467851087597,1.653230550610477,5.828080308276383,-0.04967339034732103
1243,-1.8460271916153213,1.9837661805183613,6.503053324752401,0.28791577302897997
1244,-1.9620978082001828,2.3972198379656735,7.151074991708167,0.665915445508541
1245,-2.04873222254317,2.9045554131259728,7.759805298950578,1.0721390719419697
1246,-2.119803568896974,3.5054150674113758,8.325047074415343,1.4926727478721
1247,-2.1787317725056354,4.184548246915974,8.840094229138636,1.8990531832023758
1248,-2.238877186204088,4.912830599599122,9.293962878503974,2.2449171443022076
1249,-2.327483560710642,5.655261653486356,9.675417417298837,2.4835814482445597
1250,-2.4558294113864436,6.37861511900157,9.974407035782962,2.5939030944234913
1251,-2.5974579131850684,7.052934992237642,10.184316697336913,2.5859365244229453
1252,-2.7101233458169824,7.65623714146565,10.307061293654314,2.4940267626768344
1253,-2.766496264693241,8.175802371772807,10.356720417723816,2.357672897218349
1254,-2.768842210943899,8.598732139339486,10.359604220119603,2.1886670468943685
1255,-2.727022651949625,8.908432200699572,10.351890704766863,1.9741100226959276
1256,-2.630384448500109,9.092734476360743,10.375704499429748,1.7090080989496048
1257,-2.4459310295043495,9.151409631846745,10.472398655988261,1.4072614332593445
1258,-2.1487934045083894,9.097635460706169,10.678307101164169,1.0963487092775859
1259,-1.7489112751440896,8.959113129790891,11.024525195212323,0.8124402221365117
1260,-1.265278236033856,8.775866741959977,11.5367846738571,0.5942826406998314
1261,-0.6911674410305966,8.5912843060169,12.231288746695432,0.4751645417566557
1262,0.002184332438342068,8.441388248472233,13.102725737024137,0.47865855158644166
1263,0.8210938194966518,8.350709113672963,14.122917190880777,0.6217447713339921
1264,1.722538781745023,8.33959760907796,15.255200436525572,0.9127929316477352
1265,2.6428867271676424,8.42603148768199,16.462765160799922,1.3413637954337845
1266,3.5370608821664127,8.611128945774016,17.707115588747154,1.8748570002657863
1267,4.390268873321134,8.865764551012228,18.94788913606452,2.469826746756532
1268,5.188589153455933,9.139792565238691,20.145969213642225,3.082119906626504
1269,5.897193954302788,9.386008867346577,21.26409819809199,3.6636611935916528
1270,6.466761196194625,9.580880808917854,22.270133041474967,4.148086062390296
1271,6.884147107930498,9.682525597785707,23.126540142648967,4.516557625902703
1272,7.166081183858443,9.677604491633234,23.80997296811613,4.774750537256844
1273,7.325379079039559,9.570694359484214,24.313571975889065,4.931892449453046
1274,7.36131356158946,9.38003648367505,24.64691754410337,4.995136566512993
1275,7.28287594235292,9.136059439134815,24.833948126187973,4.977480657797425
1276,7.131573797862346,8.875217558069998,24.908933761703928,4.9015753495441
1277,6.96665195291283,8.631550474692187,24.910330446810818,4.798670286883865
1278,6.825243163129529,8.431226808029557,24.873092377491727,4.701402746841518
1279,6.711476414491328,8.289656410327165,24.824088429462474,4.6320647669953345
1280,-0.7691289207347651,-0.5345543616430746,-0.34500925831850054,-0.48251086853536673
1281,-1.445518870231752,-1.1222806081022623,-0.7503715371952131,-0.9946213918057152
1282,-2.4008054045073797,-1.9430279081587105,-1.3456974235892623,-1.7333114300481403
1283,-3.624066432619916,-2.9973471574384414,-2.1434364745134338,-2.699611471415654
1284,-5.074731989893649,-4.2769854885307055,-3.1393249501889757,-3.8772454920076775
1285,-6.70654548542972,-5.7647599117444095,-4.311823266051011,-5.235219223502983
1286,-8.467982782937497,-7.425311658581203,-5.620451973262941,-6.724397638730084
1287,-10.280695171066636,-9.199861969634107,-7.007558733481476,-8.276389692686152
1288,-12.048684247321269,-11.020709410618378,-8.410551299736666,-9.812738349113268
1289,-13.70741438948308,-12.842278247159921,-9.782628659260967,-11.267258849705371
1290,-15.278699225463193,-14.665960869111926,-11.11418010580057,-12.617230808997885
1291,-16.764087282648763,-16.4756634839102,-12.391524928491071,-13.83742630453304
1292,-18.14090244888383,-18.245117102844617,-13.607415868115984,-14.920923954235185
1293,-19.368750474401487,-19.937946479622333,-14.760441056817015,-15.877521188778804
1294,-20.420962274700646,-21.521319323128214,-15.853501480877043,-16.731231916582562
1295,-21.30588731913191,-22.970761600490125,-16.890407668607182,-17.514910633319936
1296,-22.039899205601685,-24.264286330263918,-17.87356572059931,-18.25956794679572
1297,-22.612578945294345,-25.37528709628183,-18.801984688020436,-18.97867810091836
1298,-22.994402458114223,-26.27461710665712,-19.66923575623468,-19.660925315478657
1299,-23.17189501303881,-26.946401088027663,-20.463964844785753,-20.285643816886875
1300,-23.16967919211121,-27.389995396365315,-21.172031838116382,-20.836920753649302
1301,-23.031327584860485,-27.604753766349997,-21.778415917990948,-21.299683883071197
1302,-22.789435534937326,-27.59218716530772,-22.270770056587015,-21.659469261110157
1303,-22.460373202106744,-27.374387001248433,-22.645562319970477,-21.910783914972694
1304,-22.076511216636582,-26.995962485118064,-22.911897783433574,-22.065975544326434
1305,-21.706530608734262,-26.506865955296533,-23.087447860657104,-22.159412029008493
1306,-21.41338966485304,-25.94091650480239,-23.190901853573664,-22.236102927684943
1307,-21.20840288283809,-25.30871342633659,-23.238669523001594,-22.331105548116682
1308,-21.057712064222642,-24.61158872295026,-23.246889025187894,-22.458189639046875
1309,-20.934051257802786,-23.85336807998451,-23.233633081101818,-22.613068799987367
1310,-20.849452620259193,-23.039577770663392,-23.21799081703398,-22.78965716137617
1311,-20.826980729103596,-22.172629871622487,-23.218454349917177,-22.99338641340215
1312,-20.85695087470935,-21.25515039294536,-23.247419271352395,-23.23224499715366
1313,-20.889603238424392,-20.300787622325025,-23.304664308608324,-23.504837993446714
1314,-20.875459474117086,-19.332581123026156,-23.379465799517245,-23.804853755238177
1315,-20.79780564615575,-18.372411532592032,-23.456746987341578,-24.127467688491436
1316,-20.665646244186025,-17.43643304610161,-23.521554661790166,-24.46383096007438
1317,-20.484242862493222,-16.53891953839838,-23.564022833846693,-24.78965987911146
1318,-20.233639770806818,-15.69991451353892,-23.58203447066748,-25.0666900044203
1319,-19.89256930457001,-14.938830336504106,-23.57868536254021,-25.257045365438305
1320,-19.46719533735093,-14.262236088040629,-23.55790107120337,-25.334905936555366
1321,-18.98402068556292,-13.667195091101009,-23.520502873592992,-25.28677312566718
1322,-18.45586696937735,-13.148517274123952,-23.462231024194878,-25.104429615157073
1323,-17.86371448962278,-12.699161477456169,-23.373393239695943,-24.786150510551202
1324,-17.189250707236337,-12.310230738038594,-23.238359963087127,-24.34205306436254
1325,-16.444989064528215,-11.967463059238538,-23.0366065127536,-23.78950948850018
1326,-15.66996518335105,-11.64540492777599,-22.74824024394464,-23.143351597632286
1327,-14.894250422611302,-11.31230160151082,-22.36163652141866,-22.40869287982342
1328,-14.112313374030117,-10.941655536683063,-21.874449430765864,-21.57222979704645
1329,-13.306906369965702,-10.519060022324046,-21.291577768282252,-20.602504273727597
1330,-12.47821642800458,-10.043909623580506,-20.62844242581902,-19.473416658703442
1331,-11.648280029230518,-9.52816843559791,-19.910309453358995,-18.1835811400336
1332,-10.832820035420697,-8.990359315957308,-19.16460616389606,-16.757225682649405
1333,-10.014636273759919,-8.44930446830216,-18.4158416246431,-15.236592643177763
1334,-9.165416356999101,-7.926392578823125,-17.683556202925924,-13.669130602210757
1335,-8.288092959049242,-7.44872514635806,-16.98165467209274,-12.102973122903036
1336,-7.428680397226543,-7.045064392875315,-16.319754394224496,-10.588297418106503
1337,-6.637531140056864,-6.737075449058253,-15.703751273920107,-9.169477298289252
1338,-5.934738693578913,-6.529337946543824,-15.133221999071042,-7.872342129058769
1339,-5.317277987790395,-6.4109474781103035,-14.599321109471575,-6.701867241677832
1340,-4.792060668541556,-6.369553320420735,-14.088544513909094,-5.649259815502117
1341,-4.395370965873507,-6.394621601051405,-13.589419375364553,-4.698320419967582
1342,-4.162001895335649,-6.469503727578235,-13.09520398001903,-3.8366382398296266
1343,-4.090479115563255,-6.575186448857972,-12.601364933806776,-3.066267275891291
1344,-4.147139512075146,-6.7009929092458735,-12.103141802386856,-2.4032960981913245
1345,-4.303332894506022,-6.847620805378964,-11.598837350912982,-1.8772946961786683
1346,-4.555568237184447,-7.024489300010006,-11.096217466926507,-1.5323616258318604
1347,-4.902960364053342,-7.24564197698064,-10.61186982366608,-1.4142610504810276
1348,-5.326137508454007,-7.525986194173139,-10.164016330641848,-1.546351544641921
1349,-5.783295879165404,-7.876789354712855,-9.767731256956038,-1.9178013284552011
1350,-6.239685217039693,-8.303411499371816,-9.43468530131364,-2.489823310011329
1351,-6.693068895925466,-8.804589851520285,-9.170693103879042,-3.2099158535573795
1352,-7.150893552083004,-9.37096019486183,-8.968993393589434,-4.020722844821856
1353,-7.604633702778462,-9.985668084436117,-8.811918397761822,-4.85903588086476
1354,-8.026486566560846,-10.626722263457308,-8.682247570007322,-5.6626154593040186
1355,-8.398404063824783,-11.269010907215618,-8.569593617039917,-6.384542113777771
1356,-8.736722025892787,-11.880845026090702,-8.469080594159932,-7.001887238506706
1357,-9.067663700506582,-12.424723832658595,-8.379206342996477,-7.517161842699464
1358,-9.383729158406583,-12.871603506487851,-8.302441087032339,-7.948223871072024
1359,-9.630440179940704,-13.212430283413568,-8.248449872741103,-8.309807847473373
1360,-9.747911896958685,-13.451930721492037,-8.233813869837226,-8.604183746480762
1361,-9.71706486093808,-13.59271654407894,-8.277369235644617,-8.828058023847463
1362,-9.563795812137059,-13.631784021006009,-8.395902025373314,-8.978410042862595
1363,-9.320034946595507,-13.567130169180826,-8.600542626296706,-9.049987546439631
1364,-8.988695481025593,-13.400258262781682,-8.892580344934569,-9.034067784562854
1365,-8.560045374234129,-13.1357299354654,-9.260187052195123,-8.916988425890231
1366,-8.041792057338842,-12.779456794232384,-9.68032144380735,-8.682625951058565
1367,-7.465274171361909,-12.336794001443911,-10.125232548256855,-8.32274810511905
1368,-6.853200256078663,-11.81106095965633,-10.56874745130437,-7.84232762515788
1369,-6.19452067494814,-11.206063398657493,-10.99394551776041,-7.257073113622525
1370,-5.468156126570359,-10.533609084858114,-11.397712782309952,-6.594531333244254
1371,-4.675794304417329,-9.816703241899527,-11.786352781093772,-5.8976334058115105
1372,-3.8554305477770767,-9.086167766707907,-12.171012332136788,-5.219673911243138
1373,-3.0517240780341965,-8.374846610418652,-12.564230581294323,-4.612604587097249
1374,-2.287285384302945,-7.707056178823852,-12.97379156588689,-4.114839283572021
1375,-1.579314084782391,-7.087822933352508,-13.399295672502893,-3.751140362338597
1376,-0.9615622093014429,-6.507265971910209,-13.835226631043513,-3.546779687143173
1377,-0.48359829433703855,-5.95468932807629,-14.27287277543028,-3.525718219124452
1378,-0.1707570251490396,-5.4254180985226546,-14.69857071044515,-3.6892363056148736
1379,0.010556862428534548,-4.921573178994094,-15.094268045186904,-4.005792419904774
1380,0.1348434605774751,-4.450418652381414,-15.442312755297227,-4.417167539468088
1381,0.2637750681252346,-4.021397334337659,-15.734744310857785,-4.854962708973094
1382,0.4115979170895148,-3.644395620757941,-15.980672224473299,-5.265317557095531
1383,0.5722495368512697,-3.3305824220449867,-16.20227662912701,-5.617739334565438
1384,0.7544046514803849,-3.0938501355640042,-16.42236549094063,-5.890796760867288
1385,0.9809306989667002,-2.9496725410357625,-16.6554717981969,-6.06247343098661
1386,1.2558477123726077,-2.904988162843497,-16.90447410292984,-6.113737098098967
1387,1.5440165723642079,-2.9415371101490932,-17.15712286893994,-6.0323380803272935
1388,1.8038970069156286,-3.0134346404407304,-17.382849342339306,-5.813630489745891
1389,2.025475250395565,-3.065478607409959,-17.53593109922419,-5.460273534169621
1390,2.232774326758322,-3.05560563940734,-17.567578318843815,-4.981749816455196
1391,2.445497867325612,-2.9636446375836902,-17.43931816475641,-4.395021093424931
1392,2.648711212172792,-2.7915862649814938,-17.129370484889392,-3.725296396325536
1393,2.8230512196156825,-2.565077858381035,-16.63224808255031,-3.0021350891943785
1394,2.9859120667973182,-2.326584728425159,-15.959894644589403,-2.2538638862388645
1395,3.179904586139735,-2.111156962465947,-15.144273784743994,-1.5082781436836277
1396,3.426914491226724,-1.9188448055617753,-14.230031821389899,-0.788758335630503
1397,3.7038881250374023,-1.7320677578295594,-13.259816178490993,-0.11257259811603393
1398,3.9025655438880085,-1.5392505520372175,-12.338892572876942,0.4244115210244744
1399,4.070558220824781,-1.4253859180308985,-11.367232954875744,0.930634650717362
1400,4.256374004022183,-1.4316175432285285,-10.302910408819121,1.477516033601105
1401,4.475281060263127,-1.5599563505035372,-9.147431607760852,2.097301475659239
1402,4.708631913474322,-1.7865991189924464,-7.930811889409672,2.789536186239555
1403,4.935123863410844,-2.07842797909897,-6.698438809617881,3.5336168965367865
1404,5.153996674214176,-2.4081866132030396,-5.5041346115236625,4.2955285204049085
1405,5.376560707760511,-2.7580253892723223,-4.4073457717938735,5.032264038669408
1406,5.5971415656785055,-3.108788600007972,-3.468786786280909,5.696864508977978
1407,5.789013258820567,-3.43410320623084,-2.738697672473251,6.243824402879513
1408,-0.708523751879923,-1.7036154135574229,-1.2257867867742003,-0.5487892245087442
1409,-0.7807709361832511,-3.6907604264648484,-1.9846192575823127,-0.4711677194595179
1410,-0.6832117256441349,-6.386020314675538,-2.855268913453987,-0.1077130903869934
1411,-0.32132311410409264,-9.785962405658289,-3.7201381832544627,0.6284673901166942
1412,0.4163056954128386,-13.87191905338286,-4.472564734115023,1.8003611022843797
1413,1.6206034181766822,-18.57179896971893,-5.031552564258075,3.433165151293049
1414,3.318914178416013,-23.725221333664837,-5.2921165490684965,5.486245702010473
1415,5.473366647231092,-29.071671999935937,-5.120812400396593,7.867129215244163
1416,8.03137159040943,-34.35562440344104,-4.422031154450553,10.503205336036748
1417,10.922913735671958,-39.44964555357461,-3.1578233288877366,13.342100355484321
1418,14.010828844928078,-44.29489993142158,-1.2840275122577776,16.287299639440192
1419,17.150908434926357,-48.536718530245096,1.443796044642534,19.21707346310625
1420,20.181051900698446,-51.5132833864454,5.437372921249677,21.992527413578106
1421,22.92015618733404,-52.275827691073296,11.186606519359223,24.4686396614715
1422,25.181452666882162,-49.66488229151999,19.140466638738584,26.511243265884563
1423,26.78194722582576,-42.48743493174946,29.597333851130674,28.00337535667357
1424,27.584670330277696,-29.764182227095905,42.70169655481422,28.855686127461087
1425,27.567207212069903,-10.869087076943346,58.52177301639104,29.046710988299168
1426,26.847519139607073,14.442199658025904,77.02974627003972,28.65423405772866
1427,25.647202131854655,46.01127430328518,97.96112536819878,27.854550695593687
1428,24.229488923499826,83.30274357387111,120.76592416656432,26.898825555428257
1429,22.880201689934196,125.43786772521216,144.76391928180814,26.08500736430438
1430,21.92549070887893,171.23778682366347,169.28797990694312,25.729094854720874
1431,21.714038716047785,219.3620963056166,193.73843797937138,26.12702889980978
1432,22.538005624838068,268.4908333979472,217.67278833189164,27.50284094653445
1433,24.531798322895806,317.5129573945331,240.90627557370328,29.9438565469837
1434,27.662976630812263,365.6436276004842,263.51992004894026,33.405501981909524
1435,31.82994801897888,412.33502766654306,285.74884866201904,37.799451122301015
1436,36.91691823319678,457.1044507007411,307.86069354601347,43.02913449848109
1437,42.768457096800006,499.50872679352574,330.1056686086309,48.96406686884224
1438,49.15926822670658,539.1845292457252,352.6935976381446,55.42590733646639
1439,55.81335116601107,575.8483458095659,375.7133169855947,62.195762128449566
1440,62.48379349058424,609.2899192394033,399.04748582314096,69.04895817616304
1441,68.99971396370972,639.3653351664296,422.40321341091243,75.793010618973
1442,75.2213705234233,665.9863269208709,445.38519282646394,82.26669968574092
1443,80.99950777401276,689.0389974467573,467.53451170841186,88.31764093908826
1444,86.18734056325214,708.3495256804802,488.3992993213122,93.80117685333775
1445,90.68044703294798,723.9743180142169,507.627966191744,98.5957702130457
1446,94.43265624194105,736.4940027174127,524.918866176665,102.60812126163502
1447,97.40591003604112,746.7599138049185,539.8600497129963,105.76490506075639
1448,99.5260804926162,755.3073040558693,551.8618638255989,108.00180652818855
1449,100.7002736965166,761.9372656865264,560.1775903947472,109.25500048327125
1450,100.86722335534519,765.5943781724093,563.9641027522207,109.4654971202773
1451,100.0170469521353,764.4685218052799,562.3520874140946,108.60068605257449
1452,98.15690179889206,756.2483041711421,554.5087343679031,106.66632165793868
1453,95.28205857180649,738.4621420050132,539.7445818417169,103.69403245831818
1454,91.38551330805086,708.8486849544572,517.6348160446577,99.72750501959936
1455,86.48759437917741,665.705546940955,488.06705150096997,94.82000328496711
1456,80.64822624512951,608.1728699612546,451.2378508127272,89.0356676317791
1457,73.9493858019535,536.4156080669375,407.6461785764868,82.44703155357446
1458,66.47054443409324,451.6749537161164,358.03154557509293,75.12067054885787
1459,58.278382181609196,356.1654224239132,303.2755002841906,67.11065214283735
1460,49.44474731796403,252.8038191901333,244.3513478109462,58.477810091019116
1461,40.06554440091998,144.75928392721332,182.2727798273107,49.304557522636074
1462,30.252391126855127,34.83950791106396,118.01828330413058,39.68665554461414
1463,20.106027652956268,-74.95677006640128,52.52428650711508,29.722832534145294
1464,9.708402520822082,-183.28284064367136,-13.285663779075463,19.512225559733448
1465,-0.8481485328030782,-288.9965439752628,-78.51873983717107,9.156874054197543
1466,-11.444100176777555,-391.01651974702384,-142.37125131427678,-1.232579251772418
1467,-21.946922639904518,-488.40371463579334,-204.19570845466882,-11.541964619216504
1468,-32.242590090824486,-580.3958899940815,-263.5160892008519,-21.67695624762425
1469,-42.25918670003588,-666.3945318219231,-319.97931609280835,-31.583060045457273
1470,-51.94363361940052,-745.9508379376406,-373.31589959289397,-41.234190008780274
1471,-61.228235424765785,-818.7520680321845,-423.32745103674216,-50.60796197255372
1472,-70.02684455875813,-884.6072931437611,-469.84929967362416,-59.671938048362236
1473,-78.26583638913034,-943.4257778475059,-512.7085100218649,-68.37964973543473
1474,-85.91770036737978,-995.2037081571841,-551.737591117189,-76.67866981497684
1475,-92.98252129255985,-1040.0395472972543,-586.818499148091,-84.51322945533026
1476,-99.44352243438841,-1078.1386741076137,-617.901716056294,-91.81816386682353
1477,-105.25554507718041,-1109.7856846656884,-645.0100603614413,-98.52817641686899
1478,-110.38308316659601,-1135.2993180759916,-668.2419870851875,-104.59553565240466
1479,-114.82889139503548,-1154.985295101264,-687.7532347729563,-109.99603483855967
1480,-118.61374345090196,-1169.1081961875666,-703.7244013269819,-114.7217073521234
