,TP9,AF7,AF8,TP10
0,-0.38570530364913697,-0.7304355064477914,-0.5240824956305175,-0.7407761349484212
1,-0.9756357712799666,-1.497345315717437,-1.2063346440580016,-1.5539354255599271
2,-1.8414985578044638,-2.5754043560585638,-2.21193056960574,-2.6793988712436025
3,-3.005461040663814,-3.9684645609765594,-3.5617946516644015,-4.090469901105125
4,-4.44851576929603,-5.648730973389148,-5.24820169509625,-5.726883398172285
5,-6.109566562200863,-7.558391830888996,-7.233041353228652,-7.518578043239772
6,-7.906927039241151,-9.61680650886547,-9.449021150388575,-9.396739775197762
7,-9.757297534512329,-11.729824762423132,-11.808103005250144,-11.290868906561192
8,-11.584188937784322,-13.80674106568271,-14.218012189221179,-13.129146553246253
9,-13.321225956338612,-15.788821101897742,-16.605754851350472,-14.861861284066636
10,-14.934438604752218,-17.680659475652607,-18.94513075138136,-16.50301478198303
11,-16.404391162642522,-19.471239930148354,-21.19885362587088,-18.0575990110032
12,-17.738546792604843,-21.153330870739786,-23.32691100271222,-19.51970105375239
13,-18.94764028465778,-22.718592466813078,-25.287374129502243,-20.861323825041616
14,-20.016804432983946,-24.1631053719623,-27.047258468024197,-22.052755151703597
15,-20.914308837432426,-25.49716377145481,-28.588694350667183,-23.084709822158487
16,-21.628878412365292,-26.74681582205612,-29.9050944737278,-23.96436920246858
17,-22.17487757373164,-27.94207604513387,-30.99359189500656,-24.696761351449194
18,-22.564645138171255,-29.094931676840986,-31.85051238780977,-25.281098648738553
19,-22.794245622977773,-30.18525167079785,-32.4735225010869,-25.724138209799616
20,-22.857557481761354,-31.175989366982826,-32.86829563979492,-26.04360609710967
21,-22.769316127182382,-32.036635576202755,-33.04752899535617,-26.257953366547586
22,-22.57013862500873,-32.750894359739306,-33.02249058163917,-26.370991265737377
23,-22.29982602213328,-33.315965582516334,-32.80037792815945,-26.368960295099196
24,-21.973755857225115,-33.74005300345191,-32.38847339688697,-26.239228769049948
25,-21.594396134265153,-34.03932338286644,-31.797113693059913,-25.98241624017459
26,-21.169950438254364,-34.23145027729408,-31.041130058277794,-25.6061246034471
27,-20.71381539594683,-34.3338471135152,-30.142436934306186,-25.11354295091959
28,-20.237124119405713,-34.364685087786654,-29.133958717118492,-24.50736593623827
29,-19.743744651458375,-34.335755652480586,-28.060895589860742,-23.802027650887972
30,-19.229122250633182,-34.25647970702513,-26.975889806259936,-23.029531653887773
31,-18.693261828095288,-34.144490969122316,-25.93145690659987,-22.241246504154738
32,-18.147810407961124,-34.015350730780824,-24.972176380603283,-21.487972483024876
33,-17.605295721357475,-33.869137893697065,-24.128796843584837,-20.796828320582684
34,-17.070166701504103,-33.69443898565995,-23.415589948764673,-20.173253954304094
35,-16.53178904498524,-33.486122269741095,-22.832646696734624,-19.61023139678693
36,-15.974095465512944,-33.26012090486778,-22.371350694542382,-19.09292035576202
37,-15.394933516919544,-33.040268627481225,-22.012749766493048,-18.5961798319542
38,-14.804973280490096,-32.83098242669685,-21.7240846998205,-18.079458543063463
39,-14.212763639806523,-32.614103292391114,-21.465527342505947,-17.49505121146086
40,-13.618917461478508,-32.36344278872134,-21.20015556162481,-16.811305800630386
41,-13.034867991454306,-32.056535700493285,-20.896723719629552,-16.027624246632243
42,-12.49967240686131,-31.674177587308293,-20.529471419983263,-15.169806538781717
43,-12.071461060115842,-31.1875258655722,-20.079433301344835,-14.280223861221245
44,-11.80699569409369,-30.554606854827412,-19.53367526068576,-13.407110013359839
45,-11.740392197875218,-29.742809591492883,-18.8852989278147,-12.59901987138987
46,-11.879048032657732,-28.768412574902907,-18.134469673582004,-11.904328412166267
47,-12.218827627891041,-27.703366792008445,-17.28968807320679,-11.35814721624609
48,-12.74705066050341,-26.63380672412738,-16.369746051827317,-10.953096233346914
49,-13.424700331755815,-25.622678324912428,-15.40088154749577,-10.63171846837469
50,-14.178530564287769,-24.70125457469559,-14.41012491154449,-10.323680063692468
51,-14.927064994289633,-23.87244609514016,-13.420335007313614,-9.980896654595684
52,-15.623640992789104,-23.115117485340498,-12.447223197442861,-9.582287331155927
53,-16.264609817707477,-22.386205174106536,-11.497594848391593,-9.128483203177355
54,-16.859033895732622,-21.62961166340556,-10.57432221435797,-8.639850657009037
55,-17.415946403601357,-20.794261213837302,-9.68536453081038,-8.155223302818493
56,-17.956946135070375,-19.84278162168136,-8.841792209953114,-7.723630742064509
57,-18.52047853201934,-18.75415557142893,-8.047331115048548,-7.3899972562639595
58,-19.13930839315344,-17.529258692322617,-7.294733740448988,-7.178819372300902
59,-19.81046564507432,-16.195963407550877,-6.569245842749973,-7.081919184988654
60,-20.484217984343445,-14.813597557385673,-5.854691636888212,-7.059983166096926
61,-21.076086647541516,-13.46353418684254,-5.140980381962726,-7.055906741347158
62,-21.49814009729528,-12.221797803123625,-4.426979909008803,-7.006965372480567
63,-21.680504440908944,-11.130580410997554,-3.719240968577282,-6.8505189660691945
64,-21.576428635031306,-10.189486838456924,-3.0330151600794317,-6.538666029141963
65,-21.168306210616137,-9.376073652327285,-2.392162366886722,-6.05989681860626
66,-20.470198599603894,-8.670472070282589,-1.8303467482506521,-5.451787013090802
67,-19.531347842809183,-8.061325636223637,-1.3941470665765434,-4.794603113931078
68,-18.429803312372034,-7.536522634938248,-1.1328955526383042,-4.17756105565178
69,-17.245263523924155,-7.073491490441705,-1.081215047439684,-3.668110036426093
70,-16.04067252844158,-6.639778928462234,-1.2511912004282848,-3.3076449702675847
71,-14.861262142007199,-6.201746350201652,-1.6314804331410169,-3.123709829050408
72,-13.741802121821275,-5.733379834830068,-2.189304658484286,-3.1437168900877346
73,-12.714493194822415,-5.219926547919301,-2.877229904751987,-3.388460463855584
74,-11.804354322359407,-4.6578868687121044,-3.6390300058840377,-3.852606279864963
75,-11.018662210878029,-4.05120273032141,-4.410430551094717,-4.497256572852417
76,-10.341855307023105,-3.4108116054136497,-5.1268377938084475,-5.267575618166549
77,-9.744922244030704,-2.7573460297207695,-5.7390799062687465,-6.1157685675686135
78,-9.208095301090355,-2.1130312627675036,-6.21965984420789,-6.999997860661842
79,-8.728888534082392,-1.4860057298352651,-6.558551282512651,-7.873636551514977
80,-8.302567579366857,-0.862724220172445,-6.758191925027296,-8.687204186885458
81,-7.905560506714193,-0.21705005146379983,-6.828304783339631,-9.401137850605538
82,-7.503258083644397,0.4742081650888408,-6.781455375705923,-9.995117823747819
83,-7.068628358895185,1.226088503200404,-6.629850793446131,-10.463718938477
84,-6.593502840829413,2.0491161797750688,-6.38081152969395,-10.804012672866083
85,-6.082056701136726,2.946319624555056,-6.039875351592543,-11.01433685192234
86,-5.53941422148993,3.9040552701957028,-5.619291016021331,-11.112046406532652
87,-4.976403290739553,4.890695951618723,-5.137520670892326,-11.137409131299123
88,-4.419960805123236,5.865192643221845,-4.616656614163307,-11.128193978191264
89,-3.906518750359622,6.786842097766989,-4.081029389160629,-11.094759564946841
90,-3.4571631169369033,7.623233946272506,-3.552417770500697,-11.022795181168837
91,-3.0633522540588456,8.358396828110067,-3.046993990042325,-10.896443209934104
92,-2.704243828698804,8.992110757156,-2.576440468394887,-10.70769333780461
93,-2.3698273789433904,9.532612669808097,-2.1448297518903625,-10.44762110880908
94,-2.061659615293529,9.996402894849556,-1.739809087276847,-10.09360298789902
95,-1.7707777545898304,10.40558616775658,-1.3345761743889681,-9.612309985499136
96,-1.4640230411088198,10.776487747895969,-0.900494421031147,-8.980403697498863
97,-1.102444627772718,11.111206632923237,-0.4155980636421879,-8.200227653196784
98,-0.666153043602333,11.396837051345802,0.1316323752071957,-7.3060222350243125
99,-0.1576201837187664,11.613320787056313,0.7418645100850106,-6.349613044544048
100,0.4106529413989029,11.747486881298109,1.4077166931140703,-5.374156518202264
101,1.0217578650294517,11.803615771852863,2.115650438501932,-4.402890166866471
102,1.6511052942938005,11.799246915507302,2.8460393147529546,-3.4512537632912728
103,2.262046884812169,11.763433771277963,3.573712140803412,-2.547254577698446
104,2.810960322214629,11.746369249027909,4.272084429588978,-1.7243574754100883
105,3.264560624056183,11.804464292531474,4.921434993155658,-1.0041480309229158
106,3.610027007524819,11.9682242567861,5.510973691481042,-0.398429700669624
107,3.8548303686685235,12.227902551140833,6.030897627355629,0.08627567099102051
108,4.014825173625375,12.533946315451725,6.466935212239597,0.44839293389343354
109,4.10287468770523,12.815315843304719,6.802973129313892,0.6915272965305356
110,4.137035308586287,13.012976665074813,7.027019440876541,0.8264742977994128
111,4.14041064865411,13.097090653056224,7.135199084454012,0.873281775908783
112,4.129328913876584,13.0650256718833,7.129807115843491,0.8549244805410394
113,4.110173588233104,12.935509289979032,7.015091317057237,0.7891949277489044
114,4.088799986425005,12.739826414188983,6.797374726576225,0.6918814999085655
115,4.08589865784072,12.518063174425645,6.487452386628635,0.5886497839274247
116,4.138478314644371,12.317971549515315,6.10013719590855,0.5202940230580366
117,4.293125509762139,12.181944891265584,5.649702014387035,0.517832984935965
118,4.516800183433683,12.1215854117264,5.145754393094479,0.5315003872854346
119,4.991077450624146,12.13526254304432,4.596532840105254,0.6040315637147874
120,5.7949112072148115,12.204978729126754,4.027414742513988,0.7650559942319178
121,6.928048661839998,12.293526495214515,3.4706738013171465,1.0313473585063075
122,8.328701610336132,12.355810048748857,2.953026296011829,1.3914754108401466
123,9.886741429190637,12.370263094006944,2.4930457790979674,1.8114930996918996
124,11.461798056436686,12.346451025112573,2.107190824207309,2.2539464292208553
125,12.912294453939827,12.30756517804195,1.809521703127022,2.68576704698779
126,14.129419750264239,12.276482399662457,1.6055370844891295,3.0774633397452265
127,15.051312429135017,12.264675609662447,1.487982173497521,3.400779949105778
128,0.04169824647179078,-0.39377680616854094,-0.44650180392095806,-0.2188798792442846
129,0.09651777944754175,-0.8645681595931471,-0.9755212719619755,-0.5750079765852019
130,0.12344880398552574,-1.5252530275706788,-1.7395702447705474,-1.1445609098468137
131,0.06133812123999899,-2.3733539347968184,-2.744322488227381,-1.9649172191301392
132,-0.14083942794180865,-3.393738931269555,-3.9732032070385586,-3.0420116743934997
133,-0.509846658448952,-4.563854819228163,-5.388741294267895,-4.3496123673110425
134,-1.051292714340096,-5.856149837500764,-6.937784202744981,-5.838536204780774
135,-1.7596780024916987,-7.2370847795061,-8.558979187543699,-7.444930738397146
136,-2.617987519990747,-8.664395410039212,-10.191777897705851,-9.091240977797932
137,-3.589887589344136,-10.093285026004798,-11.789782912282424,-10.6906918251468
138,-4.6211376655602745,-11.497713247453179,-13.342144453456434,-12.175452750502686
139,-5.648328309679373,-12.848312629113343,-14.830594863832161,-13.504969166665965
140,-6.612337489044932,-14.10758448218294,-16.246127875779315,-14.658340097262819
141,-7.470883866001852,-15.227485614341711,-17.580790297230642,-15.624574983042628
142,-8.195493693969485,-16.172235873239682,-18.828192012980537,-16.415915472939844
143,-8.763898279391492,-16.93142147258003,-19.988321401952987,-17.073625327214643
144,-9.174429717004633,-17.517512424401968,-21.065362542213286,-17.659575536951206
145,-9.456229803630794,-17.96213708638078,-22.06411311242826,-18.23206549030708
146,-9.651064809521781,-18.315205557765324,-22.988482521336884,-18.817799600887245
147,-9.790472141899965,-18.644883649229293,-23.84045595456022,-19.406569576966593
148,-9.889549151373943,-19.02477679009733,-24.620525923203676,-19.97414889579034
149,-9.964945558439672,-19.511878112544338,-25.33001632427989,-20.50628931535603
150,-10.053145883302305,-20.131844254132478,-25.970872139932816,-20.99506088186449
151,-10.212821346237266,-20.874825890855234,-26.542327325239604,-21.423584644932255
152,-10.50459556947354,-21.700470038279658,-27.04206288692015,-21.767108450849822
153,-10.961687438130394,-22.5568147970238,-27.472676386922146,-22.01350182943562
154,-11.591354584156344,-23.40183440741939,-27.843507069107567,-22.182651457270964
155,-12.390503182868176,-24.202445231877466,-28.164926216322264,-22.31173243676321
156,-13.351063827291714,-24.923335555123874,-28.441011371148228,-22.419440512068867
157,-14.455572987845782,-25.529817258911084,-28.66778570349775,-22.497120837228316
158,-15.66518107998545,-26.00319137861853,-28.839889350935525,-22.531403240428105
159,-16.92937717849789,-26.349143988343084,-28.953662054453773,-22.520352812837395
160,-18.21086122682465,-26.58503734981812,-29.004167084911906,-22.468022974226205
161,-19.48532575809372,-26.723490042897257,-28.98638465488275,-22.37010491675305
162,-20.719220479883855,-26.77009628332692,-28.897251750097936,-22.20951767961624
163,-21.856361300282916,-26.72470913200884,-28.733323157145698,-21.973558287518713
164,-22.836618530757704,-26.575660999477936,-28.487661571796156,-21.66565339414458
165,-23.62952075369042,-26.305212709473423,-28.15024217393619,-21.292768973115162
166,-24.23996593480061,-25.909866559967135,-27.712222095556093,-20.84767097105229
167,-24.67172684362914,-25.40585397965571,-27.167983299226417,-20.30822567470956
168,-24.892835817752335,-24.814990754622762,-26.513227921969314,-19.65206222547823
169,-24.850015969484616,-24.162613510921577,-25.74504167974082,-18.86230427352241
170,-24.508994834691396,-23.489582819375283,-24.863059763398827,-17.9242695022583
171,-23.87217678483373,-22.83664719276011,-23.870599770698348,-16.824012888764198
172,-22.969929356876776,-22.219242628905405,-22.776884706891646,-15.554789559055447
173,-21.85031725790262,-21.6350928531349,-21.60093149394529,-14.138160553796649
174,-20.576669004933873,-21.07692863613145,-20.37590623962094,-12.632926672065542
175,-19.223716653109438,-20.53063293087481,-19.142773601749973,-11.119429449643459
176,-17.858996516888467,-19.97273666804897,-17.935448805136897,-9.672719742716124
177,-16.515908661292798,-19.378376338879075,-16.77347050780267,-8.343342268811384
178,-15.192443615983674,-18.732873170055466,-15.664670765174005,-7.1617093871233255
179,-13.876101628784664,-18.03160092499828,-14.609519465117847,-6.152649314180573
180,-12.56013437363768,-17.27404723576575,-13.602453675370992,-5.345037198405289
181,-11.2364318981958,-16.472167375280893,-12.635557741339515,-4.759137145072372
182,-9.884172487649955,-15.662990659700707,-11.703561695997784,-4.384292364762492
183,-8.467529768369145,-14.897404000863677,-10.804785507780851,-4.179012398951291
184,-6.939503792974139,-14.22589194162992,-9.946955049487586,-4.0959521403260135
185,-5.277014956692997,-13.696680638598327,-9.157828433455924,-4.114784605677666
186,-3.513625774742309,-13.342180682680302,-8.478589397628538,-4.247548806697235
187,-1.7269918414334402,-13.15329624290202,-7.943067521969455,-4.514982771148617
188,-0.004699681838773784,-13.081019023269132,-7.5670056666682495,-4.92525263493813
189,1.5914360896206077,-13.07418748556218,-7.350944913306224,-5.472377674683269
190,3.0249935536164623,-13.096630431850986,-7.285636801484215,-6.14276929264158
191,4.256153645064111,-13.113385885244703,-7.349402492555271,-6.91234200900563
192,5.231684669952917,-13.089881463699879,-7.505785567173764,-7.741273822278294
193,5.900468087208104,-13.003502702938428,-7.712905972812512,-8.574398177362568
194,6.2397287937293555,-12.84384173826475,-7.932995689661525,-9.353640906271487
195,6.258539253518729,-12.604866457846938,-8.135069567779754,-10.03039269748989
196,5.978288817248017,-12.288221964680437,-8.297560464359494,-10.559979728511372
197,5.420205981671573,-11.908684816294024,-8.410934968912443,-10.89421080367013
198,4.614443729242966,-11.485453037971396,-8.474926410438265,-10.993730323126295
199,3.6197981907042887,-11.02861319938097,-8.493221146762215,-10.85805280338275
200,2.5105723678807643,-10.536311069293562,-8.4685185383243,-10.533676445465709
201,1.3335752887761905,-10.001936618049122,-8.394220652929077,-10.083118299331412
202,0.10415936900188033,-9.415245880446532,-8.249281622923338,-9.550646412588014
203,-1.1546264850609194,-8.758178644284394,-8.00826337221564,-8.955904536746283
204,-2.403100291333247,-8.021418379518408,-7.6596542755834,-8.309679885174546
205,-3.6068468396227735,-7.2332969385844175,-7.211389119517248,-7.629249208243527
206,-4.756584807045951,-6.456812608805604,-6.684397107738321,-6.942863258238804
207,-5.8730552431984115,-5.751892357930344,-6.108544307101652,-6.2766902514364
208,-6.973649684159001,-5.139315337265995,-5.515286516123795,-5.635391161257091
209,-8.03602887860587,-4.607029475971075,-4.924507488802288,-4.995226633498646
210,-9.000454106048453,-4.1408663866524735,-4.342864639391582,-4.320278355601932
211,-9.802790913872245,-3.739021512002014,-3.771578975807531,-3.5821856097040876
212,-10.403736708536787,-3.400582569645719,-3.2105289781102613,-2.76073728562806
213,-10.785375378945934,-3.09841008808448,-2.6607076925948063,-1.8480781772282229
214,-10.943733482247042,-2.7765259838974057,-2.125846712312749,-0.8699599320620902
215,-10.898782956756364,-2.3740233289628487,-1.6108974238870835,0.10961893691729796
216,-10.701122040864602,-1.8447583934610015,-1.1161516005226046,1.0159774467408984
217,-10.412516246762843,-1.1766046696548895,-0.6268374905441846,1.7959121938346079
218,-10.061155084122968,-0.4298046028108269,-0.13236503291404414,2.445367314160727
219,-9.64012219998174,0.2866295278060813,0.3297458943513091,2.992673144968755
220,-9.153636951036262,0.9166921811465226,0.6907783338087399,3.4467608001459284
221,-8.62349740795409,1.4634494213755722,0.9127689813053452,3.8005090025808275
222,-8.055377739250277,1.907204319655033,1.003216312806923,4.074828832948855
223,-7.406472104145463,2.1589302212065262,0.9910872750794417,4.361309737388548
224,-6.5717190220731965,2.1111058941389635,0.9071074107800651,4.837653824879824
225,-5.415448487014289,1.7404266231279053,0.7889896056803023,5.7029476816283795
226,-3.833499422760759,1.099909520206002,0.7070279908033623,7.085016927404021
227,-1.7914670413915177,0.20715123913611033,0.756404972832304,9.020811227428752
228,0.6436179401319195,-1.0578345325118033,1.0157661075574846,11.44807830567397
229,3.383582534845477,-2.9488661694336815,1.5137695607231991,14.26571508798605
230,6.502797063349525,-5.733920266928525,2.219526266281227,17.50223104621907
231,10.18505923554134,-9.62619521174694,3.0651952371415305,21.293303852640268
232,14.515342405624281,-14.824332854935873,3.983906479545078,25.698416950130834
233,19.414352339489838,-21.498245265000772,4.947680422140116,30.624337206048303
234,24.666957065120183,-29.63616199869514,5.9484248936954085,35.848620268241575
235,29.959864448625332,-38.96648930984376,6.933580529473529,41.057834101332084
236,34.92636092949734,-49.092646890162555,7.841644646918697,45.87512250169775
237,39.223597408290374,-59.54811224065491,8.677356344374843,49.95286576734594
238,42.60187523984663,-69.69114105099234,9.514125010420434,53.065953310425556
239,44.897594251453455,-78.65039919876884,10.471222707157494,55.082645581907066
240,46.002956359163626,-85.38371903479702,11.688770517064928,55.908282541782064
241,45.872062041362796,-88.81770380307462,13.305657416972746,55.471963452722335
242,44.559089180469975,-87.97799222234518,15.422212909227257,53.77045415109131
243,42.239440726744306,-82.00914822921798,18.05179811487965,50.93625116956181
244,39.186231729609794,-70.13960570756576,21.139571282802404,47.224515051829854
245,35.725991536861656,-51.75513365168124,24.634789053129648,42.92287922062286
246,32.112257999708575,-28.867526977964985,27.805537989960957,38.416486329809466
247,28.524516982049406,2.259631324479532,31.81751074245591,33.42472059499556
248,25.020822179699994,42.2589955204024,37.2188659278297,27.809759154426523
249,21.72165726646436,89.62743363489082,44.06254638242243,21.692545621443358
250,18.812974667060704,141.53152205461407,52.04686934364502,15.399798803507686
251,16.429059992016928,194.4156036918417,60.67804022425082,9.295730811263622
252,14.6377899153077,244.60588369566207,69.42689365209836,3.7241209276250244
253,13.454214233672149,288.93967800850095,77.78739139846627,-1.0064400205514235
254,12.830801646488661,325.1648745905082,85.24731981017797,-4.676688273039067
255,12.64591528295219,352.0315614100884,91.3337431414206,-7.232350517462958
256,1.4527232625325346,12.276673951166718,6.343630214836972,-0.27132647310488034
257,3.3049840574295373,27.08368213203277,14.653310424743994,-0.3650368238547207
258,6.061779405751752,48.43337984630403,26.92951810120456,-0.3791783310550545
259,9.770765788831042,76.47551606688528,43.38838046043884,-0.2710327754632025
260,14.402198585416821,110.78230111465767,63.88460597948542,0.010427681812973072
261,19.85977582298486,150.37580266197605,87.89046918050533,0.510733609473903
262,25.973710346265634,193.8396342108034,114.52691721732597,1.2411081086415119
263,32.49773199117866,239.51549130558183,142.66126013778413,2.1701894228566543
264,39.13658661888656,285.79157538792475,171.0817373479689,3.243668903485102
265,45.61613232669968,331.5182153116227,198.7510494496668,4.397480448529116
266,51.782558541309044,376.541748174986,225.12286544589966,5.5520296794275374
267,57.43976778630276,420.3361138552189,249.44648005416127,6.620041285007009
268,62.40973031098462,462.46414505354966,271.0702328925154,7.521443393081753
269,66.54219326570562,502.53492560037193,289.47381912282236,8.19850282802981
270,69.73299493587585,540.1497541150078,304.27409892360026,8.606232128437261
271,71.9331915348875,574.8705075025613,315.21956529026266,8.689016915903705
272,73.13090256654367,606.1909460679797,322.1769336284534,8.368897601501601
273,73.32725531070231,633.5184530991951,325.1075736978891,7.564871131017868
274,72.53119683306605,656.175991892165,324.04035055927375,6.228094129996965
275,70.76483054207159,673.4374440672793,319.05424528610365,4.348802602846552
276,68.06172522868498,684.5958997119338,310.26630606265604,1.935348398062898
277,64.46030946672145,689.0260337807791,297.82177554613185,-1.0022669381111953
278,59.99620430328154,686.2360408294438,281.89664285970696,-4.437623960650628
279,54.709810830384306,675.9128205724262,262.70110633014565,-8.300016730555527
280,48.668608808365526,657.9430356355531,240.47390255590506,-12.481233207413934
281,41.969119831160384,632.4116945089495,215.47722633924724,-16.865573262669415
282,34.71660311903067,599.5634332845641,187.99404253397134,-21.351229761487527
283,27.005418800044637,559.7335913818703,158.33243611317124,-25.857065640570806
284,18.924234374681323,513.3246322433823,126.83941124044563,-30.31535906426072
285,10.583685975869427,460.8305696033903,93.90331285201015,-34.66301877806065
286,2.122434552832919,402.83753330490595,59.94408868351491,-38.840972178222835
287,-6.322258306451043,340.017405428717,25.40477677109405,-42.796595331397505
288,-14.648604461895356,273.13329344090175,-9.258146003854542,-46.48145090664206
289,-22.79225896729361,203.0288734433953,-43.58491644545803,-49.84430442841801
290,-30.702852960009526,130.60508710925066,-77.13011730601129,-52.82907875241224
291,-38.33059319011652,56.783197022485155,-109.48372853187054,-55.38614187670638
292,-45.62468231409304,-17.53902110033108,-140.2884759031348,-57.487499404629936
293,-52.54590962286185,-91.5311696332745,-169.25795892494918,-59.13645223865621
294,-59.08573399547945,-164.4588654478658,-196.18061813473426,-60.36547714347108
295,-65.2570828383329,-235.67729649333793,-220.90742653816477,-61.226019689074114
296,-71.06489677317134,-304.61834681451444,-243.3358304187721,-61.78068712632673
297,-76.4942904090069,-370.78261061562904,-263.3996022857518,-62.099824322277705
298,-81.5232369768401,-433.7309984335491,-281.07180344900536,-62.26022145793955
299,-86.13852298703556,-493.08720088815505,-296.36761036703774,-62.334092242133195
300,-90.34007619122049,-548.5423791901261,-309.3358351450261,-62.366299450945675
301,-94.1337621029806,-599.8521742171682,-320.0494714550138,-62.36618073737508
302,-97.52109455753755,-646.8305682401241,-328.60337224654927,-62.326354122017534
303,-100.50216845459884,-689.3417096521033,-335.1097094061702,-62.237564642152314
304,-103.07873675606645,-727.2842283064239,-339.69113049735773,-62.081878337307074
305,-105.24528908741783,-760.5859861743004,-342.47853078524173,-61.8234879250307
306,-106.9840603116769,-789.2029756521152,-343.60495562963587,-61.41657973873252
307,-108.26510253126739,-813.1083171332672,-343.1969336683424,-60.829058267551154
308,-109.06162181616072,-832.3026124981271,-341.3718277647253,-60.05512209302021
309,-109.37244718182366,-846.8385604762981,-338.2359113517064,-59.10264879400218
310,-109.22110481052896,-856.8348701757951,-333.8822324919767,-57.97846386514892
311,-108.63673789186346,-862.4770984452937,-328.398910518528,-56.68861114495506
312,-107.64191375019374,-864.0220082785411,-321.88415404919704,-55.251139148019945
313,-106.2647687501484,-861.8084468676659,-314.451720547116,-53.70940655970342
314,-104.56010084104042,-856.2426579061442,-306.2251984210949,-52.12466177348126
315,-102.60884981128046,-847.7600246332835,-297.32620139014637,-50.54444238849113
316,-100.48035520277668,-836.7706625797839,-287.8620301853985,-48.97716722024407
317,-98.19114660326574,-823.6037870490565,-277.9196213831976,-47.38803302761097
318,-95.71721206809181,-808.4954653907463,-267.5680507475132,-45.71023970399002
319,-93.03646042375414,-791.6096254034255,-256.8637115452342,-43.86304648046965
320,-90.14255785210798,-773.0481911949596,-245.85332897926256,-41.7657657866274
321,-87.03051499355936,-752.8578939431749,-234.57813585031155,-39.353645227855985
322,-83.69194162645586,-731.0672804976542,-223.0826660104391,-36.59710557620459
323,-80.12641504487124,-707.7287356138204,-211.4258180057233,-33.5086088023227
324,-76.35458156048065,-682.9313842313728,-199.68179889944415,-30.138556756675545
325,-72.41924229124857,-656.80973736621,-187.93003895817398,-26.563999856652433
326,-68.36308059607215,-629.5520265358097,-176.2482331483686,-22.869813418483165
327,-64.21526948246245,-601.387942053274,-164.7116023964014,-19.13489055674441
328,-60.003387624734664,-572.5706214249699,-153.3904451121741,-15.43433867941883
329,-55.764165495053064,-543.358000753551,-142.3464640912446,-11.847953850776
330,-51.540975080927694,-513.980197494429,-131.63073372531906,-8.4465015718893
331,-47.36232720966105,-484.60994991360604,-121.27846774592783,-5.266427402167117
332,-43.22638226419371,-455.3541393855044,-111.30427072405939,-2.3095635032706454
333,-39.122988826322775,-426.2604146227566,-101.71410854419823,0.4262159335577212
334,-35.07042025546485,-397.3465875684023,-92.52793802191562,2.916244919164647
335,-31.124927180846537,-368.6324767901174,-83.78412423174547,5.116400345979626
336,-27.358702686693444,-340.1503884621037,-75.52558686867292,6.993970747168859
337,-23.83714442486844,-311.96023641190123,-67.78920186964577,8.542448265705099
338,-20.60546440358844,-284.1613527215814,-60.60252261389148,9.77147545935721
339,-17.687949547901443,-256.87925289179014,-53.979178556014695,10.689759700156781
340,-15.100132490351927,-230.23833703058148,-47.90845651631782,11.307226545002512
341,-12.855012038233808,-204.347248096435,-42.35765513953938,11.64975866969914
342,-10.944801587112073,-179.3027565022242,-37.291544688205626,11.763312140198783
343,-9.31790385866141,-155.18482003640173,-32.6773985452966,11.697503056320778
344,-7.891371966234337,-132.05190832897406,-28.47668752106566,11.488494689131704
345,-6.577103071600597,-109.94733337747311,-24.64132422512276,11.172481582581906
346,-5.2988459196743145,-88.89802633887618,-21.11402130956818,10.8094128287879
347,-3.995677974905457,-68.91809376428388,-17.83505165273941,10.478204672470929
348,-2.6141106164481545,-50.027717841523646,-14.753227556740937,10.244247278359362
349,-1.1257039628433425,-32.26822108771055,-11.831910081529552,10.134782284185892
350,0.45024646497428555,-15.696969626749445,-9.04334378801241,10.149319270325265
351,2.060408786902507,-0.3616887613551163,-6.35665345151137,10.287769526192955
352,3.6465032234026893,13.731685719691136,-3.7333493075491186,10.557906525887507
353,5.161251721980249,26.62576648486796,-1.1398574306240252,10.953339376252574
354,6.563173626688219,38.39107716464781,1.4356870517309375,11.436956689090415
355,7.805535061330742,49.11863538222224,3.9870504745890605,11.96016437222338
356,8.847516724958227,58.92115133886577,6.505160789720101,12.49838037166927
357,9.682485666720854,67.92607286439998,8.98505912672406,13.058618329901192
358,10.344994263667154,76.27381313087118,11.427241609555802,13.662894186981891
359,10.889809074511353,84.10153291654638,13.841199298368625,14.332993801726301
360,11.362803238878724,91.50285691080258,16.24361140269663,15.07654014246625
361,11.789313396041134,98.50678316986681,18.64866539959786,15.889743945312208
362,12.196218532586228,105.0937303490288,21.067767023237323,16.771952259343674
363,12.62847531749967,111.22225501877904,23.514842095005093,17.729425098735113
364,13.133903652585774,116.85057095420943,25.999182188406674,18.764318532452663
365,13.7359188554416,121.95517664413273,28.51086362761354,19.859199566787918
366,14.42857324545834,126.55163135663192,31.01864876103121,20.981325355171325
367,15.198796374292503,130.71802499016127,33.48045195133731,22.09856662949404
368,16.038712698912043,134.58998985877653,35.84817490632639,23.18713281838999
369,16.945073848755094,138.31745402137446,38.06702311854814,24.224146334810797
370,17.909762633186066,142.01849103030796,40.08132722641222,25.17459582586506
371,18.904058629772422,145.75436003849936,41.84978859548558,26.001382530611057
372,19.87939175496893,149.5207634358751,43.352698644611245,26.6782533368371
373,20.78387489164334,153.23510655913674,44.583475556503544,27.18655428256214
374,21.581530117004213,156.9631770288878,45.55726440881603,27.533195162770486
375,22.23744433633606,160.11183332466265,46.28017287804509,27.656225006385363
376,22.72931166408858,162.28019434261356,46.77879307810454,27.546233966493915
377,23.054890939922153,163.27925322378724,47.09367138911266,27.243246569028123
378,23.237538064708826,163.12249891693088,47.27020038857057,26.81745015303577
379,23.317187536449627,161.97658558775657,47.34851942131938,26.33460916647156
380,23.327760981689806,160.1125505654217,47.35765404987926,25.838988079332296
381,23.29228110613127,157.86557792957882,47.320492046621055,25.36542639025734
382,23.234620999567472,155.58728122023118,47.26200178060135,24.95745883606346
383,23.181490664747482,153.58886408651261,47.20522848417389,24.656903958442427
384,-0.02724340799271252,-2.666370698268819,-0.823955058476552,0.004556241813698847
385,-0.32665159201450134,-5.810949205473796,-1.9290182803494194,-0.26546994507191574
386,-0.8275940426029991,-10.327179658503983,-3.5310315170425515,-0.7464371116135711
387,-1.5625366163271308,-16.24642606848923,-5.6314271337945305,-1.4841982656378168
388,-2.5527138653918326,-23.479946571857717,-8.20934781394248,-2.497701904506935
389,-3.782046260332614,-31.831112122985992,-11.215526813380269,-3.7746589371851957
390,-5.195904353840356,-41.03046871224728,-14.552526077192843,-5.280517331752673
391,-6.7221250745811,-50.783297991324204,-18.076132445787604,-6.96486513391583
392,-8.288590493164415,-60.82096983486031,-21.61483797666351,-8.7615408200548
393,-9.834240622802264,-70.95496812269062,-25.004517809224716,-10.589646034708826
394,-11.318588821562214,-81.14736235748703,-28.13561631370638,-12.367979305252282
395,-12.708842276506521,-91.20947939791539,-30.87529641264903,-14.036402316317705
396,-13.99592811172149,-100.93297307925502,-33.109445331273385,-15.56038692606414
397,-15.186423096903274,-110.11345521289542,-34.74940037748374,-16.91914375039582
398,-16.27287801295166,-118.55438223668295,-35.743186276516546,-18.094705664352766
399,-17.226320029289656,-126.06725029575087,-36.076374796234646,-19.068279142125238
400,-18.01393273080799,-132.47946946934428,-35.76032086541686,-19.823976766026615
401,-18.620816725086563,-137.65643794375455,-34.837799524414955,-20.35599071954495
402,-19.05271170495074,-141.5292999806383,-33.39292530442357,-20.663763543787336
403,-19.317906487946328,-144.09197067873066,-31.541425013978518,-20.74135805905254
404,-19.419953640788904,-145.37231186458482,-29.4084984027472,-20.580455740397287
405,-19.36887479997172,-145.42249492650242,-27.103189828303773,-20.185599739366616
406,-19.197804392067546,-144.31578212207546,-24.717970894448495,-19.586199466261338
407,-18.95797931329989,-142.13549000695642,-22.350037034325172,-18.827639420006587
408,-18.694370776629345,-138.9765559819035,-20.097783141486374,-17.952322969511147
409,-18.43459870473412,-134.9475298291958,-18.04554369099753,-16.991257984712377
410,-18.188393591385545,-130.16490438035163,-16.259325036292505,-15.970917770568203
411,-17.953575039011003,-124.75502096270871,-14.784988721041781,-14.921823025145507
412,-17.728359241963116,-118.84843466990664,-13.645167406766767,-13.870043801813118
413,-17.51586723384313,-112.55512779119829,-12.835682696100303,-12.824433349453821
414,-17.31570885996996,-105.95508182792615,-12.328050350944707,-11.781383070914261
415,-17.112335717228692,-99.11983887199317,-12.079799241403377,-10.749813253409952
416,-16.88095344332437,-92.12833853636029,-12.047847770231767,-9.770960681089297
417,-16.60750719747182,-85.05948834947665,-12.201977990107684,-8.90638763055806
418,-16.299673496557144,-77.97698054965396,-12.520677250825443,-8.211061543848688
419,-15.974259397562104,-70.9233907148282,-12.97362004628789,-7.7184916225275755
420,-15.637354031808059,-63.93807769478763,-13.52410821995231,-7.449991593624618
421,-15.288771607013837,-57.0843416878735,-14.138682662974073,-7.427923452348212
422,-14.938171984847413,-50.44273155158146,-14.784774906383921,-7.659258543908196
423,-14.607520378580691,-44.07362243218554,-15.42556903899382,-8.105892063729595
424,-14.317745704325946,-37.998958382809576,-16.02042276343608,-8.684665054067274
425,-14.070317042817532,-32.20787658421082,-16.532261038180692,-9.307733344223323
426,-13.854258406975454,-26.672022665043873,-16.935024853347386,-9.92188847438141
427,-13.672106988279063,-21.37044859290471,-17.214534570781343,-10.505531271648582
428,-13.543164638975654,-16.297461166301737,-17.36522683964402,-11.046366113614601
429,-13.481234784824641,-11.45215077921036,-17.38700195205472,-11.539326659891012
430,-13.479021066638342,-6.839196145368477,-17.283690361949464,-11.995627782537907
431,-13.51807936437938,-2.477437098501327,-17.06215365504028,-12.43944078607606
432,-13.589511467484273,1.6049245748941323,-16.732018609466664,-12.892144720731714
433,-13.695753092626203,5.384898450790201,-16.307988403364288,-13.354854248674982
434,-13.831335950496886,8.847766379458395,-15.810338567246204,-13.807828660484011
435,-13.978224183483997,11.979466700292166,-15.260531492018002,-14.229057961786964
436,-14.117145392257516,14.766095999357226,-14.676047026160525,-14.606535427619008
437,-14.234279910914076,17.204215357051755,-14.069008200220267,-14.934179713048474
438,-14.313415327521353,19.30670205891371,-13.447376569630745,-15.200123215409585
439,-14.319419411536611,21.096339248351775,-12.815703612022842,-15.384817608322187
440,-14.203532679101365,22.596741487874255,-12.175978281316246,-15.471428831853393
441,-13.92409899324662,23.826049237358415,-11.528764307453613,-15.454141445777397
442,-13.457236443176834,24.799035540450742,-10.872914529227144,-15.338609586475277
443,-12.790346124082768,25.534715708033968,-10.202061113747247,-15.127705032890496
444,-11.904792980146377,26.06212732546274,-9.503899696304702,-14.811898510642731
445,-10.780465079003934,26.425684812996266,-8.769962432555582,-14.377319680753713
446,-9.422038538232101,26.679722495005382,-8.005509469747166,-13.818391183655095
447,-7.867891674055266,26.873363102098775,-7.23005719153765,-13.154958007379994
448,-6.171180115419294,27.039351461684547,-6.470880033034858,-12.429632447454905
449,-4.380214415689816,27.18770758885087,-5.754004223893227,-11.679854028552887
450,-2.5319175199261728,27.309270169397195,-5.098884787326426,-10.921819788222153
451,-0.6481956572232346,27.39100328026625,-4.51883470924705,-10.161481513597378
452,1.251943926210478,27.426857846377157,-4.022556432064743,-9.410965606340536
453,3.1296836779483344,27.418031300699266,-3.611613045968925,-8.684669297976422
454,4.920261994142083,27.3689201879246,-3.2769184724921514,-7.987382589113781
455,6.5490166405573325,27.282909914284186,-3.000850374461379,-7.312835038900254
456,7.952457796644514,27.16445506580423,-2.7650812320293694,-6.660939628464827
457,9.083852072172961,27.01981409566551,-2.5552915375199596,-6.063580954093245
458,9.906476123520765,26.85166825891106,-2.3597496256240715,-5.570321459284834
459,10.387718119769746,26.65874744033083,-2.166800633737665,-5.2035945182438725
460,10.505715789707462,26.441704427468576,-1.9628743430130877,-4.949848800187384
461,10.266496771419396,26.19952433329556,-1.737968025243264,-4.788986867786228
462,9.705653322547585,25.917398790355033,-1.4942453744730397,-4.71229027437224
463,8.865910313591584,25.57808129397498,-1.243481417907255,-4.710637983245895
464,7.778743154238886,25.190755494033247,-0.9986280340350024,-4.754441233291327
465,6.471094974065145,24.80144282922696,-0.7676079891349417,-4.795697365607203
466,4.985581530073739,24.481845214634422,-0.5497242105236853,-4.796041303975359
467,3.388137528356438,24.31237519304403,-0.3352235492062243,-4.740112934358783
468,1.755142827783769,24.36668937868931,-0.10787158334741442,-4.623524163787191
469,0.16575241547154612,24.701381629031225,0.15062858985120914,-4.440133347749867
470,-1.2895188372945816,25.352438469950293,0.45586116317150066,-4.179199727682217
471,-2.518322957542344,26.33297679540826,0.8171743105608676,-3.827154477029734
472,-3.45517383628517,27.627790970342414,1.236698688050075,-3.3763044941604012
473,-4.079017687942952,29.188117330144475,1.7090179553280898,-2.837618785160773
474,-4.41397359717496,30.940571616339202,2.223109618402353,-2.2301796556101863
475,-4.505931693381849,32.80439101169222,2.7660366480320473,-1.5664494190528617
476,-4.391633848738912,34.70022813098052,3.3215623587957985,-0.8586397619631219
477,-4.0953155327984,36.559178767684415,3.866347965849754,-0.12450401742462133
478,-3.6460571790896554,38.33585533163265,4.372360914631634,0.6134760885870523
479,-3.082827044965838,40.02157734855778,4.817821649870954,1.336718870623187
480,-2.4401734626312486,41.64386830934591,5.193366551049321,2.0392492703482095
481,-1.7359205918756166,43.242853677097,5.493534108046343,2.721706276461114
482,-0.9755118947951906,44.85321705611963,5.705941856905293,3.3766489465151883
483,-0.17280135620752546,46.49787538208117,5.815909961381936,3.9775001320664622
484,0.6360238819494343,48.18011054977151,5.819830101352218,4.488000078108755
485,1.395375434699934,49.87743720912833,5.726897363955058,4.8808619945364
486,2.0430840669198096,51.54580527393577,5.553268224568142,5.143797638292979
487,2.5321483824983178,53.1331341091478,5.31883383536125,5.26946474957892
488,2.8379172517836517,54.58926914586152,5.04602085168727,5.243826512001221
489,2.948625344422664,55.870799336803536,4.757926472443994,5.059330180780518
490,2.859317909993323,56.94621172923187,4.474494305644737,4.7412980605890365
491,2.5824707487874816,57.79952579235965,4.208612660459946,4.341445555019815
492,2.1615655273741017,58.42694299406638,3.9613587024618355,3.9032116452629046
493,1.649603744879389,58.835048788948384,3.7214586323139796,3.4447104318742405
494,1.0826987928993757,59.043873020386194,3.473039697253603,2.9746502894298974
495,0.47886515555406284,59.08765051570968,3.2030884847417394,2.5178674518580904
496,-0.15762517900961157,59.013104402949516,2.9049807330910493,2.1113622827679506
497,-0.8290240350165692,58.87047037700842,2.5789710004162893,1.775722391000129
498,-1.5392723408538957,58.703221694552106,2.228576401550092,1.4962640026183138
499,-2.293705999428715,58.54418069348027,1.856900596326649,1.229591002865881
500,-3.086592421517211,58.41353089110159,1.4681269531129575,0.9326751932086962
501,-3.879392421669184,58.32158213841894,1.0696354500777523,0.5842347413320341
502,-4.675785352572732,58.31912934943973,0.6484363700960025,0.16031173298229062
503,-5.274335651131293,58.295473744910204,0.2667117747960356,-0.2974745686983902
504,-5.562230327212602,58.17543633459898,-0.029454819047206416,-0.7506579461014646
505,-5.500626744068546,57.91554921435996,-0.2142644607197112,-1.1576615566129331
506,-5.096269417168641,57.50400165192318,-0.281784613668709,-1.4791742467338203
507,-4.390987723132079,56.96036631703222,-0.24228574914705003,-1.6913927892884417
508,-3.469196855756898,56.330085386795346,-0.11789762010368218,-1.7884223114297926
509,-2.4610863073480536,55.67401352992478,0.06235722702211759,-1.7764954870181262
510,-1.5152496744430557,55.06001642284524,0.2677765526236504,-1.6727300420702813
511,-0.7475224858594846,54.55108081058552,0.46906120215425595,-1.507352573632066
512,0.0071243599845273314,-0.1302148179163501,-0.32598259613835684,-0.11460225278958378
513,0.009076486043247262,-0.3567233489915952,-0.7224644514702501,-0.39528480168622904
514,0.010297201436401462,-0.6765389667273214,-1.2717071909485171,-0.8427610470236041
515,0.0026504085082410672,-1.0941058373396682,-1.9602827771245623,-1.4980421592386106
516,-0.03883063279358362,-1.6133691391827885,-2.7630561560942897,-2.3785003150599873
517,-0.1506647302980597,-2.230673695557259,-3.6491071444016514,-3.460701921927511
518,-0.36064411364208526,-2.9391098177694848,-4.5900624192258555,-4.694269120494985
519,-0.6855233251085213,-3.74353798715161,-5.568505966850345,-6.032672157592561
520,-1.1473525121096453,-4.661043356326446,-6.580402241579862,-7.445883232264848
521,-1.7781368618375988,-5.7113640896996545,-7.6345153012527645,-8.913643198598269
522,-2.60397651547434,-6.915045016124699,-8.759049534677303,-10.416416393633376
523,-3.622794549268822,-8.28267873771175,-9.967930806727521,-11.927639655857131
524,-4.79986692874024,-9.810486142001936,-11.265231374093059,-13.43322831655121
525,-6.08614393633277,-11.465283766496068,-12.639003873345796,-14.928066120506001
526,-7.443111819549076,-13.183661000454254,-14.06170130258117,-16.3996343967854
527,-8.841534997880393,-14.890142424080985,-15.496603554037755,-17.820878670379397
528,-10.242893331927084,-16.51793131547067,-16.902441104620912,-19.167865922064966
529,-11.607651002332839,-18.019123769858346,-18.23725366644678,-20.42953675125558
530,-12.91683870125853,-19.36353344510011,-19.469918231059232,-21.593098339476875
531,-14.175010276184874,-20.534500327305768,-20.59042236223062,-22.635792490694428
532,-15.397308712262292,-21.526560128183803,-21.606619324395975,-23.532570630969925
533,-16.59411351504169,-22.344720219320983,-22.535975733084396,-24.274991412364397
534,-17.768933965365623,-23.01017252993172,-23.39722342980692,-24.880736265209407
535,-18.93190027908333,-23.564053456924157,-24.202159305171236,-25.378687181445514
536,-20.101542929576137,-24.048808001826472,-24.952561366455527,-25.781569969783728
537,-21.27462765745021,-24.490081741215423,-25.643489617059135,-26.07732647125288
538,-22.403033599274757,-24.90420909005685,-26.26893061854677,-26.250202702986343
539,-23.41925120598182,-25.30625732984481,-26.82209542868627,-26.30074747562566
540,-24.280401102142644,-25.70412690708088,-27.29179269447666,-26.244683487938943
541,-24.976985573946827,-26.092503621531268,-27.664098376448234,-26.089184007639414
542,-25.50706200038433,-26.454008553865595,-27.929776601000718,-25.819164055857385
543,-25.857950437307128,-26.762568438972473,-28.08996001540116,-25.41306348094138
544,-26.0131824653494,-26.98919296298463,-28.153164103041103,-24.860358744396496
545,-25.972251554391605,-27.111813639703342,-28.12778601125518,-24.162197852326525
546,-25.746598881288246,-27.117339011131943,-28.019751974355437,-23.31945820432598
547,-25.334004792384476,-26.99401478471753,-27.83123939556827,-22.3334055715315
548,-24.71550793020381,-26.72933352896055,-27.559970315019743,-21.22022285450395
549,-23.872457606505897,-26.31897150246561,-27.20515483902571,-20.019619642057357
550,-22.798816334316847,-25.770821138075874,-26.771916613604155,-18.790851871182472
551,-21.49952028019623,-25.094022564155058,-26.268542815447297,-17.592259463498337
552,-19.98173545804269,-24.289011946886724,-25.703985648508457,-16.460179977705447
553,-18.254875133458327,-23.35716502976192,-25.08659864919301,-15.413300343724483
554,-16.343757517076973,-22.32083840451212,-24.4247911253357,-14.474996722897172
555,-14.302555026808816,-21.22273558682448,-23.730205458186816,-13.677868021427956
556,-12.201373504341229,-20.10841820606236,-23.016709059243585,-13.040921855405134
557,-10.095193451765802,-19.023675308464075,-22.29624038470569,-12.549284996230721
558,-8.012369488914443,-18.022614164089223,-21.574217160234284,-12.157293139814026
559,-5.958729980061292,-17.164550566637313,-20.846437633658972,-11.814253949675434
560,-3.933289199881581,-16.501079204117424,-20.101802492367227,-11.487013324016672
561,-1.948370419037317,-16.065183661956148,-19.329697889175456,-11.156168804532873
562,-0.03994381569776298,-15.866502051422001,-18.52923532054989,-10.804627695755203
563,1.7420199864642105,-15.89537461566535,-17.711897713251723,-10.415362637656836
564,3.359956538964484,-16.13500914755963,-16.895628499262788,-9.975309240462714
565,4.790743263232515,-16.5683528932544,-16.099870571096343,-9.480081323491993
566,6.004724002905639,-17.176614132592523,-15.34201347185621,-8.932967070689045
567,6.957582703191727,-17.938588688462744,-14.636448397609922,-8.340602709840269
568,7.602822817292136,-18.833193711312745,-13.998224390994972,-7.7158908166932365
569,7.914246823781712,-19.845547029041278,-13.444114597587165,-7.087729693212426
570,7.8900320767988035,-20.969452530751575,-12.987663833348403,-6.502617478093599
571,7.537690629956257,-22.20177410525632,-12.634049300447732,-6.008386224727219
572,6.869024070803181,-23.53600067021454,-12.377481612984209,-5.637405148455458
573,5.914839882540662,-24.959786592068443,-12.20178691883014,-5.405615167090322
574,4.7416265988882795,-26.455077904169258,-12.084880277143947,-5.318628693324197
575,3.4329856550472546,-27.996415606835512,-12.002788864887444,-5.373930400341047
576,2.045674650467574,-29.55443114645842,-11.932182847654323,-5.556186169665897
577,0.6020539376017454,-31.104873412993356,-11.849327256440759,-5.827588546666533
578,-0.8791025961318792,-32.62913737664808,-11.728619838811973,-6.130983715460712
579,-2.3706394223674745,-34.10930309223167,-11.545852753538318,-6.411784011092013
580,-3.853772105383436,-35.52707194168467,-11.282921419948202,-6.6339372246477755
581,-5.3386661323382985,-36.86569612818111,-10.933986530537966,-6.781856009207145
582,-6.860238114156041,-38.104586921922845,-10.507643151037575,-6.851657904593659
583,-8.438605046397988,-39.21032016366453,-10.02263740226345,-6.839616160175755
584,-10.054906204940316,-40.13996081971803,-9.504394241204915,-6.746309187395626
585,-11.666104691591464,-40.853192643146485,-8.980559842836879,-6.587521434499619
586,-13.227814009625595,-41.318464889546355,-8.473660957339579,-6.393860619839208
587,-14.701906894798263,-41.509847801650125,-7.998099960945264,-6.193364476135677
588,-16.046035038950336,-41.40884925971061,-7.561384675372774,-5.99222498410108
589,-17.212639295918883,-41.013410846684046,-7.1651002256485326,-5.778866389897929
590,-18.161859630385173,-40.341630346944726,-6.807813299578725,-5.543086224038171
591,-18.882354462570646,-39.425377397936956,-6.4880110542020715,-5.288910161387067
592,-19.401454622321275,-38.299485443729544,-6.20280083901819,-5.029203040073116
593,-19.75385208795337,-36.996721194378786,-5.9452797247895095,-4.768629855298695
594,-19.9608265672308,-35.54552492186766,-5.708857458088213,-4.493113608327982
595,-20.040610495650345,-33.97115823563018,-5.496960117038918,-4.18465487052702
596,-20.0073482503358,-32.300758565271224,-5.3227090101805015,-3.8446251151866306
597,-19.859061533440578,-30.562978806173533,-5.198126687985675,-3.4887430349325252
598,-19.568787713214967,-28.785316964548144,-5.127238361177347,-3.1315242183948038
599,-19.088750377954476,-26.998549024750325,-5.1071696387798005,-2.778855682013936
600,-18.369953681580405,-25.246341064048565,-5.128910916343559,-2.4261280310385316
601,-17.38259122517174,-23.580168533470705,-5.173278134320533,-2.060591194246482
602,-16.121036351947605,-22.041490071254955,-5.2119564340874565,-1.6627399199044426
603,-14.590956708643454,-20.649405472206308,-5.212604140527842,-1.2071392512281305
604,-12.794718060074988,-19.39494440893066,-5.138046757293608,-0.6671030395914419
605,-10.736876699533429,-18.242272492976753,-4.9514192178397565,-0.033903867347223365
606,-8.449167878112613,-17.141846660365022,-4.629599058633829,0.6697854947905281
607,-6.006108751191455,-16.05031798609612,-4.1677117501937495,1.4045026630447848
608,-3.510656182031637,-14.938222088989379,-3.577303197399512,2.1349865236545553
609,-1.0575351686224252,-13.78771714573194,-2.8844370983729988,2.8348506850015984
610,1.2823919077019206,-12.588620643763672,-2.123857756273907,3.4774342322621696
611,3.4456981632239794,-11.336964460183,-1.329487858048379,4.032201594308626
612,5.369501157092099,-10.04240517555041,-0.5248405577692968,4.475627743345394
613,6.993814449524753,-8.726532383488156,0.2780965065975477,4.808940557499724
614,8.270199614045007,-7.405653574541013,1.0719756700709158,5.056306570753527
615,9.180986105690453,-6.087447681040212,1.8491602245356697,5.236578096236418
616,9.741402712193667,-4.780841215255526,2.599015661069118,5.344098415680743
617,9.98439054108366,-3.4917968028519484,3.305572465390621,5.353225611519191
618,9.95202672465372,-2.2191245633810324,3.947793717067956,5.2399036398030585
619,9.699721365039784,-0.9600119499244858,4.5044630279414415,5.005464641873505
620,9.301811999793749,0.29162806250584494,4.960265398096132,4.678205230949263
621,8.834065790001512,1.5514156811755047,5.305960537610501,4.293980121969739
622,8.34918543627658,2.839179535944757,5.539368050826692,3.8846708834010903
623,7.877479501854612,4.166804577785596,5.674848583066441,3.48811176213488
624,7.442548746540008,5.545229636600111,5.746193765883193,3.1530737464907137
625,7.0724800951304365,6.994856967099572,5.7967471408632765,2.9281758002452904
626,6.795317417515268,8.533933249776803,5.873073283818858,2.8462161395870753
627,6.624383488112074,10.16800727062616,6.011919756975494,2.9108188088959146
628,6.548617407571599,11.893408742863414,6.220026096597999,3.0976969341838254
629,6.537501809089011,13.705305115960563,6.478449480912699,3.372115476021892
630,6.5584077163169106,15.54450517293135,6.703205543436825,3.708133779008898
631,6.563818172110377,17.454718722380566,6.964160163232922,4.089881011107991
632,6.517877188401446,19.40675801491027,7.29329783613666,4.491577513403981
633,6.399911824095296,21.34341490517647,7.697796325412649,4.892354002954448
634,6.216871876224846,23.201482030874782,8.16889355152616,5.279665244337754
635,5.9969774546726695,24.91437394080611,8.684791852899112,5.639994686571264
636,5.767499158014204,26.419768378880736,9.214829284327731,5.955208207249528
637,5.5423354489389896,27.6657183881299,9.726506769259379,6.208360159139737
638,5.3286523877767955,28.615494461426888,10.190738107374477,6.392413436828857
639,5.1431566960584005,29.25967590109435,10.584889062620464,6.515557131715826
640,-0.16108287497311602,-0.3686824711127751,-0.054514856287356056,-0.2455544742332993
641,-0.4678591363120986,-0.7919984570118532,-0.05235662949453915,-0.7332589531843272
642,-0.933317022433924,-1.3748931633467882,-0.00382536351936158,-1.4568336802409734
643,-1.5629023389846632,-2.119774099465869,0.08578646966677234,-2.4288476702788415
644,-2.3599759513980447,-3.0119688827339273,0.1836619014201066,-3.642013299881249
645,-3.312604723172437,-4.016535388685244,0.23150490099677828,-5.062064916813776
646,-4.368316498449788,-5.084226121093263,0.1534166926657174,-6.624441446296796
647,-5.444679310342733,-6.162211292224084,-0.12978530315811593,-8.243623059138574
648,-6.469859351278926,-7.2013463173674515,-0.686663179458618,-9.833653610000777
649,-7.409101568411413,-8.163424037344654,-1.5636586674482769,-11.325262805536962
650,-8.26892724098994,-9.032459075605672,-2.775396438610074,-12.6757902855844
651,-9.055858396771999,-9.777778596653059,-4.302059967814094,-13.852406559033298
652,-9.783469908043898,-10.362157938266503,-6.094528717224457,-14.862828281495734
653,-10.484953802041861,-10.754987572654041,-8.08008345732686,-15.74246740842374
654,-11.211309783597294,-10.944686273025152,-10.167478898507076,-16.519368155086887
655,-12.0093529996469,-10.934256623608325,-12.256467537285191,-17.207604643404697
656,-12.89739421720345,-10.739979294346194,-14.25641604325422,-17.831399886760412
657,-13.868047684155417,-10.39837701878806,-16.11134090543736,-18.42592062780772
658,-14.908244766891823,-9.960957128050698,-17.8007166645767,-19.01797610220407
659,-16.000373136362736,-9.472293301939272,-19.314274805975153,-19.615442324218836
660,-17.106853383935558,-8.959944766544023,-20.644521873956368,-20.20551299235448
661,-18.174180633853137,-8.444667917431085,-21.79353699393463,-20.76008912679303
662,-19.159469939829926,-7.950254781093292,-22.773959383812848,-21.250463580894106
663,-20.054199898234135,-7.509073742076659,-23.606466875283612,-21.67240622843232
664,-20.87687793602376,-7.161330967723717,-24.315356944875013,-22.044357630413717
665,-21.633124773040365,-6.938049936587921,-24.919925779580012,-22.3762792499547
666,-22.300034317454564,-6.831099975074109,-25.427833760347216,-22.653691674285014
667,-22.84822648945479,-6.807641973231628,-25.838552861208303,-22.85506903432478
668,-23.26413119724627,-6.8644853390851654,-26.148756123472676,-22.97438838372736
669,-23.550672125492863,-7.029566606468252,-26.35314938666611,-23.00979343520968
670,-23.707009748943083,-7.323072700162771,-26.445635187962264,-22.947434479631873
671,-23.71813381849691,-7.741104027454523,-26.423848290499556,-22.765461999273512
672,-23.564473774000735,-8.265284169414103,-26.29524820357781,-22.448593139292115
673,-23.241168078125927,-8.877215614868138,-26.0807061693251,-22.005381511153864
674,-22.766303654891182,-9.551904905452485,-25.81152797278169,-21.465341629799514
675,-22.169475036559227,-10.243705497240427,-25.523696990721497,-20.861276142445856
676,-21.47968344046728,-10.89415060551479,-25.250898044395168,-20.21571684865747
677,-20.71537020322811,-11.449980286027039,-25.019536635898856,-19.54729963194127
678,-19.885747980259072,-11.868576798383476,-24.84425082081098,-18.88763704106945
679,-19.004389131158668,-12.112238372031658,-24.719877563400196,-18.27076170644429
680,-18.098225814124618,-12.145100991864867,-24.625428072744768,-17.705795784688497
681,-17.198006014917414,-11.95216947258007,-24.540055882152064,-17.17559532779709
682,-16.318923064267448,-11.57143199255845,-24.45402489006886,-16.6705181511005
683,-15.467374693115811,-11.099490118642587,-24.37018150531303,-16.21091590557313
684,-14.658616418451324,-10.652717811320748,-24.295053441069903,-15.822555047858769
685,-13.915025398571066,-10.302296076929267,-24.22979612293918,-15.496925875950698
686,-13.253209101974944,-10.06259286078615,-24.16945052143815,-15.18900838189872
687,-12.673660199798844,-9.938240312020344,-24.105917514002975,-14.855151185105086
688,-12.166382350562477,-9.93847576273542,-24.02983918396819,-14.478608087711052
689,-11.726360731511908,-10.061612245631567,-23.928620002643164,-14.060710823504989
690,-11.361520149597471,-10.288022645983563,-23.78300791631611,-13.599208430987526
691,-11.080871294663133,-10.587797501000797,-23.567036384824497,-13.082425343171433
692,-10.882691182919906,-10.942427160721612,-23.25231789663673,-12.506398400098696
693,-10.76365785070556,-11.350674163406701,-22.814706178923313,-11.886547323150918
694,-10.732974122019998,-11.815271579024138,-22.24063960195369,-11.253891578535537
695,-10.808932419842398,-12.336024398210915,-21.532931879991516,-10.63767559971213
696,-10.992164633911003,-12.909825422462056,-20.71564416783703,-10.05117542066233
697,-11.24992711407714,-13.529839799429332,-19.828923984210302,-9.505306066457885
698,-11.538541924286639,-14.180812340428933,-18.91539561107443,-9.022592326001957
699,-11.83726864698097,-14.830940013791398,-18.0115546151522,-8.624930896847225
700,-12.14429400528691,-15.434439831877036,-17.14337787911049,-8.310914972619452
701,-12.44266630277977,-15.946290760449706,-16.326134501647076,-8.053543983816592
702,-12.693704667241992,-16.337228806123466,-15.570329700404857,-7.8265399680333765
703,-12.85925678611684,-16.605777406587915,-14.882335555233594,-7.6191486463647395
704,-12.921528951048064,-16.77154856138433,-14.259226379552286,-7.42309049337694
705,-12.883982406222163,-16.854346051682352,-13.690681380840124,-7.221211505143934
706,-12.755808718022692,-16.867786925258926,-13.16741863366496,-6.989615783585971
707,-12.537020784257923,-16.825976677752244,-12.685776176387787,-6.700177495469156
708,-12.212996172263997,-16.743380128310424,-12.247806429878139,-6.335240376195788
709,-11.768013321864236,-16.627217172474243,-11.861498445133076,-5.907667262675385
710,-11.199130709055995,-16.473598974752537,-11.539490281000337,-5.452254049644752
711,-10.519071902536744,-16.26812263304236,-11.295406593603673,-4.997882743514733
712,-9.745987073183665,-15.988335880374335,-11.138714495006832,-4.546047924105557
713,-8.883776027554719,-15.609306553190006,-11.06944315199496,-4.08240357238124
714,-7.929922864596012,-15.113376503780215,-11.07831049761644,-3.597313594052101
715,-6.893950132364095,-14.500819584314753,-11.148278672135227,-3.0786017832854617
716,-5.795144227064371,-13.791340296666343,-11.252390176855473,-2.506776261785905
717,-4.66019686094091,-13.012827335064125,-11.356948434441216,-1.866104095215079
718,-3.5273133452799708,-12.199881437677004,-11.42862743874583,-1.1579646069327478
719,-2.443833907546932,-11.402850749270044,-11.439447469771205,-0.4126551245989343
720,-1.4575113117516176,-10.675179340512505,-11.36818158922101,0.32050020210583896
721,-0.6090468228659615,-10.054188752445276,-11.196654147174938,1.0008924987277874
722,0.07678201829652227,-9.558715474585775,-10.901448804592517,1.612395505753265
723,0.6027054978984968,-9.187042998062918,-10.462220090082049,2.1495000315707045
724,0.9895695974775855,-8.912554835268372,-9.89033699357422,2.5861163180159976
725,1.2427419876735362,-8.687097417042075,-9.230099264893344,2.875723579706387
726,1.336399735724096,-8.457108143045756,-8.53275134635323,2.9874511987387895
727,1.2473178384654704,-8.181513051654113,-7.835603751552352,2.919543183695078
728,0.9947973714861416,-7.836828399324219,-7.151161879187259,2.6760990270799976
729,0.6286835471247918,-7.417629090702199,-6.466478112031922,2.2496424588376454
730,0.1890621484658015,-6.934744630280133,-5.748344921629005,1.633897730455692
731,-0.3011333864875574,-6.405500320733681,-4.949516138045703,0.8538049837075754
732,-0.80830090735499,-5.840747741564652,-4.017061714380192,-0.02894676413685013
733,-1.2779850126678296,-5.239983164368533,-2.903639460153177,-0.9403515801877584
734,-1.654503613948805,-4.6009558414857255,-1.5792374970706682,-1.8114965778532182
735,-1.9020885416218578,-3.9251600151080814,-0.028810240646272356,-2.5791429468204723
736,-2.0106349613116477,-3.2020379630006897,1.759858412414482,-3.1812549014495026
737,-1.987731050299321,-2.405496701801527,3.7859756343441155,-3.56729171488833
738,-1.8485974758763815,-1.514863675732975,6.014575188928124,-3.7241264668956022
739,-1.6162042074719047,-0.5229667672344376,8.372948646800813,-3.6847227172660646
740,-1.3352651550802896,0.5662782436150162,10.76447218088268,-3.507149924797941
741,-1.068723828877683,1.7344452033726896,13.092514164765696,-3.240862937840158
742,-0.8624112699310669,2.951727379594462,15.269261486727737,-2.909583437458986
743,-0.7117599894083335,4.190070841164585,17.207130102252965,-2.5172640800286614
744,-0.564003542089009,5.432202261093898,18.8257399944195,-2.0650237585426967
745,-0.3586446634378048,6.66467228990434,20.064846015142948,-1.5693825153243584
746,-0.0565358937093324,7.866197359691974,20.889590134404283,-1.0546888425113439
747,0.35934344210187474,9.009677946781295,21.295343237375995,-0.5353693938836598
748,0.8868777476892163,10.068519520618796,21.307548040479773,-0.015536830235280602
749,1.5117156823020603,11.014897918020312,20.97642188139934,0.4996072856070035
750,2.2068699217820114,11.815845494534885,20.369658905333917,0.9927040183600457
751,2.927380880223455,12.447691042362697,19.562737617253525,1.4438384756395073
752,3.6166637756810682,12.923522834870612,18.624444577398833,1.848357725435217
753,4.219334073482069,13.287469523195682,17.59719299427319,2.2217293419282482
754,4.696623868479274,13.58249916771648,16.495938910234596,2.5888508734508897
755,5.028345403759261,13.83912090235583,15.329736868975985,2.9700498050222732
756,5.203367371698567,14.081277256887116,14.112350180235183,3.3798214711041354
757,5.236100824128295,14.328909965664524,12.86575849123798,3.835631717059427
758,5.152829903003165,14.60219303668371,11.654717042637957,4.355190939848151
759,5.089833011501948,14.895648547115693,10.45528815785203,4.960679918166503
760,5.128783640790207,15.189245889470774,9.272106526302784,5.629915965973133
761,5.287441943739422,15.456130995252758,8.126700756041252,6.321621389352182
762,5.5418463546347,15.675338195806665,7.05132155451646,7.0021071840571345
763,5.864013150990729,15.837565334033622,6.080552166330268,7.646522427597038
764,6.234354680892023,15.942023543358472,5.2426127283861375,8.220983893380733
765,6.629605140775881,15.993596949059105,4.555722424969253,8.687023159576746
766,7.010732022159331,16.004657841195293,4.028093170821895,9.022982309202579
767,7.332594233781416,15.995818396079168,3.6572939690816617,9.235825703142098
768,-0.36841977473879955,-0.44742358017497097,-0.5313652594811391,-0.001111048527959485
769,-0.8599485841870121,-0.7686716800212376,-1.1316096884217681,-0.20473929711168565
770,-1.592256280644674,-1.1897712867784282,-1.9637297078134137,-0.5375825255214797
771,-2.5805223591221544,-1.719169933691639,-3.017009645214794,-1.0282067475665189
772,-3.831836370634285,-2.360827791216359,-4.256515168838476,-1.7063531596468313
773,-5.33878835148853,-3.11405464964537,-5.62534483654509,-2.5933641528960822
774,-7.069148283810461,-3.9734747784255857,-7.051343960030034,-3.696296761994903
775,-8.963571323916128,-4.930719214651487,-8.45917110103468,-5.006987741761198
776,-10.951313927956287,-5.978894096583095,-9.784011998780134,-6.504683104888529
777,-12.979070821059427,-7.118866172721862,-10.985409018684633,-8.160130693399232
778,-15.031115573236198,-8.366068606214897,-12.067411235563034,-9.942144668708972
779,-17.0712554419028,-9.69671345409112,-13.026605178662571,-11.822904650937042
780,-19.053517794797482,-11.070167499915625,-13.866759774253271,-13.7719909182529
781,-20.931958120840722,-12.452640498813308,-14.593973689563974,-15.746035600714313
782,-22.66514007559764,-13.825866205260626,-15.215582698269916,-17.687666805010764
783,-24.216605646206542,-15.180658868533715,-15.74219854563732,-19.53737899102626
784,-25.56951699678209,-16.510598315997928,-16.189419117236625,-21.24869099550973
785,-26.731381264265938,-17.80508685642497,-16.576004754108812,-22.800647489869267
786,-27.722181930576102,-19.047641059213294,-16.921396573784307,-24.204055856790244
787,-28.557594614281175,-20.226660318948674,-17.243150774664908,-25.486148096915006
788,-29.231339042320148,-21.34342687773963,-17.553006226130137,-26.663480401896326
789,-29.713273053098565,-22.401758610452184,-17.854675760950997,-27.725581454751406
790,-29.964097700902503,-23.390330942280176,-18.14495875295063,-28.646716482273398
791,-29.949951416027776,-24.288244899907315,-18.41789407952108,-29.411465727656132
792,-29.645481857373305,-25.08931576913113,-18.670283812034093,-30.015821133749455
793,-29.028098189585368,-25.80215829700485,-18.90215598191328,-30.450467207250398
794,-28.077594882332072,-26.431621422550077,-19.11270450718068,-30.692114992937984
795,-26.786610490923586,-26.975379211440085,-19.29756492929314,-30.715175408935917
796,-25.16711507192289,-27.43096080457744,-19.448347913649066,-30.51261168918832
797,-23.248391946672413,-27.795060840580835,-19.557381495409754,-30.102001504829996
798,-21.079951901663282,-28.057200547372883,-19.62427293808779,-29.514785815036895
799,-18.73544457541939,-28.203993739749738,-19.65592280013505,-28.779032467960032
800,-16.307957852977204,-28.231761490210527,-19.662792065812564,-27.91858177613365
801,-13.891123668129788,-28.152312059542993,-19.657455224053095,-26.967893381989153
802,-11.564028255041377,-27.9899855116922,-19.6505775268307,-25.965276884146
803,-9.396904542015108,-27.770928240147,-19.6431540288139,-24.92205908053361
804,-7.458164834018538,-27.51031511853393,-19.627421196399627,-23.81965806040953
805,-5.8128400985221065,-27.214354865266344,-19.598325577578294,-22.641695720361795
806,-4.513194704726144,-26.897985626831147,-19.55831901349297,-21.396838407899995
807,-3.5893430970010125,-26.59290437193432,-19.50988097268076,-20.120241324433813
808,-3.0486109375762154,-26.330439559291264,-19.448769617028166,-18.852545627221264
809,-2.8697055600325196,-26.110426941654893,-19.36230243464656,-17.627512110273926
810,-2.9923926225198505,-25.895666349918287,-19.23455773470267,-16.48384325959328
811,-3.3260536354367973,-25.642684636980558,-19.057440325338973,-15.466434404628075
812,-3.77805428565479,-25.319060465038184,-18.83200120722168,-14.613928490016301
813,-4.286205086208607,-24.897917385804764,-18.559633196019984,-13.940608489831416
814,-4.825436817927536,-24.36416848205642,-18.237035018047123,-13.422539526221959
815,-5.378239777348578,-23.72814784787162,-17.856525611648777,-13.001655975949758
816,-5.910316589495355,-23.022304313354283,-17.408590827426522,-12.609031602004366
817,-6.37982296238329,-22.28419479837693,-16.887062129027264,-12.188437129210895
818,-6.765032005506666,-21.540625530555594,-16.294127595455116,-11.697596741998733
819,-7.08365958249468,-20.797480254004174,-15.640886241982788,-11.11054785419524
820,-7.381933386795035,-20.040937640333816,-14.944962864789204,-10.43033221676931
821,-7.700231739304361,-19.24998360666349,-14.227421226915208,-9.693718693795182
822,-8.052135110256884,-18.404465822515316,-13.509095411308111,-8.962851516956462
823,-8.425597472011441,-17.481564206039774,-12.807497617290704,-8.303576200474152
824,-8.78802166564586,-16.454671692243615,-12.13600265825676,-7.759076423167659
825,-9.089614495571963,-15.30461640062615,-11.504775271066457,-7.33705187727076
826,-9.2738181967103,-14.036802571255024,-10.920127483283602,-7.025763286381811
827,-9.294330592695703,-12.690350322922017,-10.383387664783351,-6.813377617969679
828,-9.117765921292323,-11.324599869092236,-9.889081416506906,-6.68088233286738
829,-8.713098937642402,-9.994033221399945,-9.423927276524752,-6.584579136163462
830,-8.056236217994686,-8.738819376574913,-8.975606522421158,-6.459509007443786
831,-7.142364429450726,-7.5856908575248605,-8.543360316801897,-6.255976314340706
832,-5.987225963798994,-6.544137862220538,-8.137148882802812,-5.973843873892307
833,-4.623217743568112,-5.60639773751406,-7.771680784384633,-5.646372968010329
834,-3.0938384075530134,-4.755390309910198,-7.46196270140134,-5.300850667896853
835,-1.4530580492411957,-3.9720413076500503,-7.218060128119105,-4.951261417547891
836,0.22966946977578814,-3.244034647364659,-7.041757042117056,-4.613856442429736
837,1.878096546896393,-2.5718827246177276,-6.928609268767486,-4.3119056311203305
838,3.429552939699185,-1.9627483698207604,-6.869633580651579,-4.065288343381465
839,4.836819683507908,-1.4157350724219522,-6.850891525810484,-3.873684663499114
840,6.057813010125406,-0.9109768651856295,-6.855066529418024,-3.7158345597427997
841,7.0572250500319464,-0.4184400635944426,-6.865920917837621,-3.568855107038961
842,7.814582816250102,0.0864840339571582,-6.872909629040879,-3.4180974520508527
843,8.327369425895998,0.6179414235604929,-6.871195309390665,-3.2505935057902366
844,8.607852070208194,1.1811507976315192,-6.858923372536887,-3.040995414048314
845,8.682061103322944,1.7719289078394453,-6.8368917077525175,-2.7565448037266185
846,8.591624471408172,2.3728078865631783,-6.809322658002043,-2.384168284360218
847,8.385992965407276,2.9578461875753725,-6.780406066413173,-1.9423671734697163
848,8.105848244344308,3.5032631407275923,-6.747511608138687,-1.4714129102696254
849,7.766700454219095,3.991656922836633,-6.702546082204223,-1.0092532733021577
850,7.359464094272585,4.413460926371478,-6.636899824559843,-0.5784334922579727
851,6.873136575327127,4.769380961260857,-6.538478634328965,-0.1958267796547446
852,6.313398051457545,5.071056000235075,-6.394109994062396,0.12152806256585462
853,5.701938548895399,5.341578778587901,-6.200335710500081,0.3545673011834943
854,5.058692013669212,5.6140361285113265,-5.9652929189985935,0.486547930701285
855,4.380886742234754,5.921031165640915,-5.70081755925385,0.5162999525958226
856,3.6526927566135923,6.276738776857186,-5.416263883867146,0.46742717291572
857,2.8789292153800896,6.665213727629142,-5.120075020990749,0.37713455838011506
858,2.084256796327138,7.050569052969881,-4.82467128835711,0.27290945360595137
859,1.2859074789621292,7.399537132544118,-4.545483379708414,0.16959518663962914
860,0.4903484169183425,7.690158218434021,-4.296089095221318,0.07614661782636332
861,-0.2964769315580279,7.912210134689491,-4.085023790149751,-0.0037330884734641176
862,-1.0667661803087642,8.07006913907345,-3.914320044112314,-0.07002105626764955
863,-1.814403801585494,8.18117499674167,-3.7805715327636036,-0.12066765815668651
864,-2.5348390271764045,8.269601643467187,-3.6764725918272556,-0.1448544961838471
865,-3.2197456697981583,8.358187874757553,-3.589481359404051,-0.11633243473416033
866,-3.8505348251262514,8.463062789373723,-3.5026249245871277,0.0056453594644418625
867,-4.39250002697802,8.587553479008564,-3.4032110227718713,0.24905910360663724
868,-4.808132782464005,8.7160843442013,-3.293609413484001,0.6044152082159583
869,-5.082108662236337,8.820452674718291,-3.190509763392952,1.037708224514317
870,-5.227077658427216,8.877000470804042,-3.11436019372052,1.5172802680553021
871,-5.26945537775952,8.876856603545043,-3.084763893472497,2.021797468428171
872,-5.231933811871718,8.821669130284917,-3.1226738160441143,2.526814760704661
873,-5.135812199108518,8.714506521995059,-3.2483299646385086,2.9987039236327364
874,-5.0208841146436445,8.558851428621129,-3.473116472250001,3.410629575696337
875,-4.947476125327387,8.360263489592707,-3.7921400882495626,3.7640973369935584
876,-4.963508901131126,8.12407012524581,-4.185017332092145,4.086506132774771
877,-5.074816751811532,7.855761055339604,-4.622945362233289,4.4068878360803385
878,-5.254145856070156,7.5581566435968375,-5.07363034493659,4.746004777081277
879,-5.4621331664911885,7.223835024206844,-5.50452783135841,5.116659522284827
880,-5.660289426671243,6.836297178450266,-5.887302647240962,5.524010059425211
881,-5.811702508781574,6.379922302484101,-6.203663651575912,5.9719692522836345
882,-5.873701318488603,5.851306494634126,-6.449599117942892,6.465288966770851
883,-5.81131211892022,5.264689474137433,-6.635069690201314,6.997386327407378
884,-5.625014247417582,4.648197780722159,-6.778134854667243,7.541825649146183
885,-5.349551231168375,4.03492935814101,-6.895208267316823,8.069490024818567
886,-5.04215933629402,3.4774003266738607,-7.025554659502351,8.57646763364413
887,-4.736093541574082,2.921598751280122,-7.126682751693897,9.003314048036513
888,-4.466073598848032,2.3356134622643125,-7.174333868901654,9.303591041195917
889,-4.269115264282284,1.7099308125185733,-7.157562626018805,9.451942268806302
890,-4.171374838322739,1.058988867719282,-7.074645195152279,9.448831739883392
891,-4.168676248250536,0.41227647680318463,-6.93101388398847,9.316513372268679
892,-4.226569377768122,-0.1992469794816502,-6.739186297301828,9.089536637296483
893,-4.30576670245041,-0.7497344782347595,-6.517848102990802,8.809073855357898
894,-4.384692709580249,-1.2196001083960841,-6.289691723324097,8.520421051640394
895,-4.455997092137967,-1.5942165227819853,-6.079275842438266,8.268470507031175
896,-0.41995732982814704,-0.07310541564951428,-0.5532699759680795,-0.19309775966946313
897,-0.8555144049371923,-0.3320563649549595,-1.2818159111273237,-0.6368587966152666
898,-1.4620889684906508,-0.7650671928980199,-2.3428900413396314,-1.3275037607121865
899,-2.2290770565018314,-1.4021890841102898,-3.748531545461587,-2.2761665037682866
900,-3.137842182545288,-2.2632806547160995,-5.48236141836131,-3.472036890531154
901,-4.166917488260532,-3.3467450383426227,-7.493234811436031,-4.877237070849865
902,-5.281481066757245,-4.620528961228212,-9.69972079130864,-6.42878618097144
903,-6.420875993957704,-6.0283131207821095,-12.004739650075877,-8.048983765137606
904,-7.511502598208398,-7.5054308568575765,-14.312578578525933,-9.661737597795184
905,-8.501062868394197,-8.993205676245974,-16.54770042830639,-11.208914730216087
906,-9.392137434836613,-10.45318578007267,-18.68176612567268,-12.661269729327403
907,-10.190600136485276,-11.860742963935783,-20.677569260040496,-13.98489654632161
908,-10.896618068203301,-13.207718532713983,-22.512254160557255,-15.160130191915744
909,-11.506364234082938,-14.493465880339233,-24.174755373388262,-16.203144391038187
910,-12.036351665734692,-15.72453005783344,-25.661195802113873,-17.160373528454944
911,-12.53415274066113,-16.914891193367353,-26.971296268029903,-18.07231950912838
912,-13.056078028194396,-18.079458153905676,-28.106556002066874,-18.953793117557556
913,-13.628455337901308,-19.22713212074783,-29.068533310898268,-19.80527825666396
914,-14.244048504295815,-20.359658944056577,-29.8572542027299,-20.619778909974332
915,-14.891454209111695,-21.467467660653227,-30.469576439882236,-21.3828067947878
916,-15.567953404652746,-22.51856739339843,-30.896831733703085,-22.070107390336446
917,-16.261364312329523,-23.46492656781209,-31.126036766618824,-22.64342522135443
918,-16.93750210228964,-24.269107583698293,-31.149386917363234,-23.05984437979193
919,-17.557730136601485,-24.924544368869746,-30.968480690559918,-23.283654160879397
920,-18.101862184472896,-25.45015523707955,-30.589652254161237,-23.292900273333526
921,-18.571512276822386,-25.872326371721755,-30.02613534734475,-23.08298299298668
922,-18.968649909519453,-26.219026721347536,-29.304785967698137,-22.665947061801415
923,-19.280161689641524,-26.51793538418989,-28.463219786528256,-22.07073439347177
924,-19.49065987254355,-26.7886410115628,-27.539018975471677,-21.343993220168063
925,-19.6052578676344,-27.039471363007966,-26.565322066599002,-20.541295708153424
926,-19.64886188455506,-27.272022887432247,-25.573101604668373,-19.703226374936307
927,-19.638471670598776,-27.484492974739908,-24.58932543566949,-18.84388453739574
928,-19.574627392941306,-27.669862092901813,-23.633655224360425,-17.969526025173714
929,-19.460898303048506,-27.815233800378202,-22.718970102000817,-17.099516549374872
930,-19.320647712122444,-27.905015244626462,-21.85158564477249,-16.270157177450038
931,-19.18530809742637,-27.923109744849484,-21.030521666418355,-15.519819069115872
932,-19.066151653849445,-27.853078624789298,-20.24888504752943,-14.870222070534016
933,-18.947233826085306,-27.682263242289178,-19.498793593581496,-14.3234748909649
934,-18.795834893798713,-27.407042910952878,-18.777284052628904,-13.87783498266104
935,-18.584464790858558,-27.03376189050308,-18.08672179191219,-13.541059846648354
936,-18.3072771247428,-26.572159724766667,-17.431933068124152,-13.327377537004402
937,-17.971702729776432,-26.027712091388615,-16.81850356701019,-13.245163962729247
938,-17.581514961006558,-25.403840362710262,-16.24772750594106,-13.283780092584617
939,-17.12752435641126,-24.707277791104833,-15.71158120060426,-13.419172881598668
940,-16.602681957518374,-23.953376121210564,-15.196621884828472,-13.630714263985112
941,-16.02239261010865,-23.170147680753736,-14.692065028544874,-13.89864581009289
942,-15.426307205866795,-22.39029249515579,-14.191463223832084,-14.191097821753049
943,-14.862047847325236,-21.632615179205903,-13.689712235043768,-14.466361998185402
944,-14.36164364756105,-20.89331466830042,-13.183498906788635,-14.694347952370276
945,-13.940683813245322,-20.156976893386087,-12.675168110873962,-14.874865479314135
946,-13.611381875651311,-19.41288109569043,-12.173852201640145,-15.023828257480016
947,-13.385639002601543,-18.66055022429793,-11.691629082306418,-15.148395849017598
948,-13.265534089288442,-17.90581736228775,-11.237598864833952,-15.245238137231258
949,-13.228119622978527,-17.164979009561264,-10.817158347998275,-15.313192825866453
950,-13.2316738811886,-16.472577526296106,-10.436241245940824,-15.35938449199268
951,-13.244398618901128,-15.867719602333564,-10.099159112385898,-15.39347714667482
952,-13.256942135426218,-15.371705203106712,-9.803963949399735,-15.417321935267198
953,-13.259727722849636,-14.985885662813835,-9.540484835560221,-15.413244302143335
954,-13.224121350883033,-14.703095451222048,-9.288400854930769,-15.338669919167828
955,-13.12405324082231,-14.509962108231578,-9.022042035485416,-15.14556912616436
956,-12.964425978780216,-14.381406344433243,-8.717781233252651,-14.803394305016646
957,-12.774692853341605,-14.279509502274918,-8.355893066255017,-14.296215112369925
958,-12.5746422644289,-14.160876763328828,-7.921706755692356,-13.617919807823903
959,-12.35109951736684,-13.989284966261527,-7.411459493171361,-12.785514082064852
960,-12.076390365424604,-13.748860871390796,-6.839324561784649,-11.845243336528513
961,-11.743338163864806,-13.45120115535272,-6.235820257183132,-10.854481657955523
962,-11.366801771746612,-13.126096746626315,-5.638062287845603,-9.856931928045908
963,-10.958211216641027,-12.807784401369728,-5.080049875137628,-8.876067202952495
964,-10.516588252098005,-12.530419004793318,-4.590137641087106,-7.928893150415878
965,-10.039201603015917,-12.325543420065996,-4.194757289358978,-7.032901582083126
966,-9.534413946953666,-12.21267230570128,-3.9156968452626204,-6.204452462258193
967,-9.022832860477399,-12.185851174061261,-3.7594978308455342,-5.452397294710669
968,-8.519882892061354,-12.215748984523486,-3.714957765140739,-4.766947248104898
969,-8.025745727371453,-12.26677688752952,-3.7607290694246607,-4.123989021052433
970,-7.534788250410113,-12.303584003590446,-3.8706882396352196,-3.5076351503987397
971,-7.050154408676203,-12.292595651421149,-4.017338910717383,-2.933349706745223
972,-6.5806379086849285,-12.2082362485206,-4.174453537400552,-2.4351927369131263
973,-6.123490891076779,-12.033130253292946,-4.316298286385288,-2.0242937138927206
974,-5.664887654680897,-11.755928252575574,-4.417916866263937,-1.6806342918182549
975,-5.190383641878382,-11.372840687653623,-4.457113351883506,-1.3775465229775867
976,-4.696549166574907,-10.889652550093164,-4.415271199724989,-1.0948697390126956
977,-4.197834451299567,-10.318657064775012,-4.275582237340451,-0.8133817706119681
978,-3.7146664705058154,-9.671409402335003,-4.022999603193627,-0.5142455440663993
979,-3.2625670761006997,-8.954991589152776,-3.6502981967411503,-0.18855822804979572
980,-2.848852471020084,-8.17079586256722,-3.1615592195096265,0.15240724279410542
981,-2.4757890150196498,-7.3137049405478605,-2.5700437334015014,0.4720000119911484
982,-2.152847715644587,-6.373743339804693,-1.8952784657563393,0.7216242067354757
983,-1.9007964354500164,-5.346981136520904,-1.1617746279680445,0.8656023509394342
984,-1.729445200653902,-4.250295171337346,-0.3987441208802752,0.8961188679842826
985,-1.609800725384333,-3.1190284334110125,0.36157682520254397,0.8220203933174464
986,-1.4846917430488706,-1.9923978150158828,1.0853847644356118,0.6531642703883083
987,-1.30260205222318,-0.9030352307898057,1.7407944017250467,0.406893403231461
988,-1.0388764649587436,0.13147340053930134,2.305149954786021,0.11886695990067887
989,-0.6861461123481469,1.1154726185095178,2.7713498285679896,-0.16320827780892458
990,-0.22891913569334868,2.069767149091808,3.14939280446558,-0.40096305065690324
991,0.3512173345061914,3.0173527766725745,3.4597194284242883,-0.5743310990286725
992,1.0476637485415778,3.9784837760501532,3.722478630681769,-0.66919907706479
993,1.822626419619394,4.974844335128592,3.9525648428765883,-0.6676095663203733
994,2.630163343180099,6.02569747957344,4.158739791666417,-0.5532642900427405
995,3.4328234576016516,7.133014522557144,4.339528895045566,-0.32376346218131297
996,4.196685619607421,8.269818827103862,4.480335093299717,0.006210326010452044
997,4.882867699448119,9.380815941496312,4.559898218827586,0.4149853829144018
998,5.44899535777036,10.397200540988237,4.560482686824992,0.8875488834614347
999,5.871528012809985,11.259300609373,4.473881501947823,1.4161339609945185
1000,6.1620809088623165,11.929573332582821,4.30292901074227,1.989588527634433
1001,6.3499109144751085,12.396484990180324,4.058174809080268,2.586456075482572
1002,6.4515550007015685,12.668479239287475,3.7534721705818312,3.175646271802652
1003,6.466683167220057,12.760960987583376,3.405649122284358,3.732344342510192
1004,6.403960119229601,12.694411701431946,3.0325131084143067,4.249271486786723
1005,6.292063084573788,12.494940656655055,2.647037158887576,4.729904112290847
1006,6.163438284238441,12.18368901600029,2.2552521308260585,5.17638760516393
1007,6.029677090251845,11.767507034538122,1.8613895030830885,5.57539526403101
1008,5.879913453922127,11.244456029090289,1.4762810246003606,5.899812986676175
1009,5.706072159973322,10.61121184297598,1.1215720607896162,6.124786780695488
1010,5.509335388383725,9.863141095578529,0.8248605296738001,6.240256742248469
1011,5.2890103639660015,8.99834705110399,0.6081236852888224,6.25045156206904
1012,5.035113557832025,8.027584821196184,0.4806223635199873,6.160042110739928
1013,4.7288728258885735,6.979697820497064,0.44201451644771833,5.969173017014832
1014,4.338960170234683,5.902201587105695,0.44610504609734825,5.647824408554796
1015,3.8742637289144404,4.833113927466585,0.5472701902412357,5.259390523499556
1016,3.3640282337615632,3.814586180201935,0.7610711010226751,4.859930826321046
1017,2.838015994159774,2.887674969555118,1.0764730842417438,4.494020478190328
1018,2.321297929418018,2.0904775072334987,1.4665042259705408,4.195422625541162
1019,1.8425189905719754,1.4514932351304117,1.8979321197984496,3.9903706796672145
1020,1.4351074762322198,0.981215082773995,2.3379973946256767,3.8923446870187135
1021,1.1277779930731064,0.6676494394892206,2.7570202886499318,3.890559878622346
1022,0.930548924868199,0.4802270036862851,3.1305574143704975,3.9524319591344987
1023,0.8306947138987006,0.38279862180032664,3.4402670229229644,4.04246876249046
1024,-0.4153075540450346,-0.5345404716387104,-0.4297257228133603,-0.06359293110943609
1025,-0.695839684522046,-1.177613511689932,-0.9764019387135905,-0.1468650671152889
1026,-1.0487296597071134,-2.068944767948909,-1.7656821312373026,-0.25564065225869137
1027,-1.4615591380623238,-3.1872314355414226,-2.8039313688681666,-0.39701400676219734
1028,-1.9125732058794391,-4.497886202783862,-4.080707087050013,-0.5947631754477904
1029,-2.373007085372933,-5.963440021443043,-5.568539115552063,-0.8754657810581141
1030,-2.8110858687349802,-7.545383153553138,-7.224932529127709,-1.2526800301364847
1031,-3.1973979193124054,-9.200819286681877,-8.99660849278388,-1.7222132985620955
1032,-3.511365462539451,-10.88480293194904,-10.82794022375674,-2.2719037774509325
1033,-3.748559077451887,-12.568894378668865,-12.677526693412652,-2.8961735172824348
1034,-3.9356865028256376,-14.270283015113352,-14.540998425891502,-3.6012252402421843
1035,-4.076683282837572,-15.993129481028758,-16.403154103362553,-4.387296235367464
1036,-4.142602544190986,-17.736775966238838,-18.24932939582122,-5.247323131264275
1037,-4.092375589061582,-19.491366267721386,-20.063960085097044,-6.177751031255034
1038,-3.917748113514201,-21.235416923610916,-21.829640160907147,-7.18623463685648
1039,-3.65491216703531,-22.933042946395297,-23.52469366148616,-8.280743416251031
1040,-3.3634721749298295,-24.537872502056462,-25.124593191373584,-9.465166159122152
1041,-3.1095857690221558,-26.011022624917675,-26.608180664940488,-10.747564756930414
1042,-2.958414386573822,-27.333807489300177,-27.96154418278953,-12.142941799439317
1043,-2.9701653370281402,-28.50224246829019,-29.17612406512302,-13.66874941259934
1044,-3.203402800951677,-29.516993520076376,-30.245937787336967,-15.327033777045418
1045,-3.708468948153329,-30.374356912536424,-31.168112826656333,-17.092911425597944
1046,-4.510128596076079,-31.064729482748938,-31.944426123350045,-18.927073975172156
1047,-5.593521612456235,-31.579844257263147,-32.58032571035086,-20.788568255540234
1048,-6.902133848148183,-31.92056488234045,-33.08217500905121,-22.63225608085579
1049,-8.349685052909374,-32.09701997675741,-33.45382520014175,-24.396247029653868
1050,-9.838314808296744,-32.11820571571836,-33.69239251590563,-25.995776305832607
1051,-11.269215638365564,-31.981185403723867,-33.787181561858034,-27.33673975496872
1052,-12.548028573952447,-31.6738144853419,-33.72605383016163,-28.34243541236299
1053,-13.6069930770616,-31.18544187536795,-33.50282796650796,-28.971033223510137
1054,-14.417853982619244,-30.50680191868785,-33.11787599067479,-29.20996346469377
1055,-14.979882252784217,-29.627246098849707,-32.57710521417334,-29.06398397651697
1056,-15.301852699091702,-28.541648397926075,-31.89283046341551,-28.553902243848817
1057,-15.381032320475267,-27.260787508103924,-31.081902610263167,-27.71986597944451
1058,-15.20872604836689,-25.81581440136252,-30.16095937918823,-26.618557316032447
1059,-14.79617920921922,-24.249176771124603,-29.140531123253044,-25.308511779594394
1060,-14.181974690765454,-22.60270974150157,-28.021459836218362,-23.829054389470762
1061,-13.414871111676467,-20.91440271670645,-26.797388890531405,-22.203052389017653
1062,-12.540800257368469,-19.21802959377958,-25.460360821835188,-20.459957477097888
1063,-11.607766361110638,-17.546969283878045,-24.0070025057995,-18.640713884576204
1064,-10.664550833242535,-15.942188374167689,-22.44549108484808,-16.788713062747174
1065,-9.750277170085958,-14.44971956310503,-20.79816617780678,-14.94687994571696
1066,-8.885047165399994,-13.107565351495785,-19.096686398500143,-13.16057691864492
1067,-8.06851973424113,-11.93755058262234,-17.38005093688498,-11.480505285217458
1068,-7.289517193131782,-10.950034164478605,-15.697809729352494,-9.964168013661885
1069,-6.537852253189483,-10.155132087642963,-14.101860292394266,-8.669280816090593
1070,-5.807591429190145,-9.563380884705664,-12.63089454122306,-7.641383292186608
1071,-5.080672178585939,-9.178577947625158,-11.30769495475816,-6.898692573851031
1072,-4.311189194656518,-8.993655120397714,-10.143898964257819,-6.417644877273703
1073,-3.4517406747933768,-8.988098644610997,-9.141601176697028,-6.1441775129426786
1074,-2.5036424610871095,-9.131398734346615,-8.294157664104546,-6.023687936791631
1075,-1.521808134129462,-9.390268399591667,-7.589648928147697,-6.012655391814623
1076,-0.5730186703929664,-9.7304010024812,-7.01759354298079,-6.07491309406675
1077,0.2875654507632165,-10.116621344477522,-6.573188394560513,-6.183318715396713
1078,1.0140018377146005,-10.513947161009115,-6.253514736394318,-6.325812547899283
1079,1.566225999559139,-10.888122715229548,-6.055280111389486,-6.512309926573914
1080,1.911714087929831,-11.210255365067766,-5.979805203104926,-6.768885791394625
1081,2.0315040656500805,-11.455198035031515,-6.033830467002887,-7.11701462362877
1082,1.9260478329910657,-11.597120372741102,-6.224692341278617,-7.560034766719211
1083,1.6167252614040237,-11.619270836677796,-6.557033952523361,-8.090077905393391
1084,1.1377769413189207,-11.52135665382203,-7.026999924884753,-8.703327898755319
1085,0.5222112148645116,-11.311196661698439,-7.611874204027757,-9.392233510931264
1086,-0.2020458567203877,-10.993089536157543,-8.275190808240701,-10.12597571062454
1087,-1.0027393114570473,-10.571332292163687,-8.987015095797647,-10.852260169021749
1088,-1.839529574204261,-10.064348959599002,-9.725727057625573,-11.524089075093567
1089,-2.6851872172504967,-9.50331173179422,-10.466304461083531,-12.130521709873051
1090,-3.5391941694565157,-8.918009229038052,-11.180977404548795,-12.689582945516173
1091,-4.406352153680561,-8.326148791758957,-11.843568646158932,-13.206274633940291
1092,-5.280946933332483,-7.732794024143542,-12.428335924169456,-13.652459683636257
1093,-6.149656190301821,-7.141251991564851,-12.909398411971464,-13.990862202323612
1094,-6.998634479444629,-6.564568635927014,-13.26328675783112,-14.202314776563899
1095,-7.824698596347792,-6.020623599968847,-13.472276122389639,-14.282247765146451
1096,-8.645897358163378,-5.514926538063361,-13.522945109596579,-14.221970083313376
1097,-9.487435702934606,-5.036193473191325,-13.40128505750255,-14.009308244752146
1098,-10.35218521976968,-4.571328466863399,-13.096898886298424,-13.65223795833068
1099,-11.220119505794313,-4.124686315566087,-12.614519126281396,-13.189339412275034
1100,-12.067946090338623,-3.7152917886654473,-11.97778777549604,-12.673483637706735
1101,-12.882454260796914,-3.3579578502456946,-11.225132328982491,-12.149044291526653
1102,-13.650461359090123,-3.059334167757645,-10.403506966356238,-11.645430367426318
1103,-14.340922528593236,-2.8254870567475763,-9.55861474709795,-11.185926792438437
1104,-14.921451758938865,-2.661706530394339,-8.723224602407873,-10.789190550224816
1105,-15.384413017818652,-2.565450054521027,-7.915069360552068,-10.463123203839464
1106,-15.747953607784765,-2.5264265973617483,-7.13846852729089,-10.192998136984446
1107,-16.037845310162766,-2.532074257872317,-6.39105313641837,-9.940148837066586
1108,-16.275936500740602,-2.5713325095247406,-5.681835980324791,-9.670927509726361
1109,-16.489579992910052,-2.6371610617808376,-5.030949792703529,-9.382552710517688
1110,-16.717899820505302,-2.7267370953681023,-4.451723133775044,-9.093582313833258
1111,-17.001602405037644,-2.8428068898324694,-3.939579325437037,-8.816142918098308
1112,-17.366872695975726,-2.9960272997919337,-3.4710136408679793,-8.550888680021213
1113,-17.81769888597791,-3.200785385534596,-3.0081590514335623,-8.301023688452068
1114,-18.345894700079082,-3.467350078014222,-2.5030201412043143,-8.081879011707889
1115,-18.953903913209828,-3.79785778791338,-1.9004492749291564,-7.924971953824557
1116,-19.654074550692357,-4.178573931853187,-1.142226282476135,-7.863751275775568
1117,-20.437881925888032,-4.5723848013670425,-0.17559213200282747,-7.912982055997794
1118,-21.264851460909444,-4.928786072947835,1.029427693106526,-8.066521637818408
1119,-22.083645850021533,-5.197420119007835,2.4781985664050508,-8.31533378212791
1120,-22.863233481258757,-5.3308393546927135,4.170082418489221,-8.669491302568439
1121,-23.595755102455804,-5.288398889959656,6.093370516971991,-9.147961672823353
1122,-24.266414231023916,-5.045484999937336,8.206679070797044,-9.743120256551792
1123,-24.838187413519975,-4.595336022341006,10.4381641321129,-10.40383265871186
1124,-25.25874918919729,-3.9420649831473296,12.697000409972263,-11.057981928599933
1125,-25.47769178175707,-3.098528208891056,14.890512167045523,-11.644329392166835
1126,-25.463087712299494,-2.0871760033434392,16.92772242279623,-12.1142831965486
1127,-25.207547680835926,-0.9383111274356135,18.7121487284883,-12.424562470470637
1128,-24.72073596309826,0.31331082518975656,20.153132065218742,-12.538641304276105
1129,-24.01182378888824,1.6316427271509968,21.183354746837132,-12.42917883063188
1130,-23.085565311698364,2.9772129675587578,21.766729959710794,-12.081015039177277
1131,-21.95402118198422,4.311020818040311,21.903400432645757,-11.486789578019684
1132,-20.647745721877545,5.610297375182114,21.631459815852985,-10.633389630001178
1133,-19.204819872074452,6.8671190642045845,21.021839542882777,-9.505994193387025
1134,-17.64789716398334,8.067159540197462,20.166715899677325,-8.112883849064499
1135,-15.989118855599763,9.186275336151688,19.167928022053598,-6.491906838929755
1136,-14.248981153805769,10.205315676593722,18.124553972157546,-4.694616807463337
1137,-12.463936896474529,11.114307238099773,17.109358625917505,-2.7653854358628607
1138,-10.675156029874957,11.912008430795165,16.16303899916143,-0.7376984687330198
1139,-8.91070339758045,12.612005965735477,15.316144419116556,1.3353045462496425
1140,-7.194665624347462,13.237392347900446,14.591738135919222,3.3606395966079803
1141,-5.563151682151197,13.805044425358924,13.995822589571226,5.231481425417101
1142,-4.063840036680521,14.32893173099285,13.548490737035525,6.873877381439732
1143,-2.724716243015798,14.77746630952615,13.18580245366471,8.24413266886956
1144,-1.5577626313168813,15.131675723083623,12.862566864381732,9.326158294160168
1145,-0.5671663233876939,15.383320132562565,12.547158340758253,10.11888243900127
1146,0.23660708454765111,15.534564302535754,12.221201270663586,10.638414704707952
1147,0.8439006502933218,15.597485595548568,11.879634040290425,10.921453519984667
1148,1.2671146457081897,15.589810827719608,11.528922577545076,11.021127052616679
1149,1.5420273660188137,15.526935516025704,11.184464833754301,10.995136204994076
1150,1.708984900763917,15.42245256968001,10.867974731126484,10.896775394703525
1151,1.7920959228620206,15.29661978507802,10.604125271940303,10.774030825433224
1152,-0.7207551186140964,-0.1680968961231391,-0.6493735367339324,-0.47107205876532604
1153,-1.4040459375812566,-0.5307810204831891,-1.4666407112507949,-1.1771496097271852
1154,-2.3567875579402533,-1.104494096118169,-2.6640932973487215,-2.2311432365947574
1155,-3.5718399914497225,-1.9011229007625792,-4.262273410154546,-3.6278490931996905
1156,-5.015964952347256,-2.913844767041271,-6.263735015022032,-5.3319605227212765
1157,-6.6410997488385055,-4.115938474469355,-8.642025194135346,-7.281912475123699
1158,-8.398435588120398,-5.455260539179082,-11.325891910078308,-9.387433863644162
1159,-10.240095583204772,-6.860382473647771,-14.200557430121213,-11.534340943919412
1160,-12.114396839943588,-8.25958435723283,-17.123577091416685,-13.608631664155219
1161,-13.97965115103215,-9.602961985267227,-19.952954365463782,-15.534905758228978
1162,-15.836188043066674,-10.880988709244841,-22.585342446669685,-17.30366562980342
1163,-17.649813023652204,-12.097136235179722,-24.893186664263133,-18.89959029731075
1164,-19.37803216481415,-13.275958518740127,-26.76675337047742,-20.314586637635422
1165,-20.977569246626683,-14.452968093740289,-28.127020468082527,-21.551197310171265
1166,-22.417496411902995,-15.65579873781003,-28.933756075199714,-22.629145265526347
1167,-23.683978914256418,-16.89072473699115,-29.184363723652666,-23.57202318919869
1168,-24.770346933056754,-18.14239684045486,-28.904717996076222,-24.381651090412742
1169,-25.66491388028893,-19.38111372892652,-28.146900595567438,-25.03799314089978
1170,-26.344970729350486,-20.568356281726047,-26.987605091039807,-25.5271837064038
1171,-26.793847177967315,-21.662889738552142,-25.516013855449565,-25.85753969228855
1172,-27.01886952959072,-22.628495864558214,-23.817393669932088,-26.047677159910805
1173,-27.04496917476439,-23.437521127377472,-21.96028100609614,-26.110202622291926
1174,-26.90028476954608,-24.07272520653362,-20.004178385190276,-26.051377378230157
1175,-26.603145322305213,-24.531670957294235,-18.01840649579166,-25.886370444356995
1176,-26.167089603520274,-24.829902969538253,-16.07982266982882,-25.65084405152705
1177,-25.62154933278487,-24.99845883964667,-14.260454737986413,-25.39227269436352
1178,-25.0162962056941,-25.071971158722658,-12.622683179664259,-25.146307753337165
1179,-24.396534631468292,-25.07394457145557,-11.217257486157072,-24.925023880708572
1180,-23.77865399280543,-25.010828962128866,-10.079474034805333,-24.727109884170194
1181,-23.15570632179543,-24.87267743937647,-9.224080838576201,-24.547255925217613
1182,-22.518074257468676,-24.639315195269976,-8.64537840483077,-24.37623742066187
1183,-21.866898072437174,-24.291347905184903,-8.323069350312473,-24.190713719569835
1184,-21.20267077365205,-23.81470873212957,-8.230167819267704,-23.946918363027688
1185,-20.50849233977543,-23.196696386201403,-8.340289032133002,-23.593928772899375
1186,-19.7625867271798,-22.43292708372784,-8.629161340033532,-23.092696158673913
1187,-18.96495719705381,-21.540792212592894,-9.07258786255794,-22.430216487685517
1188,-18.145274070815987,-20.552108870720176,-9.647633710397544,-21.615660327416457
1189,-17.339144814953336,-19.497385747099692,-10.331851940152161,-20.665998638148192
1190,-16.566537831916445,-18.408146710981907,-11.09703115367716,-19.60339749869611
1191,-15.835658539135022,-17.326613315596386,-11.90774541833966,-18.46087288292099
1192,-15.155977930453224,-16.29853260537108,-12.72988511125383,-17.286327340693983
1193,-14.544249066266252,-15.354160698706703,-13.536273260822199,-16.13255669096156
1194,-14.014764231004502,-14.496022198414408,-14.303452153683258,-15.039645824649426
1195,-13.569753191223318,-13.703547077908171,-15.008040960062157,-14.028844141753085
1196,-13.20336999457533,-12.950470137393195,-15.626801064566354,-13.116561127581331
1197,-12.917673529036858,-12.21565749136143,-16.13749578646436,-12.331080429070832
1198,-12.728719532406998,-11.485315397170057,-16.519759937066176,-11.703968128500163
1199,-12.652625423901112,-10.753223131053874,-16.753774397446097,-11.249839057223264
1200,-12.69219626987871,-10.019007409667429,-16.81602042299576,-10.956479440221797
1201,-12.833727839259655,-9.293340939944452,-16.684620359959887,-10.801821404742888
1202,-13.061408944806654,-8.60926000806145,-16.351959592245652,-10.777548580246563
1203,-13.366327433006301,-8.011335002461465,-15.827550866786712,-10.872816808734484
1204,-13.734655185904494,-7.525734429781173,-15.130502534219646,-11.041452259055141
1205,-14.137920478618495,-7.153684616437808,-14.286779620870899,-11.205719953607705
1206,-14.534153433113309,-6.8908081812692465,-13.33461991771669,-11.295477721093455
1207,-14.88628920452116,-6.738059538448929,-12.324454652541936,-11.274732184002703
1208,-15.178230736025386,-6.687954329874652,-11.307075957820162,-11.128507729921719
1209,-15.411255566357664,-6.713925329840932,-10.316141543620393,-10.836146475636713
1210,-15.583192894945288,-6.781146281701871,-9.367262129093685,-10.371444402827228
1211,-15.66392177487041,-6.8585272202710765,-8.473762621905987,-9.72904477924564
1212,-15.610423317341903,-6.925740845153007,-7.65133234282149,-8.937892926004
1213,-15.40012238903328,-6.978655271152032,-6.912342872474498,-8.048294727289356
1214,-15.031984538021877,-7.026921603417821,-6.264067005785675,-7.103878375220156
1215,-14.517266537569366,-7.084410329326532,-5.711874545796662,-6.127140916982618
1216,-13.884728060424823,-7.1618965975163,-5.259984765688374,-5.140916192948599
1217,-13.181915305223939,-7.263374093208515,-4.909649706134885,-4.1904141596345035
1218,-12.464862855007352,-7.38141075995843,-4.657507743101253,-3.330059337157249
1219,-11.779112829470504,-7.490408889494033,-4.488625440547118,-2.589882184193181
1220,-11.137010833089619,-7.549957111554517,-4.374301363029238,-1.9693872262675491
1221,-10.51326929084859,-7.521665997660743,-4.28215666479446,-1.4661294236326352
1222,-9.86114239562476,-7.3807073526087175,-4.185942903553564,-1.0874837179077719
1223,-9.12997251269906,-7.119488039847412,-4.065227945329782,-0.8375010954559964
1224,-8.268135662029716,-6.742774595243553,-3.9006118599845214,-0.7068741065706918
1225,-7.217288580521664,-6.261330411987807,-3.678147981059472,-0.6750624834789936
1226,-5.925646128008597,-5.699987824102165,-3.399505658393154,-0.7209156239141604
1227,-4.372664746366677,-5.099677635259279,-3.0803891205729905,-0.830997586536583
1228,-2.581833919024082,-4.50871935997569,-2.7376821938597367,-1.0019136102421726
1229,-0.6109851554972162,-3.977811534630562,-2.3856847465126165,-1.23013019041465
1230,1.478504044273324,-3.5517885381654453,-2.0407314133865477,-1.4971489648957368
1231,3.6326904121569337,-3.2600063450735997,-1.7204614292746703,-1.7669554639653657
1232,5.7990996941816615,-3.112550307483806,-1.4408501600523407,-2.002257810720879
1233,7.933004303659017,-3.103251766607682,-1.2121564348516998,-2.180799669722595
1234,9.991107562085913,-3.217950163067429,-1.0350656994688545,-2.2833524908705893
1235,11.913023958069978,-3.436566133299925,-0.9015893274698776,-2.2863105231000347
1236,13.631610491254506,-3.7266170328559376,-0.7985315280850162,-2.1771413535005615
1237,15.102683991143609,-4.050574622772888,-0.7154290047092356,-1.9632372473752628
1238,16.30783816795537,-4.381751580991901,-0.6526590105790879,-1.6696463580423986
1239,17.237278010222678,-4.700560349296097,-0.6151613708783705,-1.3250779916711695
1240,17.88405593347747,-4.980173737356188,-0.6018325410556831,-0.9445596584948315
1241,18.25312408398084,-5.188942699367733,-0.6092185368808214,-0.5244727578535171
1242,18.373041782242506,-5.3098205176433675,-0.6359936632251424,-0.05239734649155611
1243,18.290512962698003,-5.345434393114156,-0.6785435460725798,0.4772918269870865
1244,18.04940247882066,-5.302881473691298,-0.7305226074975166,1.0652939283148262
1245,17.671786500194475,-5.187511492667483,-0.7869935763050909,1.7253901199793875
1246,17.161316868311417,-5.008358255456932,-0.8428664613150586,2.4853011062366273
1247,16.524037052425783,-4.782417489795502,-0.887624202371607,3.3534665109104607
1248,15.771089913662452,-4.53444697678754,-0.9068304052484012,4.288763431383829
1249,14.908317911710023,-4.28995966618905,-0.888759136085051,5.220278395267581
1250,13.933555643072967,-4.067999654973177,-0.8297812427344438,6.091935434857193
1251,12.850219235507115,-3.8799054599599314,-0.7368253758564265,6.874628898995476
1252,11.68816533268668,-3.734812944077278,-0.6250888829066609,7.543460612645572
1253,10.493381872952874,-3.647499792321804,-0.5128089954138395,8.062428343218848
1254,9.292282862167614,-3.631786623722286,-0.41610274878967035,8.397915763614513
1255,8.082807793530213,-3.681774828689787,-0.34327134389299424,8.542562268102863
1256,6.865867249195465,-3.774591601708174,-0.2950870971262809,8.52165784974774
1257,5.666761380123177,-3.892968304491842,-0.27675183007102716,8.369272435969098
1258,4.519627176553018,-4.030672849956648,-0.30200001322266173,8.105668399748463
1259,3.444032434402016,-4.1816575391718125,-0.3823556268266265,7.742740846794081
1260,2.4384664617530802,-4.339395020113433,-0.5212651931081624,7.294921421905906
1261,1.496547309630999,-4.505895353869085,-0.7134182057919702,6.778348742546808
1262,0.6227515669716811,-4.6889316742699165,-0.9442914641728801,6.20476149588326
1263,-0.16900750728625918,-4.890671481718503,-1.193888796417946,5.578679574672449
1264,-0.8685505392908793,-5.109541917777584,-1.4434588787728049,4.903820290189729
1265,-1.478624059557364,-5.343395505187138,-1.6774020406627899,4.1978390812068715
1266,-2.006733349013566,-5.580374550355346,-1.8794191512052383,3.490432403725416
1267,-2.457326443149988,-5.7968369715673305,-2.0334598048042527,2.8041396852274247
1268,-2.8359374643600788,-5.96629240558757,-2.1278783489724624,2.149071570943336
1269,-3.155754231961648,-6.067461977486704,-2.1562674988834836,1.5302755308623583
1270,-3.4749536453112273,-6.080869555618656,-2.1299624206070575,0.9256272198941181
1271,-3.733776748447453,-6.027829387727616,-2.040572250242706,0.4020855971673853
1272,-3.87917775835539,-5.931979000721592,-1.8968100622397874,-0.0019447405789575585
1273,-3.8831617225801627,-5.818825749694853,-1.7187452432628496,-0.2819163106609362
1274,-3.7559431813030315,-5.713372497429544,-1.5292893179538716,-0.4509380043212364
1275,-3.534457280010512,-5.637120343016878,-1.3454200016320108,-0.5213447528360406
1276,-3.2557402176509735,-5.605934761511192,-1.176286094178539,-0.5036226491188298
1277,-2.9464463173199342,-5.626570803685226,-1.0275882495785118,-0.4161837539335061
1278,-2.6306842735322467,-5.691567149974129,-0.9039051148403533,-0.2861240994552896
1279,-2.3399201406604804,-5.781136628526712,-0.8089668190544292,-0.14524803250573173
1280,-0.40550766468486865,-0.5639462819887784,-0.44968733647380543,-0.3449249703972338
1281,-0.7990852601523905,-1.2168979257857848,-0.9410155921682344,-0.6998696873487202
1282,-1.365221766389838,-2.1424855806181107,-1.6402221905630534,-1.2069236531062764
1283,-2.110742022794093,-3.348136333285704,-2.549196365859501,-1.8706382511574438
1284,-3.0161391039390826,-4.836376313995719,-3.6609151794705572,-2.695102474206321
1285,-4.055297760858041,-6.5977141742906,-4.960308952854524,-3.6847103437851723
1286,-5.20711873526736,-8.600640590608956,-6.416898289145509,-4.8302358326508195
1287,-6.449022236509395,-10.79086035958549,-7.982222206880654,-6.096150551857826
1288,-7.743573981681438,-13.099322613639785,-9.602454109640814,-7.4342174425986665
1289,-9.047189571464953,-15.458543720328633,-11.241653415517288,-8.816678200870074
1290,-10.341514864710156,-17.82700292849911,-12.901097788748828,-10.251422055636402
1291,-11.603872867238993,-20.131711816261756,-14.562909741016451,-11.724872728276488
1292,-12.816051539144599,-22.294450100001697,-16.205551969837334,-13.208221334181852
1293,-13.957305549945962,-24.23523602146698,-17.808294870414446,-14.671731646642707
1294,-15.011588433333015,-25.886556131643793,-19.352403609829786,-16.102883918014065
1295,-15.978534259866482,-27.216308572903603,-20.820254666394593,-17.50915433311356
1296,-16.87118997852227,-28.230390804600862,-22.195865529820495,-18.90424984729971
1297,-17.693357453051014,-28.957631766122812,-23.463639859908884,-20.28999924358895
1298,-18.41957967677119,-29.445057308924103,-24.60870389709924,-21.650980660408226
1299,-19.011490713517095,-29.753716416149334,-25.62056161321978,-22.96249150448039
1300,-19.452891217294976,-29.939675807811362,-26.492021904640225,-24.19607132096365
1301,-19.751126065500777,-30.03803125599135,-27.213315555988444,-25.311974326339314
1302,-19.910388085336603,-30.062183830875238,-27.773110976564162,-26.258137362688785
1303,-19.922111210563074,-30.013703027969736,-28.166095857363622,-26.98986426656299
1304,-19.77555108798476,-29.89072012111139,-28.396935863535294,-27.485280337410284
1305,-19.47459472089051,-29.68905169543539,-28.47719413167138,-27.739407636827718
1306,-19.041366730705263,-29.402167764250645,-28.419380855164786,-27.746202357402417
1307,-18.501006431313588,-29.02316141615756,-28.234336829079318,-27.49511150265127
1308,-17.871951696417693,-28.548309333033608,-27.930656849229994,-26.986437788520902
1309,-17.1670957099763,-27.97865129894372,-27.517718453509765,-26.240261193734778
1310,-16.40098872371842,-27.320252894946567,-27.012379344093105,-25.293985473961424
1311,-15.597494174045215,-26.57990767193535,-26.439465876465558,-24.18671348169844
1312,-14.79310097218141,-25.754022975105578,-25.82385967980516,-22.944721602297328
1313,-14.02839498746542,-24.83291202085137,-25.183095900641202,-21.58996470637456
1314,-13.331612607703827,-23.82357645390825,-24.528874239987648,-20.16088873647861
1315,-12.723454860898629,-22.75768837058039,-23.870283820955308,-18.721289193601052
1316,-12.225475744397139,-21.67595504099461,-23.211159950199086,-17.34303619562438
1317,-11.843556299952827,-20.615784410993765,-22.54834330249407,-16.081867305064243
1318,-11.558766120267551,-19.609731555214086,-21.874219708336483,-14.965876165476523
1319,-11.336676911107526,-18.682965238407462,-21.180522809931595,-14.000288232543344
1320,-11.142163805453889,-17.849137851225937,-20.46240934807477,-13.174286836509816
1321,-10.957630617099213,-17.107214855381248,-19.71884676355751,-12.459428858586731
1322,-10.786381155995853,-16.443161659911436,-18.944429302406665,-11.808550684605997
1323,-10.632344276958015,-15.833500328690658,-18.131986810234828,-11.157653794183537
1324,-10.480010328195645,-15.245842662794663,-17.289203483034807,-10.446924695383691
1325,-10.305144262543212,-14.644599833419777,-16.439430738593924,-9.651543071613174
1326,-10.100346557516785,-14.00163260224134,-15.60523444542844,-8.77529485999747
1327,-9.877504930202605,-13.302580178482312,-14.791765268179384,-7.822058963839544
1328,-9.647535485222328,-12.547827489801904,-13.98363153575282,-6.7961057402537
1329,-9.405516132257686,-11.755601078394378,-13.154148505811866,-5.723105562604322
1330,-9.140755553556469,-10.962962771013405,-12.27304463918229,-4.652772960018924
1331,-8.859959394548188,-10.208682772876406,-11.30861212628976,-3.63913911409092
1332,-8.590185896264135,-9.5100334101288,-10.227729974584433,-2.719356152085377
1333,-8.35338296188892,-8.863680297728468,-9.001284959931786,-1.9074243678685803
1334,-8.150402478594193,-8.263147535618556,-7.615989953765565,-1.2036297951141242
1335,-7.977185122005434,-7.703932814091798,-6.077129014604659,-0.6075167304295626
1336,-7.843955082747047,-7.1810784230836076,-4.397895154942495,-0.12781810023525056
1337,-7.770894446580474,-6.6886208169735015,-2.595797605585828,0.22548650417201904
1338,-7.765309940285817,-6.214963827729529,-0.6978947370035207,0.4524753082631749
1339,-7.808561999049064,-5.744577258263685,1.2539672403554525,0.5604617821075581
1340,-7.870994748215109,-5.269497047257755,3.200961219226562,0.5547962449372764
1341,-7.936469999746534,-4.792783146417197,5.078935074676415,0.43488800642079767
1342,-8.003904896596277,-4.3203958262958,6.829872531320052,0.2089861074648786
1343,-8.066740945025135,-3.8500267540290496,8.401763951789817,-0.09907753584947128
1344,-8.105580776999796,-3.364762353038434,9.751656491434817,-0.46318933798761663
1345,-8.094100510403788,-2.8414990239129323,10.84811261709498,-0.8573096588191612
1346,-8.009955899919554,-2.26610634333643,11.669434240154896,-1.2477164647076227
1347,-7.845652714967746,-1.6358987999014067,12.205450762891942,-1.5941837670417416
1348,-7.602745801508092,-0.9575695409434672,12.461280291063211,-1.857338104836922
1349,-7.28416315144992,-0.2526412666563589,12.459161256716731,-2.011120147855214
1350,-6.898494505096277,0.44526046068039976,12.235039900269967,-2.056930806237226
1351,-6.469240451716836,1.1028645000406716,11.831816815063151,-2.026400779371578
1352,-6.0308070653984425,1.6909015492185437,11.293097381495516,-1.964176622996124
1353,-5.611485650049375,2.184616648670284,10.65373018708656,-1.901465485632813
1354,-5.223888755830279,2.571391995905298,9.933970113536176,-1.8477400073756578
1355,-4.86181837511358,2.854982915719893,9.145603145407216,-1.8097717002213414
1356,-4.511270788596804,3.05082464528096,8.299312075935713,-1.807009539399341
1357,-4.167423251140042,3.180230452354656,7.409411066375588,-1.859230107532426
1358,-3.8316391411608572,3.2657282937268257,6.492446828992839,-1.964061794643733
1359,-3.5059136239501147,3.324030045290308,5.559689492298657,-2.0938243030856607
1360,-3.197924090971617,3.3608093763713685,4.612356289003076,-2.219495717781828
1361,-2.922455471161879,3.37132809286688,3.6421122446268286,-2.332984384536429
1362,-2.696749148669727,3.3486388547833874,2.6416327761692515,-2.445048223408909
1363,-2.5289663919967724,3.2944902282794546,1.6154971719661724,-2.56804556719744
1364,-2.40348325911477,3.220670452888634,0.5810421406166613,-2.704112324370627
1365,-2.283418295336168,3.142642252092491,-0.4352511152488105,-2.8484111738890845
1366,-2.1252791755797307,3.0755065853599146,-1.4017041834732331,-2.9956280557821047
1367,-1.8842901162981818,3.0258955209254346,-2.2856876489749443,-3.1396832674706565
1368,-1.514638960472484,2.98136128021339,-3.0586585722285293,-3.272450248181418
1369,-0.9738482887450474,2.9147226617590567,-3.7026690764641454,-3.3873228373479094
1370,-0.23562440117141376,2.7963499481919825,-4.215107817210129,-3.4830153748620263
1371,0.6997063171159625,2.600922338440971,-4.606368532382076,-3.5640355624241815
1372,1.8058570990629117,2.312815889332348,-4.89247963447906,-3.636113078993681
1373,3.0387572024567637,1.933448880554236,-5.091122926709397,-3.6946655413230958
1374,4.355740987784586,1.4850561799347992,-5.223575433484453,-3.7239300200689383
1375,5.723387231220215,1.004902195999805,-5.314554815980955,-3.7101443010421633
1376,7.110151509265886,0.5368936787480949,-5.385299093671792,-3.6492373001672855
1377,8.480013157795424,0.13108789192182446,-5.444915597006128,-3.547162994257258
1378,9.782095053824063,-0.15706764697047582,-5.487964151512154,-3.4109006629321237
1379,10.951771952157074,-0.277124464388682,-5.502454969371253,-3.2366496736532793
1380,11.931140946747306,-0.19596853686020738,-5.481802251217677,-3.008875050369834
1381,12.68445572730954,0.09114324247453953,-5.425392530617831,-2.7148618577440553
1382,13.196896679044272,0.5504994986949568,-5.33134054524399,-2.360639054153374
1383,13.46616204339353,1.1165265370857351,-5.1976503290106635,-1.963944280876349
1384,13.495258808331954,1.7212745558946652,-5.027342519209474,-1.538636839486521
1385,13.294642012557443,2.3208122579459225,-4.828479874558852,-1.0933144063919606
1386,12.892045049023093,2.8927036526251118,-4.611289901504432,-0.6394056832993847
1387,12.328410487317102,3.419383412179834,-4.385323334359049,-0.19851106963899065
1388,11.636583177806203,3.888591069094703,-4.158017938285226,0.19687264347240102
1389,10.822420620212755,4.304415318323089,-3.935834559156465,0.511821491120533
1390,9.875673471265884,4.684537967698459,-3.725862119602083,0.7174878916050482
1391,8.802259322704815,5.0471078237999505,-3.5341495985786318,0.7912237246094632
1392,7.628709441800707,5.404937672953858,-3.362985569559293,0.7167985566777061
1393,6.384094382797094,5.766112872194815,-3.2126172545904144,0.49030095952669106
1394,5.0962793255102365,6.133436376528736,-3.0836395824931926,0.13387602947482566
1395,3.8007770508236334,6.503911934106618,-2.972975145345113,-0.2976859838366306
1396,2.5378972620084803,6.8704999643589675,-2.866692792971279,-0.7389755806139172
1397,1.3391459258388734,7.2217410163343,-2.745914414220624,-1.141504909499666
1398,0.18295711980437682,7.533182838425259,-2.622544886437829,-1.5177134853545362
1399,-0.8395037860512943,7.782856715128622,-2.486286225455267,-1.7820414283091774
1400,-1.6622225336483638,7.967243729672958,-2.338845469907404,-1.879099119015483
1401,-2.245785130097251,8.092086598545484,-2.185051204262172,-1.7971658077845543
1402,-2.5825653576630754,8.161390137467492,-2.0300537659519247,-1.5645439986392884
1403,-2.6988143086614422,8.17833528786892,-1.881026605112549,-1.2303951275247373
1404,-2.6434596263545926,8.15284668392816,-1.7458094720117827,-0.8480459723019261
1405,-2.466367647488396,8.099580717240457,-1.6307769861054864,-0.46564991171850156
1406,-2.2104063794382136,8.02996593227019,-1.5398392570972563,-0.12270911030663464
1407,-1.921260926529514,7.953257773520171,-1.4741992092211351,0.1507034823810896
1408,-0.03096519492140654,-0.6277534334879102,-0.4690593067706914,-0.22136935088673917
1409,-0.016409177836378047,-1.3429645035365567,-0.9395648149585392,-0.46149171971557035
1410,0.028707478661102737,-2.343441352093319,-1.5876752123340891,-0.8413744291729844
1411,0.081779262236817,-3.6469527268306954,-2.4332328296075034,-1.3641291314153867
1412,0.1082182884216372,-5.291188043415764,-3.50519637934693,-2.001141481852098
1413,0.0787068881743348,-7.303617812093236,-4.820262809062398,-2.6620571169219938
1414,-0.02289069112268445,-9.586781355208604,-6.3582902248852635,-3.213125871127573
1415,-0.2056700049685222,-11.953158140232047,-8.056491697362773,-3.550098219294787
1416,-0.47989596756050035,-14.29853507400948,-9.78848731666056,-3.6372599940125214
1417,-0.8534543858873639,-16.646304050567654,-11.423961391092089,-3.499336946809708
1418,-1.3233868947410223,-19.08189840984276,-12.976610779787386,-3.1879152132197657
1419,-1.8737442900644077,-21.636757576111847,-14.551728509133268,-2.6982162676252077
1420,-2.4741299948532682,-24.261645674283578,-16.248403232949716,-1.9835885033786984
1421,-3.081182794551503,-26.864049017199914,-18.09890032625615,-1.0075669172531918
1422,-3.65321894953458,-29.396264662895863,-20.076829008644292,0.21738694385463436
1423,-4.168704690984364,-31.85172129670434,-22.132209802319917,1.6309390538729946
1424,-4.6414539305188995,-34.23795915017553,-24.205203125904188,3.1555483319398165
1425,-5.121060337218071,-36.607489036026195,-26.215451873483087,4.7233061647173304
1426,-5.650169532216404,-39.021852605916926,-28.055324721559824,6.291102360529502
1427,-6.2366589838811874,-41.41011735525771,-29.590034144919283,7.811555116327362
1428,-6.913129555419893,-43.54919296802917,-30.66718412590246,9.155121553677342
1429,-7.735955203311526,-45.283151958272924,-31.133085538907558,10.142358188848918
1430,-8.683633620223027,-46.62877873941642,-30.8895767387813,10.674480361008575
1431,-9.644364050657824,-47.634237560749526,-29.981856030499788,10.76964777176314
1432,-10.480848471803027,-48.141216416533496,-28.541864084381775,10.535500650643842
1433,-11.066251545406033,-47.60991913817872,-26.712688967878833,10.13130626860815
1434,-11.302674041598063,-45.23152933546818,-24.664991206035282,9.707465313573758
1435,-11.134699846881077,-40.15045806053,-22.46757644670074,9.368010323139407
1436,-10.546459284809297,-31.551510053841394,-19.986311798622776,9.156436273087857
1437,-9.562463816049181,-18.698500603113224,-16.9726570110228,9.052087263189875
1438,-8.269913043617727,-0.9951331393066596,-13.114540420808101,8.972602276867011
1439,-6.815366673092291,21.950539617238988,-8.022604361382708,8.789512179270336
1440,-5.357757281850754,50.251173175096284,-1.2528312150172214,8.372127748423006
1441,-4.018752530475255,83.68168498491781,7.646050153394165,7.633040511082001
1442,-2.8480814253873734,121.71467621219135,19.07773721292031,6.541123813231715
1443,-1.8183412124162348,163.55400173511146,33.34389908420271,5.116113869422557
1444,-0.8332521580429608,208.1402838191893,50.61538688900337,3.449145524140256
1445,0.27363026225850573,254.3091626956081,70.92201472538578,1.7376817725442861
1446,1.6942210535570263,301.0778891901701,94.16402681531837,0.2347599434475504
1447,3.5503622877307244,347.74106956650445,120.14664854294607,-0.8813916210899565
1448,5.8850661890667375,393.67218702820304,148.63367863564952,-1.5178608598334935
1449,8.730367378306713,438.2135768593466,179.36909210650862,-1.5770880801583278
1450,12.09911976313813,480.77182038986166,212.06230785642188,-0.9650633805215694
1451,15.943694159241467,520.9057575668445,246.45691228733534,0.3515744732958883
1452,20.168422072185336,558.3124824119611,282.32047686336455,2.3313256689426933
1453,24.656763421467016,592.7526911062914,319.2976769842118,4.870136070099259
1454,29.28788309282828,624.0361345310914,356.8908142391982,7.838331371644694
1455,33.95508695810944,652.0251913029497,394.52912176268563,11.125808988982811
1456,38.576326416673574,676.6247092380835,431.59969940413976,14.653504559071475
1457,43.082989441366735,697.8165996598627,467.4602338133238,18.338465430394034
1458,47.40345109992044,715.6805813679557,501.4579061717173,22.06819474812439
1459,51.45334157420007,730.3590929983957,532.9509632445837,25.716178533467325
1460,55.136147951175936,742.0065934511226,561.3432846612347,29.170261183518143
1461,58.35593800611502,750.7397923866639,586.111176064696,32.34056986863623
1462,61.0325252357839,756.6028236629257,606.8043298708154,35.14481538071991
1463,63.108172038526774,759.547495420771,623.0555681147628,37.500675283837076
1464,64.53526783286148,759.4079045600387,634.5796191611049,39.325513083035474
1465,65.27022321054484,755.8904706557887,641.1653163620591,40.54169319343491
1466,65.28702505949539,748.5955337750464,642.6786266901004,41.09439118681438
1467,64.58236561421968,737.0575207069559,639.0562898509883,40.96141311949202
1468,63.16912056750405,720.7963659138956,630.2917289316218,40.139845613944985
1469,61.06265749984464,699.38053941039,616.4284268788166,38.635174437722696
1470,58.27215991016052,672.4986652590565,597.5652325464266,36.470798679891296
1471,54.81210190307323,640.0138605334475,573.8643049909741,33.69767762627187
1472,50.72179878168747,601.985530819016,545.5629329877644,30.392877005209893
1473,46.07428794536246,558.6624676247604,512.9813661892305,26.64466880174396
1474,40.955252389787,510.42553848736287,476.50359479043124,22.529423839645858
1475,35.43711781141659,457.72118624480544,436.5521896231982,18.109100178153426
1476,29.582905183884918,401.06227212049646,393.57986823084923,13.450926006493171
1477,23.465452684916702,341.0398854420137,348.06030854639977,8.635154374013833
1478,17.17769511091845,278.2861203648667,300.4778603511603,3.738127142865172
