,TP9,AF7,AF8,TP10
0,-0.4597844446793775,-0.10123756528704042,-0.18191566979194662,-0.28136636500444234
1,-1.360426422764951,-0.4890864103275506,-0.7577098937437658,-0.9816990296892631
2,-2.6991801010781975,-1.363915558230679,-1.9516584055927189,-2.2504670243419773
3,-4.303228237662334,-2.8373477017681843,-3.8438050948627094,-4.0478274014796
4,-6.068878804656589,-4.862208027548539,-6.254215428580116,-6.145794342456453
5,-8.529150696954959,-7.193249844179072,-9.344669697245651,-8.767570054035938
6,-11.446884088514327,-9.915720325281837,-12.483465233309653,-11.45315304577768
7,-14.108823665220555,-12.54627312288371,-14.946259494637122,-13.609787712358754
8,-15.830015699942228,-14.559723873314075,-16.327298345672414,-14.856880718670178
9,-16.410041789448677,-15.683673001877688,-16.633111685801413,-15.203351857980481
10,-16.096586116912036,-15.990252782432302,-16.470561464044767,-14.900040325008055
11,-16.157975087535245,-15.700255256955499,-16.505031875494296,-14.94665233712105
12,-16.545883604457163,-15.771807077917089,-16.556717971584668,-15.29956359483222
13,-16.00786297245058,-16.13010263992625,-15.581767655430639,-14.872395839600541
14,-13.922396516569854,-15.704639297439819,-13.243292528000309,-13.128825858864968
15,-10.23776891645513,-13.917462574680208,-9.537110368497078,-9.871807994322875
16,-5.443744709689941,-10.561242594104748,-4.945398029304043,-5.45551860501349
17,-0.2745021411336992,-6.044223460538538,-0.19923273620189708,-0.6236704255508885
18,4.709855107861877,-1.2264229792766814,4.332627877302998,3.949317629588068
19,9.816107553732328,3.109778741672244,8.49259055923253,8.386637485477427
20,14.391374191647532,7.153047637231445,12.093756176943458,12.527798801644247
21,18.206840002156632,10.704478801929179,15.041622285834944,15.992367118836063
22,20.940063370508092,13.739579516199736,17.15445257234723,18.3990153055351
23,22.584679398395867,16.319461133207156,18.378081626102922,19.663983302397533
24,23.376774312291513,18.589466094606056,18.85120304994122,20.03158690336663
25,23.529905699162903,20.40903682883642,18.823433801048473,19.87133228208392
26,23.508259131324877,21.621583921108083,18.795066429669532,19.854813847942474
27,23.518628886573918,22.20209686725621,18.86291544519698,20.01856340645705
28,23.477019076179406,22.245011545910316,18.743333004335874,19.82684876528513
29,22.69998295772416,22.242062764818783,18.160470797029145,18.981153848654813
30,20.841443389352598,22.303174969443525,17.10603990227298,17.364610808081302
31,17.793687378848887,22.15714932756074,15.734347830784216,15.116083037522298
32,13.974777286012845,21.383315160027703,14.316806935897281,12.621214725848679
33,10.112440404392386,19.947633685458698,13.058746910478852,10.290192947718985
34,6.542030069385402,18.035342118025223,11.820872451191482,8.089524812576014
35,3.2826582207344117,15.996680902138582,10.614253640906448,6.138476989514328
36,0.1020288030697094,14.115910970097985,9.42559345356283,4.381605929934768
37,-2.7436470574086744,12.239515904569826,8.271141285812568,2.7692582611863723
38,-4.811857261454785,10.38400587611257,7.1865762071202965,1.359540096128205
39,-5.828321827116282,8.516932015115398,6.208224932643944,0.08892617661536514
40,-5.88050202530906,6.626914412825136,5.362717681943122,-0.9340524523180087
41,-5.819251023229065,4.743227407226274,4.666298508044526,-1.6289129359173073
42,-5.931458387435418,2.942764605168617,4.1282147529436894,-2.000464314597705
43,-5.7033101236037815,1.3209394676902746,3.741016085943105,-2.1080985172122815
44,-4.537957045841603,-0.06121424200297776,3.461374358283344,-2.0309500078754503
45,-2.5530297039025256,-1.2058901831791475,3.2116135378328914,-2.021732929190016
46,-0.29658765730870373,-2.171427797050979,2.9051439799227676,-2.1195225908124256
47,1.8628385064630928,-3.0518731832779387,2.4763669432314397,-2.0310018750061527
48,3.42822623050208,-3.9120718854657692,1.901511484050508,-1.5781383232384973
49,4.549654294967648,-5.052737510593429,1.1904160736217309,-0.6722971341812707
50,5.202912038736591,-6.362214118652988,0.3535158963066276,0.7047089088499117
51,5.416841473422807,-7.530406749241249,-0.6154766472967154,2.136022699990364
52,5.317196864981278,-8.284903377073613,-1.7248967617611168,3.174388554940477
53,5.263504473920812,-8.54816509509162,-2.943689764134713,3.723772278175783
54,5.398458901168844,-8.416668562450509,-4.241846582222401,3.810748689504033
55,5.226950728177044,-8.427893173472981,-5.51776499008594,3.753574239686098
56,4.46493430087416,-8.57643104329838,-6.556751523950778,3.776215606750518
57,3.0160058322235566,-8.342734686191593,-7.216058152687406,3.754698270046706
58,1.1925384772992669,-7.5646921965660585,-7.494337532942648,3.3284827007441735
59,-0.5040068369576528,-6.231217348795913,-7.491828681008167,2.4257895435906094
60,-1.8443410097190158,-4.614877583386639,-7.470699673661915,1.0646459987850494
61,-3.1054691272169785,-3.2545736560297143,-7.499417717936394,-0.6174631016884171
62,-4.597823164127339,-2.5205425096845007,-7.4397003530045005,-2.4217884842194923
63,-6.323047980548849,-2.179360146660149,-7.166257396528067,-4.2750852509389565
64,-7.985969001457237,-2.18758273486211,-6.587812667839156,-6.071480050041231
65,-9.373218411972271,-2.202366518672817,-5.868117896532125,-7.666150507826404
66,-10.840868858257986,-2.146472668443137,-5.266411223362182,-9.086426895430677
67,-12.388701003985581,-2.2338785919648325,-4.960553713592983,-10.39141807179958
68,-13.770716510296138,-2.712236678529346,-4.882777043390085,-11.473226848188181
69,-14.660814677588196,-3.6472281097398556,-4.932641572860547,-12.1991608915251
70,-14.915642817235184,-4.929895572450244,-4.908929109348979,-12.528169632248916
71,-14.769541135294476,-6.538601841731224,-4.868235480028458,-12.530390109683143
72,-14.747643291722069,-8.071221997702,-5.115969798352974,-12.511876782325137
73,-14.865101076274815,-9.293081854347035,-5.774798322257089,-12.560779968888239
74,-14.508870292912317,-9.980468010776582,-6.9260191443981185,-12.488855827697037
75,-13.52586983337636,-10.1390350576406,-8.398244534844597,-12.060043601166685
76,-12.032396484627833,-10.058003711146464,-9.73256271300744,-11.227121587446712
77,-10.358630383311477,-10.066048680864698,-10.604958624803915,-10.065633115002932
78,-8.74375462660728,-10.076206294379855,-11.002816845427555,-8.742970947304636
79,-7.10062998660774,-9.633887033309627,-10.974279678612099,-7.4024467687120525
80,-5.139515254133245,-8.702017641953844,-10.987394474579652,-5.980511148737815
81,-2.9722224167652036,-7.406348626587649,-11.092424324441305,-4.518437960389401
82,-0.9043791306960726,-6.02304258119887,-10.929300385774766,-3.0190488719924042
83,0.9462681276453706,-4.806757084736644,-10.123174751397196,-1.4184853221639169
84,2.771836510569196,-3.733413849952858,-8.589662109681973,0.3924650408454248
85,4.903933768721684,-2.6638872992595766,-6.501947575110511,2.4086067680804217
86,7.059800131038578,-1.6405709559675026,-4.241958529703934,4.746732298421465
87,8.720129906441187,-0.7269239482309161,-2.1624413078300946,6.979464747863494
88,9.562810137919143,0.014387639346159664,-0.18886994126573697,8.63616980622978
89,9.64323360464902,0.5809954067773087,1.5645322408570517,9.508586399466738
90,9.588425470917995,1.0551417837223158,3.070471741270545,9.639510814329624
91,9.664851350972526,1.5619249409793468,4.304213161041302,9.630768510726595
92,9.524909820242534,2.162728230018497,5.187551990446775,9.686970264724662
93,8.631897164184227,3.0904360258118952,5.699494087133455,9.53441833814655
94,7.045764113646148,4.175432606213284,5.902171689454282,8.49573323461924
95,5.046739447278792,5.122110168440405,5.902357058819635,6.4457242458334925
96,2.9399755403679984,5.709093837403418,5.883156413014359,3.5388601111814113
97,0.8886121270986181,5.882228881488548,5.898930465464565,0.29524423648496856
98,-1.4255395468548029,5.817051394833907,5.873481374172579,-2.9335090923478315
99,-3.679053491331722,5.780144999944833,5.67668183426498,-5.812221400039828
100,-5.339966764055871,5.761190948970289,5.354155866341189,-7.839348496421992
101,-6.145337930523092,5.554753314786969,5.021765483380625,-8.844908455421788
102,-6.212578852182507,5.277726927418024,4.802187186753536,-8.977891148504222
103,-6.130488032341457,5.037844270840266,4.747928958079312,-8.931055380643054
104,-6.242085884109102,4.9391011713051,4.766931716685561,-8.97132683676033
105,-6.168311380647662,4.918790693094311,4.78345099136327,-8.833863425493973
106,-5.280216394493577,4.973292593888955,4.776720055943899,-7.8600388860931885
107,-3.4929599008075782,5.037636456869823,4.78905351727227,-6.011326811438339
108,-1.0417666677086728,5.1759289484317925,4.812313707679152,-3.5333489557284117
109,2.079468323198946,5.314221439993764,4.835573898086036,-0.9413962881951541
110,5.151560862748235,5.382646262561197,4.825266328664108,1.516613795417607
111,7.6383170242817116,5.38937777105796,4.869993994155455,3.703070762927532
112,9.212739366944254,5.424013174183249,4.912050367453244,5.285292135828466
113,9.742791012252441,5.44462251031171,4.83513187298236,6.118760536870851
114,9.514347967121859,5.140709400155036,4.506210343344936,6.290448067276086
115,9.422898650453584,4.370522515326823,3.8934404419289885,6.198387313417648
116,9.666895527173804,3.1700532919360835,3.0804592707237664,6.1529699710777574
117,9.423048181207555,1.7842966321822993,2.2365606497298525,6.13504425626699
118,8.403305947114362,0.5564082332681971,1.545016526019214,5.78555629491007
119,6.7196623730426905,-0.417580779680298,0.7703261630410121,5.182132187377077
120,4.511064268967053,-1.141755189220628,-0.014144347889772785,4.473043978722031
121,2.402358379584188,-1.591215220134363,-0.6751008687907485,3.8250376677139575
122,0.98721928788369,-1.8062203273386082,-1.0962786207499884,3.291789028553363
123,0.163044123900564,-1.8558430480134283,-1.2425686428966916,2.644376683846269
124,-0.12776539449819133,-1.824141652156744,-1.193789532102964,1.788364189090415
125,-0.07712913836796331,-1.7949536426033827,-1.1190851841032592,0.9186167421052924
126,0.04839579531070776,-1.812312471012224,-1.153508562024194,0.2726154630979368
127,0.007591445888107651,-1.812312471012224,-1.153508562024194,-0.034156314981556565
128,-0.4729593535699398,-0.14272403719755128,-0.12058010440142886,-0.23351268532313374
129,-1.4233348012087612,-0.580868640832747,-0.5225598635170772,-0.8416226182270266
130,-2.5951378034815633,-1.5073837896964466,-1.3624481436193827,-1.9429419243685895
131,-3.5519223206163586,-3.022533931714226,-2.6901458515431367,-3.4624124751242222
132,-3.989577201845546,-5.019979842771683,-4.36428579733861,-5.458396320344233
133,-3.9396063960438843,-7.702889741118822,-6.420280468255646,-7.7166127487738105
134,-3.93720330762431,-10.50830413644449,-8.434312456696837,-9.73700748300781
135,-4.052847595216879,-12.74929613506922,-9.965903213805971,-11.105816827068628
136,-3.8639081425884836,-14.020730294013923,-10.798273588387508,-11.687419971382758
137,-3.0901474773675233,-14.309945529115716,-10.939157151076087,-11.585094586332099
138,-1.5261609748123808,-14.167242463616216,-10.929221841252378,-11.599180423067592
139,0.5409050137128892,-14.171117339096321,-10.955528040587392,-11.811767231353127
140,2.4126157398961197,-14.201367490607064,-10.81887291089775,-11.52194782899484
141,3.5270262530224663,-13.383104629495698,-9.91843332890247,-10.157292816366827
142,4.006459594519836,-11.471027666378376,-8.136361518143955,-7.576433049240618
143,3.8932816460239,-8.462369212855428,-5.558749817663623,-4.079612697278313
144,3.9727506809785513,-4.726668852779193,-2.505359331664822,-0.28778407548746165
145,4.153583396275666,-0.7946435105953145,0.6531986115682791,3.195227099221164
146,3.754669858300124,3.1495992607150596,3.9983779190773845,6.882101111656688
147,2.4131013510069392,6.998484975957566,7.416100118836305,10.251956237098783
148,0.24317660349108716,10.923513179989389,10.370077798255064,12.757883563442016
149,-2.8540641174779076,14.456331119633042,12.397380425127752,14.112974083341333
150,-5.991290863300753,17.047822953244797,13.368897826952137,14.44752125592465
151,-8.258144208584618,18.43123572742795,13.445690703864512,14.15800868142291
152,-9.684495456179338,18.74483303175035,13.410603866411119,14.141195820117636
153,-10.068759188853395,18.51673340674211,13.478528519692455,14.402933302047364
154,-9.958783660602705,18.490565164444376,13.276838418002182,14.085316663031714
155,-9.855301872389962,18.632040219811735,12.206185009957457,12.933688788345005
156,-9.759926437618109,18.121205164578036,10.220245582984141,10.896679152929696
157,-9.065182755836942,16.785187825785574,7.599697879479897,8.237259665351852
158,-8.049146605368426,14.654337939746688,4.614591854069623,5.393108717367324
159,-7.020719894575037,12.076138343791603,1.923232161823388,2.7595500507731456
160,-6.133446663212984,9.537651382224382,-0.22903628832202547,-0.013900364440185609
161,-5.278303819137824,7.272723713038813,-1.4812496158784068,-2.4542740124451607
162,-4.089584795799354,5.172630448175605,-1.8856561025110352,-4.161459591720018
163,-2.6631262337431347,3.0585128935470993,-1.721653785691209,-5.005472914556417
164,-1.2958007852155669,1.125269042067605,-1.6958295368521537,-5.147241805581202
165,0.0033917040676427757,-0.33777975232648527,-1.8722550147842245,-5.0315486361575505
166,1.5427184135375593,-1.155171574784313,-1.6508896315595047,-5.045169809406342
167,3.529782709744124,-1.3688606101110197,-0.7564145257076638,-5.0708582617539335
168,5.74257272597824,-1.2046000558408587,0.8230385748429606,-4.588167025510725
169,7.738782909466876,-1.212564693504041,2.942567167356463,-3.488034791602851
170,9.342603402046652,-1.3644348032930167,5.0727284616788255,-1.7963859646101556
171,10.783386414688133,-1.0730026637507062,6.618194133599797,0.2726233439930533
172,12.307676809849141,-0.19867288037623165,7.58881343055864,2.4331720762714846
173,13.925693497235788,1.4294415170456745,7.949752971759611,4.54875084805275
174,15.290129197311206,3.3238735704036637,7.88616260054767,6.754944518515822
175,16.10906738839411,4.8133719736285725,7.864021973875427,8.703965814840826
176,16.39975032963869,5.517470653062216,7.947253793719888,10.090354985135741
177,16.383650179527102,5.67316160123548,7.808360770412322,10.806517489914905
178,16.376703487534307,5.622647601475476,7.258619992960488,10.95413616806883
179,16.400514041324506,5.581012820845505,6.3298708715781125,10.872381270928052
180,16.309421144580835,5.5144521226858805,5.219418194159441,10.817954683899357
181,16.006786198968346,5.08347585746547,4.216124945361361,10.820352688362016
182,15.557074445312633,4.353293047699923,3.5131709825035866,10.583067557088302
183,14.934583312271895,3.448814285882699,2.938684547146836,10.08415504493087
184,14.062699384893484,2.5130046404636506,2.441554900920117,9.266246761122709
185,12.930172467910937,1.5727382778610894,1.8917009325645973,8.108041751144684
186,11.537727703115833,0.3960159357212054,1.1559587621503054,6.622124420170796
187,10.02456787957581,-1.0618129722121505,0.142029788553297,4.763650185044316
188,8.351225995784468,-2.7871097761597325,-1.17375926441771,2.572070465314716
189,6.212493648433187,-4.714141044324311,-2.751397517811183,0.08570857079695426
190,3.439906658267107,-6.747925856769801,-4.520011826773135,-2.648645824280445
191,0.28258230929412276,-8.736584552165025,-6.370996826831615,-5.453077412723801
192,-2.8026989576785786,-10.823806425320596,-8.373363674447114,-8.358999954475058
193,-5.553625580240524,-12.743470778479578,-10.343154283175947,-11.036197195517225
194,-8.360210190306434,-14.179745045810384,-11.937991771120384,-13.064974494136148
195,-11.05760174647237,-14.974517530936721,-12.920790988855462,-14.239894966784597
196,-13.222430444863173,-15.116559728007166,-13.286131385256644,-14.641564057759105
197,-14.477672360105563,-15.131367464761151,-13.190065188246193,-14.497388891208775
198,-14.769741280800519,-15.17769700817891,-13.187179168766825,-14.482914548109278
199,-14.582766435109441,-15.016085233946951,-13.32621563436358,-14.670725526693944
200,-14.588181967607305,-13.996023494266652,-13.139840655258634,-14.457864075219188
201,-14.683322736671572,-12.020410187219063,-12.315374682763023,-13.463766392480537
202,-14.020400905462472,-9.298009801164778,-10.766677250194613,-11.517642731891854
203,-12.427141128134808,-6.382807505530246,-8.649225402135299,-8.765099832223225
204,-10.075436771141447,-3.5364737483950677,-6.310257727701447,-5.640977901834709
205,-7.414719955167975,-0.9725858383881557,-4.063248763227219,-2.584310924039981
206,-4.825658338342055,0.8721362058970047,-1.7883203666412097,0.4287135074553421
207,-2.3156020953715406,1.8392831121049238,0.4212235608160726,3.5144575054656464
208,0.36804936814321043,2.05293484065329,2.5174390741252095,6.312502609620114
209,2.800495058394875,1.9183108125947563,4.602122863402546,8.388069187421705
210,4.493779264662199,1.9150471022976725,6.500508813918051,9.512052405219153
211,5.268244858191594,1.8736544117104528,7.9358760408213325,9.771143847114905
212,5.338665494209797,1.4649592808477188,8.753997655929275,9.590285047280464
213,5.225832981088852,0.9019918213935897,9.014063260211005,9.571770700908163
214,5.2646018713221805,0.4036838231357828,8.906897227845485,9.680593765274855
215,5.234769584938761,0.1648148744960679,8.891972103045982,9.235013450975053
216,4.758035383956063,0.22847674739275864,9.0152234081405,8.096111712534054
217,3.873954527881587,0.25070640075275424,8.88635047697638,6.304745834428323
218,2.630529393558677,0.16413240303210724,8.263967167676043,4.14921575851535
219,1.017098294848708,0.42435581740566,7.023681107139179,2.0049826389757874
220,-0.9843621781261991,1.1542841116094524,5.205637753302023,0.03712583924649482
221,-3.362641869433337,2.296843448664189,3.005452305211662,-1.8386668576600544
222,-5.765424015129609,3.7133015861298695,0.6558743634155146,-3.4794608873538864
223,-8.00668496949362,4.975419497443866,-1.795454580481438,-4.807309726998055
224,-9.78486412146253,5.783466265352127,-4.393869971162152,-5.865323869127166
225,-10.994579399752116,6.206759876836072,-6.7566016719891255,-6.827323068130351
226,-11.681327356367984,6.284115890218905,-8.485375722339544,-7.9098208658912945
227,-11.869807687247345,6.247556847578395,-9.409074839566799,-9.261207251920492
228,-11.792111625075375,6.2373879680688695,-9.600944691887028,-10.913587389194362
229,-11.925397672496528,6.206577770684981,-9.481007795924521,-12.819218862498355
230,-12.00486583871822,5.953978511317542,-9.548031241137863,-14.897695878098585
231,-11.055728619518614,5.535561756451625,-9.59598267248708,-17.02122778173985
232,-8.63453101685506,5.068895130110221,-8.903048601039911,-18.996906162605615
233,-4.858457145396187,4.704094595881832,-6.969357952087457,-20.653214605767232
234,0.10431650791264135,4.526423157406498,-4.310139053247184,-21.990224981155023
235,5.06887098035215,4.435656486852573,-1.9006420319685224,-23.220823907668347
236,8.914304353243782,4.35130972444332,-0.5503683270996985,-24.606780359638922
237,11.273313225204205,4.2390923402643494,-0.33385273276087124,-26.311372003503802
238,12.094352218557791,4.068915675307691,-0.4559006226020228,-28.470786457349174
239,11.699822325841165,3.807265148600612,-0.4527632888736156,-30.62138474599789
240,11.867154029411052,3.4059608248944118,-0.4788930486144377,-32.25134425815223
241,12.452524804706242,2.802354895676693,-1.3028145690103865,-33.119869282890804
242,11.62611423112726,1.9257674874097008,-3.220313221857344,-33.15896135661309
243,8.214284186434824,0.729845705527158,-6.004033921324808,-33.265486378348086
244,1.985815289804653,-0.9004301546838307,-8.727527947116654,-33.49254273847195
245,-6.309809457028566,-2.9736264232413614,-10.508491480574934,-33.1434755596603
246,-15.098190604217757,-5.025002996912572,-11.252004140783702,-31.22998051596797
247,-24.53612124154172,-6.5555669712579645,-11.182352517501153,-26.73208988713411
248,-34.105415115765304,-7.31973290403178,-11.184103602609072,-19.038166542400607
249,-41.732961155542796,-7.3609636040825945,-11.373105309537259,-10.419429346589649
250,-46.13203320542645,-7.342697319215271,-11.186974958554572,-3.7004585999648922
251,-47.34564950927532,-7.510989221561085,-9.57105801785976,0.07029852190717922
252,-46.71885146775274,-7.129139239150742,-6.567855058663494,0.8459745774626575
253,-46.079955888242814,-6.006923549666762,-3.191471470405764,0.12035817616830147
254,-46.413119574023504,-4.592111701621672,-0.688182197294659,-0.24316345610579876
255,-46.413119574023504,-3.4349083025885636,0.24532792686934723,0.0
256,-0.3846318607694833,-0.06683910072298826,-0.23603694493259497,-0.34492437482530525
257,-0.9848617348551678,-0.4464915160638373,-0.9854895130117607,-1.153635756570742
258,-1.7725708605485218,-1.314409580893079,-2.5037066018554928,-2.6758112243952206
259,-3.1430752732732143,-2.7085014027466494,-4.744808834334068,-5.044214159646398
260,-4.955407056428577,-4.600634960917758,-7.906121117973806,-7.598628276038671
261,-6.7850442018593045,-6.49704571058642,-11.298788027229657,-9.633595720321802
262,-8.156943066075632,-7.9064274308895115,-14.05365145001414,-10.744601347779577
263,-8.777800757153125,-8.627598856737308,-15.651584655955897,-10.837914321424458
264,-8.610736001985696,-8.732147958235252,-16.110488256416946,-10.895524140164138
265,-8.592949119991266,-8.704636222597927,-15.765358771324632,-11.073589132389523
266,-8.929382856667011,-8.694626731258555,-15.785983599423608,-10.701843981483263
267,-8.610410238352003,-8.555268959942728,-16.17931732580113,-8.741353263312535
268,-6.8463295826220225,-7.978107918626312,-15.753268882373854,-4.904847029688693
269,-3.2872510825226473,-7.111915637369454,-13.874779462185678,0.5423105378789788
270,1.680636669061606,-6.224869654400292,-10.20358090592055,6.772882412533306
271,7.053298979873427,-5.598863078208458,-4.976117769726873,12.775433050321036
272,12.225167291035941,-5.33050763432501,1.0702772418400142,19.124422549154524
273,17.364898716483246,-5.1239546883752105,7.071734662674492,24.80244080127727
274,21.73372477762626,-4.927346561665237,13.353445058228255,28.911225725372198
275,24.73750471558433,-4.688213561246192,19.212374073918287,31.085805930746815
276,26.149821784965976,-4.367237804128102,23.751254138152568,31.526005726806282
277,26.184049093089673,-3.9178979340558713,26.459064667691248,31.322126865095658
278,26.061422317994964,-3.298739064117852,27.457635833327977,31.288855440788232
279,26.253321309920693,-2.486879084764035,27.2882221585792,31.24230530279288
280,25.992119438210555,-1.4677480040523518,27.210800962989097,29.87526445987254
281,24.336822946561465,-0.21843365138035348,27.437601221250013,26.985866596101765
282,21.1593497533371,1.2848089274333687,27.10336690989356,22.72207839339086
283,16.95377224988106,3.0340110865918044,25.643509180833185,17.69250644290468
284,12.613085283107651,4.972744982397926,23.01978970882694,12.57428531281915
285,8.735513933903919,7.0303472507930875,19.603982060649813,7.357161518842776
286,4.839033110565776,9.176322742626732,16.056835793126865,2.0524925962475944
287,0.8124350857084874,11.434086177219275,12.89702216870576,-3.2117395572066783
288,-3.1828208505854056,13.812997963155144,9.823452513805456,-8.279252458084441
289,-6.7497770386061635,16.58952665191813,6.965358483773889,-12.933407035872332
290,-9.711299298788308,19.330649494054757,4.338952916727155,-16.981688740716415
291,-12.296313250411245,21.458726575051248,1.9418186884401667,-20.333642025971496
292,-14.810214107839162,22.636411968324968,-0.2527993743389163,-23.029438757690215
293,-17.22798670334334,22.858173944902337,-2.2960718208646425,-25.076577628802852
294,-19.218531234965187,22.81155625120797,-4.241010121996557,-26.43304295247265
295,-20.779734887034397,22.795358223183037,-6.109711480428706,-27.138830901539
296,-22.06648439220532,22.63513592094331,-7.880430517938357,-27.358356597849824
297,-23.152757873138036,21.67339349559529,-9.500560806975535,-27.32874272441649
298,-23.983648775559722,19.915615554320393,-10.90528787159978,-27.28121315955415
299,-24.425131446183713,17.565959661028703,-12.07428149255063,-27.285423711716252
300,-24.41930853061919,14.994115812490563,-12.942619899384857,-27.281716545951372
301,-24.38778000414001,12.448003735208188,-13.472080465957458,-27.245952407419868
302,-24.51166592714705,9.625102286168481,-13.723003604835295,-27.159446066125952
303,-24.38054033763326,6.536318429738458,-13.795958847801938,-26.943685822974036
304,-23.603027332305444,3.2398069178249167,-13.802801126879507,-26.521908732318835
305,-22.17152785395206,-0.08533295114982398,-13.821156246917026,-25.880079292733182
306,-20.479586354654018,-3.2060660876398424,-13.860220804080658,-25.06910954817936
307,-19.069197327111453,-5.917487873577789,-13.865002223819912,-24.189112051746086
308,-18.161623581091035,-8.429612940307713,-13.838343022436694,-23.217639380394665
309,-17.304680613412152,-10.58433804466856,-13.841808257223004,-22.00021420679028
310,-16.181389326069265,-12.153949066745309,-13.880709021012745,-20.39141057207479
311,-14.808614035973058,-13.015525650284726,-13.861409053025088,-18.386191772143263
312,-13.45295038397004,-13.167058344166612,-13.642588811119055,-16.104178876260455
313,-12.202898656593415,-13.189520809642746,-13.117397213536243,-13.654184827402547
314,-10.793239672965656,-13.21925652643586,-12.26947555848737,-11.039630431885824
315,-8.907320966083773,-13.011980133595427,-11.17055948448025,-8.207013505107971
316,-6.543235801083771,-11.973436728283982,-9.910929883563247,-5.147645911018817
317,-3.9497828883545987,-10.129812148488543,-8.474047351503195,-1.9123863376913524
318,-1.2361078074716518,-7.804742443746865,-6.827369352844154,1.4611350740464286
319,1.787158972758889,-5.558691920580745,-5.0120446535635645,4.988284993968211
320,5.297540948590514,-3.8616924731297857,-3.1156822380891427,8.668337082831291
321,9.088862153294166,-2.5222404333525086,-1.2566132730630493,12.383079181929084
322,12.644633113854027,-1.6117576742938684,0.46632116547732716,15.901555282870824
323,15.557040102045534,-1.0844640945610635,2.013293070587005,18.985192219528987
324,18.100421082282967,-0.8437475930049911,3.394504258483229,21.57860977099591
325,20.31103559685659,-0.779146795262802,4.631982489688365,23.681695703751757
326,22.04241240177732,-0.808379159601933,5.737977806995687,25.204364132338117
327,23.08701641810546,-0.8017455002410622,6.718415541776588,26.108569120765072
328,23.408795255457935,-0.7701461267057692,7.583870112171674,26.47205853327748
329,23.20987360107385,-0.8153098884998484,8.356369367405295,26.44423148567783
330,23.205869790230523,-1.0016658093719721,9.06667508594302,26.44242770833344
331,23.424642206254003,-1.3576832331987327,9.73878646029182,26.519510004768634
332,23.151856639110783,-1.9072593026693658,10.45146467730038,26.385943231862644
333,22.130488777293625,-2.532641932368044,11.253957459587967,25.778553261023383
334,20.43415583084151,-3.0514645647329393,12.017890930414111,24.69379751155886
335,18.413828113453935,-3.3976354837324,12.58557239548553,23.290327131489637
336,16.39538246341193,-3.519018830725412,12.872551383284092,21.807968154777726
337,14.434484963254661,-3.511127921293725,12.87351510329506,20.40153893961974
338,12.14131376324502,-3.505595771841205,12.888899885308158,18.909635864662395
339,9.729681775670146,-3.578870825403812,12.954484469762207,17.387405427848748
340,7.634723027941018,-3.6689153037049858,12.83682804456058,15.898799413496612
341,5.998823432850475,-3.7530983278616903,12.265287765381865,14.485963715911957
342,4.669216933769454,-3.759243684470868,11.176171615452663,13.13771605057407
343,3.560563854162851,-3.7232891446676892,9.663880173170694,11.83152746171683
344,2.7110591111829727,-3.7587831383751285,7.94857236262627,10.591067504403778
345,2.2423013614620926,-3.977684585418485,6.224815583010056,9.471861968971329
346,2.2039141829701223,-4.445550389955831,4.3992636160335445,8.483635235626558
347,2.250327224890534,-5.108456057358774,2.541537457962111,7.551778059787224
348,2.16396250614202,-5.817239698471908,0.6983425399761964,6.58493700856633
349,2.190211199737207,-6.413335910552054,-1.049203542544609,5.576553155353601
350,2.9112567334596715,-6.841074028102418,-2.804282126704886,4.608240269374161
351,4.176097418399015,-7.073043252155189,-4.404834616949789,3.7496511103823096
352,5.521336633163223,-7.157156917351215,-5.615966181243145,2.984532445467364
353,6.441583296319946,-7.13124381119471,-6.305952623617738,2.2484383395813934
354,6.6868218012856575,-7.144752338479968,-6.518845728913188,1.5195052574695047
355,6.474130429238534,-7.22575270402543,-6.415423125482706,0.8415223684280856
356,6.5264264737485105,-7.208866127467146,-6.400316711235396,0.24133368834482005
357,6.746056256045009,-6.772473135255088,-6.505154466976068,-0.3561815884166423
358,6.38640751217307,-5.600710986855018,-6.370948316890654,-1.0900344693496418
359,5.238219965544925,-3.50752309308174,-5.868705609698632,-2.032162017064126
360,3.4752414110068828,-0.6610679882266091,-4.9944748344356755,-3.127711105748369
361,1.5353132115427497,2.9918677785533614,-3.9009684464502743,-4.284467536269822
362,-0.20512031448419077,6.700137612833537,-2.8434583228057684,-5.491038231380613
363,-1.6637484408932153,9.583424456678632,-2.040629759611989,-6.807393304423206
364,-3.2687060252022473,11.171721644962748,-1.3186357723088897,-8.236090007892129
365,-4.776676734398166,11.548700031318551,-0.7458303882155369,-9.637450314510001
366,-5.914120344915259,11.278006433014635,-0.3560453511383371,-10.817768294167632
367,-6.707434692186091,11.253999662553387,-0.14944700346411824,-11.710706065998162
368,-7.470851957442106,11.440171901653642,-0.11589490181342801,-12.441989004617657
369,-8.406502714405601,10.847430997567026,-0.11790465496216451,-13.20497791146379
370,-9.360005023216116,9.235675881499976,-0.07144800188919928,-14.095617360841786
371,-10.072569572591776,6.6326854330398035,-0.09235978386970767,-15.054747928555496
372,-10.601128290201611,3.4826190846317813,-0.46490704264864124,-16.167719705826066
373,-11.33348864826617,0.4268895024656275,-1.3261010218868683,-17.384604820332022
374,-12.507233984373782,-2.1399364064028985,-2.631858469051857,-18.491156895756642
375,-14.084956422254235,-4.5914468923549565,-4.404632083539107,-19.270187091685887
376,-15.573697281217092,-6.6571167887332825,-6.172264277188167,-19.620377538663686
377,-16.55485660124821,-8.116350073555793,-7.54657263960426,-19.57375872677419
378,-16.96942580138826,-8.887771364039498,-8.324086211269886,-19.567500486498425
379,-17.028075728301655,-9.080066315605576,-8.52740710184292,-19.750816454856647
380,-16.963322075938986,-8.965834326418065,-8.41386788694739,-19.454056418820574
381,-16.913413930817256,-8.86036199951673,-8.304086325859254,-18.613960019855075
382,-16.945442597120834,-8.919535630766397,-8.362534105592873,-17.54436165616726
383,-16.945442597120834,-8.919535630766397,-8.362534105592873,-16.661216246969065
384,-0.2647155176203336,-0.12883202498613644,-0.182099608114501,-0.14623431240927698
385,-0.5994534670063922,-0.6081585687939752,-0.7577096257990734,-0.5065829886896148
386,-1.097208676385901,-1.6664159572462331,-1.9355285791212087,-1.2162485132476126
387,-1.9433473413498747,-3.3361136667295055,-3.724776550124056,-2.3653897472989325
388,-3.3755618950168977,-5.729123782024196,-6.148463927672788,-4.001293797623676
389,-5.738279854355618,-8.519499174043153,-8.886459893030667,-6.056207238968444
390,-8.568149641133013,-11.007868669055425,-11.289049564842765,-8.691219261537796
391,-11.005317273382826,-12.658264898974748,-12.869374629318745,-11.371007619731397
392,-12.43553885532561,-13.344724342731384,-13.524790929702965,-13.45944444680799
393,-12.85056767571578,-13.219648636421171,-13.433653754905867,-14.611063667575193
394,-12.591751545396551,-13.259701394106862,-13.43932496713179,-14.796143537327774
395,-12.68298034730823,-13.503823750209815,-13.625960915394163,-14.81276528799898
396,-12.952263181979346,-13.108807166193454,-13.334620333581492,-14.875653866418432
397,-12.485162241251212,-11.446957034467953,-12.024767095064968,-14.618787190760218
398,-10.882617260031177,-8.43704315712704,-9.582353764248088,-13.185291474140445
399,-8.143316024383811,-4.508885703672036,-6.254461965883097,-10.498907899863497
400,-4.575227568380308,-0.43754291494444075,-2.5719870480315516,-6.84738331496801
401,-0.6869692221173117,3.1626910933586254,0.9906878766333032,-2.84895600744236
402,3.0126832178000047,6.614538873965724,4.619664491243022,0.9069264725063169
403,6.59437075637713,9.734453656594665,8.052781580329116,4.542651980006522
404,9.624039568639237,12.634224941667346,11.416352809118125,7.850535670129374
405,11.728061904571266,15.036149791065695,14.329133529878595,10.734553572514937
406,12.883557013992128,16.666151547977957,16.396090854810737,13.424300726557853
407,13.359344656599156,17.467959725189452,17.4698053869381,15.826964435108088
408,13.425613553292575,17.59142773690585,17.68467755202888,17.666796391787603
409,13.418707515852331,17.539725822232864,17.545477091230918,18.744482626756103
410,13.395528922668216,17.52217265251349,17.55798916047406,19.100774144550684
411,13.342339150374949,17.44846812444746,17.600325007317547,18.963316600007918
412,12.980011609360604,16.897895800203983,16.95764542241101,18.949380468213302
413,12.19969552991251,15.812027675331763,15.480972251499303,19.104778289068705
414,10.959129038769243,14.19866537662665,13.273574501459404,18.902367359393946
415,9.562382430548098,12.179080420346182,10.741535853423198,18.08515026795075
416,8.432753820006633,9.882649195569368,8.366971985345886,16.615804345648264
417,7.767075732376094,7.222270006252141,6.289338499582238,14.684778832883868
418,7.562140696672715,4.3904314433463965,4.427376377513464,12.603832104062556
419,7.3914667529053695,1.4580093554195885,2.822840085218071,10.585455638246748
420,6.90988906333835,-1.348445267948564,1.3802159616919136,8.434854459918887
421,6.179742947997676,-3.590255871163483,0.20149722548460508,6.2936928206035105
422,5.505578491985696,-4.983314445050368,-0.6007810336283941,4.317011847953684
423,4.86248680595788,-5.5464755651142355,-1.001101833546719,2.630079714356609
424,4.241934560796613,-5.5191672187399945,-1.0740121280471175,1.2678676378106584
425,3.5825311522374257,-5.4692540345336385,-1.0311597459931094,0.20819709119257662
426,2.998765676078369,-5.531204583854323,-1.01337903551918,-0.6209261457653719
427,2.6642129022153878,-5.396261243017078,-1.008309418657122,-1.210890841457455
428,2.6127700897090333,-4.818959962689588,-0.8262281235706846,-1.5548407308242187
429,2.667361485699548,-3.8278393593032534,-0.45811083840113387,-1.696712667131197
430,2.6318602893111267,-2.5722353243021083,0.06657341359815255,-1.7101023218035898
431,2.600073474433985,-1.2731793969950185,0.7108809787898782,-1.7108751550724668
432,2.7207957870401476,-0.07384099835712904,1.3037094998978904,-1.692745962243592
433,3.1195913992748108,1.1862038399264336,1.7505489572345445,-1.6615049072697903
434,3.6779319760731157,2.4273526924848894,1.9893618527196735,-1.5920214783152962
435,4.1874879529665305,3.588279080452925,2.0183892173786226,-1.5225380493608023
436,4.470219189686716,4.713113064298127,2.0267892747031038,-1.481586727161973
437,4.48336277832984,5.682852719987673,2.0463708619328704,-1.4987661491498452
438,4.445650140866784,6.372878633245194,1.9751460177142564,-1.4669867425009115
439,4.50594076860993,6.733313934213416,1.6404135421836665,-1.4316192584305845
440,4.432212610867125,6.779826961419654,1.0521615809361626,-1.5662360236060013
441,4.09033573846389,6.778605072492995,0.318767286103998,-1.8888798547065688
442,3.5584012085714254,6.816376412208697,-0.38943123182419603,-2.290278526736424
443,2.861237608115554,6.759726447670118,-0.9605958111773092,-2.6247467549970303
444,1.8727533673894714,6.262571261951734,-1.5063622026104897,-2.837328110778436
445,0.4263477874824335,5.164530955783766,-2.064006100559582,-3.033931594764316
446,-1.5720096753640338,3.445965559032153,-2.6776096585041573,-3.4845570613945744
447,-3.918103973403235,1.2998453123862181,-3.3606792746518743,-4.24251644050955
448,-6.261812280848821,-0.9632704217604277,-4.09417647462887,-5.309708158538183
449,-8.598470301173785,-3.180127546962574,-4.844200540798266,-6.685999486417501
450,-11.132100789704115,-5.2002245566544865,-5.585966537523192,-8.369903026477942
451,-13.805829436174989,-6.807515587399241,-6.314975271637925,-10.252516764996026
452,-16.557780641913098,-7.862931571340586,-7.0231831424452595,-12.39563621089024
453,-18.879090058672208,-8.37822100390753,-7.7956225864882915,-14.414354275536711
454,-20.404039478128457,-8.499244760159783,-8.535440294856317,-15.913170161471212
455,-21.13134068749554,-8.424376756448861,-9.104351633834755,-16.718051663005852
456,-21.28914784206077,-8.390888333556806,-9.420071106240323,-16.86973220047334
457,-21.125082200551308,-8.448947925619365,-9.491118058293614,-16.822750099720686
458,-21.180871126913488,-8.419602778568782,-9.44346723840321,-16.833952831710207
459,-21.373480620676126,-8.229253050482864,-9.451360417317996,-16.770657061348796
460,-21.002076641287715,-7.811853284584776,-9.48351605207304,-16.080086223922937
461,-19.593629096886296,-7.1506746704678585,-9.29409395979236,-14.600571331836436
462,-16.78138385048562,-6.2987402056477855,-8.77206065988825,-12.27512728370919
463,-12.666553006060413,-5.3647241370486265,-7.862158049968979,-9.255252804164044
464,-7.893436460478939,-4.4287087578739905,-6.60603323137762,-5.822089944179373
465,-3.2108878701305374,-3.6329004066234187,-5.106170932010603,-2.0690620620760365
466,1.1640858518743997,-3.079599832894881,-3.4175417107808275,1.7051397106993347
467,5.334890021732814,-2.7800752339163255,-1.538356869903941,5.424334321170471
468,9.092471834693274,-2.667434337061386,0.4628651913801045,8.981132867171793
469,12.005818385998353,-2.647571167870423,2.5199359028742094,11.919086435480958
470,13.730327226816115,-2.65112829167463,4.556500414095121,13.855343659098219
471,14.285551200630035,-2.6566712645513126,6.663538402151035,14.71491579886635
472,14.049827556172172,-2.6529917423257885,8.559955994441449,14.69343421563983
473,13.997789866287157,-2.6336090303124187,9.935962457302873,14.666545028504808
474,14.256983896625574,-2.60469288606121,10.655458383784177,14.81476328540571
475,13.967184733013942,-2.7344871956548213,10.750281926148519,14.545710189616601
476,12.749651577668352,-3.0190836038980313,10.75511947332524,13.28701685920627
477,10.638195707235646,-3.356765551441656,10.802833604953962,11.031600126933812
478,8.03592283440026,-3.61851534443916,10.640794420984388,8.133877764287973
479,5.4158966397669275,-3.713961812075865,9.736685997382654,5.194718477789275
480,3.0047227241254477,-3.640929625547182,8.013178509367076,2.542214596720818
481,0.32515050100823073,-3.704768498053568,5.621407992162792,-0.007899601349249552
482,-2.2269249512901825,-3.809330792318409,2.9325888093741512,-2.062711274302203
483,-4.1145348519968845,-3.5462020218287265,0.31102268220177676,-3.360010050600439
484,-5.045998294828459,-2.716455352788179,-2.3059139350187587,-3.8812794458390734
485,-5.1229068117341825,-1.3509142007724737,-4.689424591995958,-3.841796690038553
486,-5.095523156384662,0.2655455379111633,-6.8114968842167505,-3.7904522763928257
487,-5.14868893143389,1.7325168891570644,-8.473205722346647,-3.864088087358395
488,-4.917915679636171,2.7925483202473083,-9.543528904048287,-3.7313945444461694
489,-3.942516066390108,3.5933034605580403,-10.046486373713542,-3.174407647155367
490,-2.481101479122137,4.113436907792034,-10.116529199448086,-2.2457461957386444
491,-0.8784737534927732,4.439894034265227,-10.079341046948164,-1.1432974480559204
492,0.37496275764013454,4.6381411251588665,-10.08760144699819,-0.23522488969355657
493,1.050909261914668,4.758904921222844,-10.045186703251945,0.23505813357659938
494,1.4910958854335334,4.829645525658898,-9.650503047219157,0.4439147833381723
495,1.7971667112606362,4.833504035333756,-8.891299122623627,0.4690185121514219
496,1.9938330649904847,4.871936456725529,-7.865288805636304,0.42689521792088503
497,2.1357095276524554,4.902580776400331,-6.765441959905107,0.4096833822207271
498,2.316998231419032,4.82704404823501,-5.751619076364218,0.4246267689681811
499,2.461598705806064,4.496622282822149,-4.753669697439033,0.4246267689681811
500,2.568621517968083,3.979284037352119,-3.744365803024024,0.42493111533508754
501,2.5455094148334076,3.4617159295642903,-2.710433194493124,0.46828877021687426
502,2.4744709996002063,3.127054892420809,-1.6989454374878605,0.3355679921794277
503,2.6960491985919792,3.0767124468277367,-0.4259213187799461,0.35052310539216536
504,3.2422501318256383,3.1026139617513655,0.9537518307720136,0.5967510395981067
505,3.9143141159250505,3.1032318178161056,2.1349525766580744,0.997926402742818
506,4.447637980472479,3.02107025258922,2.8734356987359693,1.3980365536033552
507,4.662166810860231,2.9261589395309,3.113833930638547,1.6416166744172083
508,4.58897070249693,2.8505967485146946,3.0217191446383715,1.6539848435112405
509,4.4978403840728145,2.8177152372885126,2.8984183232895875,1.5214771079306306
510,4.538342580265299,2.8259525279247177,2.9568882423768352,1.565747801913136
511,4.538342580265299,2.825965570379432,2.9568882423768352,1.565747801913136
512,-0.01818587221184071,-0.10339430084174922,-0.1462035543268259,-0.12223506106557822
513,-0.03439980661160069,-0.4216324558718749,-0.5792263720558699,-0.34549952867107947
514,0.08523298790905892,-1.0763075576156513,-1.4372487008871286,-0.7408420641759716
515,0.12918323093251816,-2.0772800687674136,-2.7253490566816687,-1.3896922687007738
516,-0.3067100936888377,-3.4560210627475287,-4.279883796924718,-2.377776634334008
517,-1.4706685596104698,-5.044392365355984,-5.991074679108888,-3.746298683701116
518,-3.2154283340807766,-6.461151474437379,-7.64045131411447,-5.362112143631928
519,-5.158163336222982,-7.40700999016316,-8.941270219734916,-7.169398662869815
520,-7.101807003062001,-7.8074067434378245,-9.733886223293794,-8.804411213663728
521,-8.725180810242755,-7.7664855457699895,-10.044332021572572,-9.969544980295222
522,-9.961981841203876,-7.759797570941759,-9.997905536529915,-10.574545250378627
523,-10.693924135990748,-7.8489080233186925,-9.995421553637001,-10.693670188235973
524,-10.868219379700637,-7.685329935370595,-10.083424871438988,-10.622369354600837
525,-10.809614569857127,-7.011806839395311,-9.956439170021739,-10.635980943791527
526,-10.804251356387171,-5.830594905721649,-9.353682128854997,-10.658101979316989
527,-10.794112623474167,-4.32383864725542,-8.198815365951289,-10.237863018817887
528,-10.234858137406764,-2.78597503579224,-6.575979844164224,-9.19331584329071
529,-8.92055022398251,-1.4440492556584352,-4.706834533628378,-7.445664477577683
530,-6.929706483358955,-0.17441584932167875,-2.8053334469885436,-5.121771628376572
531,-4.700157388372805,0.905876926630417,-0.8037632331791466,-2.490641276740311
532,-2.6694560775557212,1.7372030109032672,1.179925539541776,0.2978880828717574
533,-0.7464544328015602,2.326061351057825,3.078607863934092,3.1762117792769615
534,1.3313570849611633,2.761443781392409,4.855375170283903,6.060653976708024
535,3.759748272077819,3.0979356156831397,6.50051254532923,8.85106831215086
536,6.313310998691083,3.34783123128805,8.016003665716456,11.607099690151303
537,8.585642272994,3.5054028684529923,9.397621562404776,13.97222749023779
538,10.54164586164429,3.5465630286015726,10.620356920304689,15.60081364346379
539,12.090624380557871,3.5302759518784925,11.678078139849415,16.40058538774319
540,13.209225881034808,3.5963031830839984,12.531971921634797,16.53290189835773
541,13.867455358665906,3.89329800349742,13.125411572558901,16.44534365134269
542,14.056227045158645,4.506521431703886,13.450328528471776,16.450206332466355
543,13.953905017129015,5.4748753878329515,13.562686125965568,16.43788593586513
544,13.891753563720997,6.6944911898991855,13.55775379984337,15.935758424644435
545,13.972723866271837,8.137526854216077,13.52649933791027,14.884465680939757
546,13.848169885569089,9.522482106909447,13.524498604965089,13.356647432846955
547,13.409194538164135,10.555416205079528,13.5434418215015,11.587755060878402
548,12.694848277072492,11.103181965613778,13.556632776900733,9.838547583728323
549,11.951225423434556,11.224148992599211,13.505027452591243,8.12542303779162
550,11.383748418917099,11.127768818020893,13.294466985906562,6.435731992053259
551,10.9090971908081,11.12235772734499,12.850752243253146,4.80852659823769
552,10.26303532923344,11.187885069012962,12.16594733559985,3.267322718583049
553,9.367995866180296,10.985424678603923,11.304503690293958,1.9042994882429833
554,8.509363554995316,10.434371601122908,10.346805413769058,0.8705841667881438
555,8.00538915483739,9.540539444781645,9.322078755592678,0.26241838185430344
556,7.770842882073402,8.437660495594303,8.205050540381093,0.012041815129626265
557,7.343644813570103,7.315896050562287,6.935944219760965,-0.09070015663625047
558,6.362192403813913,6.255491985283647,5.454117305026939,-0.24878228073431752
559,4.894423836315714,5.142655034172025,3.7274834175462344,-0.5403945754375511
560,3.228057502714342,3.971339957893741,1.7692077403579787,-0.9671855670611958
561,1.4398072311522405,2.741060021104225,-0.3637009384883121,-1.585691976440594
562,-0.67286016930749,1.4779516188218524,-2.590292186350199,-2.539474708484491
563,-3.20930144822778,0.22650287509971442,-4.8161880205835725,-3.941229221080027
564,-5.809228319232796,-0.9508035977745901,-7.008994039708974,-5.687957892610245
565,-8.183588982793431,-2.0361290809997845,-9.156176717178155,-7.713751350493222
566,-9.942845680050455,-2.9094844754026576,-10.972507978000827,-9.581553881714322
567,-10.989344919934217,-3.47429524668983,-12.201397183397074,-10.917503110907425
568,-11.484436150850426,-3.728503656781882,-12.77783951004799,-11.600923109983276
569,-11.589044928113692,-3.7625032736747626,-12.810720417611009,-11.717181021386379
570,-11.599144648839317,-3.7293367365697714,-12.792553880971319,-11.669123075858765
571,-11.576415831497032,-3.707916039596463,-12.839855996286484,-11.67534024841876
572,-11.512460550321576,-3.7023767745644314,-12.702895742485232,-11.642139610413226
573,-11.055612446069869,-3.6526140418193904,-12.039452247574241,-11.094462420063605
574,-10.055670935074536,-3.5951806829544313,-10.840364023895889,-9.855091575750599
575,-8.42194126708441,-3.5423140941250217,-9.257491873245598,-7.859126902578248
576,-6.351708199372153,-3.50960293915029,-7.573174720622209,-5.277442672063932
577,-4.260879281508682,-3.497794105371949,-6.013318045809696,-2.4377492207408276
578,-2.3333796240292703,-3.4875770299346724,-4.442563110184918,0.4899247797520059
579,-0.6693073221477239,-3.4768076542924073,-2.9388396821126874,3.2483111086338017
580,0.930909214388947,-3.4757322375039355,-1.5451623883001138,5.840112175664289
581,2.6007465288092666,-3.4679610363311806,-0.3053957940761232,8.001051584396585
582,4.105554186332565,-3.4352567262139693,0.7357112161567292,9.4903489255084
583,5.112480614610478,-3.3705912796748834,1.5928601049502533,10.239333979861065
584,5.51209749731191,-3.3543915879796664,2.2276379335166263,10.35933372300302
585,5.471413991822763,-3.3678811087962903,2.6227641631141023,10.30594492553351
586,5.459911446079083,-3.271319499312149,2.8037022062813244,10.29510356057266
587,5.540648441453734,-2.9812825036418635,2.827091251782593,10.224519967821522
588,5.3977015715904875,-2.555887383254384,2.811119350229131,9.703463057619263
589,4.802265132712701,-2.1543764824581224,2.8087282948658907,8.73549372079265
590,3.8555894039258427,-1.9275092728277456,2.798953279748308,7.425120060277596
591,2.7189914681312968,-1.9478172696822427,2.685835893462089,5.937044059425322
592,1.4518298240088932,-1.9314052584396504,2.4328924034302144,4.3292902213896705
593,0.0002519286985500635,-1.8721286191363282,1.9869899331314016,2.363928960459367
594,-1.7943309632585014,-1.9772434768061653,1.3101738241595893,0.023461059856455302
595,-3.675922715599696,-2.4190209547654145,0.40114085570595687,-2.579296207017707
596,-5.329864936085311,-3.2693032417118184,-0.7218671380872047,-5.185946013617579
597,-6.75490584708374,-4.267676249336476,-1.9356254095393566,-7.837629590728663
598,-8.42753755806308,-5.052450050564209,-3.089861390595087,-10.184327056961198
599,-10.277851421511201,-5.402704956548586,-4.058028527367214,-11.888121126962808
600,-11.889274342216993,-5.4684120193503585,-4.779512832829616,-12.805355153421974
601,-12.846412209626543,-5.428992351873936,-5.24975479851467,-12.995093157863742
602,-13.042635958268626,-5.411596481665866,-5.505702134191906,-12.916715237818758
603,-12.921274877269846,-5.401277319014351,-5.613160910042191,-12.911802171303275
604,-12.982773175547672,-5.23097316441902,-5.6397886263908745,-12.89378914769225
605,-12.992840346972041,-4.917698474792112,-5.62451111460925,-12.24858025440044
606,-12.218573696085944,-4.516511008610838,-5.63187162071499,-10.837948163119812
607,-10.575232002138012,-4.149754971010693,-5.6573217726123906,-8.754242809765131
608,-8.346004845430446,-3.9216917872739825,-5.637369175321453,-6.389034074902133
609,-5.98957523004802,-3.807187218419096,-5.494791520183791,-4.208629331589032
610,-3.7799125728509844,-3.785566822007068,-5.164003899388634,-2.320017259025906
611,-1.5301324008843018,-3.7957064701055545,-4.604141754318627,-0.745485818265307
612,0.8881254192264518,-3.751336907998754,-3.8144268649646462,0.5288372864946221
613,3.321225946795327,-3.593894628344525,-2.8244111820973297,1.5806255688017956
614,5.286959452752484,-3.3477122089754596,-1.636878734503244,2.368936141358164
615,6.488125103016463,-3.0837680867746324,-0.31441625686931,2.856181260543179
616,6.997868594678289,-2.86694908005762,1.0640275944996378,3.072476449214242
617,7.084021876279563,-2.676665796704562,2.4254711425460416,3.1089123490539725
618,6.996254524660243,-2.3681313729965825,3.7274297161432264,3.0607083700531685
619,6.976241410851277,-1.7626421214573025,4.9307458794449595,3.0662187849850024
620,7.039205187609898,-0.7486811430616596,6.148192513381996,3.111027297150577
621,6.925247742521314,0.6249926680552538,7.254574474634419,3.049157037319706
622,6.506839557905741,2.3765698216645754,8.078244288425518,2.7901299819625587
623,5.596132637446041,4.115569011032873,8.525922501207045,2.23728140484927
624,4.192041754959686,5.4349094720733415,8.637378935210835,1.3727413668636468
625,2.6397405319794762,6.1390419790957775,8.527049063438318,0.327071610947835
626,1.2180571626377033,6.300948187502364,8.554045100962728,-0.8824099461465917
627,0.15534194749141764,6.17590938855523,8.679824857365784,-2.0601661148279575
628,-0.4137719162380785,6.126065804168553,8.501382155436675,-2.9369396163360886
629,-0.635140150521624,6.205691640101534,7.803021067716288,-3.409738149473709
630,-0.6753378208660769,6.106989225081123,6.562164392205057,-3.500686446899514
631,-0.6900965541845402,5.804973728790943,4.59162642680534,-3.4806690634731097
632,-0.6722955013322922,5.3027999616656265,2.439118708615843,-3.5077608517003362
633,-0.6058255097667065,4.683632032815129,0.7629851846875909,-3.495675624954447
634,-0.4116305593665194,4.06863589489933,-0.2506363666812512,-2.8991004017265647
635,-0.18352123025316092,3.5470133237152135,-0.5481788196378833,-1.864512914330329
636,-0.010206705970714963,3.0239644711126648,-0.4107082613394397,-0.772592029072997
637,0.0477840152783472,2.5719727437489146,-0.2543301014369191,-0.03350235973324464
638,0.003723986455837665,2.251571930315931,-0.3324721818747862,0.15457069482569116
639,-0.009689822489477539,2.085203246026439,-0.3324721818747862,0.04688591304286692
640,-0.0033059381617754737,-0.15222842604053216,-0.14992106264168686,-0.12633965860094404
641,-0.07320490370260299,-0.5949270280561716,-0.5851533989346653,-0.4299029966487715
642,0.07400245295499672,-1.448110885396646,-1.4617436604650051,-1.0139229814131445
643,0.22209776232788137,-2.6983725055349694,-2.838535622177921,-1.9304216727273393
644,-0.10442938042072514,-4.168879433664031,-4.597389626252485,-3.152946361632167
645,-1.2263388788269476,-5.919183864664587,-6.961851296162282,-4.6915602725883465
646,-2.9982776105193776,-7.627835261251145,-9.460582089468012,-6.409512185737455
647,-5.483743478181067,-8.946183193210873,-11.487501843936684,-7.9301196777129705
648,-7.97462640993419,-9.685007686198864,-12.660235556065746,-8.947260661438897
649,-9.762976704699023,-9.82887727255064,-12.938735969573418,-9.391506514429622
650,-10.848307583398283,-9.798084131124547,-12.780902537825321,-9.347316686317978
651,-11.111105004284406,-9.844154578353853,-12.836460941429458,-9.384880144011134
652,-11.151263658796216,-9.770620040695006,-12.926716668620907,-9.518216983366413
653,-11.139635782723186,-8.96010675209353,-12.063139622481271,-9.296973340612766
654,-10.939380486947812,-7.263485846924803,-9.895501235232523,-8.263969373489266
655,-9.71622815462353,-4.786675892137637,-6.442856318548439,-6.2786830270917555
656,-7.273374371846282,-1.915542843265082,-2.2109817539855676,-3.4656698543005255
657,-3.7420046218613434,0.8888954308586792,2.068434861514295,-0.2211817405026295
658,0.2318619751056472,3.559571538382812,5.962898721887626,2.926399371027464
659,3.8116554601178567,5.926641798853932,9.699994810406404,6.2266565450251425
660,7.207875760401592,7.683615032964447,12.815810609959387,9.121415139675385
661,9.926501779737979,8.703485240168039,14.947100997836666,11.156038755463335
662,11.760135387187304,9.086681724937797,16.012168171676755,12.196121678401166
663,12.734391836659144,9.08500971865299,16.194002954182924,12.403779708773776
664,12.948839878458713,9.017291919623414,16.10159702381834,12.274876959643773
665,12.914000983108563,9.014169504323258,16.100764529367222,12.286100472370244
666,12.88075315197234,9.00228850285456,16.051260220541646,12.315766271795226
667,12.810192901042768,8.89228152710659,15.315847848886227,11.681579123934732
668,12.09875098482019,8.71365164277766,13.801882106729021,10.241614467183688
669,10.353880506368862,8.494130915094543,11.584883450315493,8.02740064926701
670,7.610895771849929,8.263081140250062,8.9551467121854,5.383164931905351
671,4.741844763949051,8.028281989013687,6.278345623209742,2.527148390692134
672,2.6801008386322507,7.749460571866139,3.4663451426381315,-0.17202902788337665
673,1.644954421901735,7.4536462262382415,0.7356639858005644,-2.3220533614943477
674,1.6554973148801515,7.138089381009221,-1.4473256517125794,-3.5674335417088305
675,1.685353281837912,6.764075700966631,-2.7915325282307952,-3.9668192746376634
676,1.5234862096343877,6.266868524527693,-3.3167783141693743,-3.8101874500846065
677,1.77507495551012,5.585451175499497,-3.261334487819683,-3.796287432802115
678,3.414326307120195,4.69578767313508,-3.2236901351851275,-3.9530332610197116
679,6.129242717168431,3.6250241151950537,-3.31414177347031,-3.711149084186304
680,8.946284944520809,2.446468076899526,-3.1562412571980727,-2.855559764629865
681,10.825114030805425,1.269612167287035,-2.473396299863091,-1.4213018243442028
682,11.310004307723563,0.22010731467608774,-1.2582849272258891,0.320226825205687
683,11.025057815297613,-0.5988694699763148,0.3320741235421243,1.9642436562252379
684,11.104241327871758,-1.1481205383738313,2.0329440963216228,3.2300305064536774
685,11.443320674928515,-1.4857626409979117,3.6376361775205712,4.354291780222943
686,10.881978789474497,-1.6860962610369767,5.337918973714509,5.352395447037926
687,8.908782263091243,-1.8092698198399655,7.0471457747644015,6.385772667810592
688,5.433326887210024,-1.8896050709934646,8.500431345034437,7.370151503468051
689,0.7706586727729814,-1.9359851649030138,9.47247594803776,8.136830741354652
690,-4.341515940628418,-1.952546580055073,9.914775501925066,8.560714209312595
691,-9.476998304769692,-1.9570747645190394,9.924812534181571,8.618623033853055
692,-14.458441223872294,-1.9580524405443531,9.915255206329403,8.607752460954654
693,-18.169984433586905,-1.953704529332978,9.969188446459404,8.638626603910094
694,-20.144907180580553,-1.9760753316287625,9.84959202419489,8.54814151355782
695,-20.6672602881956,-1.9605291377834309,9.26270095649404,8.05001509406523
696,-20.350396167040387,-1.8291924333596143,8.183415586102573,7.151386136545584
697,-20.386114492018194,-1.426071080224605,6.74319813528025,6.034220404965837
698,-20.66206366286287,-0.8461725914128366,5.19958547414918,4.974017102852808
699,-20.210119709829343,-0.2941994685268276,3.7606811639332474,4.120622128836376
700,-18.687433416772073,0.04301618408464347,2.295244145575864,3.2585890776672075
701,-16.053365752355525,0.11795720163607468,0.8091739823439594,2.280316681286661
702,-12.524638930700862,0.06545264828707124,-0.7456382835024519,1.1530513564161968
703,-8.552649472955908,0.09417089594597362,-2.406930882327545,-0.0563628646139861
704,-4.676507639448399,0.17605481239945414,-4.175017172297613,-1.2933801526778488
705,-0.6504589650000386,-0.166223552200373,-6.019297640971272,-2.5863067671063833
706,2.9609200347046074,-0.8817349925934399,-7.906921900247836,-4.005519713135384
707,5.624928751193927,-1.7114417669782893,-9.820246054404443,-5.5868766530060245
708,7.176097029810804,-2.337577104643406,-11.709532212650718,-7.314713083575244
709,7.799791239738165,-2.5463489532213495,-13.736124194434165,-9.121667033622547
710,7.804054606511822,-2.4363906216252964,-15.629495879827736,-11.166449156947888
711,7.719078216019174,-2.4290725338975947,-17.050852270191463,-13.149219378820794
712,7.7535035725830825,-2.4944363152782767,-17.823264457460745,-14.677414341982745
713,7.700410294048106,-2.2417688629775827,-17.972221076533316,-15.518627200753523
714,7.255368718550835,-1.5141796611115843,-17.921905528120394,-15.670027431231267
715,6.240191840472224,-0.5262136239196357,-17.928693297002713,-15.62876655891211
716,4.642888427335323,0.37447923659789906,-17.873564457827623,-15.64804365234344
717,2.5912765619150804,0.8753949842790415,-17.242375551259787,-15.564573642468039
718,0.6571586412178754,0.9684451830084835,-15.935320534631016,-14.78474161791106
719,-0.7869302787477347,0.9533096967641588,-13.999502715664207,-13.180791261146195
720,-1.4731376852441025,1.029302857129823,-11.65124336750915,-10.846845980316964
721,-1.501030077182585,1.2338811305412547,-9.124048545242585,-8.106649521246819
722,-1.5615275203532684,1.3543652428888573,-6.377643134044917,-5.283607138294368
723,-1.6193337645534376,1.4556400931861697,-3.5002896874063976,-2.325060370501709
724,-1.313920987882326,1.526800895806502,-0.6384792908407511,0.6066672102871921
725,-0.2663611143829271,1.5932300675592619,2.036668419649801,3.4209551505894678
726,1.396600565502404,1.660886540196147,4.515518702264201,5.761517979372076
727,3.4648455163763234,1.7073970691530378,6.620513021303262,7.327822136800725
728,5.67556563156721,1.724078962414716,8.13177411923823,8.087004998344753
729,8.00698389130772,1.7229679438513876,8.967102853468505,8.26067678066343
730,10.42749096760016,1.7020548667019506,9.234106371095354,8.150624958195477
731,12.287266648471011,1.564797612267339,9.159226301283049,8.122288030278064
732,13.244126583178687,1.3197110115596271,9.118649173885258,8.19299259164042
733,13.396903783740811,1.0154194750864685,9.18302248194178,8.102937081924022
734,13.22107375315831,0.7279838300200807,9.099319145485563,7.815916995832099
735,13.291988913680342,0.5178172245073601,8.778117518153742,7.341735068264605
736,13.357047796732548,0.351075958299223,8.240016281803873,6.750143580892831
737,12.770333820469089,0.1789724552131209,7.597738908276588,6.184572861420374
738,11.44456282047453,-0.05990123003522557,7.017410919823687,5.796458455993401
739,9.446681611027136,-0.47197789087896036,6.601960154420955,5.549767828125639
740,6.897644805013064,-1.171524296459215,6.225823349813051,5.430176046441288
741,3.9100520619971575,-2.1979447497621267,5.832641386409074,5.259485982869182
742,0.5355867973474533,-3.4612087914509395,5.319038784359556,4.834863244268956
743,-3.093789102831173,-4.761766950257517,4.6000993379934645,4.082440301544574
744,-6.755109917624554,-5.912521194626846,3.64318391671254,3.0872394039158495
745,-9.831255416483295,-6.772298180280339,2.4739544874619774,1.9807569630700295
746,-11.92960066004154,-7.300014360983674,1.1653537523951967,0.8431524816006084
747,-13.020641924042575,-7.552843214764378,-0.1609560043064049,-0.2673655810951246
748,-13.23421857388383,-7.626663154482557,-1.445650541757754,-1.301598159570692
749,-13.22490548308218,-7.59427046775232,-2.5039194499148616,-2.1305213043331497
750,-13.194014514496233,-7.6062536612215395,-3.2021583397219757,-2.655524431690103
751,-13.036671533344045,-7.658370436610362,-3.5304083927570318,-2.8883238308471455
752,-12.097519976345634,-7.6021484422920516,-3.5815609676973352,-2.931942379478893
753,-10.20867201078461,-7.3081771419253485,-3.5310532419956155,-2.8852967946999444
754,-7.383515502637478,-6.739406308556354,-3.5365580054799692,-2.905914328662518
755,-4.490634723521797,-5.973609537365085,-3.55573837822834,-2.9449359368501513
756,-2.4286674742715926,-5.183884215275004,-3.3859711299345148,-2.869838101536267
757,-1.301162208512794,-4.539570918927715,-2.9885797883059957,-2.6512989711814523
758,-1.1034248228136363,-4.027780991762526,-2.4000703676297124,-2.1861736841439465
759,-1.3168878622041713,-3.6244623020537783,-1.7497838096184624,-1.6409291221372275
760,-1.4198859787582803,-3.243241081711314,-1.1953093944798816,-1.1856888862279746
761,-1.34750740994329,-2.800944073864542,-0.7753556803852888,-0.8786659360580205
762,-1.34750740994329,-2.3048925540509915,-0.44185716549393145,-0.6704016239844228
763,-1.34750740994329,-1.7248024303594385,-0.20397750263400063,-0.5217795137515422
764,-1.34750740994329,-1.0983403470615907,-0.05863312180839875,-0.37293769200338267
765,-1.34750740994329,-0.5461152634537279,0.006054216372518399,-0.21263154537923284
766,-1.34750740994329,-0.1620403039561367,0.013875256707061521,-0.1590109590885442
767,-1.34750740994329,0.02406631185483228,-0.00040533593161897266,-0.1308265218043203
768,0.0,-0.18667856359717627,-0.14743303485460635,-0.02422356240392659
769,0.0,-0.8022135812955418,-0.6331185929323964,-0.12206417957847521
770,0.0,-2.0837538524851498,-1.634879733971353,-0.38602585768177106
771,0.0,-4.110397281012981,-3.198824608755587,-0.9066389375985897
772,0.0,-6.6772300013372625,-5.1720630960214695,-1.7027913753076092
773,0.0,-9.824765439540048,-7.573263463882956,-2.67983609544056
774,0.0,-12.899464355591553,-9.905973617883514,-3.6447144476587416
775,-0.0006879814784050666,-15.227644149018081,-11.666213068631157,-4.399068612059751
776,-0.006243112234341123,-16.482800311257925,-12.611131221333604,-4.8451896730707595
777,-0.014335149086987607,-16.74582204261307,-12.814018864056624,-5.022911666042129
778,0.004060989453982755,-16.58621406088663,-12.69747807923251,-5.053148020786562
779,0.05438264457208958,-16.591095434043048,-12.633761377151723,-5.036505560862498
780,-0.017058946159940636,-16.641822819722478,-12.652721570159008,-5.193450687331659
781,-0.5562180701697751,-15.900001663120554,-12.331604010246101,-5.51634040775628
782,-1.825171219756105,-14.15216171668554,-11.640194364119623,-5.881882511599186
783,-4.004701913196973,-11.430041403863363,-10.578004525474737,-6.155598928837887
784,-6.465514478455692,-8.097151288705506,-9.23911150407926,-6.251309251280152
785,-8.41723466105616,-4.635983340547702,-7.740251423299389,-6.207275630370944
786,-9.433605598953314,-1.1995132478928374,-6.058187623583524,-6.2409896683775425
787,-9.633789934024081,2.233130760618476,-4.195833453341158,-6.3116311821357485
788,-9.370768288530106,5.52962911252079,-2.170492108650132,-6.039303324033911
789,-9.456208581859464,8.583588516680978,0.018980046992519206,-5.1512901074454645
790,-9.678571234207705,11.28935725679901,2.3643687200117776,-3.4925384065532805
791,-9.27267020692168,13.574806602567246,4.8272992843104685,-1.1677115722721412
792,-8.020581776843477,15.437715528649447,7.331321259024583,1.4901003786248677
793,-5.882564808404926,16.92680698989867,9.780912539973269,4.182859918723401
794,-3.013010304019045,18.36753381397263,12.090023778705334,6.856342014295639
795,0.24121556580996617,19.714388195465677,14.164106585809515,9.398242788284414
796,3.4473335147555204,20.77657571408794,16.142842450769713,11.956345982335728
797,6.646456035433279,21.399795160206892,17.851778795338276,14.232401346602053
798,9.537827032517633,21.554467391487417,19.077018001074446,15.86780123314109
799,11.760113554135556,21.502465344571757,19.726287435657564,16.706794811795252
800,13.187492280164177,21.501961722954757,19.88591811776949,16.8505266668495
801,13.905850115238575,21.487291860184264,19.74208070735181,16.78207070161238
802,14.01987542331367,21.038461486214153,19.74769221711426,16.77492156576866
803,14.044252616481312,20.110497342097812,19.893741884150902,16.711218764508974
804,14.06294588660224,18.816258401993352,19.708364387911978,16.153367178633072
805,13.851620864447533,17.429673038030636,18.9968190105005,15.120985121962208
806,12.985295807534161,16.203578044449213,17.69075126867756,13.736779771552765
807,11.591262052642609,15.088593950619824,15.951744781292168,12.232674507329126
808,10.013742617214008,13.948062625367879,14.108444846585455,10.836745659386082
809,8.708892535967868,12.713533475249813,12.451852480260854,9.541383375042201
810,7.954337635075013,11.348289937346589,10.91334097023588,8.464332239317821
811,7.466337056212758,9.881424142235963,9.581565511815695,7.69955478684621
812,7.236408886553503,8.367855117293473,8.470434102585306,7.168782262745903
813,7.171653214329766,6.845813831049741,7.566664888240901,6.685464351281588
814,7.189042191199973,5.338219013751744,6.8345341082455064,6.103233573719879
815,7.201391839677629,3.8633487790856775,6.211039572410539,5.389664674625864
816,7.042038528967275,2.4246096059532527,5.600543580700296,4.568666642321861
817,6.479475370730721,0.998561013454297,4.881531591457289,3.626409353016026
818,5.404662949270651,-0.4596327661977887,3.930589756500175,2.4915911211701216
819,4.007925038935917,-1.9887154677403909,2.657477959884217,1.1024387188529055
820,2.700795560616131,-3.584393904779702,1.0337082729508669,-0.5353006483279328
821,1.757947636340872,-5.192017932077248,-0.9049307543543459,-2.3815138547138925
822,1.0503610223329374,-6.744419092522811,-3.0826943067447967,-4.432502155021887
823,0.21180281310460705,-8.20769005238313,-5.40887827573493,-6.707555827949408
824,-0.9008553537596624,-9.599954419253143,-7.7763276760136515,-9.154068663660878
825,-2.0151621196454386,-10.940287971481796,-10.04113965089013,-11.559464029973675
826,-2.7603673636424038,-12.431339956878034,-12.154463711088077,-13.929621860620834
827,-3.163951991877636,-13.886928630922695,-13.859670492986101,-15.950661203863614
828,-3.440068983225556,-15.023257646217376,-14.970928187450546,-17.36124244407554
829,-3.8037324261066283,-15.663254144775207,-15.488836071095395,-18.0974428076722
830,-4.252184109446029,-15.817719033314804,-15.545554079285537,-18.241387047130548
831,-4.497290187514176,-15.720692334093728,-15.522909874621453,-18.188840430151572
832,-4.5316250515917424,-15.715513568311797,-15.537314808981902,-18.20779044598989
833,-4.685628949339657,-15.775875173180975,-15.46010666214086,-18.18162090685027
834,-5.056479819658385,-15.479395185561003,-14.980077825775965,-17.548890874642016
835,-5.53551466112395,-14.708781931866433,-14.068275015448027,-16.125056725272167
836,-5.873171608152229,-13.477771799416356,-12.808251378922554,-13.908476971287243
837,-6.048897849525583,-12.000394932186143,-11.402213988780192,-11.19695240051209
838,-6.173990937559734,-10.583803253089535,-10.043868588012002,-8.436485304543318
839,-6.445122743052625,-9.392675519742967,-8.685497081272372,-5.797059315347512
840,-6.7887298243798035,-8.391835759383525,-7.405071515231156,-3.3756594759555054
841,-6.9991111149997085,-7.597394227504326,-6.225005213054258,-1.1989425507279727
842,-7.024802833058748,-6.9629462842837295,-5.138785116438848,0.7469116498792596
843,-7.004030914578741,-6.428596986675375,-4.1169081280919535,2.4220023774847905
844,-7.112895348826112,-5.9288447176712955,-3.1160572563337614,3.749344571967786
845,-7.032209271069231,-5.39390884957247,-2.095790898780491,4.912895873634106
846,-6.439747855967701,-4.769647707668112,-1.0566042579534685,5.920309463826107
847,-5.317827162188889,-4.046658731526932,0.04586438921537772,6.705525886548854
848,-3.8848712855121157,-3.2561261972293094,1.1068984059691311,7.189469321020692
849,-2.6260372457260646,-2.4535353974806533,1.9445054854957076,7.352604937414192
850,-1.92137198380894,-1.5398229866350395,2.445486429156111,7.234823206156795
851,-1.6739693591086362,-0.5580617688132319,2.624406622871585,7.269767506978577
852,-1.7167415120230438,0.3145706716726419,2.579263573243218,7.442569100569058
853,-1.6417922819600168,0.9084130563774822,2.571136961055735,7.24320678278028
854,-1.5866337396165355,1.1580120139983052,2.6271990600419675,6.360412940265724
855,-1.7874172645152049,1.1139803205173753,2.545890221145761,4.707946344059969
856,-2.4577172306899406,1.143680264549755,2.210510210885411,2.5181333929565772
857,-3.6644572957341675,1.1405982553592318,1.6055471583986058,0.204107401580361
858,-5.4158891962729125,0.9569732292026871,0.8038061327553344,-1.9245301666718868
859,-7.779250173344983,0.639393289553182,-0.06711714792317924,-4.051040356824409
860,-10.178355509860484,0.32181334990367777,-0.9177814633951284,-6.132834344006321
861,-12.212490188979896,0.13748836974083956,-1.8240581907712943,-8.055058867315395
862,-13.346098293053021,0.11175328508870994,-2.803766687240171,-9.906051476129772
863,-13.579228225467865,0.18814463975330256,-3.7583625197470765,-11.49398769257682
864,-13.36132422307616,0.18964819035866534,-4.517281550264111,-12.632316704966943
865,-13.390165227623827,0.34411231330471215,-4.971163163104049,-13.251464550949574
866,-13.50674328453066,0.5998492246537748,-5.130227753151067,-13.383825402908279
867,-13.021194546802246,0.8915224059722646,-5.090338982208279,-13.346639790549828
868,-11.88107405083606,1.1604515882921378,-5.071218298798767,-13.343440002750556
869,-10.244692678033799,1.4221624291561197,-5.119117729800466,-13.321681958758774
870,-8.340198443391179,1.8238161908821438,-5.073079879054443,-12.82693553524397
871,-6.299989212443168,2.4927711969853967,-4.820296458984688,-11.667987020592717
872,-4.056365505957977,3.45446336306327,-4.301154344201134,-9.766075960638382
873,-1.293110120636389,4.644942981225808,-3.5244595797687057,-7.292278276077022
874,1.3320233033271842,5.951522827415645,-2.574196730510758,-4.572360908732479
875,3.1766479922816924,7.304465520167395,-1.5532009721085465,-1.753607592447827
876,4.031887750268979,8.473614081085364,-0.4554791725692292,1.0082288540028934
877,4.106839338596907,9.277265597188755,0.6657227316310448,3.647051649564749
878,4.052875780609918,9.670148206251003,1.7891364601836703,6.100511161249822
879,4.0766985834956735,9.721596376227115,2.9013896951809586,8.260411320254626
880,3.9389771600826893,9.697065967891444,3.989806308191703,10.06357038739681
881,3.1883849143930134,9.688879486889661,5.049980800569377,11.590801978849587
882,2.0876558344516023,9.62564839974351,6.088365728041015,13.032264195054351
883,1.0505619540052087,9.351994887447214,7.151470128361247,14.505044277107277
884,0.458148632774575,8.916372311717533,8.256247446606764,16.183494295340882
885,0.47145490938527596,8.382147475212026,9.234600564249403,17.791511602762736
886,0.3989805874986598,7.782229696432792,9.914507358536708,18.994769636915553
887,0.4616836666723774,7.054485470230743,10.234638921183235,19.638491865883363
888,0.7352374455532182,6.014426713626236,10.251886157464059,19.762412261845025
889,1.236147370703108,4.398054101937811,10.230567937740288,19.70763512898017
890,1.7370572958529964,2.547685375336569,10.257235193875202,19.72177787728366
891,2.043168916777927,0.9820174321516661,10.23632847304353,19.800975067026787
892,2.059865914282923,0.0574777628771061,9.830856789176652,19.106272862427595
893,1.8928959392329612,-0.19875014003828512,9.135096297570664,17.765276102177378
894,1.948552597582948,-0.06398074307259727,8.404314190417356,16.26403733551703
895,1.948552597582948,0.06862657706596856,7.9117887764757135,15.171019286412655
896,0.44951791172009703,0.09258532115636853,-0.11495252082056351,0.28514508894396295
897,1.735116221129129,0.3542738005049061,-0.48854417760727387,1.131771807942092
898,3.936427146928636,0.8339481912334465,-1.2729084674285907,2.7375147234662354
899,6.5616065700012465,1.4903189958524705,-2.540916166928885,4.928840675030522
900,9.458561794696704,2.199656889881482,-4.260772231109997,7.7187722602885485
901,12.082598276718734,3.0141792069683793,-6.275061730090867,10.496000975555386
902,14.01086034140707,3.8106768192443403,-8.685350334134268,12.626881735323465
903,15.114452394029126,4.443763991237946,-11.050128308316374,13.809378359101842
904,15.460339395790971,4.819082813061078,-12.867836807473473,14.119912708359728
905,15.236612710846337,4.9216653275786,-13.871765884334952,13.88066054541024
906,15.22668937278902,4.855107259034493,-14.11413015652245,13.87645688374961
907,15.518142191181667,4.89107915387674,-13.929150176408116,14.114553698056863
908,15.136957555002866,4.9539279973178205,-13.945129956553743,13.732116084140763
909,13.542812378982607,4.661450113218754,-14.104252821434414,12.366368713295333
910,10.43623887895314,3.8816290314997035,-13.653519501234838,9.868543123156142
911,6.019344908028747,2.665604664081757,-12.292943881442598,6.5119238795922305
912,0.872829124765174,1.2583933470149569,-9.931087921744156,2.852593232561791
913,-4.463736311309363,-0.05259160142308872,-6.826224778753817,-0.6947182386692361
914,-10.083181407161911,-1.1919948465016432,-3.451603559446154,-4.342877715927914
915,-15.67963178304548,-2.3479415534059256,-0.13285910670176304,-7.9684367048041445
916,-21.496248108190084,-3.7325008861467848,3.207853996998942,-11.701941215838325
917,-26.851948679810672,-5.174389619060728,6.413354711424208,-15.267714816752317
918,-30.88000435930832,-6.354313848331023,9.394837792456485,-18.088963527808883
919,-33.139433913950995,-7.0467078388902795,12.076700568126974,-19.79682814558637
920,-33.81500737397827,-7.247820459765977,14.40784544834872,-20.438373637736273
921,-33.45889534317143,-7.107780199815718,16.350896138945657,-20.29277771393809
922,-33.41416391806791,-7.119707912966321,18.048532556446315,-20.329249012589543
923,-33.77386299386525,-7.2698437411191685,19.419125060578853,-20.558548057138523
924,-33.381826220258844,-7.107716226903586,20.356414879793764,-20.1885230382471
925,-31.662381207160553,-6.305107991967265,20.83676370039551,-18.657935980513063
926,-28.15315189146773,-4.928861891324595,20.938279698183347,-15.884109605152739
927,-22.695048241898018,-3.4546983019476807,20.86222607020283,-12.220524682030224
928,-15.62082818351016,-2.424174473973138,20.86965126306886,-8.419293347092623
929,-7.632119998727561,-2.0992467196336158,20.92080269235976,-4.908304458754615
930,0.8917502493989589,-2.166503172862956,20.671066394408314,-1.8014576919746408
931,9.594434980169847,-2.173680809414352,19.994061395956475,0.34393615107131226
932,17.701915238846524,-2.0798165957368315,18.85086524333199,1.4010613870207818
933,24.080909266976246,-2.2646146711953854,17.346737421563493,1.6125810579158506
934,28.039804138563284,-2.892330842896337,15.66913858801032,1.397451274685367
935,29.612292959690624,-3.9696039358740576,13.92077202802916,1.3835375736147544
936,29.389842681002175,-5.150329635766625,12.076299162685059,1.536082354764402
937,29.249171558798725,-6.009378579900583,10.176463753818132,1.2834079816465058
938,29.65300100448994,-6.333035922559072,8.213599017023766,0.5319615797772336
939,29.167541399723405,-6.375076662021397,6.162009288118789,-0.6784852273498383
940,26.71821479240871,-6.365547808752831,4.011689870988487,-2.3193851593281956
941,22.141440366908633,-6.3994705833993155,1.8023959220877561,-3.9093724443692803
942,16.204751856338163,-6.348937791902966,-0.3739827985916897,-5.014034970515255
943,10.313233966762327,-5.886279891099947,-2.408222232896868,-5.673609328739949
944,5.530710107220229,-4.870257214811123,-4.218434779900517,-5.824400516534644
945,1.3395294657506394,-3.257074976308685,-5.776696956899933,-5.761595930813683
946,-2.4389599329152816,-1.1717903999122863,-7.103723318201753,-5.741073994426794
947,-5.595813037642499,1.132308026022919,-8.237383932292387,-5.735014029183787
948,-7.760926842624672,3.5068149860899034,-9.202289533571694,-5.350859304198016
949,-8.781571791256205,5.709057432580147,-9.995767878691892,-4.521576828929439
950,-8.927114280256621,7.578551153595552,-10.634107846637862,-3.28898009674199
951,-8.706683710263459,9.18289402315308,-11.091795479987448,-1.8249218612945184
952,-8.709301481166706,10.582781137613848,-11.363730753721612,-0.3080761838918411
953,-8.820566485370316,11.689182481379358,-11.481355466981043,1.2675090530548676
954,-8.591421858293906,12.398679324448253,-11.487096414208352,2.8564256521717297
955,-8.057862158324102,12.70101319519279,-11.489770295158236,4.3615428338799305
956,-7.304934755168218,12.66338549745522,-11.506322685968529,5.70282398359233
957,-6.352458933927658,12.686473385428087,-11.47668909991466,6.897161645567514
958,-5.126373978208668,12.780545124539074,-11.29458030174746,8.029657111880056
959,-3.60690904193111,12.609056264061822,-10.932699823371207,9.350716111481718
960,-1.7009817906963107,11.913605309294352,-10.408653343511402,10.701009882376054
961,0.03627584851527327,10.711893110547049,-9.787701323334602,11.780813301971653
962,1.159404304599618,9.242704803581352,-9.147776319270179,12.387119260013423
963,1.612651395765445,7.8722086713817285,-8.49271205534848,12.52518499645077
964,1.6019408635114254,6.854056024841519,-7.867107259108848,12.410138071937647
965,1.632673931435877,5.966852737965313,-7.297212130423652,12.449398733561805
966,1.6669711693823888,5.093687775172426,-6.791668124797466,12.540565420392861
967,1.468879651649008,4.041801121908089,-6.34454746605528,12.177927889979353
968,0.840964773858512,2.674386634070446,-5.953154616655814,11.17438792364908
969,-0.11395552657269603,0.9726760713246607,-5.630564592207448,9.49928458905497
970,-1.3251517895965872,-0.9600742468052311,-5.389615007913278,7.3192602921491305
971,-2.8239655224346936,-2.950808279712991,-5.219302972990677,4.9172180014379725
972,-4.2862685330316355,-4.835917927452177,-5.081868360902164,2.4969667630015193
973,-5.59144551693723,-6.513756869375724,-4.920636574789521,0.05893801327562154
974,-6.371104717213613,-7.928756636949296,-4.672449250313146,-2.2747140776694645
975,-6.4910996179286125,-9.17395025904413,-4.287189807060827,-4.17951485128387
976,-6.4685719343212,-10.188652372582663,-3.73902271498317,-5.4336609656910335
977,-6.537962101050116,-10.89091756581266,-3.030975630663225,-6.029492144688024
978,-6.380116172062338,-11.25226279076777,-2.2058789602821074,-6.106005811653101
979,-5.4241598251909835,-11.313095340454835,-1.348130035613054,-6.067293434265939
980,-3.729537149276166,-11.272508337364165,-0.5605691116264204,-6.065057528286997
981,-1.7210400642955248,-11.30608783049013,0.0726586399505189,-6.004990535485906
982,0.09088789849506662,-11.319339839759499,0.5164582089649219,-5.557926518420659
983,1.5371083410677424,-10.968997175050749,0.7905432651843457,-4.63153285624397
984,3.0643816226707625,-10.05864411789133,0.9523612829351478,-3.1978562753355724
985,4.859960723635329,-8.456249971900379,1.0745636103972271,-1.4347833368621026
986,6.603974890708381,-6.171120763747599,1.2142895328378267,0.6414234664292281
987,7.843504877327227,-3.421475207272473,1.4392687946589346,2.7240774351670347
988,8.394618463900466,-0.1275225591079977,1.733312911919241,4.30026389149918
989,8.395756374598932,3.2854073903693815,2.016868118826304,5.145029315451351
990,8.387774797882237,6.074016208830848,2.2131864297204187,5.324035273107605
991,8.461150590494745,7.767957097740836,2.2935380790352458,5.227432318666099
992,8.290071392151768,8.372625309254722,2.272145275637074,5.202640065126693
993,7.559906290103723,8.216570080810627,2.2811579137345683,5.211052834803364
994,6.366446724801613,8.176540302305451,2.33267945197743,4.788197472033274
995,4.880969584519616,8.362617730660073,2.2360654959708315,3.870327806125365
996,3.1852808021600794,8.098513003820232,1.9819307926564973,2.5120276148899205
997,1.410037020766413,7.0211258058570705,1.6645196876299941,0.7908194424663916
998,-0.3282768782866656,5.103639310906783,1.4072698328460727,-0.823645627581039
999,-1.6423938505725149,2.6497192905959785,1.3221907384079752,-2.0222360825598065
1000,-2.264178392383582,0.1929463854722191,1.3430871101894128,-2.6765090980883857
1001,-2.2999398892981504,-1.8296178970897217,1.3256211173966514,-2.8183218513417905
1002,-2.1675410535088497,-3.5918868190894493,1.3463410486365404,-2.734560506021725
1003,-2.166183623941002,-4.966743285543603,1.5969016974196983,-2.6509082748872768
1004,-2.246569145125984,-5.971849974101077,2.3013573356936154,-2.661097671803226
1005,-2.3069346615292416,-6.67138995142422,3.283746522516316,-2.6004142052132226
1006,-2.262598404832792,-7.13292435594329,4.188146164868137,-2.539730738623219
1007,-2.2349642802668463,-7.473654579953713,4.716804550381266,-2.546344478444601
1008,-2.3993069843693595,-7.735149377287252,4.837155120046724,-2.4671969182951066
1009,-2.8086682012308954,-7.918477039937978,4.8082605953999265,-2.3964042720418455
1010,-3.4341144588342525,-8.020055330800869,4.812572716051903,-2.5224928876052646
1011,-4.318374316275947,-8.051453792194435,4.77220774431244,-3.1022666273180257
1012,-5.599181232777956,-8.012451938474022,4.315310555039742,-4.250243026462577
1013,-7.00868045586535,-8.049648492420507,3.393249104197635,-5.775684939698965
1014,-8.274908689994529,-8.104558784860775,2.137940804601329,-7.169151796595932
1015,-9.028909694989622,-7.998742899601102,0.6028389141850746,-8.009870563763283
1016,-9.145251100785568,-7.646585857938746,-0.8185235294125233,-8.373106706984272
1017,-9.101511290056,-7.039410526125246,-1.9074238063573468,-8.338561923654215
1018,-9.166944948000122,-6.235535230419834,-2.5280140416887575,-8.334999407382195
1019,-9.15590880492804,-5.391435235699712,-2.699377711130855,-8.485025785281431
1020,-8.143813518354566,-4.160144321522955,-2.612471521396534,-8.230711649352079
1021,-6.351583609578984,-2.6007827005820996,-2.520441146711059,-7.482353145805495
1022,-4.435984931888772,-1.1587577840716317,-2.568309558613322,-6.526150281610545
1023,-3.1172301340132127,-0.2115387059807313,-2.568309558613322,-5.733959726176378
1024,0.4444909259044125,0.017285526622660467,-0.1531998923734142,0.09516106818847248
1025,1.399491827249022,0.02640270713628126,-0.6183030031749516,0.3010978529207603
1026,2.5148026400987358,-0.06296246774327274,-1.5590943900783385,0.5387166573622005
1027,3.367758312004334,-0.3296021027691632,-3.021822583224864,0.7175677883090473
1028,3.69016467709655,-0.9791628892351554,-4.915877870634314,0.7758777413631788
1029,3.538834137850542,-1.8514272703372376,-7.038341592364447,0.7488233835166445
1030,3.5329935744843746,-2.6433843632675678,-9.413340506634558,0.754921128449536
1031,3.7408695702908887,-3.132300881308413,-11.631481160248011,0.7870750597401216
1032,3.491659862828365,-3.2273247453219756,-13.274737127439195,0.6655790929419537
1033,2.4840792889208947,-3.250948129477595,-14.154372302760017,0.32495703540082577
1034,0.8389584326781843,-3.2787293724007607,-14.317637679448502,-0.3194000473940406
1035,-1.1770776754554946,-3.1509364758434275,-14.249056778751223,-1.0804502702412573
1036,-2.901560899061762,-2.4839478170811446,-14.285462684168326,-1.6939967403820164
1037,-3.885512775148518,-1.2268061958285599,-14.250307332165013,-2.013183369654838
1038,-4.305455328416687,0.5739809945343279,-13.460622755538653,-2.1094938903500813
1039,-4.435100334453832,2.3617887996421962,-11.693667771487284,-2.009518106112401
1040,-4.584693874791969,3.5912530202305635,-8.936042083280729,-1.970031112814135
1041,-4.786690685693292,4.249648528221941,-5.463659682643789,-2.088768797316028
1042,-5.161978199477455,4.321713119849983,-1.6750836210750086,-2.2434779899478072
1043,-5.554994204346173,4.325296073271254,2.315542748846468,-2.405279356094888
1044,-5.785296705466915,4.3732705877322005,6.323082746628146,-2.5342700842747514
1045,-5.7869420089649095,4.198063614665312,10.048456763356382,-2.439236441662051
1046,-5.708220332990993,3.3643043641310015,13.499441345990125,-2.3104921473883664
1047,-5.561005184842553,1.8927148179175208,16.319486482454366,-2.582354931027317
1048,-5.355483656491946,0.040085885071417526,18.215028776179096,-3.373255858348413
1049,-5.459275285460578,-1.778602276919915,19.147319559617777,-4.85146091858919
1050,-5.6161256433259945,-3.2309000723406007,19.275498277652723,-6.572850266695616
1051,-5.442901918694014,-4.631561727845533,19.252062406114945,-7.928639798768312
1052,-4.8069515037981,-5.831376284069656,19.27598886107875,-8.575912817216365
1053,-3.3918577214078156,-6.695903362977952,19.122167548636707,-8.666698045612216
1054,-1.5929575857117546,-7.159813211707873,18.19942871554507,-8.665363536833041
1055,-0.060255335114582205,-7.261911304689863,16.46986677029076,-8.717726675529692
1056,0.7404154760429216,-7.198862728062219,14.12137371752544,-8.575689451277935
1057,0.9238576019474608,-7.205632468389049,11.605631022007211,-7.714861182492967
1058,0.8925830024571433,-7.2372042309128535,9.130156043906283,-6.051095282838938
1059,0.8425375461298124,-6.96077715170253,6.856839718626076,-3.677648782395713
1060,0.7169773050597331,-6.263880077288251,5.2161983986438445,-0.8366392501601256
1061,0.1504556288886547,-5.122652287694207,4.363530240511425,2.23602813889787
1062,-0.6264161317204924,-3.655276653420094,4.170776047306794,5.545430276732219
1063,-1.319627108884928,-2.0438203990541153,4.298980903419175,9.189971814156435
1064,-1.6781919804934404,-0.3515992729463518,4.408994442004276,12.553677130253966
1065,-1.6312170742124759,1.4273754379520631,4.35351213599307,15.012234374499965
1066,-1.6409840983089234,3.258689375964233,4.366735807704319,16.310994554430938
1067,-1.6582645978077675,5.0218864949788,4.379959479415567,16.574317004622937
1068,-1.5882617701852952,6.439698667105291,4.349986625939529,16.432097602844873
1069,-1.2453104285977328,7.321506226271741,4.413360679229125,16.453236900291742
1070,-0.4783877155382491,7.676208165151507,4.49107062771916,16.463477084960385
1071,0.7619240295959036,7.667284216548574,4.381613522918527,15.573298241334001
1072,2.2750760032878476,7.625397579771539,3.869541779270075,13.577208941534098
1073,3.6184313157696932,7.652133437426271,2.855524962048335,10.527345512175247
1074,4.562465941393286,7.594620112763968,1.398896705918646,6.847525331251038
1075,4.936854212085242,7.310806398143965,-0.30402243478377877,3.127972512831783
1076,4.926977753155674,6.815410704773203,-2.0426088064829386,-0.37961243339336437
1077,4.87000637042707,6.194045017981352,-3.8343310908500463,-3.6627949896106884
1078,4.893448759334511,5.59020426600114,-5.565771327728046,-6.454971930873197
1079,4.846049662300089,5.101454564614112,-7.1502056064152235,-8.486974772259877
1080,4.636899818497885,4.623151520201439,-8.52498388386156,-9.663461575539767
1081,4.359253100492193,4.099693525099067,-9.741546700628135,-10.102631551077893
1082,3.9994219648752516,3.433858672787957,-10.718013261515772,-10.069016250063276
1083,3.4007803765706996,2.5373137876245733,-11.374655334608327,-9.987820497726036
1084,2.4493932721592344,1.4053431880454688,-11.700518757807949,-10.040787137451487
1085,1.1369656310305025,-0.12051788372235883,-11.730404862339316,-10.016548913190201
1086,-0.17953351716476684,-1.7937358286755105,-11.74665797252446,-9.69132697503557
1087,-1.0596686062096186,-3.2109966189849697,-11.789738567395977,-8.969088011306859
1088,-1.39846661338222,-4.082332450796881,-11.694813332537883,-7.860905339721574
1089,-1.3774154636882054,-4.373330430128546,-11.161609525284385,-6.496581931893504
1090,-1.3457542731701087,-4.270483323540867,-10.119010719119029,-5.0114985075119165
1091,-1.4092546824142804,-4.213130095590695,-8.646781637115552,-3.3798918581773325
1092,-1.3384888853526067,-4.293575600555458,-6.96775995257533,-1.6442631783822639
1093,-0.9296694980206963,-4.1928572373210615,-5.302312638496667,0.10914626351163836
1094,-0.1928850659309871,-3.844221985206413,-3.6098210756191214,1.7387915547514774
1095,0.878877048978383,-3.2027563825217347,-1.983175190684289,3.1392365110001745
1096,2.2994623062772317,-2.2266755020888724,-0.4707309489064138,4.310228765662482
1097,3.980271359936766,-0.882150636223763,0.9087246335992764,5.311461814311116
1098,5.783409559698222,0.8483080612194778,2.1672643184213722,6.177458880859292
1099,7.430529376132503,3.021566114526488,3.3310109808347677,6.910430949521341
1100,8.709462491651259,5.36541312768852,4.396723008585915,7.551334213303745
1101,10.0084983971172,7.564263207060515,5.400492749614853,8.228491183752553
1102,11.390808162597384,9.538084659269288,6.233386683235293,9.080591671324168
1103,12.651254528018885,11.092455015705566,6.795910967612463,10.15885452918752
1104,13.472735985692738,12.112841196148976,7.071354199757653,11.370161507524841
1105,13.70265122275263,12.615155469148364,7.128564046295781,12.42808710785538
1106,13.585421001901501,12.720963968274487,7.077205023412679,13.117382947294946
1107,13.554997464571265,12.624995682962124,7.053942832909958,13.412202828513163
1108,13.618775533029519,12.625395275796272,7.0894252156641,13.377458151778885
1109,13.270393567663586,12.715471487633698,7.073239197621818,13.422423118598676
1110,12.45465210945554,12.531589923635629,6.967872128447304,13.532305045876436
1111,11.327884029498904,11.867649808710839,6.689545293322538,13.379451257797964
1112,10.129522831653675,10.568024186430394,6.139493500907707,12.53859695243007
1113,8.882353526153162,8.656778562798666,5.230811697916903,10.76717705518151
1114,7.267273194434361,6.328655611802084,3.9164224454719507,8.027672162491898
1115,4.975043387502449,3.78614044520211,2.181328096711657,4.569577493265415
1116,2.1803662763131526,1.055884126493425,0.10821562141938423,0.7988658351164728
1117,-0.6751311813151164,-1.7886761711916004,-2.1812418904995328,-3.1669497614341475
1118,-3.347299418064811,-4.724107090875384,-4.539411974599881,-7.0147578854494945
1119,-5.983031446909019,-7.709625208994728,-6.7996679029902465,-10.604775833586935
1120,-8.80629411623964,-10.624507484926903,-8.910245243077199,-13.859908055287553
1121,-11.696713214527566,-13.633450146899726,-10.79773172185699,-16.749167796922677
1122,-14.434161246369573,-16.502666176904032,-12.261781084958939,-19.144034923794013
1123,-16.78046475028735,-18.78665508084137,-13.175816265066464,-20.83139730972054
1124,-18.502658316952825,-20.180437559096458,-13.563293691838327,-21.760939226336117
1125,-19.56546444519995,-20.68823527516483,-13.54564047705174,-22.09055344257685
1126,-20.05454473200112,-20.548682431713864,-13.536404809659706,-22.06356864497158
1127,-20.08486489935778,-20.522936586759837,-13.606464827195154,-22.019100459678313
1128,-20.007612583171277,-20.69792266531739,-13.485765400325086,-22.054538237915683
1129,-20.06401055074882,-20.448575287697064,-12.895302106704971,-22.025600716176058
1130,-20.06654141176888,-19.448715521780475,-11.769725268894298,-21.736509282544457
1131,-19.61628750897768,-17.649153894835585,-10.194770233156493,-21.019291843215264
1132,-18.4245451645733,-15.258666378705858,-8.392446229348833,-19.6996259374308
1133,-16.45998849364766,-12.638332484554502,-6.570859875203104,-17.71396271177099
1134,-14.074190510711572,-10.023159243687688,-4.645557370525101,-15.129715423703377
1135,-11.700954525404654,-7.089476369791791,-2.7001277346416024,-11.979905270958543
1136,-9.339696663957351,-3.8631550975714157,-0.7383785901327355,-8.37838960329613
1137,-6.747340601888873,-0.37731207654902477,1.2784853041551452,-4.332582978603414
1138,-3.6778674280851202,3.1638623438027356,3.401339216907682,0.14149032348351653
1139,-0.29240905078410695,6.656087312007605,5.6327762150815985,4.903049881380198
1140,2.9149739972758906,9.580444931863353,7.937064388921031,9.599547966900683
1141,5.851704951754091,11.530591146048081,10.261979807199383,14.317058555111096
1142,8.428278709691327,12.450794944564553,12.244830790113218,18.44200500029866
1143,10.47096403644321,12.597062639051614,13.583503212079341,21.387988632525165
1144,11.812932092482605,12.456974259544758,14.212913004739208,22.93641590742412
1145,12.386786203542805,12.446388043990355,14.26109855532412,23.266761259428648
1146,12.31824357576641,12.500019683658282,14.231086594424639,23.05554221570192
1147,12.32623704434914,12.176942317622341,14.346528856045715,23.180510435701493
1148,12.321653901643367,11.10902304330732,14.093710820416375,23.012098242042654
1149,12.022325574200353,9.549018591714093,13.293623320269397,21.962947902156657
1150,11.49107033224069,8.064527387138384,12.273115205514523,20.50809918834701
1151,10.95981509028103,7.163674521829254,11.429050743000872,19.213326600428587
1152,0.0,-0.16967950006411558,-0.15168776810944962,-0.1284703715616663
1153,0.0,-0.750679354802608,-0.6387657164104086,-0.601242828994263
1154,0.0,-1.9815024455320365,-1.6322729714656874,-1.689137510958372
1155,0.0,-3.900427787009197,-3.162772518402767,-3.548320179590399
1156,0.0,-6.466503652874698,-5.04962006979496,-6.028693771642
1157,0.0,-9.406499928183,-7.334072536680759,-9.13119792092111
1158,0.0,-12.036225665885599,-9.559761863333897,-12.158414756606739
1159,0.0,-13.818852237710257,-11.254060250199839,-14.4187995342788
1160,0.0,-14.6170424725072,-12.18127657115403,-15.611585721582301
1161,0.0,-14.585666237469821,-12.406952603613913,-15.885709855766759
1162,-0.011732289721637442,-14.59644518130968,-12.232135022979936,-15.651575469271583
1163,-0.053968316768670636,-14.763348858371335,-12.22581067616102,-15.630324151503064
1164,0.04485849778163403,-14.469974331614988,-12.370288323172803,-15.81520325700832
1165,0.1946050276145378,-13.062739922986356,-12.046100819811913,-15.491443054921586
1166,-0.06318039608681247,-10.42831562649546,-11.047302759950039,-14.457338544198992
1167,-1.3216925887762798,-6.878140015467099,-9.303020980715932,-12.618851383914777
1168,-3.80206739906711,-3.0797406114050707,-6.976391449841216,-10.115005420013425
1169,-7.4419111662974355,0.3578096245771871,-4.378369590679855,-7.264074817236276
1170,-11.539705164859928,3.5984401416244736,-1.7292237571941604,-4.33170452578238
1171,-14.953116709985483,6.4986393010069605,1.0718741465504968,-1.1948860521093108
1172,-17.128319748391178,9.070045064857757,3.90566909195981,2.0076719406762304
1173,-18.04173640277427,11.342053192846425,6.7177815328233415,5.257106012961227
1174,-17.89262631119836,13.326486265554783,9.471853229494702,8.536389980908265
1175,-18.036210434302827,15.0163215837464,12.083798119223477,11.763504164840228
1176,-18.432109872699208,16.552426584249172,14.68492915291797,14.809525885088595
1177,-17.811617952881384,18.00557229758676,16.967693042106166,17.542109534837657
1178,-15.00278890183521,19.234306596496506,18.60075631272132,20.155582806930376
1179,-9.868540853080637,20.07359318474427,19.453005584390578,22.431039170479515
1180,-3.2849499085361895,20.460158852923513,19.645009108067423,24.08001265178431
1181,3.1529197108601807,20.43191493290897,19.495156557423662,24.959963396685076
1182,8.831436042981824,20.45686057559618,19.466721055104944,25.170857768498806
1183,13.890641422859492,20.557377935465514,19.566624296680338,24.99329412539134
1184,17.642679713049898,20.35959610517861,19.329651482948908,24.973901220718446
1185,19.7943360827157,19.546981758617168,18.66657500290039,25.132120372465764
1186,20.46568576925295,18.0981949740087,17.572587507822927,24.91567510964683
1187,20.122524796411508,16.217494017559304,16.187386235897662,24.120180781621865
1188,20.035670147295015,14.25264208267526,14.705349778647404,22.641496391953673
1189,20.423807054857505,12.44597754373013,13.201860535821679,20.565592963115105
1190,20.05868555458853,10.560291787064426,11.529890472601846,18.081404203541172
1191,18.381842958912944,8.598717644915679,9.688588808420128,15.304384576410284
1192,15.288151204918607,6.499180504934311,7.6414104112010985,12.060967815816383
1193,11.34195037684901,4.1974470954393714,5.366216067194783,8.438293910787284
1194,7.434727072117916,1.6462167876218257,2.8766164234463556,4.538449926069551
1195,4.16262879734605,-1.1587207268573518,0.22474372068864668,0.46259540455028647
1196,0.8164086932725664,-4.149013233974125,-2.5184386072042404,-3.645774474557638
1197,-2.294127401255083,-7.1304115946368345,-5.291630722349174,-7.969168976855068
1198,-4.690478932920593,-10.091303747036259,-7.998958871781683,-11.895977441502701
1199,-6.008543300455292,-12.62395855548175,-10.789081245800485,-14.748316982268662
1200,-6.234833949431954,-14.37469728834642,-13.30162524622384,-16.22920619675979
1201,-6.152650891102979,-15.250831134464152,-15.128156285885717,-16.461794897369355
1202,-6.17147373945412,-15.419433516842856,-16.08753014393425,-16.412710523052862
1203,-6.017431832705954,-15.29725677253425,-16.252022395850698,-16.41189038120734
1204,-4.916863070914303,-15.263905158598535,-16.19732705033082,-16.17122088915646
1205,-2.919693524775332,-15.303950555124395,-16.20900561151613,-14.882714001239938
1206,-0.388499099476349,-14.968592409841197,-16.120625479256315,-12.608237746406946
1207,2.221949989318672,-14.195673379287769,-15.305765546920394,-9.663552966769629
1208,4.760032034619369,-13.003663980525339,-13.632704642460814,-6.5361507685688744
1209,7.646546815225233,-11.530231578922418,-11.144442457086146,-3.55118817191332
1210,10.96853996281539,-9.913091553743065,-8.108325198429336,-0.4033995934073795
1211,14.22150724439494,-8.10802766541315,-4.841613387845749,2.7490795386469546
1212,16.677516388594675,-6.035801944859739,-1.373666419633722,5.781552430534641
1213,17.989774719405098,-3.7807353474184167,2.212484562995091,8.25374714173454
1214,18.35698680803334,-1.3813483561711313,5.695053451119923,9.856981747940072
1215,18.190136379787766,1.0729659783431218,8.540961405838887,10.583997682652463
1216,18.217893642494392,3.184044628599267,10.368322392138406,10.602662122577822
1217,18.36091542150174,4.622278802904722,11.15174137221308,10.607282986608487
1218,18.10800969996731,5.299598601979743,11.10658295059997,10.716959207236968
1219,17.191379429012002,5.3252438072421455,11.10805912805875,10.515601281626344
1220,15.450522898780896,5.307409420485005,11.276494714482306,9.390272685034677
1221,12.794682937300061,5.389588632215711,10.998870961663728,7.154099225333351
1222,9.346595172714274,5.211858623257764,9.641733437734496,3.9211282288241582
1223,5.4311246643160755,4.3183370439519,7.073811515267271,0.12832568590032456
1224,1.1216646429632517,2.663578338270286,3.5733017368274447,-3.748393224923256
1225,-3.1551154801784604,0.4716618258011883,-0.21203672789963957,-7.687596608657767
1226,-7.369522411414483,-1.8011074128110538,-3.603307067782605,-11.830411116801644
1227,-11.601228073507913,-3.744693559242137,-6.829420809679336,-15.628651356147115
1228,-15.812358230433905,-5.529338984784502,-9.434642137640076,-18.453284342720668
1229,-19.34173010127418,-7.1219243410258235,-11.151954848915842,-19.985095084650293
1230,-21.607826894487804,-8.397792434648622,-11.975897542489431,-20.351912807687388
1231,-22.557661243681412,-9.242247034032038,-12.125014139728286,-20.09771431368564
1232,-22.555874747530055,-9.63505073359612,-12.011472757231706,-20.037292353731488
1233,-22.5188040694203,-9.664282133678713,-11.962702101319884,-20.200716933403214
1234,-22.64528068386421,-9.622185982407558,-11.98956410505879,-19.74547829614253
1235,-22.487876329530266,-9.638812345009498,-11.743381977869891,-18.547089531835734
1236,-21.245941721444435,-9.59533756812729,-11.22600346635594,-16.69157916995694
1237,-18.567443391569938,-9.299178537365052,-10.475532861329636,-14.554010283267786
1238,-14.416842330065801,-8.719536162350057,-9.607901561407933,-12.56052470410744
1239,-9.18753369202369,-7.869484356635865,-8.733689037329059,-10.823558821163033
1240,-3.5380300597524563,-6.825621687828105,-7.830597320178861,-9.053633241894232
1241,2.6196064817092246,-5.689102993724302,-6.87771496181707,-7.251523662316772
1242,8.722818272251324,-4.443691767052848,-5.900587595812648,-5.418140584710183
1243,13.737706850873398,-3.134120091691341,-4.900365607714331,-3.509140169777175
1244,16.937898038948074,-1.727380880801872,-3.845852487887507,-1.389741891413099
1245,18.271120636336416,-0.15088561549970192,-2.6788614920679095,1.068249029927477
1246,18.1726970609102,1.643594739972501,-1.351257864277363,3.832022977909792
1247,18.114691612243647,3.627707934994442,0.13285023458146816,6.623303876597542
1248,18.36385697911815,5.7185078955852156,1.7029607640692608,9.379395432577315
1249,17.98341900404659,7.800052329007338,3.3026307581873464,11.713827276427008
1250,16.022836395122887,10.009340374516762,4.902829089430712,13.332279321327668
1251,12.062870392884648,12.055699577246417,6.272592263255441,14.168921814918704
1252,6.135259626389513,13.584244409720908,7.208851676499098,14.359331981955567
1253,-1.0352341645555563,14.40948288740635,7.655776223196883,14.244532160357442
1254,-8.375141001946746,14.603643518117215,7.696648639829469,14.196740800635117
1255,-15.515885299518787,14.445703285089127,7.6661204713026345,14.2410840248242
1256,-22.143244008402547,14.429216261488726,7.681437286120449,13.969460482676284
1257,-27.860839025490797,14.56576243244973,7.610994272111876,13.352524060010843
1258,-32.156627548293514,14.328137797558783,7.224532765187789,12.404132657391193
1259,-34.745537498715606,13.497913949027707,6.517651210825173,11.24972781569462
1260,-35.723370859068396,11.96043722829319,5.576743156696605,10.03437399710102
1261,-35.535510990964084,9.843910290716392,4.566902766020863,8.725343323631487
1262,-35.413896560492105,7.462667060257577,3.6227822377416947,7.169658817966348
1263,-35.69688565106595,5.0934939551463785,2.674142130532172,5.315767966139855
1264,-35.40631210480686,2.72439013384858,1.7702507816235682,3.165091033868619
1265,-33.898854692217974,0.4485739912937399,0.9160731105598969,0.8151006035148309
1266,-31.08720942404008,-1.7139267094913189,0.10365640591903019,-1.5991562428373918
1267,-27.430779617021134,-3.746507476284164,-0.6739926948244782,-4.0360008384965225
1268,-23.629042246085703,-5.712393520882957,-1.480430176502123,-6.567799667799743
1269,-20.02504498454999,-7.655213803351542,-2.2955989077543264,-8.845329142615158
1270,-16.136751876239888,-9.326590240468468,-2.987032678969445,-10.478076963491949
1271,-11.407806030312067,-10.478255656916886,-3.44144287529959,-11.29335567998343
1272,-6.487237287580059,-11.027837240273282,-3.63488205760666,-11.384771102150575
1273,-2.522545088033823,-11.054768822811832,-3.6228667996702475,-11.332190655305778
1274,-0.2561223133067851,-11.041980986238661,-3.6058600685173614,-11.360831044070666
1275,0.3943699552301505,-11.159211782453031,-3.6690855364351878,-11.31118854265691
1276,0.1542034242291654,-10.889429768346321,-3.5686980240413995,-10.447041755177432
1277,-0.12855959433414893,-10.095891011387586,-3.265316712325137,-8.98984191762493
1278,-0.014430280477488362,-9.097103018572273,-2.8767638806202203,-7.475459770922862
1279,0.0,-8.28148334266189,-2.5541434079230068,-6.469174100700179
1280,0.11806793985207176,-0.09208802870135646,-0.1319182271276813,-0.105364500747267
1281,0.12392783694427989,-0.4017393592998687,-0.6201849366531104,-0.5685423367442601
1282,-0.498261838013458,-1.1104414971846228,-1.6768936815132387,-1.638672403252692
1283,-2.2167622112529903,-2.3434033281680557,-3.3525994329607256,-3.4318940649010035
1284,-4.965425228355859,-4.049410973316211,-5.593908140620503,-5.798016575012172
1285,-8.56648151720641,-6.284370982365029,-8.169824755811161,-8.50479488760589
1286,-11.986992406521301,-8.537064389297493,-10.480621753264336,-11.215660204197993
1287,-14.425101170055678,-10.25887662126767,-12.054565523033954,-13.423893524261445
1288,-15.645054812703068,-11.179977745243592,-12.768839178156888,-14.825425011348777
1289,-15.914332482997862,-11.339152778441667,-12.76594673704467,-15.426459586127184
1290,-15.666332956853392,-11.277685302987186,-12.75337956935149,-15.417341020495883
1291,-15.661496426256667,-11.303027862777025,-12.8674663282024,-15.395018361951044
1292,-15.87573160444035,-11.229185115198646,-12.665348627188338,-15.479783033116526
1293,-15.526188778499735,-10.425434144230305,-11.601542409430094,-15.332335700585157
1294,-14.284224638042007,-8.775370297285958,-9.525643444635007,-14.518614824753449
1295,-11.853454632896552,-6.392281622009254,-6.545701856697169,-12.858830086112127
1296,-8.296439313714954,-3.696595489637644,-3.029810161207587,-10.336148814886196
1297,-4.146865299422366,-0.9156613975527117,0.6267905343344355,-7.177179904140964
1298,-0.16526841827558658,1.6903978338872805,4.464193578155385,-3.7105747636607873
1299,3.8487394062962403,3.6837382600407222,8.445027972600377,0.03703757960433651
1300,7.238811391367561,4.809839816855782,11.970370314363489,3.717535279877636
1301,9.615134420325925,5.15027659374485,14.470419569818619,7.313961879029518
1302,10.898724766613148,5.0092309958692445,15.739840855338953,10.37631745527941
1303,11.235678779046548,4.952186085225818,15.937769411431175,12.493401471886264
1304,11.061463345960648,5.089846576796286,15.859678535554547,13.54318697452451
1305,10.994449497440845,4.881819468961665,15.842778717574793,13.731753137239373
1306,11.121074835015767,4.358562659740444,15.701840013425173,13.575988510069267
1307,10.559576550280747,3.71863610837937,14.77724457962093,13.592629720055758
1308,9.493447751835562,3.2109001404077495,13.060954955312473,13.566275362282237
1309,8.313325014313369,3.043310155404146,10.748476605110751,13.061275252182675
1310,7.468470366729788,3.140338377179896,8.268168422695508,12.301370438886202
1311,7.294372933182219,3.0797750605285947,6.026641877487387,11.576352044309948
1312,7.314467665628511,3.0406054697865104,3.8433938550375144,11.158069603600639
1313,7.250276157777316,3.5162282154380113,2.0536246910113767,11.215914147582678
1314,7.399361059508293,4.7623984876794205,0.8638846191486118,11.212626165719875
1315,8.450169295390515,6.828068384412979,0.29496746132853413,11.037679050036845
1316,10.646530050288055,9.414649191008545,0.22453868174421798,11.27361028726295
1317,13.801295904045485,12.310011395757224,0.2545315836713186,12.316037103109478
1318,17.149898398451672,14.94227309768955,0.24907873284765725,14.177371477032661
1319,20.211615052978225,16.89149249044217,0.33239907946975794,16.797913116782922
1320,22.72313846534031,17.914503000958273,0.8039784806242077,19.377262996083157
1321,24.347705309430165,18.146333105370424,1.6497836168931244,21.13966256151074
1322,25.15215618851434,17.93261134602933,2.7360156232793846,22.099332939379483
1323,25.30310043220886,17.92274904769078,3.9325221188517667,22.301372218104387
1324,25.29634105025912,18.109900635783788,5.024777185339648,22.16249672722405
1325,25.280876945602518,17.838748658712518,5.946563588283605,22.173634894907906
1326,25.201436086679404,16.879295800251615,6.530962365584122,22.249870859778678
1327,24.45131382719592,15.150551560309642,6.761984932080827,21.707909396137396
1328,22.702596605103736,12.822516501309838,6.702953969727879,20.283229364942912
1329,19.72225561861621,10.211603214755876,6.726208109610024,17.848674484249894
1330,15.679109709630481,7.5641119364747915,6.8335855538764525,14.547652071117838
1331,11.065961427490784,4.778379287180201,6.682604703670251,10.697227648188385
1332,6.132693896731462,2.0741462041741556,6.0018982637834135,6.451798799204493
1333,1.1962727027668427,-0.359148186949548,4.715383397474174,1.8047029304511522
1334,-3.751610221138233,-2.419472944722741,2.954655421772993,-3.0666722071312997
1335,-8.62786268908403,-4.128924237179168,1.0132929322405646,-7.978949427250523
1336,-12.984674101998625,-5.577994968100981,-0.8364210069611752,-12.68903139339839
1337,-16.563907944335746,-6.842727816179995,-2.664442874480901,-16.890336223776874
1338,-19.050326890268416,-7.94849425917979,-4.356852359513921,-20.686635019727827
1339,-20.463690831640875,-8.892289984986817,-5.852559634900091,-23.780134893263362
1340,-21.090103654733085,-9.684089214705212,-7.130756020074909,-25.899741684376608
1341,-21.232120121377505,-10.367950446764716,-8.216328594456044,-26.991475495067643
1342,-21.16204591532781,-11.007664751514806,-9.15761879375557,-27.258910142526844
1343,-21.065355980394973,-11.639751856394126,-9.995272397112755,-27.043548274495087
1344,-21.10686939513711,-12.258031360112408,-10.729987862999906,-27.004358639058175
1345,-21.07089856048376,-12.813258821130141,-11.46443762091933,-27.203176131591665
1346,-20.881547426567213,-13.222873683471624,-12.137493595624438,-27.012280095174475
1347,-20.388825030968444,-13.453529497153426,-12.652038042734532,-26.22165902881354
1348,-19.62299813910801,-13.538442774769088,-12.947521370259953,-24.75703826709195
1349,-18.806332786764457,-13.521066500368299,-13.002306671498516,-22.812733051051893
1350,-18.10053503114889,-13.532878974484905,-13.003956656100309,-20.72226014406457
1351,-17.476065356487975,-13.576014504403622,-13.039785355497212,-18.68251193189639
1352,-16.639810258757574,-13.535782320891311,-12.99704201538191,-16.409847551010884
1353,-15.425993643369457,-13.251862757970269,-12.554241532461528,-13.860594649788837
1354,-14.01658511318246,-12.60270293425883,-11.569847036466822,-11.046073016991821
1355,-12.707263893479256,-11.51848164140658,-10.019994673934338,-8.058310983735764
1356,-11.50155903417098,-10.020521022486912,-8.025909417910787,-4.966550826013459
1357,-9.986818479007908,-8.20296164600374,-5.763896211838096,-1.7717985653695036
1358,-7.599367968801547,-6.101552539778183,-3.258957674896521,1.5057510943686323
1359,-3.9881512539241273,-3.8357975886157902,-0.6309782460398996,4.727300504726067
1360,0.8419099518848241,-1.490626257977216,1.9669707589219825,7.631333603384558
1361,6.4464607732546995,0.8308949318078089,4.40340420374955,10.224765866171564
1362,13.151124931576735,3.3988271071788114,6.559258611231204,12.28661930839058
1363,19.74516145523453,5.8771034865120155,8.575389790017123,13.665738767482171
1364,24.835820912978917,7.798090865302685,10.294344655749423,14.366299676590504
1365,27.666096900480838,8.880578200989143,11.519038286181939,14.532958373490306
1366,28.331338394473825,9.109875178208318,12.166249085363933,14.382899932301532
1367,27.812030031857425,9.0364412915916,12.322080266775831,14.380489733980863
1368,28.01890152510043,9.05359345543337,12.18243317952263,14.540620410349254
1369,28.471214615397365,8.998380781386262,12.194741025523967,14.347203706863395
1370,26.589343085182495,8.094067883615589,12.336056786659313,13.544866961994035
1371,21.377612250196407,6.129990976045935,12.113033312514027,12.027105038905026
1372,12.863737203109288,3.19160124400847,11.305728779753697,9.98738449363156
1373,2.276166485651267,-0.6605010509277023,9.830035956299108,7.821112934973947
1374,-8.464249603847765,-4.687427282465587,7.846303600506154,5.845853272249639
1375,-19.20893984314514,-8.119754387200736,5.687253658350299,3.986516422247585
1376,-29.222977664494163,-10.330141229857645,3.6386602987645476,2.1491810867120864
1377,-36.62953521416742,-11.182055323490598,1.6535842315093503,0.5209253603915924
1378,-40.56358119679558,-10.982946254433067,-0.14221331048036528,-0.6501177753841624
1379,-41.31711832578838,-10.98607640113153,-1.7473468186829044,-1.2489379595682655
1380,-40.9093219269423,-11.290304877863242,-3.013582734620924,-1.3602381368879946
1381,-40.89238072900427,-10.85650429637488,-3.8318511974444376,-1.275639655914031
1382,-40.813088609314725,-8.972115419583917,-4.211965450511928,-1.2637768768846078
1383,-38.34036167198141,-5.4941699144319465,-4.256712564688521,-1.2784769688118685
1384,-33.2542859428957,-0.9413200247196687,-4.232413951071274,-1.0506170938278458
1385,-26.08531741101573,4.098268957596588,-4.231569683931395,-0.48002908926725085
1386,-18.066537300891426,8.519011791218265,-4.190470416944571,0.27692892185912876
1387,-10.32823295449022,12.000216661073182,-3.8850630221317326,0.9437094743338665
1388,-2.7418540742477013,14.008426516585434,-3.3995064994472335,1.3033972607783875
1389,4.532140273055698,14.666062443123979,-2.909409904156365,1.377789073451992
1390,11.289117602488584,14.424587317479594,-2.59501888614458,1.3048308306604859
1391,16.66449865606858,14.392297642129657,-2.5266928103063355,1.3033170334040682
1392,20.08667924848762,14.658133324691057,-2.5626233101985347,1.3788448540386367
1393,21.650729983549503,14.304010090336766,-2.5696632188198096,1.2917160072940714
1394,21.87536592819366,12.886562194561211,-2.5327476154083586,0.924627096536782
1395,21.777842030238308,10.345386244796991,-2.6005244998175696,0.17885427139665555
1396,21.692887003511306,7.089145689516333,-2.764513174450584,-0.9275636112961549
1397,21.522286972729514,3.3333549763125827,-2.9627482515164965,-2.2249072352977106
1398,20.665305666226303,-0.015635260985762678,-3.1181383121563404,-3.457500658893978
1399,19.24725138987582,-2.6698869446234963,-3.148131054645113,-4.719203607615364
1400,17.408352256356874,-4.158379598093593,-3.162017726050236,-5.8133364259088385
1401,15.46934548509637,-4.540708835318208,-3.2025255736985585,-6.601938459177223
1402,13.828714354306518,-4.282736499416453,-3.144759894974867,-7.039464165626624
1403,12.540609909050923,-4.294945492623468,-2.7589886243955863,-7.167682163174561
1404,11.589391717658064,-4.3212155744897816,-1.97966195013353,-7.109411913889019
1405,10.91386090874653,-3.8027972917826265,-1.0494225074293384,-7.040485722205098
1406,10.386984951617487,-3.020707750513836,-0.3084948528472772,-7.075808758645962
1407,9.972347994775598,-2.2790928833990516,0.025709747878356892,-7.075808758645962
1408,0.06955968616245278,-0.2349161211325611,-0.17410566145261963,-0.20409962131285186
1409,-0.2522607767035354,-0.9830842905013393,-0.762214822500672,-0.9969567509368606
1410,-1.4879310105161438,-2.5143253271620103,-1.9963112425982414,-2.768822099915747
1411,-4.060493977765365,-4.896742011583986,-3.9587022206836755,-5.696608528321834
1412,-7.75520395467195,-7.885940575360208,-6.461923576825065,-9.492710987694919
1413,-12.510876682176484,-11.57140372905452,-9.655598405634276,-14.16166165165657
1414,-17.157090617272594,-15.20294125914495,-12.88492158096261,-18.69248439702997
1415,-20.6062293586279,-17.98371999424354,-15.411041648613645,-22.08869343107094
1416,-22.439701064757806,-19.504947384479774,-16.824120768185775,-23.9028251094902
1417,-22.884196702213657,-19.774651469244734,-17.160277032989153,-24.222885830019745
1418,-22.50686452429841,-19.733826570155188,-16.932780376516654,-24.134009212740818
1419,-22.551583985252535,-19.759997827369094,-16.94496770248948,-24.177194500112044
1420,-22.92738024118943,-19.54567467107377,-17.102354725371892,-23.986887739966484
1421,-22.19066947513075,-18.05705436335266,-16.392909415868584,-22.312052246206267
1422,-19.63868516708885,-15.125730480639998,-14.473361005785325,-18.921136872890717
1423,-14.861596925051288,-10.94771610315699,-11.265456419593493,-13.981157081672093
1424,-8.223716220025645,-6.125103515182307,-7.102465439221792,-8.127951660966833
1425,-0.8355240562412305,-1.281416317775764,-2.547418527215093,-2.0691949017378257
1426,6.192601154203978,3.674071015025112,2.064108334604236,4.236389507028097
1427,12.698422581501545,8.483655152835633,6.753515318508489,10.528861390158244
1428,18.811796556943,12.991880854482012,11.167483860146113,16.480144417826207
1429,24.047658075247277,17.035010612600203,15.344380557300742,22.10769544229364
1430,27.840631368839134,20.59121429938108,18.82302309100079,26.97973228148738
1431,29.888738242424573,23.510644435673385,21.198934760300205,30.519622845397237
1432,30.35203391750086,25.56922666516452,22.383289083496805,32.48151646897638
1433,30.05252209741569,26.712706498864762,22.591139764414475,33.103380885452665
1434,29.98086708256176,27.111718991808228,22.475674199095902,32.901545201098244
1435,30.132130520414208,27.01177175944998,22.442803200532566,32.84628351241576
1436,29.341469575822927,27.029219724941463,22.40296116039163,33.052635475680916
1437,27.408667646243575,27.187920981916214,21.741843336606717,32.80122380996032
1438,24.497587291540892,26.985479321927887,20.40265289290681,31.70877491225285
1439,21.17798971044968,25.989297482747386,18.429269640627947,29.688055556792722
1440,17.98466727266906,24.026945799913143,16.00214209308382,26.918205425910372
1441,14.899419646901015,21.21324760936473,13.269475151944487,23.76482907142857
1442,11.649368575007559,17.944307142997644,10.045742280756949,20.533299260102915
1443,8.427967895336353,14.643271690965822,6.283947263765447,17.019087421471845
1444,5.636429117330063,11.231342749846144,2.0369343416837897,13.40536919406194
1445,3.5193184416366208,7.826686723399652,-2.4937389139817383,9.808879184128333
1446,1.8020516282523418,4.410574111773893,-7.393736091006012,6.31334561441207
1447,0.2689118818162357,0.9685805040941964,-12.266446865091785,3.008254741191799
1448,-1.040728295081462,-2.688885368903307,-16.272653745544655,0.040766483460622616
1449,-1.9237502557215906,-6.453941372982933,-18.811850980092732,-2.4190341674658553
1450,-2.264251929122896,-9.695488205298908,-19.83272963771734,-4.302698450339332
1451,-2.1949257152196067,-11.868368073907245,-19.6898653907977,-5.71801409642654
1452,-2.140770496944585,-12.831394628220131,-19.658140325154896,-6.861687368443755
1453,-2.2175991675100835,-12.799878397811046,-19.91749417577643,-7.839731594863647
1454,-2.1057157655234655,-12.763409635403331,-19.51623839908718,-8.705324969834093
1455,-1.7294169602715772,-12.925505237808299,-17.739852172243264,-9.370968361046318
1456,-1.2636221270667727,-12.640178111451549,-14.475105379382132,-9.775218736556264
1457,-0.9211212615792421,-11.265389155651532,-10.101390827912642,-9.950400081219373
1458,-0.6884884052604106,-8.731715573204982,-5.368981058061696,-9.972480021071673
1459,-0.2865919920539626,-5.405001120033523,-0.9073924982952534,-9.949619138599626
1460,0.6824575479816916,-2.0375941330343355,3.6019892208844397,-9.98124465656704
1461,1.984767042050175,0.9591821423552507,7.953583982870064,-9.995327978046996
1462,3.1035387368966316,3.5292316319148855,12.071096187648036,-9.787811802121643
1463,3.676205430221488,5.281958783584059,15.867508003927043,-9.22944456705129
1464,3.7237307047441597,6.163516620020069,19.413027218752,-8.222489696960476
1465,3.6633357988969424,6.361584457827121,22.69225103641332,-6.781591652027421
1466,3.6841247041653506,6.17967883683277,25.340130477301596,-5.086353555832114
1467,3.592138396143402,6.152818654908216,27.05770414030271,-3.19631337129512
1468,3.1914870631026986,6.309607606300968,27.81693715652389,-1.1779667262229916
1469,2.6688074863803553,6.141659803713701,27.798710281904153,0.5753586047120876
1470,2.221484782046621,5.476801721253637,27.789318193097493,1.773386963848161
1471,1.8411697115881143,4.208049913349437,27.928788084666095,2.341788939098172
1472,1.3176058427182127,2.42232381821709,27.693524288358645,2.320644549257856
1473,0.056459976404590995,0.3704403554202887,26.494147211892283,2.3740336841418452
1474,-1.6970155833437914,-1.6941701998084484,24.192074553857204,2.5304816111419606
1475,-3.285026821590058,-3.804536155337527,20.976544955777573,2.2501217718125344
1476,-4.210029345854659,-5.779067393094735,17.324309706265186,0.9447548832650039
1477,-4.425952558367534,-7.736929557463218,13.679889694219103,-1.5269055138046177
1478,-4.316024768634777,-9.472318833620422,9.890511188917637,-4.9064101687496935
1479,-4.191799994364919,-10.740885498233675,6.140859557618525,-8.586640672289487
1480,-4.200169256019997,-11.426557424434941,2.540305938792259,-12.012708092413487
1481,-4.107379646350943,-11.599378790541822,-0.8097543081488976,-15.37438069675321
1482,-4.01459003668189,-11.448431404941827,-3.7630125666656973,-18.581075010439534
1483,-3.9819092372342806,-11.466617424876006,-6.484719878580111,-21.659937045137205
1484,-4.006596337636107,-11.619644089437182,-8.761080860582418,-24.590089749316768
1485,-3.9160964962713387,-11.373730834543883,-10.352062751855371,-27.30821175957922
1486,-3.8040794235655215,-10.514075985997978,-11.18046754576846,-29.813039532592082
1487,-4.204590569748181,-8.984708575194386,-11.356112152597891,-32.2180921435212
1488,-5.7572499416272835,-6.991107766486329,-11.174109912482365,-34.58592102617031
1489,-9.02758197617614,-4.954352966247076,-11.32250824963604,-37.31918707382932
1490,-14.356521918625539,-3.0461961043662606,-11.526605078577848,-40.04039632896911
1491,-21.869110343663543,-1.3416666003165267,-10.768789593119239,-42.1807686309064
1492,-31.226607197845702,-0.13695017027321382,-8.591556641342798,-43.394445626471935
1493,-43.54507045780913,0.48292061977475614,-4.597760137743181,-43.53830382469474
1494,-56.36460496722505,0.6068633872214468,0.5116212242381637,-43.664700905080885
