,TP9,AF7,AF8,TP10
0,-2.4681398570135007e-10,-8.316410368080071e-11,-9.034772417412458e-11,-4.0143647157666953e-10
1,-3.054074953689537e-09,-1.1661714013944449e-09,-1.90706689428826e-09,-2.5616214660984862e-09
2,-3.4262366563273486e-08,-1.3788544798519617e-08,-2.1243950422836226e-08,-3.131014438406636e-08
3,-2.471007381176771e-07,-1.0368426482546957e-07,-1.561185895218255e-07,-2.2305693783691402e-07
4,-1.3260741638864817e-06,-5.855958376358849e-07,-8.59251460681208e-07,-1.1693398012942362e-06
5,-5.698036522759336e-06,-2.6505952864876192e-06,-3.789354305854881e-06,-4.918452189600725e-06
6,-2.047010461500545e-05,-1.0044952143553092e-05,-1.3993968452124547e-05,-1.7279571082432945e-05
7,-6.34738633404701e-05,-3.288390111192665e-05,-4.465473356709272e-05,-5.239464111194226e-05
8,-0.00017401632314966245,-9.519241604253157e-05,-0.0001260648940441068,-0.00014051397365880317
9,-0.0004299023952054091,-0.00024817598223655777,-0.0003207385496463507,-0.0003399062258655514
10,-0.0009718960894640335,-0.0005913557254691911,-0.0007464553315102059,-0.0007535686444933244
11,-0.0020362620088967805,-0.001303504931411558,-0.001608642470268664,-0.0015513756024384598
12,-0.0039953494381200026,-0.00268478427488185,-0.0032429043831320556,-0.0029980910536085504
13,-0.007405484514779623,-0.0052107180236247354,-0.006167879505501641,-0.005487523478857507
14,-0.01306060013243993,-0.009597754055498063,-0.0111480024213099,-0.00958250163123585
15,-0.022049211127339468,-0.01687919702939208,-0.019265140862900973,-0.016059682300844553
16,-0.035811475210607124,-0.02848924678238138,-0.031997330604912375,-0.025957237536068503
17,-0.05619220599960399,-0.046351681408769475,-0.05130182662546175,-0.040622504549314
18,-0.08548475301885478,-0.07296831840475447,-0.07969837599368147,-0.06175573756820616
19,-0.12645962631262025,-0.11150081965078118,-0.12034708184163936,-0.09144512127514874
20,-0.1823709446661573,-0.16583782777737702,-0.1771136729789754,-0.13218770253649362
21,-0.2569334422862307,-0.2406380757444854,-0.2546136977818232,-0.1868906650306392
22,-0.3542632551422894,-0.34133932997410404,-0.3582264089759275,-0.2588478280616402
23,-0.47877700170109505,-0.47412306064397447,-0.4940691023360217,-0.35168690442293643
24,-0.6350458811956472,-0.6458258157838324,-0.6689235334583608,-0.4692842164087848
25,-0.8276044772370638,-0.863790450782869,-0.8901077743575313,-0.6156449106712198
26,-1.0607176538322702,-1.1356535941875112,-1.1652894357243844,-0.7947487732450865
27,-1.338112997954298,-1.4690697743960885,-1.5022394399691767,-1.0103641936451506
28,-1.6626902346590116,-1.8713772216684246,-1.9085292978638715,-1.2658358388935007
29,-2.0362225059126513,-2.3492151563929284,-2.391178877350128,-1.5638546922105412
30,-2.459067001111172,-2.9081070791700414,-2.9562657156143843,-1.9062220558298022
31,-2.929904198236867,-3.5520289237985434,-3.608510802748266,-2.2936218284789014
32,-3.4455257603161376,-4.282984601584202,-4.350859265080297,-2.7254172215202415
33,-4.0006909106398885,-5.100614161130643,-5.184077317738432,-3.19948909557247
34,-4.588069559371758,-6.001861132909599,-6.106389016532351,-3.7121326059825446
35,-5.198287544649874,-6.980725344053628,-7.113177470572792,-4.258027156361454
36,-5.820084922779775,-8.0281253333518,-8.196774996113998,-4.830291496220797
37,-6.440592444849674,-9.131890451616037,-9.346364934559812,-5.420631701279029
38,-7.045724222660627,-10.276896890883755,-10.54801429579456,-6.01958454187003
39,-7.6206765437713315,-11.44535456974085,-11.784850930727117,-6.616852779702759
40,-8.150514542253983,-12.617243399509588,-13.037391705382667,-7.201722588885666
41,-8.62082085598266,-13.770888487895869,-14.284019563908506,-7.7635469353109166
42,-9.018374448322213,-14.883654861932992,-15.50159810603695,-8.292273159592355
43,-9.331823823657128,-15.932733903597043,-16.666203164466395,-8.778988121213967
44,-9.552317180490332,-16.895986549681588,-17.753942608808806,-9.216450691415261
45,-9.67405249425161,-17.752802995219678,-18.741828805542433,-9.599579051944264
46,-9.69471322920531,-18.484935715618548,-19.608663222254094,-9.925860000435735
47,-9.615760221885179,-19.077262403950566,-20.3358898089737,-10.195649287495606
48,-9.442557226849889,-19.518438046378158,-20.908373179420817,-10.41233645350195
49,-9.184316193177558,-19.80140063221962,-21.315059360761502,-10.582354133189282
50,-8.85385812919205,-19.923702547689025,-21.549481065028345,-10.71502027004155
51,-8.467195741650297,-19.887648939895147,-21.61007604528606,-10.822211355922661
52,-8.042954213894529,-19.700234652315164,-21.50029598587798,-10.917875011180396
53,-7.601655778875975,-19.372882054518048,-21.228494170637102,-11.01740029979569
54,-7.164901301670726,-18.92099258133424,-20.807592287922663,-11.136873028605745
55,-6.754487513935766,-18.36333446535947,-20.254539367761957,-11.292250690541412
56,-6.3915015447832175,-17.721297406888713,-19.589588086485417,-11.498496955050229
57,-6.095435134652062,-17.018051331155238,-18.83542458992808,-11.768718916574965
58,-5.883359362984739,-16.277650532040923,-18.016196740844137,-12.11335116582095
59,-5.769197053985725,-15.524126198392938,-17.156491650451365,-12.539429417283094
60,-5.763124326052315,-14.780609465113852,-16.28031609167379,-13.049992514429052
61,-5.871125598507547,-14.068523874063343,-15.410132755359868,-13.643645759809806
62,-6.094718334475136,-13.406880726222024,-14.566001367197272,-14.314310675497468
63,-6.430855613540596,-12.811703736319608,-13.764866732599454,-15.051177321893105
64,-6.8720067967508,-12.29560120580296,-13.020026312275904,-15.838865358806695
65,-7.406409384126045,-11.867495273539598,-12.340798636064799,-16.65778993565401
66,-8.018479047219142,-11.53250934096764,-11.732401539144583,-17.484718920482223
67,-8.689359814646936,-11.292007071710836,-11.196036721288573,-18.29349942177161
68,-9.39759262186692,-11.143769892289336,-10.729165325833607,-19.05592477558462
69,-10.119877620098476,-11.082294862727778,-10.325948855025645,-19.742707936226097
70,-10.831903673818164,-11.099191211955514,-9.977821406061434,-20.324523905287467
71,-11.509217111648416,-11.183651626495331,-9.67415339971283,-20.773082037661222
72,-12.128101097238305,-11.322973457530194,-9.402964008791802,-21.062189077037996
73,-12.666436754806732,-11.50310523272274,-9.151639497627494,-21.168764968421964
74,-13.104517396791532,-11.709195165370044,-8.907617552278655,-21.073775895642715
75,-13.425787654896805,-11.926120592778258,-8.659003052916137,-20.763051879505987
76,-13.617480233376678,-12.138980305737455,-8.395088065211754,-20.227959915274774
77,-13.671124540318555,-12.333535276947556,-8.10675743036333,-19.465907663566536
78,-13.582904013607193,-12.49658710556362,-7.786770499225959,-18.48065753732004
79,-13.353842588664735,-12.616287278910082,-7.429918579131754,-17.28243613608805
80,-12.989805634324554,-12.68237390059141,-7.033065864927051,-15.887829606857537
81,-12.501306736081773,-12.6863357306825,-6.595088414908836,-14.319461224824991
82,-11.903119087824653,-12.621506148979824,-6.116730632770973,-12.60545380386366
83,-11.21369875919086,-12.483092017538716,-5.600401463101004,-10.778686214840347
84,-10.454436510122711,-12.268144368031964,-5.049933064452464,-8.875860620801095
85,-9.648764524416896,-11.975479418690092,-4.470323308317846,-6.936404650048642
86,-8.821153797753233,-11.605559596416956,-3.8674804623879058,-5.001240426117195
87,-7.996046307029516,-11.160345009405019,-3.247984373361796,-3.1114600489903514
88,-7.196772661221322,-10.643126104629685,-2.6188738975115378,-1.3069540417846977
89,-6.444510012637561,-10.058348031161751,-1.9874657211147733,0.37495480067575454
90,-5.757335803916435,-9.411436434403983,-1.3612054619391416,1.900815923552362
91,-5.149430220834325,-8.708633050459865,-0.7475483515613248,3.2422362165632035
92,-4.630473950695986,-7.956847561971432,-0.1538640976231909,4.376889986510479
93,-4.205278439696194,-7.163529852476205,0.4126411506055914,5.289302490563154
94,-3.8736735824402353,-6.336564186745023,0.9449934150352993,5.971363958548492
95,-3.6306632832929266,-5.4841841713160715,1.4365173729899798,6.422542050807804
96,-3.4668432714272726,-4.614904841020192,1.8809067905262633,6.6497745680031555
97,-3.369059111980095,-3.7374660968636335,2.272303194474814,6.667039837031377
98,-3.3212668616996526,-2.8607802293856595,2.6053849901183233,6.494618964074926
99,-3.3055455115772294,-1.99387552357175,2.875467132715619,6.158080920767368
100,-3.3032003908464374,-1.1458280627497608,3.0786095764180503,5.687037301785536
101,-3.2958907250949987,-0.32567477852714194,3.2117312109812257,5.113727731649446
102,-3.2667131316079536,0.45769752555341575,3.272724938470023,4.471507935712684
103,-3.201175989164359,1.1956901866814884,3.2605689328260965,3.7933198092267166
104,-3.088007148183644,1.880158027927213,3.1754289096575428,3.11022526131569
105,-2.919748567993885,2.5035993509721557,3.0187463114543136,2.450083141934857
106,-2.693105425327763,3.059364817613744,2.793307593829808,1.8364407021853082
107,-2.409033063638685,3.5418764862427667,2.5032901937166843,1.2876984589248979
108,-2.0725618950588647,3.9468456767404985,2.1542812096030506,0.8165904705494572
109,-1.6923769822633128,4.271476401768529,1.7532652651791378,0.43000236485783183
110,-1.280184224944757,4.514640175023164,1.3085784146302157,0.129128540943342
111,-0.8499078574690762,4.6770082959070045,0.8298252581185918,-0.090050805511148
112,-0.41677337775813117,4.761129326176906,0.3277566970654478,-0.23601117358727408
113,0.003664330639785123,4.771442259069969,-0.18589394077799384,-0.320698623470203
114,0.3964864667087437,4.714219570006563,-0.6986181756564119,-0.3583855935845723
115,0.7483108660046794,4.5974385343157955,-1.1973839281869745,-0.36444369326158244
116,1.048075911122507,4.430583521536443,-1.6689307579755888,-0.35411264550548077
117,1.2876661167481624,4.2243861004494265,-2.1001060429729885,-0.34134257332357226
118,1.4623500601238517,3.990513405369048,-2.4782365296449105,-0.33777954870369475
119,1.5710147096410436,3.741218141255286,-2.7915263596739157,-0.3519527477819881
120,1.6161935026462786,3.4889656653013157,-3.0294691583544813,-0.3887062840266918
121,1.603897840752509,3.2460547252999015,-3.1832584430499637,-0.44890127320073
122,1.5432721742315343,3.024248585388063,-3.246177889954251,-0.5293953543051865
123,1.4461010861573356,2.8344324524176723,-3.213951230033998,-0.6232890673727969
124,1.3262025475873576,2.686311342355215,-3.085030992163344,-0.7204126153361798
125,1.1987449073552832,2.5881599277093548,-2.860806128756063,-0.8080131928614862
126,1.0795264232670125,2.5466326761483193,-2.5457108200340732,-0.8715928686233323
127,0.9842553486138221,2.5666390019259406,-2.1472204368090124,-0.8958404211586806
128,-2.8155545598931393e-10,-1.5469485116378347e-10,-1.4487819459852039e-10,-2.26567104544744e-10
129,-3.27784635001693e-09,-1.4012112956194334e-09,-2.3481093580528314e-09,-3.563781614091899e-09
130,-3.647793282986125e-08,-1.7169214665628145e-08,-2.702022761966616e-08,-3.851673289314173e-08
131,-2.6022839164178287e-07,-1.271147004448198e-07,-1.9884155430424325e-07,-2.717342995289514e-07
132,-1.380944694553776e-06,-7.097618099667265e-07,-1.1007701531411137e-06,-1.4298160793493293e-06
133,-5.87168887432508e-06,-3.1777060131229724e-06,-4.895588560264935e-06,-6.024243376518222e-06
134,-2.0891025166197706e-05,-1.1916857178888293e-05,-1.8279853910925194e-05,-2.1241289951226493e-05
135,-6.423087874158175e-05,-3.8631480204395945e-05,-5.913444389943443e-05,-6.472387769280037e-05
136,-0.00017484635514392424,-0.00011082042301863447,-0.0001696470822459567,-0.00017462901121800337
137,-0.00042957677843162383,-0.0002865355463980589,-0.0004394820175576615,-0.00042528844903795077
138,-0.0009674494739360582,-0.0006776786717879479,-0.0010429048868748206,-0.0009495223359910751
139,-0.002022688150954362,-0.0014839073112022099,-0.0022934181682853125,-0.0019683221661523746
140,-0.0039670985452836234,-0.0030386764721296133,-0.004718255424456715,-0.003828195249120838
141,-0.007361952301201867,-0.005868215233477712,-0.00915318466259795,-0.007045962990399587
142,-0.013018645983168386,-0.010763290473905321,-0.016855742664063204,-0.012360114864450312
143,-0.022066457815968863,-0.018862557767231312,-0.029632654339681853,-0.0207870190562162
144,-0.03602462688952538,-0.03174502171697089,-0.04997503230694257,-0.033679366716585536
145,-0.056874837265019546,-0.051527686688123735,-0.08119302497980072,-0.05278322812412441
146,-0.08712895324434786,-0.08096280231383009,-0.1275398099496096,-0.08028903871636045
147,-0.12988549228768534,-0.12352733921872283,-0.1943130378932636,-0.11887080794606952
148,-0.18886714881060096,-0.18349565839317078,-0.2879201349081854,-0.1717071567234357
149,-0.2684308579700487,-0.26598500292545224,-0.4158925452773885,-0.24247762065690476
150,-0.37354180001309467,-0.37696282056869307,-0.5868336280471682,-0.3353281685271687
151,-0.5097033651305264,-0.5232051732920077,-0.8102860018156346,-0.45480095896135114
152,-0.6828366047056308,-0.7121968410005742,-1.0965070926183729,-0.6057249867451494
153,-0.8991049737910961,-0.9519661105753827,-1.4561465288410922,-0.7930663824669328
154,-1.164683342893006,-1.2508506773593824,-1.8998257047983746,-1.0217397717929186
155,-1.4854740149899095,-1.6171953258741292,-2.4376278253337174,-1.2963851064913579
156,-1.8667766221865623,-2.0589869571493855,-3.0785153850558906,-1.6211174930264975
157,-2.3129228909771307,-2.583437762308041,-3.829700534653309,-1.999260524037968
158,-2.826891169565559,-3.196532582671641,-4.696001248634883,-2.4330762221126596
159,-3.40991926067608,-3.9025614001161557,-5.679221927605574,-2.923506843346563
160,-4.0611372053229156,-4.703661961176022,-6.777600411673871,-3.4699451671005517
161,-4.7772439994183555,-5.599400403575933,-7.98536403010785,-4.070050288705397
162,-5.552253215650616,-6.5864189242970355,-9.29243502760118,-4.719625048799869
163,-6.377331945658725,-7.658178788688299,-10.684320536712917,-5.412569129503128
164,-7.240755069875402,-8.80482407526248,-12.142214319381686,-6.140918609093702
165,-8.127992719106315,-10.01318659790664,-13.643327151717648,-6.894978618825097
166,-9.021942823892251,-11.266945554771873,-15.161450378304457,-7.663550727175881
167,-9.903313180026277,-12.546947079332037,-16.667743398569094,-8.434250953621493
168,-10.751148776978802,-13.831679438429067,-18.13172132719152,-9.19390819162624
169,-11.54349091397182,-15.097889808603576,-19.52240456573321,-9.929026768852026
170,-12.258145523200888,-16.321319073016088,-20.809578534962903,-10.626291496253144
171,-12.873529734925798,-17.47752263120196,-21.965100415118837,-11.273089293808745
172,-13.369558851617844,-18.542738589883548,-22.964181681682934,-11.858018854763491
173,-13.728531119383717,-19.494760393827658,-23.78657155093209,-12.371359183808709
174,-13.935965729415505,-20.313769454735496,-24.41756796311121,-12.80546955873558
175,-13.98135047361335,-20.983084748778104,-24.848789573409103,-13.155097395854876
176,-13.858759419334339,-21.489790777242334,-25.078654035152862,-13.417576294436032
177,-13.567307345272274,-21.825212427236092,-25.11252367046908,-13.592903549289984
178,-13.111416287241083,-21.985214792007177,-24.962498232174426,-13.683694220047999
179,-12.50087998054631,-21.97031722216777,-24.646854471488364,-13.69501706235802
180,-11.75072401404816,-21.78562295341082,-24.18915231634798,-13.634125933005851
181,-10.880872367183656,-21.440577668499973,-23.617046473160176,-13.510108202218921
182,-9.915643653017359,-20.948581217631972,-22.960859150121284,-13.333478515904519
183,-8.883111681413963,-20.32648558049108,-22.25198359912252,-13.115751310048314
184,-7.8143736053901796,-19.594018112485852,-21.521198566333737,-12.869028098310213
185,-6.7427740628315425,-18.77317172332462,-20.796980046129182,-12.605635266399089
186,-5.703134483277815,-17.887602568351863,-20.103898496488704,-12.337844442599879
187,-4.731032866651464,-16.96207131714676,-19.461186731611,-12.07770041650445
188,-3.8621708926377205,-16.021956466191842,-18.881556025725455,-11.836971343043757
189,-3.131853081914031,-15.092858299284835,-18.370325916659137,-11.627223476014855
190,-2.574587951728285,-14.20030078102011,-17.924917390742536,-11.46000905765843
191,-2.223805084484807,-13.369526911526858,-17.53474059823027,-11.34714240291629
192,-2.1116660884043155,-12.625371840787912,-17.181488179665724,-11.301026827342792
193,-2.2689329006528594,-11.992188236072163,-16.839825055487392,-11.33498488814478
194,-2.7248453234732986,-11.493790955234504,-16.478446435564127,-11.463537540823113
195,-3.5069523132917757,-11.153383640963563,-16.061458906598787,-11.702575058393895
196,-4.640839549204486,-10.993429038241253,-15.550025536435234,-12.069364508600128
197,-6.149699665206884,-11.0354278130778,-14.904205245497629,-12.58234532644956
198,-8.053701606211995,-11.299577472828187,-14.084909190538104,-13.260676023512925
199,-10.369131592444257,-11.804293226991064,-13.055892228509162,-14.123511006008217
200,-13.107299666472464,-12.5655857159446,-11.785695520736436,-15.18900634310487
201,-16.27323142443446,-13.596305467775766,-10.249457024944846,-16.473076092905245
202,-19.864192378296934,-14.905279504073496,-8.430510388060975,-17.987944928113574
203,-23.868120108104286,-16.496380360502357,-6.321699847251659,-19.74056643400122
204,-28.262064246659705,-18.36758046931059,-3.926349186123207,-21.730997518563722
205,-33.010754035389525,-20.510054284985472,-1.2588359880955715,-23.95083602315222
206,-38.065425329716035,-22.907395779365547,1.6552624663545168,-26.38183905488617
207,-43.36304188734596,-25.535019615852242,4.779469289085731,-28.99484242334414
208,-48.82603832399426,-28.35981022959573,8.067155362756731,-31.749095857591886
209,-54.36269418060459,-31.340074474833646,11.46271896686245,-34.59211419741933
210,-59.86822056748842,-34.42584077928351,14.903166248461462,-37.46012184236696
211,-65.2266042569737,-37.55953158429916,18.320044773100523,-40.279137501600104
212,-70.31321065735459,-40.67701698023155,21.641666409578562,-42.966710253745205
213,-74.99809940418734,-43.70903690893945,24.795540863241182,-45.43427826844128
214,-79.14995745530356,-46.582958233587306,27.710928318091867,-47.590080849967165
215,-82.6405080192331,-49.22481258289452,30.321409873226145,-49.342515517009005
216,-85.34921299649392,-51.56154253702882,32.567368725475205,-50.603797367709454
217,-87.16805485866239,-53.523368586172815,34.398273954561745,-51.29375027338629
218,-88.00616373761581,-55.04617852131359,35.774662744223356,-51.343540554628916
219,-87.79404873243993,-56.07383519292046,36.66972601282628,-50.699155334085724
220,-86.48720035031036,-56.560298406995365,37.07041669803647,-49.32443103676944
221,-84.06885356410181,-56.4714620614763,36.97801890919923,-47.203452949242084
222,-80.55173729379635,-55.78661824650718,36.40813915250335,-44.34217392689924
223,-75.97868395863283,-54.49947525522906,35.39010675371417,-40.769137731372865
224,-70.42202936351329,-52.61867558066547,33.965798304288214,-36.53523795962952
225,-63.98179518045195,-50.167781976732584,32.18792921603627,-31.71249437717014
226,-56.78271003414048,-47.18472355235917,30.117883076918737,-26.391881624516497
227,-48.97018688819648,-43.72071840982765,27.823175063380358,-20.680297392128075
228,-40.70543006415903,-39.83871325692181,25.374667392792798,-14.696804792772719
229,-32.15989143535831,-35.6114024562885,22.84367080567786,-8.568323787084402
230,-23.509329177574806,-31.118907848804547,20.299074582218186,-2.424976615258099
231,-14.92774212982753,-26.44621551336467,17.80464765862427,3.6046894124181583
232,-6.581457139872634,-21.680475619568448,15.416644878447004,9.398372788662416
233,1.3763642193818402,-16.908276389265964,13.181836061201947,14.84436070231911
234,8.810558710793641,-12.213002668656262,11.136052498874133,19.845342084436453
235,15.60793147513986,-7.672383897206477,9.30331706791306,24.321519698298125
236,21.680208339523798,-3.3563255528116627,7.69559175235211,28.21288993192875
237,26.965870558752737,0.6748968897918913,6.313141706677123,31.48060518284301
238,31.430830642940006,4.372021102361274,5.145480036830547,34.107383663419654
239,35.06796650414683,7.697718881380246,4.172824477504008,36.09698198245597
240,37.895586425837315,10.62703815074702,3.367968431865394,37.47279379479298
241,39.95494628615317,13.147371655603777,2.698446429468569,38.275680242756636
242,41.306980497905016,15.257979291325224,2.1288596064450287,38.56117245490759
243,42.028437781612475,16.9691100196561,1.6232212269465527,38.39621153059067
244,42.20763113620907,18.300785058739066,1.1471858110182516,37.85560632076022
245,41.94001804293788,19.281315891583674,0.6700375119691393,37.018393729463746
246,41.32382210302264,19.945638093213375,0.1663328710262508,35.96428042569346
247,40.45589191638119,20.333544976263997,-0.3828816874589123,34.77032968679098
248,39.42796833506859,20.487903626970308,-0.9893280487023278,33.508033906280204
249,38.32349933546158,20.45293049778644,-1.6572494902747927,32.24088394674528
250,37.21510479803433,20.27259479593663,-2.3836465876273616,31.022513020882627
251,36.16275401107484,19.989206172714766,-3.1589545771224614,29.895457442578266
252,35.212679184794155,19.642229406136842,-3.9680954060556566,28.890541700469964
253,34.39701093252369,19.267353726771407,-4.791817813268774,28.026862965630958
254,33.73408828522407,18.89582910118869,-5.608225568701865,27.312321945917343
255,33.22936746921952,18.554067126464666,-6.394388054546045,26.744623932124462
256,-1.1761252143899816e-10,-1.192993225913981e-10,7.199387840490688e-11,-1.2759961457476785e-10
257,-2.49708587476199e-09,-2.417392092349005e-09,2.036295854279007e-09,-2.300273022761137e-09
258,-2.721187313858526e-08,-2.631719591865989e-08,2.0642092398113185e-08,-2.4649290121721733e-08
259,-1.9607105502298807e-07,-1.8920003468043755e-07,1.3947278050170388e-07,-1.7274880697892552e-07
260,-1.0583849459214442e-06,-1.0210306935239262e-06,6.950384050310381e-07,-9.065277224168069e-07
261,-4.581331463410496e-06,-4.426566651422302e-06,2.7327139385170802e-06,-3.812435336347785e-06
262,-1.662644905642165e-05,-1.611538529893486e-05,8.832517841796885e-06,-1.3445154635793332e-05
263,-5.2226293704823135e-05,-5.083596325277585e-05,2.4121588415774152e-05,-4.108889274820424e-05
264,-0.00014544738008019078,-0.00014223363049709655,5.665314427122448e-05,-0.00011156849942099052
265,-0.00036596122253523827,-0.0003594046719986695,0.00011542277433638647,-0.0002745253270281372
266,-0.0008445580189855804,-0.0008320517277571206,0.00020336885429099392,-0.0006218449130971317
267,-0.0018096735967743328,-0.001785506661314865,0.0003020714864015137,-0.0013131131286092633
268,-0.0036365096495140905,-0.003585883965237604,0.00034475220127569943,-0.002610877128395649
269,-0.0069095275511574464,-0.006794515502956889,0.00017459106997214937,-0.004926966176161984
270,-0.012498102787550666,-0.012229841439169317,-0.0005137701737285088,-0.008880196997168058
271,-0.02164412184795936,-0.021034195047115935,-0.0022505670692152054,-0.015364667865058204
272,-0.03605936541407284,-0.03474232203701048,-0.005884880243793025,-0.025626705910156113
273,-0.05802956268162867,-0.05534778880930761,-0.012694723332100094,-0.04134742232418311
274,-0.09052085337986757,-0.08536243310128369,-0.024510320429676945,-0.0647266986264171
275,-0.13728302510377283,-0.12786267568023812,-0.04384595156717571,-0.09856329133625966
276,-0.20294247916043495,-0.18651513872193998,-0.07403353887061283,-0.1463247652120146
277,-0.2930766951232677,-0.2655731740723047,-0.1193483098082238,-0.21220027650616807
278,-0.4142612723135943,-0.36983621143954365,-0.18511359024521581,-0.3011289123339455
279,-0.5740806605818136,-0.5045656399087661,-0.27776865532706785,-0.418796399942139
280,-0.7810947402242917,-0.675354200751017,-0.40488155232744466,-0.5715937714406584
281,-1.0447556967282783,-0.8879502237543798,-0.5750888011057936,-0.766533307716166
282,-1.3752730877330102,-1.1480430242335735,-0.7979464100736307,-1.0111199511964861
283,-1.7834290878849657,-1.4610209950791593,-1.0836815616903297,-1.3131800882854716
284,-2.28034984715455,-1.8317191033303133,-1.4428409166782428,-1.6806535464005652
285,-2.8772421144405085,-2.2641774199751494,-1.8858387956865044,-2.1213582152912176
286,-3.5851066061732375,-2.7614367273382943,-2.422415800318722,-2.64273951938617
287,-4.414441214582665,-3.325400866083791,-3.0610254902936416,-3.251618963993626
288,-5.3749481832625206,-3.9567979237879745,-3.808173603638911,-3.9539570971332965
289,-6.475259705423829,-4.655273210282002,-4.667741051742815,-4.7546463696814785
290,-7.722695695169237,-5.419645740991866,-5.640328184809612,-5.657348336977518
291,-9.123065456177923,-6.248356235815412,-6.722662860619688,-6.664387289336082
292,-10.680521504603403,-7.140128128056817,-7.9071176260558484,-7.776708608742455
293,-12.397468973340704,-8.094853702845434,-9.181380915733365,-8.993904918017424
294,-14.274528094490359,-9.114705430833453,-10.528322963294741,-10.314306549304012
295,-16.310540750098276,-10.205458275976541,-11.92608902726858,-11.735125523927953
296,-18.502605808120347,-11.37799288756147,-13.348440910052677,-13.252635021341987
297,-20.84612287441415,-12.649933045241264,-14.765353362606099,-14.862360335372834
298,-23.33482101424838,-14.0473546668053,-16.143855792122153,-16.559253527570657
299,-25.960748402286168,-15.606489403442849,-17.44909293227899,-18.33782285410748
300,-28.714200922064286,-17.375334517400418,-18.64556217448026,-20.19218965056868
301,-31.583572470899032,-19.415073116163782,-19.69847154805368,-22.116049581533478
302,-34.555117081039846,-21.801205150903044,-20.575152192206406,-24.10252191960991
303,-37.612622689972994,-24.62428973696018,-21.246453390407044,-26.14387965953132
304,-40.7370078927639,-27.99020318354583,-21.688047089918555,-28.23116448248627
305,-43.90586533229901,-32.01982475204637,-21.881572048844884,-30.353703207343123
306,-47.092987370296285,-36.848074058623425,-21.815554975974948,-32.498555444671986
307,-50.26792015154848,-42.62224070813962,-21.486056913215958,-34.64993452211583
308,-53.395600019253095,-49.49956840184335,-20.897007401033687,-36.78865403508456
309,-56.436130499672345,-57.64408196902215,-20.06020616828661,-38.891659325364316
310,-59.34475800237229,-67.22267544522644,-18.994991307338587,-40.93170575123115
311,-62.07209956012602,-78.40051090226719,-17.727592694038165,-42.877243207746574
312,-64.56466627492594,-91.33580959818879,-16.290208003431893,-44.692558811342955
313,-66.7657118542692,-106.17414780113356,-14.71985425548604,-46.3382171831368
314,-68.61641717766426,-123.04239842966602,-13.05705894291252,-47.77182078793648
315,-70.05740004158389,-142.04248594300083,-11.344460674780846,-48.94909212817438
316,-71.03051534381908,-163.2451453623738,-9.62538979338027,-49.82525646952524
317,-71.48088666943988,-186.6838964588754,-7.942495063253208,-50.35667982899912
318,-71.35908745300715,-212.34946017361963,-6.3364740669867405,-50.5026940248701
319,-70.62337054627041,-240.18485498719556,-4.844953394909807,-50.22752050341596
320,-69.24183090606014,-270.0814146040015,-3.501551188987388,-49.502189159580645
321,-67.19437876542271,-301.8759632484331,-2.335140283472635,-48.30633897192976
322,-64.47440120434568,-335.3493695391862,-1.3693162069792078,-46.62978520431806
323,-61.08999899580413,-370.22667325128504,-0.6220616707159581,-44.47374382922667
324,-57.06470267462578,-406.17894085796013,-0.10558874957894299,-41.8516176741489
325,-52.43759590320097,-442.8269558721661,0.17366752214313158,-38.7892698326365
326,-47.26280384160811,-479.7467896679355,0.21493439143026757,-35.32473690086761
327,-41.60833757074194,-516.477229276485,0.022895951321129072,-31.507365992940777
328,-35.55432071828252,-552.5289627280837,-0.39257580147330184,-27.396393370291538
329,-29.190659203920358,-587.3953423616471,-1.0167324002385643,-23.059016682916447
330,-22.61424728232155,-620.5644649851612,-1.8302897314797142,-18.568044908605835
331,-15.925830779988786,-651.5322280016942,-2.8097935551442106,-13.999237845788876
332,-9.22666982686034,-679.8159461628779,-3.9280127767365,-9.428468510681109
333,-2.6151570308751833,-704.9680484023422,-5.1543697198453735,-4.9288554743460855
334,3.816448199699408,-726.5893225245816,-6.455420635021116,-0.5680168745294639
335,9.985013280153911,-744.3411418147331,-7.795401052325669,3.5944070650628914
336,15.819112424750625,-757.9560961880828,-9.136849063758556,7.5088306070168445
337,21.261074266458976,-767.2464649926402,-10.44131522473738,11.137288775604757
338,26.268408167625797,-772.1100116287226,-11.670160803934017,14.454413930463451
339,30.81455469452548,-772.5326528851873,-12.785437289197997,17.447778117205658
340,34.88894246710412,-768.587657814189,-13.75083033429786,20.117594216325735
341,38.49637026209983,-760.4311599626576,-14.532641783877889,22.47580669989586
342,41.65576753849243,-748.2939193398487,-15.10077511075665,24.5446383315652
343,44.398416397496035,-732.4694418116727,-15.42968338835214,26.354689975536754
344,46.765741746367524,-713.2987475451635,-15.499235412615173,27.94271470810034
345,48.80679303009707,-691.1522690673039,-15.295455029893269,29.349203157990715
346,50.57554974787442,-666.409544369494,-14.811091154445382,30.61592354600144
347,52.12818392565967,-639.4375410561662,-14.045981228302749,31.78355701892459
348,53.52040604696979,-610.5685930633733,-13.007178863729797,32.889556958567994
349,54.80500750394493,-580.0790415000658,-11.708826908879994,33.96634112091773
350,56.02969385354786,-548.1697361487596,-10.171769854519367,35.03989944635823
351,57.23528086363326,-514.9495660065106,-8.42291365364608,36.128870295602894
352,58.45430133984993,-480.4231396385524,-6.494355584887411,37.24410587183826
353,59.71004666398006,-444.4836249622116,-4.422320426648768,38.38871576154236
354,61.01604423893745,-406.9115819944207,-2.2459505639254655,39.55854790177981
355,62.375951839550915,-367.38038309654087,-0.006005707405760969,40.74304079882093
356,63.78383323231731,-325.46851936037126,2.2564678749387603,41.9263612351775
357,65.22476705744018,-280.6787495318986,4.5014382620647515,43.0887292521509
358,66.67573320000825,-232.46367433687746,6.691101459336586,44.20782754110689
359,68.1067176819942,-180.25693342099032,8.790955812473342,45.260195508960805
360,69.48197813291024,-123.50884653738484,10.770693278656129,46.2225186555261
361,70.76141642213882,-61.72497882457889,12.604873316099301,47.07274035713394
362,71.90201194792539,5.494174413793525,14.27335652540599,47.79094402290449
363,72.85927698441468,78.41439334049869,15.76148783096178,48.359976792688535
364,73.58870305003312,157.13194724864607,17.060032381060225,48.765809347418994
365,74.0471735197775,241.54292999214016,18.164880701107517,48.99764813671101
366,74.19432217309077,331.31970704876807,19.07655202776118,49.04783488032162
367,73.9938199070256,425.8962184436184,19.799535319315495,48.911582409896084
368,73.41457248870971,524.4635199076108,20.341515407280355,48.58660487138252
369,72.4318112185128,625.9764799890545,20.712536592427195,48.07270352698158
370,71.02805625000614,729.1720045670538,20.924157338608076,47.3713668898456
371,69.19392983463453,832.5985606148159,20.98864753168296,46.48543626725285
372,66.92879471574372,934.6561520117294,20.918274248251386,45.418875871091295
373,64.24119189749871,1033.6452990637492,20.72471364511007,44.17667163745316
374,61.149052491646565,1127.8230284201775,20.418616136764257,42.76486612056197
375,57.679660660783846,1215.4634276112333,20.00934033192406,41.19071988234577
376,53.86934918194015,1294.9199902030768,19.504859108268743,39.46297434385552
377,49.76291605197477,1364.6867982142394,18.911829479199955,37.59217853961476
378,45.41275977958617,1423.4555735762476,18.23580718730884,35.59103365861539
379,40.87774219603575,1470.165785251733,17.481577705493308,33.47470522460358
380,36.22180022884576,1504.0453173245198,16.653567963531984,31.261053512869825
381,31.512341424105436,1524.6396692147866,15.75629804435233,28.970738213669176
382,26.81847115672852,1531.8282454506423,14.79482976489487,26.62716291435965
383,22.209111262635112,1525.8269641515144,13.775169892312807,24.256237691478738
384,-5.2341468045488e-11,9.972965651220726e-10,-1.1839243122965228e-10,-1.1955483855203204e-11
385,-1.880268913823847e-09,1.560424116383691e-08,-2.4738330890707083e-09,-5.358470095880488e-10
386,-1.909182101465493e-08,1.804817541173496e-07,-2.7161247373197482e-08,-4.400908511942969e-09
387,-1.3104723663884742e-07,1.3261236036980134e-06,-1.9698573683317468e-07,-2.4235697155561448e-08
388,-6.677729894787354e-07,7.321578418588038e-06,-1.0714526718731342e-06,-8.901871731474106e-08
389,-2.71016715911478e-06,3.241775094930658e-05,-4.677496534923257e-06,-2.0671275622879108e-07
390,-9.16611795556068e-06,0.00012027498954712722,-1.713120998686191e-05,-1.2758933567924307e-07
391,-2.6693174887759212e-05,0.0003858507751424218,-5.4319249223018057e-05,1.4274260703704444e-06
392,-6.866240581393332e-05,0.0010957528791386193,-0.00015266640898216826,8.587048724523074e-06
393,-0.00015926203621986377,0.0028056501998305378,-0.00038736032125430696,3.17652354771427e-05
394,-0.00033886972639971414,0.0065732578925519515,-0.0009003457282222012,9.309187661134236e-05
395,-0.0006710099580299894,0.014262253892151603,-0.001939846591601844,0.0002338490649548283
396,-0.001251472476024181,0.028946347015768543,-0.003912145872897635,0.0005234958923834778
397,-0.0022203730906283263,0.05541501451516248,-0.007445023050610016,0.0010695171638571
398,-0.0037779964039067054,0.10077358988917108,-0.013460886737128827,0.0020270215119299606
399,-0.006205227762931256,0.1751210833313707,-0.02325650282663242,0.003606643477543385
400,-0.009889237976765938,0.29227863496544504,-0.03858543281507141,0.0060788381963305166
401,-0.015354786576956296,0.4705297600046552,-0.06173876150136419,0.009772214362794083
402,-0.023300939382735628,0.7333201216631468,-0.09561914716442736,0.015063329844698358
403,-0.034642197532058674,1.10985045601808,-0.14380241519087877,0.02235541506005799
404,-0.05055217183181984,1.6354831916492538,-0.2105798024854623,0.03204372528679096
405,-0.07250716414663856,2.3518735805993782,-0.3009728406193386,0.04446554441858715
406,-0.10232639193522015,3.306732866853893,-0.4207123064169838,0.05983336521465747
407,-0.14220498793018624,4.5531361558650465,-0.5761732290828829,0.07815064673978465
408,-0.19473529527726768,6.148303107744767,-0.7742599160589629,0.09911099531766346
409,-0.26291140245006617,8.151805183369351,-1.0222381845170467,0.1219835964327298
410,-0.3501115234155796,10.62318828102561,-1.3275159301713852,0.1454900687334381
411,-0.4600528574163555,13.619041651416817,-1.697377123558662,0.16768032165399732
412,-0.5967141397084215,17.1895903792024,-2.1386777016102734,0.18581713583525486
413,-0.7642223720833008,21.374935916380345,-2.65751433624166,0.19628066424649793
414,-0.966702425023325,26.201113771519694,-3.258878770146106,0.19450449730730626
415,-1.208091329124462,31.6761763680086,-3.9463116027403724,0.17495423685785463
416,-1.4919228685445387,37.786538819382,-4.721570352178021,0.13115784146111306
417,-1.8210920056014732,44.493843388555895,-5.584327396297957,0.05579470911833294
418,-2.197612166278022,51.73260160631413,-6.531913819983976,-0.05915223189316352
419,-2.622381161637987,59.40885958863834,-7.559124931008159,-0.22218023340301146
420,-3.0949733036160785,67.40010012477059,-8.658101906253458,-0.44198865852653585
421,-3.6134759749210343,75.55654470951357,-9.818301544769088,-0.7271456966373077
422,-4.174388298641337,83.70395064986344,-11.026562533543492,-1.0857108978654166
423,-4.772597482771336,91.64791601669029,-12.267272327883042,-1.5248290109779299
424,-5.401444814219651,99.17961285208683,-13.522634197715863,-2.0503145880916853
425,-6.052888267287233,106.08277303059755,-14.773029686114723,-2.6662498747651693
426,-6.717762393455686,112.14165855905102,-15.99746804296933,-3.37462007440591
427,-7.386128800172857,117.14966608398325,-17.174111266449213,-4.175009698430827
428,-8.047702493555846,120.91815120800008,-18.28086109332942,-5.064381157167524
429,-8.692331300830748,123.28501727006821,-19.295992318955076,-6.036952243853492
430,-9.31049838697683,124.12260001398883,-20.198814901435217,-7.084183240379429
431,-9.893812368765925,123.34439570684029,-20.97034526933384,-8.194877684311212
432,-10.435446475817857,120.9102260963367,-21.59396523303278,-9.35539396273602
433,-10.930488170263546,116.82950651281692,-22.05604521698519,-10.549958347753353
434,-11.37616408183885,111.16237976403143,-22.346507588062472,-11.76106436748674
435,-11.771912164073436,104.01859215335588,-22.459305942596927,-12.969938901100084
436,-12.119283362251682,95.55411237060657,-22.3927974173182,-14.157052351261168
437,-12.421667989750738,85.96562113941117,-22.149987264688676,-15.302648727339859
438,-12.683856379682283,75.4831212202301,-21.73862788005311,-16.387271520705944
439,-12.911458047302437,64.3610258219494,-21.171158082222647,-17.392262933520545
440,-13.110217445216334,52.868171043526445,-20.46447284916577,-18.300217408465045
441,-13.285276276172413,41.27725904873942,-19.639519129223917,-19.095375295004875
442,-13.440441016259454,29.854268657694853,-18.7207199705566,-19.763948387792205
443,-13.577518737889921,18.848367297954347,-17.73523697577717,-20.294375258956137
444,-13.695783754050202,8.482822733939209,-16.712089672271127,-20.67751007467879
445,-13.79163183988652,-1.0526521818504395,-15.681159245667631,-20.906753355186797
446,-13.858467986668526,-9.607778880422725,-14.672112552496845,-20.978136376630623
447,-13.886858328938528,-17.075582341716487,-13.71328970283752,-20.890372200362986
448,-13.864957815714963,-23.394135487937923,-12.830604089520564,-20.64488537127997
449,-13.779203571943933,-28.546185756229757,-12.046506946975192,-20.24582926742092
450,-13.615241331085102,-32.55678702099517,-11.379068899831308,-19.700095347209714
451,-13.359030706369968,-35.489163343389215,-10.841228260821909,-19.01731279515067
452,-12.99805638564531,-37.43911521198866,-10.440249982482808,-18.209830982887055
453,-12.522558355791322,-38.528340093441486,-10.177430281200804,-17.29267139448687
454,-11.926686558069095,-38.89707437505318,-10.048070350162634,-16.283430963099825
455,-11.209485033249477,-38.696473005990214,-10.041728828573111,-15.202115908642192
456,-10.375618144704541,-38.081127155361415,-10.142747588855034,-14.07088487090895
457,-9.43576649520679,-37.202082223025805,-10.331029910359586,-12.913682754751097
458,-8.406641594530338,-36.20066219498921,-10.583035242490029,-11.755752250132607
459,-7.310594501804544,-35.203336947796096,-10.872941474420795,-10.623018107108049
460,-6.17482263641659,-34.31779173510707,-11.173914769974719,-9.54134939181077
461,-5.030208576894246,-33.63027845053385,-11.459419326068966,-8.535716326312642
462,-3.9098526949365633,-33.20425151485251,-11.70449555039195,-7.629269920119964
463,-2.847385683410755,-33.080221758609255,-11.88693570193548,-6.842383347424993
464,-1.8751654661663189,-33.2767034157295,-11.98829136043545,-6.1917029100707675
465,-1.0224742298296499,-33.79208442098257,-11.994657095824675,-5.689262710712065
466,-0.31383449365597405,-34.60722035410037,-11.897188714749694,-5.341720219365371
467,0.23244210456671235,-35.68853736821167,-11.692331202060274,-5.149769225609451
468,0.6053731840015271,-36.99142882451669,-11.381749412552281,-5.107781752679249
469,0.8020121283677362,-38.463741963326925,-10.971972261001149,-5.203721223614551
470,0.8276908978014987,-40.04917278668618,-10.47377755378778,-5.41935578934014
471,0.695778537495494,-41.69041623466431,-9.901359047478572,-5.730784051901074
472,0.4269675959892283,-43.33195218242468,-9.271329334240116,-6.109266547054805
473,0.04813259710856713,-44.922382843482644,-8.601621242482784,-6.522336637300094
474,-0.4091666814159531,-46.416271542974606,-7.91035597578313,-6.935145381965482
475,-0.9104411999269469,-47.77546485584409,-7.214747588733323,-7.311977995683768
476,-1.4201759590846337,-48.96990810701987,-6.530110224214327,-7.617866047045255
477,-1.9037606690894895,-49.97798770064978,-5.869026847438068,-7.820210565041231
478,-2.3293281748955903,-50.78645177230118,-5.240726499694486,-7.89032737050327
479,-2.66938932283224,-51.38997350417633,-4.65070230431109,-7.804827604209812
480,-2.902168550468982,-51.79042887359649,-4.100585864090217,-7.546753792682783
481,-3.0125662310484826,-51.99596347115702,-3.588276762455636,-7.10640465497543
482,-2.992700052076566,-52.01992153025984,-3.108310030773466,-6.481799410880737
483,-2.842006222874088,-51.87970558588318,-2.6524307749356955,-5.678753154486474
484,-2.5669097026877234,-51.595627573712996,-2.2103343209200244,-4.710557235069131
485,-2.180098853168468,-51.18980287113787,-1.7705224546648186,-3.5972809935188597
486,-1.699462418514189,-50.685128204188146,-1.3212215700550278,-2.364732444687998
487,-1.1467645744510775,-50.10437348099432,-0.8513067001119933,-1.0431346235971697
488,-0.5461462760019773,-49.46940712962978,-0.3511764471876127,0.33440960374224615
489,0.07745211663270547,-48.80056481940195,0.1864722920434715,1.7335793243640016
490,0.699851127084057,-48.11616325983014,0.7660142792888768,3.120531687928788
491,1.2990844527237784,-47.43215390687604,1.3884458890887688,4.463538197510672
492,1.8566625287261844,-46.761906299307284,2.051139116772854,5.734471030207885
493,2.358581353961425,-46.11610690475198,2.7478109084053304,6.910059055004444
494,2.7960287571184033,-45.502757086554254,3.4687056411218116,7.97284827069918
495,3.1657604560744432,-44.92725264783914,4.200975560038695,8.911820388549803
496,3.4701386976418416,-44.392527776750875,4.929232531898533,9.722644534349813
497,3.7168453539962565,-43.89924765683821,5.6362355720914215,10.407558782144388
498,3.9182979204375408,-43.44603667382447,6.303672811838303,10.974899030394685
499,4.090810373233388,-43.0297324472444,6.9129939568800705,11.43831157126221
500,4.2535511416267235,-42.64565935122103,7.446249516647014,11.815701797711794
501,4.427357628360647,-42.28791836595315,7.886895586624825,12.127984221012625
502,4.633470880684867,-41.949692188807745,8.22052716961245,12.397707793225074
503,4.89225535161558,-41.62356559915635,8.435508450476231,12.64763512855175
504,5.221967284476268,-41.30186058540358,8.523474818937032,12.899354408420846
505,5.637631181140995,-40.976984198565454,8.479688621304382,13.171998538023821
506,6.150077081082295,-40.641784434579215,8.303238502280525,13.481137646311021
507,6.765182240209657,-40.289906297207416,7.9970804991426405,13.837898827555748
508,7.48334980726652,-39.91613688378376,7.5679272710470595,14.248352045384017
509,8.299245159281229,-39.51672527295836,7.025999266882132,14.713184625686763
510,9.201798595523012,-39.08966056007873,6.384657505093048,15.227670001646532
511,10.174471763185698,-38.6348899331688,5.65994139368563,15.78192036947958
512,-1.4806933124267674e-10,-3.868539319933478e-11,-1.1173956502590537e-09,-1.2417326198908032e-10
513,1.9908159898005342e-10,-7.846388757699914e-10,-1.1504997286117762e-09,-2.0696199993112705e-09
514,-1.5276872542572762e-10,-8.633917484056595e-09,-3.626547227301248e-08,-2.1829947921545004e-08
515,1.39050416563003e-10,-6.266602281847303e-08,-2.5032848285945637e-07,-1.4970600508328832e-07
516,-3.3578990982354536e-10,-3.4085125030529187e-07,-1.3575004712299115e-06,-7.689409945031002e-07
517,-4.1436866070766955e-09,-1.4868488512298398e-06,-5.910259313200118e-06,-3.166694373962314e-06
518,-4.569242051383202e-08,-5.4385105969415385e-06,-2.1517299064400666e-05,-1.0955512766268754e-05
519,-3.3010552054083063e-07,-1.721957171123597e-05,-6.775820892515171e-05,-3.293059292524765e-05
520,-1.7740963392060787e-06,-4.8341779444679356e-05,-0.00018892775836885405,-8.824499651453737e-05
521,-7.631431562162986e-06,-0.00012261831447987192,-0.0004753326680721163,-0.00021509793779609222
522,-2.7442286445208864e-05,-0.0002852837509212229,-0.0010954381505725297,-0.00048446010625985484
523,-8.517323654114494e-05,-0.0006163451006824596,-0.0023410784500560748,-0.0010205572461398184
524,-0.00023373370130576253,-0.001249042776192169,-0.0046869210814464305,-0.0020296777161020936
525,-0.0005780314108561087,-0.0023941664426765587,-0.008864895659990072,-0.003838304835565658
526,-0.0013082227328215911,-0.004370719490082275,-0.015953011364185657,-0.006940695553350878
527,-0.002744132038070794,-0.007643034654312622,-0.027477213853033453,-0.012055062539715104
528,-0.005390928520994281,-0.012863896733622574,-0.04552315129773942,-0.02018652589162953
529,-0.01000518798060344,-0.02092254078408173,-0.0728531714332844,-0.03269389077525124
530,-0.01766919923243111,-0.03299559828326171,-0.11302140300389704,-0.05135588407752261
531,-0.02986984428840804,-0.05059820918754938,-0.17047732186156486,-0.07843075772863843
532,-0.04857667518248012,-0.0756316492488611,-0.250645999104211,-0.11670140732449848
533,-0.07631204393063695,-0.11042297711001715,-0.35997111464503617,-0.16949678637678492
534,-0.1162046145063284,-0.15775144125165685,-0.505906332130936,-0.24067983011221294
535,-0.1720163136387325,-0.2208558014643689,-0.69684076046697,-0.3345925219902006
536,-0.24813211598491397,-0.3034164777010512,-0.9419465194995472,-0.4559501789788129
537,-0.34950209006234045,-0.40950672484051653,-1.2509394643909257,-0.6096793545315009
538,-0.4815261861686438,-0.5435079893516577,-1.633749138618448,-0.8006968044197134
539,-0.6498742341995367,-0.7099862577758417,-2.10009948380416,-1.0336305404190016
540,-0.860236697962103,-0.9135284580902756,-2.6590086492582268,-1.3124880705051452
541,-1.1180058081752706,-1.1585406305589203,-3.318223352296211,-1.6402815105216892
542,-1.4278919699071932,-1.4490124401382605,-4.083610357580064,-2.0186243751222612
543,-1.793486615948053,-1.7882554820480085,-4.958534860130307,-2.4473202403748706
544,-2.2167894873413396,-2.178625604619283,-5.9432611911404205,-2.92396849920759
545,-2.697724941690455,-2.6212420295673664,-7.034416064515123,-3.4436163004815836
546,-3.2336773720615577,-3.1157182619172072,-8.224556567155604,-3.99848774714406
547,-3.8190796984679207,-3.659921482371748,-9.501885071581466,-4.577821145167999
548,-4.445090647842621,-4.249778071757031,-10.850149361567455,-5.167842377707452
549,-5.099396089087655,-4.879142869234365,-12.248759647455383,-5.751897362002609
550,-5.766166734441792,-5.539748474036403,-13.673143453164899,-6.310759151868716
551,-6.4261991923768695,-6.221248241841514,-15.09534633745604,-6.82311597066832
552,-7.05725965071589,-6.911362641470569,-16.484870705012586,-7.266235882713975
553,-7.6346397653638745,-7.5961335442887625,-17.809728410440627,-7.616792635688983
554,-8.131922744738672,-8.260285153013404,-19.037666591920505,-7.8518260336251675
555,-8.521944554165131,-8.88768403038644,-20.13751088354814,-7.9497995421266845
556,-8.777921189472455,-9.461884451854328,-21.080558175131106,-7.8917083005399675
557,-8.874698977628922,-9.966739452654343,-21.841942148721603,-7.6621830526764
558,-8.790072194917608,-10.387052828775934,-22.401891183497398,-7.250530542795282
559,-8.506102020115568,-10.709243314825045,-22.746799139997176,-6.651649286488016
560,-8.010364131166655,-10.921989494090436,-22.870036696655113,-5.866761722177284
561,-7.297049721435535,-11.016822918386696,-22.77244282098363,-4.903909682709084
562,-6.367847030314969,-10.988637574146246,-22.462453498573243,-3.7781698337031777
563,-5.232537707552286,-10.836086277184641,-21.955845750781478,-2.511558807177407
564,-3.9092543927327816,-10.561838769341533,-21.27509908324946,-1.1326134860096688
565,-2.424361967593006,-10.172682070197919,-20.44840139570621,0.3243508125496292
566,-0.8119441770276414,-9.679450748882427,-19.508350240910925,1.8202838022285646
567,0.8871014735714522,-9.096782858870792,-18.490421749144982,3.3127078104251004
568,2.626335607269041,-8.442705875333655,-17.43129563633618,4.757236440499685
569,4.355369073711665,-7.73806558033718,-16.36713549518717,6.1092382406748
570,6.0217089248614055,-7.00581893851818,-15.331926846229726,7.325569685629985
571,7.572775254270632,-6.270219124941539,-14.355972296159923,8.366296285500207
572,8.957993552703533,-5.5559266232591185,-13.4646323779083,9.196319668598248
573,10.130859948072509,-4.887084428781801,-12.677384113751403,9.786831998877224
574,11.050875237806826,-4.286397672330147,-12.007246877988111,10.11652685665258
575,11.685248226822646,-3.774258309698104,-11.460599017657316,10.172507319378555
576,12.01027973510322,-3.3679538488322387,-11.037380879244497,9.950846891698722
577,12.012355075297988,-3.0809954652917524,-10.73165222550875,9.456776297137852
578,11.688493885423037,-2.922595452036411,-10.532448078078858,8.70448790561181
579,11.046430405190243,-2.8973170581937686,-10.424857582389803,7.716568564784687
580,10.104223011222393,-3.0049117874338553,-10.39123842822848,6.523089751470235
581,8.889417493673216,-3.240350615042619,-10.412473964915737,5.160400296712214
582,7.437812398200398,-3.594046826467832,-10.469182750069676,3.6696805442530795
583,5.791895378283873,-4.052259728963341,-10.542798904379858,2.095326930245645
584,3.9990354923512785,-4.597660719065816,-10.616456828045306,0.48324211368911685
585,2.1095270622904665,-5.210036377922536,-10.675633099939182,-1.1208921309484028
586,0.1745855234172535,-5.867097622955561,-10.708521469124644,-2.6732838431893162
587,-1.7556053102488063,-6.54535964835024,-10.706141184189994,-4.133571535488358
588,-3.633701974270822,-7.22105464098102,-10.662202374568245,-5.46617501506859
589,-5.416785508542255,-7.871038260533199,-10.572773010902417,-6.641406066764898
590,-7.06765693636811,-8.473651760588217,-10.435806897701582,-7.636302083410473
591,-8.55579943821159,-9.00950438808812,-10.250601065386114,-8.435160405681891
592,-9.857983721538993,-9.462145146764147,-10.01725188154538,-9.029766197827326
593,-10.958514311959021,-9.818598806779598,-9.73617395505163,-9.419321261486584
594,-11.849134411511054,-10.06974777774727,-9.407734171783698,-9.610094391794956
595,-12.528624355469937,-10.210548715122362,-9.032037822370782,-9.61482492311473
596,-13.002142360396986,-10.240080126286191,-8.608885278706122,-9.451919369829568
597,-13.280365694783848,-10.161424475977269,-8.137898463741374,-9.144486358638865
598,-13.378495321368842,-9.981395112440422,-7.618797885775441,-8.719257570727532
599,-13.315187846992254,-9.710124532596431,-7.051794141834354,-8.205442651964917
600,-13.11147551734709,-9.360535847459497,-6.438045016257109,-7.633564424829703
601,-12.78972861201232,-8.947723550607867,-5.780120521380258,-7.034317575678961
602,-12.372705381674951,-8.488272584500022,-5.0824158650788105,-6.437489494041569
603,-11.882723519304736,-7.999546065803564,-4.351455565917807,-5.870976371932553
604,-11.340975067703859,-7.498971811788577,-3.596041990296915,-5.35992128375857
605,-10.76699461914538,-7.00335610153872,-2.8272161190167764,-4.925994054741097
606,-10.178279728106329,-6.528250139010422,-2.058016812632954,-4.586825615557669
607,-9.590053289487413,-6.087390796432469,-1.3030443611831515,-4.355602693663123
608,-9.015151001426618,-5.692232770242853,-0.5778526299591995,-4.240822722433591
609,-8.464013084072562,-5.3515846053847955,0.10178958755125733,-4.246204240766299
610,-7.944758177682947,-5.071356370054952,0.7207157247645174,-4.370744986761805
611,-7.463318104882464,-4.854422227068277,1.265197170277443,-4.60891805694748
612,-7.023614423676316,-4.700596838579284,1.7237356744166732,-4.950995390772009
613,-6.627760698924578,-4.606720553985713,2.087752788315185,-5.383486905326618
614,-6.276277909990374,-4.566844817275261,2.3521241574330234,-5.889682471231501
615,-5.968313966108117,-4.572506366773683,2.5155172446155305,-6.450282377011354
616,-5.701861563770508,-4.613076747929467,2.5805054311760176,-7.044099893116307
617,-5.473971340345665,-4.676172491633001,2.553447638338843,-7.648817165937988
618,-5.280959181558885,-4.748110991468188,2.4441395311158534,-8.241773292434354
619,-5.118607783578337,-4.814397485927128,2.2652593052437515,-8.800761456021787
620,-4.982363028978671,-4.860229376056775,2.0316455871042165,-9.304810732673022
621,-4.867525527498598,-4.871005103974966,1.7594572132929427,-9.734927593560979
622,-4.769436669347594,-4.832825732950363,1.4652722249490668,-10.074772146596397
623,-4.6836570104838415,-4.732978045838246,1.1651870368528503,-10.311244728052845
624,-4.606133151323897,-4.5603883744267915,0.8739748426396591,-10.434959779000517
625,-4.533347890263608,-4.306036563382581,0.6043566149601163,-10.440586284677304
626,-4.462447801979291,-3.963319604780295,0.36642793776748167,-10.327037694887089
627,-4.391342514119119,-3.5283547142319187,0.16727281156971904,-10.09749928823586
628,-4.318771004337352,-3.0002120939221046,0.010781584032954625,-9.7592874000853
629,-4.244331974895252,-2.3810684223662437,-0.10232378829271013,-9.323542574334734
630,-4.168477673740926,-1.6762732671125422,-0.1742669837614711,-8.804767030685923
631,-4.09247294420555,-0.8943221409111057,-0.2098189361428722,-8.220225137752639
632,-4.018323384251463,-0.046731813372239236,-0.21575517694954777,-7.589233057854101
633,-3.9486780643243056,0.8521842579367086,-0.20020824361402811,-6.932369832676416
634,-3.886713096207175,1.7856398919554715,-0.17195945143892338,-6.270646580159235
635,-3.836002641221266,2.7347960600673242,-0.1397173714900287,-5.624673006415518
636,-3.800383575874176,3.679269809068923,-0.1114301670279256,-5.013860903764049
637,-3.783819075014156,4.597721643828073,-0.09367621210279697,-4.455702519724199
638,-3.790264891477165,5.468506812836026,-0.09117183709184462,-3.965157604700168
639,-3.823540380584137,6.270371897439406,-0.10642681826919034,-3.5541767765120515
640,-1.2025048750208928e-10,-1.1525372581559506e-10,-1.3650638668998035e-10,-9.332672450265757e-11
641,-2.1602943996694507e-09,-1.8120303276545302e-09,-9.9862715361657e-10,-1.7990788545164967e-09
642,-2.2987110915931985e-08,-2.0681821347872685e-08,-1.26915717580938e-08,-1.9310371152445348e-08
643,-1.599375066532072e-07,-1.505380520545692e-07,-9.329605916414667e-08,-1.3658739668956593e-07
644,-8.341318206951137e-07,-8.213389907006971e-07,-5.185132966249312e-07,-7.257534525755514e-07
645,-3.4922011026264806e-06,-3.5874930116506544e-06,-2.312029631370183e-06,-3.1032521886569496e-06
646,-1.2286659256170216e-05,-1.31102922874772e-05,-8.641715439530062e-06,-1.1175583869795532e-05
647,-3.7549933567147e-05,-4.137283234810558e-05,-2.795411276772527e-05,-3.501664823791532e-05
648,-0.0001022080157392631,-0.00011545488531956292,-8.01333267699717e-05,-9.780504060954992e-05
649,-0.0002526339448321887,-0.00029027055993788786,-0.0002073919515358788,-0.0002480714983661677
650,-0.0005757311334782872,-0.000667429617809168,-0.0004918746455939331,-0.0005796111137605766
651,-0.001224120872293342,-0.0014209017841019256,-0.0010821095119101982,-0.0012614964724803317
652,-0.0024509917039921983,-0.0028295173405332523,-0.0022303236588278805,-0.002580199649327693
653,-0.004655425097909186,-0.005315683399737892,-0.004342290572880216,-0.004994903361287131
654,-0.008437979928329805,-0.009489053087373134,-0.008040678156600914,-0.009205845595027013
655,-0.014665259718732494,-0.016193279880492146,-0.01424194418049007,-0.0162342506536118
656,-0.024541209687256985,-0.026553334915022063,-0.024245652314474796,-0.027511128929179632
657,-0.039681949059391326,-0.042020141642855495,-0.03983381260000463,-0.04497088225257488
658,-0.0621898899060369,-0.0644085030780619,-0.06337641875910904,-0.07114409860952944
659,-0.09472171477846036,-0.09592353633862218,-0.0979377898668112,-0.10924220925315646
660,-0.14054360669420116,-0.13917027068996715,-0.14737661578822497,-0.1632250390533672
661,-0.20356611370534625,-0.19714084940672869,-0.21643080769726242,-0.23784097623754824
662,-0.2883503485472171,-0.2731741127283179,-0.3107766762637532,-0.33862875188087455
663,-0.4000770159292895,-0.3708833166095775,-0.4370508452576278,-0.47186985771146556
664,-0.5444702918139233,-0.49404944858188,-0.6028230971237436,-0.6444817191397035
665,-0.7276701049384146,-0.6464799397405975,-0.816509179121122,-0.8638441177270991
666,-0.9560490357170548,-0.8318353946056397,-1.0872146462170615,-1.1375550930869118
667,-1.2359736922131885,-1.0534299735527344,-1.4245039224969858,-1.4731174185012121
668,-1.5735147125374873,-1.3140139605497865,-1.8380928810522443,-1.8775623327131927
669,-1.974114065020354,-1.6155495718444626,-2.3374680808706034,-2.35702307574388
670,-2.4422227091243465,-1.9589929729188083,-2.93144117750213,-2.916276514121443
671,-2.980925601684858,-2.344096681206713,-3.6276525548547793,-3.558276324108357
672,-3.591574119838082,-2.769246923998424,-4.4320435283645905,-4.283705327146616
673,-4.273447968132519,-3.231350078780611,-5.348321196155765,-5.090577180083849
674,-5.02346942197969,-3.725780956124449,-6.377443743527123,-5.973918401538931
675,-5.835992387285091,-4.2464033870428635,-7.517156545720477,-6.925560555236575
676,-6.702687205212274,-4.785670286524576,-8.76161041774722,-7.9340692346217025
677,-7.612539247427049,-5.334806160991426,-10.101092683245223,-8.98483119641126
678,-8.551974849925996,-5.884070019986968,-11.521899059015453,-10.060313493222177
679,-9.50512193338821,-6.42309114328751,-13.006369628047592,-11.140498942532913
680,-10.454204961763619,-6.941264559456531,-14.533105300898889,-12.203491252528234
681,-11.380065237646457,-7.428187908100177,-16.077372433559418,-13.226271372746275
682,-12.262788621874353,-7.874117144225891,-17.61169302271009,-14.185575001396845
683,-13.082414374727817,-8.270415701485712,-19.106606841695378,-15.058850567863704
684,-13.819691801167096,-8.609970579549387,-20.53158084416891,-15.825248432643132
685,-14.456846497808623,-8.887549411669683,-21.85603102481412,-16.466586511501866
686,-14.978315744152354,-9.10007487556617,-23.050413601266534,-16.96823578170429
687,-15.371412969024997,-9.246796624689397,-24.08733638008667,-17.31987135194013
688,-15.626883969971953,-9.329346050671377,-24.94263791269471,-17.516040659961124
689,-15.739322313166948,-9.35166534009682,-25.59638154690722,-17.556509342116897
690,-15.707417955392476,-9.319809193070377,-26.033713836661274,-17.446356900775125
691,-15.534021527969498,-9.24162485621455,-26.245541846024008,-17.19580801911833
692,-15.226016699337356,-9.126323387512901,-26.228991651073706,-16.819800661680244
693,-14.794004039381866,-8.983961891055523,-25.987620441773217,-16.337308088733767
694,-14.25181106063105,-8.824862366848121,-25.531366669112064,-15.770447513703893
695,-13.615853760488672,-8.658997460459844,-24.876235957607616,-15.14342217637736
696,-12.904384203132416,-8.495376412659422,-24.043734218592185,-14.4813549533008
697,-12.136665734541735,-8.341465713722533,-23.060072741376082,-13.80907929709432
698,-11.332121690285675,-8.202678197490172,-21.95518210019672,-13.149956551256127
699,-10.509504602545912,-8.081961598483046,-20.761581842300263,-12.524787224927078
700,-9.686130923200185,-7.979513019978292,-19.51316038505497,-11.950877790400211
701,-8.877221473355707,-7.892639605893147,-18.24392393688927,-11.441314543488689
702,-8.095380638361522,-7.8157783018939595,-16.98677413252735,-11.00448279868576
703,-7.350238284295667,-7.740679405492842,-15.77237143532564,-10.64385409149327
704,-6.648268076218173,-7.656750142645117,-14.628135313174585,-10.358047202988475
705,-5.992785094868518,-7.551546246676784,-13.577423335804019,-10.141151973787693
706,-5.384115173688356,-7.411391896617559,-12.638920313925349,-9.983289313977064
707,-4.819918860321455,-7.222101639531224,-11.826256287503787,-9.871367580027918
708,-4.295644788319826,-6.9697722830933415,-11.147859397165657,-9.789985260312344
709,-3.8050808049253053,-6.64160828917013,-10.607037164248462,-9.722423064330915
710,-3.340966776673982,-6.226741137270187,-10.202268194342532,-9.651665306504507
711,-2.8956309048225037,-5.717001668454728,-9.927676236694895,-9.561391041977092
712,-2.4616118355243537,-5.107604890296731,-9.773650378253347,-9.436879676361551
713,-2.032231719460572,-4.397709302189532,-9.727569165151534,-9.265783340053266
714,-1.6020903048338184,-3.5908175814244863,-9.774583040938497,-9.038728570986196
715,-1.1674566126176085,-2.6949922464676823,-9.898408864574128,-8.749722015106858
716,-0.7265422116020227,-1.7228683487311833,-10.082092687453926,-8.396348077383495
717,-0.2796479624804,-0.6914547798918327,-10.308702240829694,-7.979759740210078
718,0.17081633561815157,0.37827412229990004,-10.561918358955225,-7.50447603979251
719,0.6204332829096374,1.4619848981336236,-10.826504041530274,-6.978010014117669
720,1.0629886662943149,2.532767830799432,-11.088640126571134,-6.4103587131338475
721,1.490776045666987,3.5620661826484565,-11.336126713671025,-5.813391924985686
722,1.894976605337876,4.520714055314177,-11.558458681718099,-5.200178694710116
723,2.266093981056641,5.380039037337072,-11.746791414655386,-4.584290675579116
724,2.5944231082536846,6.112981583169074,-11.893818756097694,-3.9791190885924204
725,2.870532423189842,6.695181013223315,-11.993589193235174,-3.3972379742026724
726,3.0857397706038463,7.1059784527079,-12.04128814316451,-2.849841046034544
727,3.232563850670561,7.329290046540553,-12.033014018581788,-2.3462733857116755
728,3.305134835010759,7.354309406048236,-11.965573374281055,-1.8936728840072825
729,3.2995498253914586,7.1760061872958,-11.83631609992539,-1.4967300251347804
730,3.214161069141429,6.795397578387774,-11.643025602604983,-1.1575685596592102
731,3.049787107024151,6.219580675360434,-11.383871865993203,-0.8757440734857949
732,2.809839131675782,5.461525550477189,-11.057427914148745,-0.6483526878966677
733,2.500356730040504,4.539640514131982,-10.662743224580439,-0.47023825005510295
734,2.1299490218141375,3.4771318621042013,-10.199461677229927,-0.3342834404115918
735,1.7096392147780777,2.3011896727584986,-9.667967001763135,-0.23176823476056785
736,1.2526129770355008,1.0420384480417726,-9.069535766557602,-0.15277814084458693
737,0.7738738535846552,-0.2681036799123837,-8.406476835052219,-0.08664451152916226
738,0.2898122895369228,-1.5961109889791105,-7.682237105759309,-0.022399802575548813
739,-0.18230137026876572,-2.9090352076240653,-6.901456142304732,0.05076844922856972
740,-0.6248854304528001,-4.175145582603344,-6.069956898858747,0.14308014912070252
741,-1.0206584128258889,-5.36488436321903,-5.194665661214954,0.2637558560440506
742,-1.3532715385947067,-6.451704278782027,-4.2834610415372385,0.4206536959156964
743,-1.6079372202915356,-7.412762131585696,-3.3449586243156673,0.6199615743908907
744,-1.7720268122190441,-8.229451023917647,-2.388243971554921,0.8659545673590926
745,-1.835610091885679,-8.88776235835,-1.4225716305361256,1.1608253072306847
746,-1.7919094833492,-9.378477003706813,-0.4570511033129687,1.5045926981886895
747,-1.6376441396089965,-9.697192403721424,0.4996576399614591,1.8950913622311714
748,-1.3732428472131202,-9.844198498568877,1.4396167081060414,2.328040957913332
749,-1.0029102113588146,-9.824219934692366,2.3558303350071443,2.797191220904134
750,-0.5345374887439951,-9.646045044678687,3.2423953356908903,3.29453557087729
751,0.0205425880981781,-9.322063601565024,4.094569751522937,3.8105836200484857
752,0.6479490326454959,-8.867735535149885,4.908753579691353,4.3346809970713
753,1.3307772452811202,-8.301011928511196,5.682382432895674,4.855363597191864
754,2.0502305258519815,-7.641727940238233,6.4137422486225,5.360732732769648
755,2.78632747520757,-6.910985144896854,7.101720147672498,5.8388376531064115
756,3.5186498805894932,-6.13053845432,7.7455124334785115,6.278052401033672
757,4.22709344695091,-5.322200540619459,8.344314956517694,6.6674347951197435
758,4.892583730217366,-4.507274774980789,8.897023058736403,6.9970564301324085
759,5.497721818958062,-3.7060261995130217,9.40196796015057,7.258294075988876
760,6.02732866988867,-2.937199011449494,9.856713806983644,7.444074851509909
761,6.468863311284874,-2.217588350744725,10.25793521937381,7.549069969946981
762,6.812698002004504,-1.561673768597692,10.601389594652243,7.569834400437069
763,7.052242327509772,-0.9813214377286765,10.881992265496146,7.504892115472195
764,7.183917595499487,-0.48556181353571065,11.093996214210295,7.354768489889641
765,7.206992175560762,-0.08044885137615586,11.231271528521356,7.121972834414297
766,7.123296945698362,0.23099416953227606,11.287673185807686,6.810935001009827
767,6.936847036435383,0.44873884951918447,11.257479224534881,6.427900510582198
768,-4.621716963014633e-11,-6.955800146616574e-11,-2.0820144727877411e-10,-4.152189819592184e-11
769,-7.463675002048995e-10,-1.4737946669267743e-09,-1.8181833444944263e-09,-3.9727730768866785e-10
770,-7.625995662971834e-09,-1.6585256817241056e-08,-2.2087949522273477e-08,-4.103242208389568e-09
771,-5.05804453083333e-08,-1.2314328683017454e-07,-1.614308299343061e-07,-2.597254238893069e-08
772,-2.514636768637079e-07,-6.851730303081411e-07,-8.905954023664164e-07,-1.237479836104492e-07
773,-1.0061565156256854e-06,-3.0555242992375952e-06,-3.942077951664891e-06,-4.760325419994872e-07
774,-3.4090661475684055e-06,-1.141027210025313e-05,-1.462678813835071e-05,-1.568654226492865e-06
775,-1.0162657080369763e-05,-3.680782251236356e-05,-4.69603389935899e-05,-4.639687865960852e-06
776,-2.745525003124774e-05,-0.00010499634862385131,-0.0001335706965400228,-1.2762745840348992e-05
777,-6.86993215306304e-05,-0.00026974890524931094,-0.0003428718344155753,-3.335326319442958e-05
778,-0.0001615357902056238,-0.0006334593525767082,-0.0008061948428320036,-8.339559557351865e-05
779,-0.00035991970123858716,-0.001376382732990329,-0.0017575441731068483,-0.00019911210871491005
780,-0.0007631558838301305,-0.0027953518318279955,-0.0035882794790709437,-0.00045188211239172095
781,-0.0015433672907364593,-0.005352190107078584,-0.006918479591601027,-0.0009719036445933204
782,-0.0029821837915383126,-0.009731432161483486,-0.012685892806781443,-0.001980469142919979
783,-0.005516678122895705,-0.01690631134067749,-0.022252275657160918,-0.0038309992360431536
784,-0.009793853317075656,-0.028211142303551276,-0.03752532191201397,-0.007058198400446414
785,-0.01673223069133844,-0.045417099529113825,-0.061092332840701515,-0.012433812296752193
786,-0.027588133914005202,-0.0708069504584863,-0.09635922875121218,-0.021026385090214227
787,-0.04402304811030457,-0.10724268116644045,-0.14768576112482185,-0.03426118468532064
788,-0.06816699521704205,-0.15821841910133153,-0.22050520602176626,-0.05397521080054355
789,-0.10267133385490682,-0.22788993993436332,-0.3214146942200483,-0.0824610336914748
790,-0.15074294733015384,-0.32107165073352467,-0.45822098091678626,-0.12249224493654978
791,-0.21615073149062367,-0.44319245641522803,-0.6399258359287238,-0.17732270392538071
792,-0.30319507143089125,-0.600203387968704,-0.8766355452377774,-0.25065188413728334
793,-0.41663197407730057,-0.7984322018852931,-1.1793803140096288,-0.34654977459031205
794,-0.5615458183391369,-1.044383186954834,-1.5598321035336318,-0.4693371045258277
795,-0.7431680585692823,-1.3444839452812658,-2.029913826468413,-0.6234199221123778
796,-0.96664328663589,-1.7047847768404896,-2.6012991610485003,-0.8130814417006934
797,-1.2367484929648436,-2.130620311635918,-3.2848102430516914,-1.0422382660959046
798,-1.5575759751406053,-2.6262469970905165,-4.089729745855468,-1.3141723702263493
799,-1.9321949480883094,-3.194473711419508,-5.0230534724299725,-1.6312543458607593
800,-2.3623112095962724,-3.8363058308668307,-6.088718585069123,-1.9946769429805526
801,-2.8479478078290077,-4.550625201573293,-7.286850099410164,-2.4042204544050447
802,-3.387172097314597,-5.333929317646671,-8.613073468319207,-2.858072539969123
803,-3.9758954483681164,-6.180152305420813,-10.057943767024856,-3.3527243839111462
804,-4.6077707745002146,-7.0805878674231275,-11.60654196075626,-3.8829623795777293
805,-5.27420961685357,-8.023930113784553,-13.238286032026245,-4.441969746567928
806,-5.964534623838531,-8.996442341730305,-14.926998879655974,-5.021545695696705
807,-6.66627513517792,-9.982256658131522,-16.641265421956934,-5.61244140528002
808,-7.365603821339425,-10.963799375905912,-18.3450976901094,-6.204802804105834
809,-8.04790171705664,-11.922328961637094,-19.99890923859794,-6.788700702412073
810,-8.69842825305099,-12.838565594938771,-21.560779912257143,-7.354719819393212
811,-9.303062713254498,-13.693384694374624,-22.987970731304745,-7.894570345439525
812,-9.849074702219193,-14.468541560603086,-24.238628365799908,-8.401679604762714
813,-10.325874599778187,-15.147390955909504,-25.27360110513967,-8.871717972643529
814,-10.725691519990264,-15.71556424206488,-26.058274878134302,-9.303013217877469
815,-11.04412663410608,-16.161567759795883,-26.56432960131483,-9.696811277520796
816,-11.280534173539529,-16.47726946014919,-26.771313709443326,-10.05734914135044
817,-11.438190950310148,-16.65824626130232,-26.667938396444328,-10.391716646639956
818,-11.524227482629941,-16.703971954400625,-26.2530031063025,-10.70949792733787
819,-11.549309086755976,-16.6178343080102,-25.535879868916417,-11.022199067229334
820,-11.52707251765314,-16.40697975382048,-24.53650584199284,-11.342484940851618
821,-11.473341546439528,-16.081993952541282,-23.28485992832447,-11.683263922144306
822,-11.40516185094849,-15.656435851024106,-21.819929376686076,-12.056672803362305
823,-11.339710505546469,-15.146250820108927,-20.18820390922069,-12.473024880408433
824,-11.293147069750534,-14.569094545717684,-18.441765807838294,-12.93979089380945
825,-11.279480804104683,-13.943603219563071,-16.63607198473221,-13.460684728980215
826,-11.309531061087178,-13.288647148249993,-14.827545765561325,-14.034922995807003
827,-11.390054963798729,-12.622604263175324,-13.071110096949969,-14.65671974311375
828,-11.523108118333587,-11.962687355917428,-11.417798893495684,-15.315064949752179
829,-11.705690776262186,-11.324354444388943,-9.912579165505699,-15.993818835172855
830,-11.929714305023309,-10.720825797541623,-8.592503820124676,-16.672134438453924
831,-12.182302027730822,-10.162724198493262,-7.485294797400557,-17.32519956506254
832,-12.446415769926249,-9.657847475201397,-6.608429757438663,-17.925267582390173
833,-12.70177651008186,-9.211074726916431,-5.968774651953274,-18.44292634962935
834,-12.926026302485232,-8.824400597457407,-5.562770972139291,-18.848537484285863
835,-13.096060941490176,-8.497085903398448,-5.377152457317479,-19.11376552136909
836,-13.189450093418326,-8.225908284177743,-5.390133861916332,-19.21310919084954
837,-13.185854746030415,-8.005493459797643,-5.572986285747562,-19.125345415201
838,-13.068351258463908,-7.828706133628545,-5.891891829361427,-18.83480078358832
839,-12.824576983728454,-7.687079376702622,-6.309956545140974,-18.332374859147386
840,-12.447623849595507,-7.571262209641038,-6.789256000035533,-17.616254005964077
841,-11.936622435439343,-7.471466748057537,-7.292792272979078,-16.69227234915577
842,-11.296978747890503,-7.37789841716999,-7.7862541728366255,-15.573896727147494
843,-10.540247771152124,-7.281155143067204,-8.239492068348056,-14.281833786018733
844,-9.683650619649551,-7.172583944469275,-8.627642920165146,-12.843278529863714
845,-8.74926431966895,-7.0445858721140056,-8.93186764790591,-11.290843515776285
846,-7.762933340622075,-6.890862683060476,-9.139689955534019,-9.661225235341455
847,-6.752968529203084,-6.706600910386702,-9.244951608069087,-7.9936779427862605
848,-5.748710945288753,-6.48859102524026,-9.247422298992143,-6.32837442121101
849,-4.779044638199253,-6.23528117277459,-9.15212131697108,-4.704737537124737
850,-3.8709434413366854,-5.946766529194414,-8.968421706546936,-3.159825887843628
851,-3.0481325735567792,-5.624716764212134,-8.70901464603673,-1.7268517171392532
852,-2.3299367026438675,-5.272245511666918,-8.388811888367322,-0.4339001207130449
853,-1.7303730088921416,-4.893727241897988,-8.023858013924016,0.6970937678623688
854,-1.2575318075520028,-4.494568533647376,-7.63031321667411,1.6510674909828889
855,-0.9132696714597026,-4.080942421114601,-7.223553392509468,2.4202276643114105
856,-0.6932218784294961,-3.6594961405769495,-6.817419430991282,3.004110335753436
857,-0.587123429037294,-3.237044079710158,-6.423633434585619,3.4093120114037054
858,-0.5794118568072849,-2.8202588794500905,-6.05138726364431,3.648913663596544
859,-0.6500715345754438,-2.415374303548414,-5.707098679420039,3.7416340334400555
860,-0.7756689144514265,-2.0279135309335734,-5.394322676787614,3.7107601680750375
861,-0.9305214559810134,-1.6624558403625906,-5.113800241077945,3.5829119316364415
862,-1.0879398476535491,-1.3224531886438216,-4.863623897303983,3.3867029804654623
863,-1.2214832027385638,-1.0101059570552406,-4.639498934280309,3.1513633893215642
864,-1.3061698361049496,-0.7263042431226459,-4.435080981974633,2.9053887826978215
865,-1.3195915600064048,-0.47063767102547566,-4.242373997580679,2.675277612722128
866,-1.2428866842150499,-0.24147299000346933,-4.052176610153149,2.4844123458192833
867,-1.0615355510726057,-0.036094976946835396,-3.854567962753994,2.352132080742445
868,-0.7659520631395522,0.14909737522708305,-3.639425493372133,2.2930337652628228
869,-0.35185492840889615,0.3183504546402059,-3.3969661210949433,2.316527019166387
870,0.17958713153210876,0.4762848237293421,-3.1182991205600024,2.426654082853215
871,0.821831750759305,0.6276081020584591,-2.795974360928249,2.6221724116765066
872,1.5632471737557785,0.7768274043444652,-2.424504507559367,2.896883924144555
873,2.3875829759957043,0.9279765042246296,-2.0008351229640366,3.2401827774281795
874,3.2745998212389966,1.0843718033194802,-1.5247332669630191,3.6377833900534493
875,4.200826443296993,1.2484093839529216,-0.9990637219279094,4.072582556977684
876,5.140409128669878,1.4214129939514972,-0.429923034975848,4.525604169907482
877,6.066017442166179,1.6035398853667264,0.17339454777909286,4.9769725302356385
878,6.949769779274439,1.793748191607568,0.7986181450931735,5.40686080111672
879,7.764143524021213,1.9898262234252273,1.430917204203654,5.796364859034175
880,8.482837114380162,2.1884809442613107,2.05351061736433,6.128259561793202
881,9.08155514246064,2.3854801637229457,2.648449767430031,6.387603901854567
882,9.538692725860457,2.575840815713265,3.1975420811254005,6.562173149990075
883,9.83590160586323,2.754054117826585,3.6833671310866074,6.642709104105432
884,9.95852736360717,2.91433741578347,4.090325182826658,6.622992864423345
885,9.895914223213685,3.050902001603076,4.405649796461409,6.499756977174941
886,9.641580587012875,3.158226047230575,4.62031305929256,6.272464271024748
887,9.193274326461193,3.23132191570372,4.729754793286648,5.942988543669303
888,8.552921621601804,3.2659874524442625,4.734375754303761,5.515236953573261
889,7.726486501052471,3.2590314061617773,4.63974860829943,4.994755249543048
890,6.723759890193843,3.208463908419922,4.4565183175090475,4.38835470129846
891,5.558096834563538,3.1136439747606577,4.199983990192946,3.7037940135977863
892,4.246118825159638,2.975377294324094,3.8893759325158,2.949541223761002
893,2.8073952145885004,2.7959591310323235,3.5468631498985523,2.134630448223137
894,1.2641139709833513,2.5791589315970134,3.1963465696029663,1.2686172159993958
895,-0.3592522587258854,2.3301451822020556,2.8621104062252543,0.3616247818202925
896,-8.792168993941825e-11,-1.2251735833323058e-10,-3.730359293923966e-10,-9.820260727542855e-11
897,-8.091226462510564e-10,-1.7486068124630129e-09,-3.2519992175691455e-09,-1.2299920994474442e-10
898,-8.763996913121767e-09,-2.0200012331203527e-08,-4.0519029632956864e-08,-2.2128934728343387e-09
899,-5.743033722709642e-08,-1.480584673271728e-07,-2.979227642001117e-07,-1.2053038791953334e-08
900,-2.827645566632855e-07,-8.154866829018874e-07,-1.651557591717133e-06,-5.030438963620389e-08
901,-1.1156788839889371e-06,-3.602844533847492e-06,-7.333888474584748e-06,-1.6377609089124032e-07
902,-3.7141802458138104e-06,-1.3343610747834658e-05,-2.7245611716499626e-05,-4.604115667836436e-07
903,-1.0839462766624678e-05,-4.275758795584937e-05,-8.73850576180339e-05,-1.2526475899801023e-06
904,-2.8585121170508738e-05,-0.00012137037424714486,-0.00024768195272995496,-3.642709146451102e-06
905,-6.972001834721458e-05,-0.0003108710382821071,-0.0006319025608872369,-1.132847246471389e-05
906,-0.00015984613706033267,-0.0007291573006290685,-0.0014727679120260437,-3.4978376716770554e-05
907,-0.0003479255089711226,-0.0015850983198164316,-0.0031742944451033425,-0.00010102897481037873
908,-0.0007227380510694261,-0.0032254761476673325,-0.006391724400441495,-0.000266877644656491
909,-0.0014364750751326078,-0.006194768001071222,-0.012127937737711926,-0.0006441640765981335
910,-0.0027360423336895375,-0.011307425808694854,-0.02184390244132431,-0.001431172302810417
911,-0.0050019942397825975,-0.01973118264641296,-0.037579679192109236,-0.0029546101831596037
912,-0.008794396282810722,-0.033078607756649274,-0.06208115162357918,-0.005720151552576573
913,-0.014904314239599677,-0.053502670589968326,-0.09892590482915278,-0.010470241593808825
914,-0.02440892424421114,-0.08379043716778527,-0.1526392170543302,-0.018246672527791778
915,-0.038727452365993904,-0.1274473300478678,-0.2287884038299321,-0.030454404207487257
916,-0.05967427194095451,-0.18876279839839927,-0.33404139306662595,-0.048922057987420615
917,-0.08950454565104705,-0.2728469620399633,-0.47617406473593826,-0.07595341458796885
918,-0.13094681324173357,-0.3856271027937837,-0.6640113048101004,-0.11436319702926313
919,-0.18721602086793449,-0.5337930006099163,-0.907288777370202,-0.1674895147110867
920,-0.262000019772353,-0.7246813576189218,-1.2164261126353109,-0.23917503164963588
921,-0.3594128419084529,-0.9660920406488208,-1.6022068927713122,-0.33370948521611205
922,-0.48390933035900163,-1.2660326562184003,-2.0753664284999638,-0.4557278856501992
923,-0.6401578664754005,-1.632392803746598,-2.646094437375136,-0.6100613968679521
924,-0.8328708264760207,-2.072554902421852,-3.323466426539593,-0.8015413665221419
925,-1.0665957583695658,-2.5929542668685333,-4.114824449246577,-1.0347609236573139
926,-1.3454738587169406,-3.19860666137268,-5.025134520877905,-1.3138027252717037
927,-1.6729758647079693,-3.892626508906801,-6.056353874060787,-1.6419454952133539
928,-2.0516285646962253,-4.675762883621419,-7.206845585342801,-2.021365481120864
929,-2.48274752188706,-5.5459831103026636,-8.470880593982907,-2.452851605053962
930,-2.9661931270401403,-6.4981348820600875,-9.838267038943636,-2.9355546355344044
931,-3.5001677821352257,-7.523717054934607,-11.294144113076504,-3.4667911661715594
932,-4.081071761998725,-8.610786402597633,-12.818971949311845,-4.041922315946943
933,-4.70343395780925,-9.744022540506554,-14.388740855484514,-4.654324715525527
934,-5.359930986536815,-10.904965948648494,-15.975412658965812,-5.295467229388395
935,-6.041503983391356,-12.07243483848513,-17.54759481691598,-5.955101110496173
936,-6.737576832001845,-13.223115957895512,-19.071434731576435,-6.621564129437925
937,-7.436372919349896,-14.332313009447954,-20.511708232950323,-7.282191185825091
938,-8.125320133785062,-15.374824990237375,-21.833063201863098,-7.923815540261448
939,-8.791526335511957,-16.325916325823712,-23.001367506308732,-8.533336724332559
940,-9.422300773038865,-17.1623321025098,-23.98510082856285,-9.098324272627993
941,-10.005691730398913,-17.863305748436378,-24.756723098994787,-9.607621421217454
942,-10.531007779972274,-18.41150382833408,-25.293949076682694,-10.051910528507129
943,-10.989289597980125,-18.793853490341487,-25.580859438397376,-10.424202336981645
944,-11.373701336439751,-19.002202630809542,-25.608784111101485,-10.720214312017355
945,-11.679814768304487,-19.033770733496937,-25.37690314591193,-10.938608865878455
946,-11.905765652857033,-18.891359162799773,-24.89252386518689,-11.081070139008744
947,-12.052269675834529,-18.583302734383707,-24.171009143915388,-11.152207714700575
948,-12.122494492270592,-18.123158898886505,-23.235349651431722,-11.15928668792534
949,-12.12179420056505,-17.52914594914361,-22.115391500644094,-11.111795103469163
950,-12.057322338581198,-16.82335637930335,-20.84674907167296,-11.020871146111585
951,-11.937548577166984,-16.030784978336918,-19.469449911181695,-10.898622885373213
952,-11.771711963442966,-15.178222499514057,-18.026373304833267,-10.757381999575957
953,-11.56924911978363,-14.293074054203812,-16.56155561965825,-10.608938992097384
954,-11.339238461065289,-13.40216602459658,-15.118442827561685,-10.463810140777879
955,-11.089900825616137,-12.530605891136126,-13.738173692964315,-10.33058544935422
956,-10.828192806094872,-11.70075574501535,-12.457975752102358,-10.215402109229363
957,-10.559521867529302,-10.9313726796276,-11.309750915470207,-10.121579872198287
958,-10.287602577141726,-10.236958261554545,-10.318918235835586,-10.049443777856855
959,-10.014461737027986,-9.627345805254416,-9.503568511405247,-9.996346674199973
960,-9.740587888462768,-9.107539248999425,-8.873969027775889,-9.956889897453385
961,-9.465208684966406,-8.677802209047297,-8.432437694311306,-9.923326495571098
962,-9.18666918366663,-8.33398132913609,-8.173585248732206,-9.886118759769591
963,-8.902876009388489,-8.06803522501081,-8.084903564758875,-9.834611432545026
964,-8.61176718122211,-7.868729899802618,-8.147659333069162,-9.757774469470117
965,-8.311765404978972,-7.722453943037471,-8.338036765817181,-9.644964887209657
966,-8.002174053170528,-7.614102498719213,-8.628461762617263,-9.48665632351029
967,-7.68347985244377,-7.527977972681192,-8.989033320800663,-9.27508747058525
968,-7.357534240834093,-7.448657707902484,-9.388986007185338,-9.004786505604962
969,-7.027595745322786,-7.361784033456996,-9.798109348567518,-8.672937585460474
970,-6.698227702082513,-7.254739744668308,-10.188055764233724,-8.279566893376154
971,-6.3750581986024395,-7.117181514475832,-10.533477381037809,-7.82753882259071
972,-6.064421282591024,-6.941414278374267,-10.812943522752247,-7.322366723285108
973,-5.77290925117665,-6.722600457129586,-11.009604153113086,-6.771856122433998
974,-5.5068741165109465,-6.458808178400048,-11.11157978483315,-6.185610171353155
975,-5.271921287505066,-6.150911703502335,-11.11207453901922,-5.574436337736374
976,-5.072439539357757,-5.802364426946554,-11.009225238600967,-4.949699300989247
977,-4.911208441109276,-5.418869785544221,-10.805714566325696,-4.322667458572525
978,-4.789117835021015,-5.007978043053881,-10.5081889271645,-3.703899312485044
979,-4.705024335437522,-4.578637385218575,-10.126530845405842,-3.102711536241634
980,-4.655757941585582,-4.140726310429218,-9.673040519074826,-2.5267630196663027
981,-4.636278871892686,-3.7045913656396547,-9.161581636917129,-1.9817793875457768
982,-4.639971876496502,-3.28061023356435,-8.606742897823986,-1.4714311495123442
983,-4.659053717884863,-2.878795471152834,-8.02305995945884,-0.9973666703394899
984,-4.685060178792547,-2.508449227514024,-7.424333625053649,-0.5593893526427651
985,-4.709372487507698,-2.1778743946936716,-6.823070104489742,-0.15575757445444774
986,-4.723740019267458,-1.8941432775250697,-6.2300589607094565,0.21642303230821308
987,-4.7207568613374145,-1.66292130012405,-5.654094376774578,0.5607517025840602
988,-4.694254407628147,-1.488340808845778,-5.101836306849039,0.8810688708167633
989,-4.639580095793307,-1.3729187598378225,-4.577800038668332,1.1810163351464316
990,-4.553742901141967,-1.317511995502806,-4.084456318101381,1.463657578743993
991,-4.4354181884172235,-1.321304661848315,-3.6224195883196932,1.731188670772024
992,-4.284816965331654,-1.3818238317061664,-3.1906996296371064,1.9847620095295926
993,-4.103436517391987,-1.4949812177372044,-2.7869917985879673,2.224435377593172
994,-3.893719819860521,-1.6551406904946675,-2.407983219755563,2.44924800352424
995,-3.6586591392243433,-1.8552129448264219,-2.0496559501685554,2.6574144883619555
996,-3.4013840658145744,-2.086779864050376,-1.7075728487478792,2.846617419832685
997,-3.124775462897584,-2.340251830166693,-1.3771367911328465,3.0143709754030206
998,-2.8311442724388116,-2.6050612645266473,-1.0538183783575268,3.158421513370397
999,-2.522007931660445,-2.869895024797102,-0.7333510602928563,3.277147531929343
1000,-2.197987707114098,-3.1229668351118125,-0.4118951652821841,3.3699209149403404
1001,-1.8588384071473356,-3.3523287586230426,-0.08617384775449975,3.4373940722360743
1002,-1.503608910446552,-3.54621791772642,0.24641577029307643,3.481683234926907
1003,-1.130919110577587,-3.6934314843996194,0.5877135728733276,3.5064261729316017
1004,-0.7393275154335812,-3.7837196990057507,0.9387282275422245,3.51670241057547
1005,-0.327754780058997,-3.8081836246596685,1.2995901484398318,3.518814886904498
1006,0.1040773696270982,-3.759661822983549,1.6695276541225281,3.5199431340777405
1007,0.5552346489204435,-3.6330883094896325,2.046869620531308,3.5276885387706853
1008,1.0232275416376715,-3.4258032107542626,2.429078402321214,3.5495411533954164
1009,1.5037739060299409,-3.1377975513795975,2.812816564437948,3.5923042838851185
1010,1.99069542207677,-2.7718746636785436,3.1940497560591217,3.6615172704207666
1011,2.4759662916562553,-2.333712823562049,3.568186148695838,3.760918421927579
1012,2.9499208805907493,-1.8318169151820773,3.9302501193455974,3.8919887675524145
1013,3.4016144981041796,-1.2773510922664915,4.275084592291987,4.05361321311814
1014,3.8193191693202384,-0.6838494380962263,4.597572959878391,4.241888932822161
1015,4.191125118678398,-0.06680726206039105,4.892868184109551,4.450101908931786
1016,4.505609808433417,0.556838316194473,5.156614409637174,4.66888197552394
1017,4.752530484245899,1.169323772599018,5.385145641966936,4.886535221345497
1018,4.923493744971607,1.7527500077690021,5.57564748795491,5.089540864928526
1019,5.01255678165472,2.2898227204855193,5.726271365996314,5.26318853556269
1020,5.01671956442012,2.764611983380955,5.836195577066008,5.392322249989435
1021,4.9362749510278725,3.1632973808986717,5.905633023130953,5.462150013061072
1022,4.774993659719588,3.4748632260570615,5.935790201917905,5.459073388816567
1023,4.540132226848025,3.6917082242618187,5.9287857496721275,5.371489728921934
1024,-2.0495511258312977e-12,-3.36321088382237e-11,-1.6540532298857376e-10,-5.34443785372885e-11
1025,5.366481997867918e-12,-7.375773934246096e-10,-2.483656081485867e-09,-8.15477500959734e-10
1026,-1.6499680536019842e-11,-8.269030422697716e-09,-2.8814612944328306e-08,-9.013541633353778e-09
1027,2.519591448481576e-11,-6.165313154531468e-08,-2.1351578081653152e-07,-6.462225874541027e-08
1028,-2.1160583445960457e-11,-3.45622723148909e-07,-1.189824442758557e-06,-3.5045651859683244e-07
1029,1.488819848108255e-11,-1.5583542119324926e-06,-5.3219848650389225e-06,-1.5383029385180613e-06
1030,-2.13751560118398e-11,-5.90298921551577e-06,-1.9959106997465873e-05,-5.722066955082172e-06
1031,2.112435790151021e-11,-1.9370766709291507e-05,-6.473743137811628e-05,-1.861609846629831e-05
1032,-1.255029315486017e-10,-5.6340625082587754e-05,-0.0001858468382741838,-5.418653928913891e-05
1033,-2.506413834311401e-09,-0.00014784297534685767,-0.000480824494946801,-0.0001434673687054478
1034,-2.870605166062231e-08,-0.0003550070479144329,-0.0011375240292181195,-0.0003498214924009534
1035,-2.1477283571093002e-07,-0.0007891409046707795,-0.0024904266955230263,-0.0007931165756529898
1036,-1.1977434022568239e-06,-0.001639556068894458,-0.005096514264507885,-0.0016850264736539304
1037,-5.3235949488148695e-06,-0.0032097025207246882,-0.009831819174152151,-0.0033769850720043455
1038,-1.9712110976681465e-05,-0.005961532557724706,-0.018008551250418354,-0.006421373656682278
1039,-6.277648961277023e-05,-0.010567361139419001,-0.031511311994386816,-0.011645502928962706
1040,-0.00017619215458119388,-0.017967849193509768,-0.052949037927996656,-0.020236884008334573
1041,-0.00044439532781397604,-0.02943401124987379,-0.08581686686721586,-0.03383713094819345
1042,-0.0010235263322055633,-0.046630191130567544,-0.13465912072920053,-0.05464055116601001
1043,-0.002181577278962726,-0.07167368056055028,-0.2052213987104889,-0.08549210186824609
1044,-0.004351479298738676,-0.10718518245613072,-0.30457683749984354,-0.1299779243315335
1045,-0.008198808181714236,-0.1563229729406959,-0.44120939242044216,-0.19250008827572906
1046,-0.014705245356892075,-0.22279286545533533,-0.6250359968685888,-0.27832550920074905
1047,-0.025267553245685297,-0.31082634905055007,-0.8673498613422748,-0.39359749793159476
1048,-0.041809565613517806,-0.42512071966626186,-1.1806690964769726,-0.5452976072888881
1049,-0.06690189887923295,-0.57073743319713,-1.5784781503592735,-0.7411459351250956
1050,-0.1038812566999473,-0.7529578129419817,-2.074854236073697,-0.9894302056610598
1051,-0.15695875835878656,-0.977098196815227,-2.683976950520389,-1.298757735198339
1052,-0.23130493512958272,-1.248289424809536,-3.419526712270106,-1.677729402399628
1053,-0.3330979237711789,-1.57122831098791,-4.293986218806143,-2.1345403435215404
1054,-0.46952087580074164,-1.949911521560845,-5.317868236703388,-2.6765176142862566
1055,-0.64869466069001,-2.3873650243091706,-6.498901788882224,-3.3096100519756377
1056,-0.8795328449109627,-2.885384700440349,-7.841216169357449,-4.037849957381771
1057,-1.1715082044390515,-3.4443054289675445,-9.344567549151979,-4.862810297331472
1058,-1.5343242827800492,-4.062816592042445,-11.003655852715047,-5.783085186625322
1059,-1.9774919346130932,-4.737841211853017,-12.807580081366877,-6.793825323534323
1060,-2.5098189886519684,-5.464493635674177,-14.739478204448039,-7.886363048404156
1061,-3.138830164472513,-6.236126855542532,-16.776392935375142,-9.047962664508374
1062,-3.870143136391065,-7.0444754860319,-18.889396736455854,-10.261729667465817
1063,-4.706834375036095,-7.8798947086887505,-21.043998159417992,-11.50670729965698
1064,-5.648834624681105,-8.73168984440578,-23.2008374266851,-12.758180717649738
1065,-6.692398232888383,-9.588526306555345,-25.31666296182906,-13.988198747465825
1066,-7.829692545095477,-10.43890601331481,-27.345563729225496,-15.16631145276186
1067,-9.048552688953794,-11.27169417998087,-29.24041617081354,-16.260509308560316
1068,-10.3324428436253,-12.076679870840032,-30.954490547361537,-17.238337412976552
1069,-11.660657320301368,-12.845154721059192,-32.44315042183958,-18.068146594184803
1070,-13.008783454160243,-13.570496693203452,-33.665571385740684,-18.72043305348368
1071,-14.349433661800017,-14.248749373963268,-34.58640103961409,-19.1692096856883
1072,-15.653236571498415,-14.87919182552449,-35.177281867180035,-19.39334578458882
1073,-16.890057900092696,-15.46489896215173,-35.41816210179635,-19.377807951970002
1074,-18.030402214640958,-16.01329727453585,-35.29832724186026,-19.11473437416506
1075,-19.046928644022245,-16.536724762141308,-34.8170965078373,-18.604277833883124
1076,-19.915998766982803,-17.053006309769795,-33.984143960707534,-17.855160218290788
1077,-20.619164769968222,-17.586055602905024,-32.819422338956855,-16.884892698153227
1078,-21.144501642038925,-18.166511371053726,-31.35268759036757,-15.719630620020574
1079,-21.487689225390334,-18.832409062743913,-29.62264196117886,-14.393649563925562
1080,-21.652758457749268,-19.62987928791895,-27.67573167789127,-12.948447894211427
1081,-21.652430733937884,-20.61385225114566,-25.56465052438262,-11.431500300702622
1082,-21.507999340405185,-21.84873394526453,-23.346612287676994,-9.894705199469461
1083,-21.248726509866756,-23.40900619148092,-21.081463151708668,-8.392585494751824
1084,-20.910757696167295,-25.37968983141527,-18.82970988984155,-6.980316232789876
1085,-20.53558460441298,-27.856599629904665,-16.650541474942663,-5.711663272917368
1086,-20.168118295190673,-30.946311852783314,-14.599920467102644,-4.636923430066376
1087,-19.854461066578097,-34.76576211242405,-12.72881616628543,-3.8009580407220325
1088,-19.639488694387392,-39.44139289433913,-11.081643853271242,-3.2414084380486243
1089,-19.564371323210164,-45.107777972930855,-9.694963735158133,-2.987173773077384
1090,-19.664170582972954,-51.90566517952107,-8.59648004405286,-3.057219599399728
1091,-19.96565148677867,-59.97939974445362,-7.804366183084873,-3.4597703067376844
1092,-20.485439849204486,-69.47371717010475,-7.326927102642172,-4.191920462301222
1093,-21.228639514985428,-80.5299261483952,-7.162596335446875,-5.239680201547126
1094,-22.187999502585523,-93.28153670896418,-7.300253151611728,-6.5784490871595525
1095,-23.34369087159135,-107.84942450632981,-7.71983533383725,-8.173892593935996
1096,-24.663718745050183,-124.33665675689913,-8.393215017459001,-9.983176808342575
1097,-26.104958718487026,-142.8231367820653,-9.28529845578605,-11.956501048620897
1098,-27.614771190894796,-163.36025063972676,-10.35530523411868,-14.038855735732925
1099,-29.133114235542475,-185.96571947622047,-11.558178294207819,-16.171924591823537
1100,-30.5950475557776,-210.61887378463484,-12.84607346247423,-18.296046506093177
1101,-31.933498445412027,-237.2565696606974,-14.169876272997223,-20.352153195878607
1102,-33.08214665088542,-265.76996151943723,-15.480694996150694,-22.28360380069827
1103,-33.97827931620352,-296.0023299864385,-16.73128178142334,-24.03784624182302
1104,-34.565470139382676,-327.7481376935655,-17.87733842438389,-25.567846957115307
1105,-34.795948290889115,-360.75344997785726,-18.878668963480536,-26.833244727720704
1106,-34.63254172829245,-394.7178130730293,-19.700147795516497,-27.801199850715435
1107,-34.05010480953751,-429.29763082562005,-20.312479032347586,-28.446925858683592
1108,-33.03636976313649,-464.11102411571886,-20.692730477425286,-28.753906421519343
1109,-31.592193741717164,-498.7440971290498,-20.824633870177287,-28.713814284090486
1110,-29.73120606796633,-532.7584737812732,-20.6986518988962,-28.32616152100802
1111,-27.478892095599416,-565.6999085521181,-20.311821561262583,-27.597720484620336
1112,-24.871179026092637,-597.1077215396062,-19.667392217814452,-26.5417620137381
1113,-21.952613376046827,-626.524760516053,-18.77428452964288,-25.177161403860225
1114,-18.774238217591826,-653.5075558197069,-17.646402781688064,-23.527423302796723
1115,-15.39128996161779,-677.6363093519678,-16.301837553126823,-21.619674474306056
1116,-11.860838881009707,-698.5243485715225,-14.761998103098646,-19.483668796589594
1117,-8.239494789803,-715.8266814084435,-13.050714307791624,-17.15084248307209
1118,-4.581289720365094,-729.2473090993182,-11.193346604911385,-14.65344980844662
1119,-0.9358340234396937,-738.5449911087386,-9.215939413390561,-12.023801117278513
1120,2.653177619107926,-743.5372089847729,-7.144449016370023,-9.29361615117292
1121,6.149056673777022,-744.1021429985182,-5.004071194429142,-6.4934973063368
1122,9.522778497589762,-740.1785548973636,-2.818687178032608,-3.652519834901528
1123,12.753202554650564,-731.7635595198698,-0.6104390722820702,-0.7979296693123102
1124,15.826873558915095,-718.9083640579069,1.60056190870648,2.0450650659102285
1125,18.73744289083682,-701.7121522305731,3.796398928433891,4.853425360524628
1126,21.484767245836498,-680.3143865737044,5.9613965982285535,7.606352389146654
1127,24.07375517272276,-654.8858899459573,8.08206962764318,10.285313913471477
1128,26.51304148098602,-625.6191416780949,10.146995158801703,12.874038901292197
1129,28.81357406669648,-592.7182795767478,12.146632494110703,15.358489800137614
1130,30.987197203810815,-556.3893323158446,14.073112916233883,17.72681806027189
1131,33.045309816378115,-516.8312150002052,15.920019246253297,19.969304588390518
1132,34.99766726316845,-474.2280025782079,17.682170553690245,22.078283222107267
1133,36.85138188461407,-428.7429511888407,19.35542303006219,24.048042517030577
1134,38.6101623265652,-380.5146672970275,20.936494140630632,25.874699561211774
1135,40.27381572019704,-329.65573032523577,22.422813951523526,27.556039381339442
1136,41.8380211542139,-276.25395910427625,23.812404848155868,29.09131482206607
1137,43.29436831506267,-220.37637967779327,25.103788350435767,30.481004454045078
1138,44.63064237178503,-162.07580701525336,26.295915334402252,31.72652990983524
1139,45.83132561922766,-101.3998026716856,27.38811382960995,32.82993869355178
1140,46.87827837739026,-38.40162225641509,28.380047184236933,33.793563447647976
1141,47.75155630190198,26.84737067327632,29.27167517650022,34.61967334419828
1142,48.43031869529639,94.244465389498,30.06321190499777,35.31013722553687
1143,48.89378259371619,163.64227081629028,30.755076813140327,35.86612099282738
1144,49.12218011408668,234.8360760199672,31.34783852692938,36.287843129928326
1145,49.09768119205201,307.5527093356626,31.842154539247765,36.574411743976775
1146,48.80524965161788,381.4416766252295,32.23871247861772,36.72376377079719
1147,48.233406731135204,456.0692920131059,32.53818030886657,36.732722018792096
1148,47.374882178940524,530.9164058468057,32.74117316238477,36.59717883127343
1149,46.22713843559348,605.3801878788022,32.848243665141645,36.312406882925984
1150,44.79275801744992,678.7802441253343,32.859900736299316,35.87348860802831
1151,43.07968792658381,750.3691408849319,32.7766592092837,35.27584661981547
1152,1.1360579504380042e-09,1.5659571750670775e-09,-8.21686067625815e-11,1.1603683002749681e-10
1153,3.202529418374116e-10,2.0697612794122915e-08,-8.895338517081821e-10,1.8936006750264027e-09
1154,1.2810475467550867e-08,2.458770483925462e-07,-1.0671610888284725e-08,2.1074863038840833e-08
1155,1.0181528611256458e-07,1.8073231403067148e-06,-7.932909222167985e-08,1.527458487218266e-07
1156,5.417127680401445e-07,1.000105176426779e-05,-4.435583062230277e-07,8.239449289450371e-07
1157,2.3472165270037677e-06,4.439477196933796e-05,-1.9874838984732922e-06,3.5473625518457496e-06
1158,8.441585810197788e-06,0.00016515517621062243,-7.459593017192632e-06,1.2726417467208985e-05
1159,2.6044857571674477e-05,0.0005313583253922005,-2.4213647018400906e-05,3.925042341012702e-05
1160,7.060626130949266e-05,0.0015135680198161228,-6.961587346573337e-05,0.00010655455868819802
1161,0.00017128751959266046,0.0038878395870104703,-0.00018062561274108998,0.0002594424048912343
1162,0.0003776278518223529,0.009138957518183152,-0.00042928999593360914,0.0005753510364029533
1163,0.0007663704674847722,0.019897264733225273,-0.0009459532027357579,0.001177156899173243
1164,0.001447430299785879,0.04052553663143257,-0.001951748955846917,0.0022462678676790633
1165,0.0025680594907577254,0.07786211937438878,-0.0038014184064771887,0.004034588117210922
1166,0.004314291556976008,0.1421141859562307,-0.007036636016172984,0.006873747723934907
1167,0.006908952926819535,0.24788168758918058,-0.012448938399747386,0.011179563502708762
1168,0.010605138213443032,0.4152770680803824,-0.021150098099970854,0.017449081573452763
1169,0.01567376273254956,0.6710882606695263,-0.03464649122626451,0.02624697056553391
1170,0.022383747909239544,1.0499120334662675,-0.054912753224772924,0.03817778765379979
1171,0.030973198313226077,1.595162945172484,-0.08445884259147443,0.05384086616962096
1172,0.041610615959058975,2.359842417835142,-0.1263836232343195,0.07376539345447188
1173,0.054345777729117015,3.4069358995042274,-0.18440725282073187,0.09832465486271366
1174,0.06905129556494756,4.809298423048356,-0.2628741782574816,0.12763038196729515
1175,0.08535728225128288,6.648892687777896,-0.3667185244929158,0.1614104287405751
1176,0.10258270765596689,9.015262261914902,-0.5013843945877562,0.19887530347794521
1177,0.11966818406072838,12.003155363047947,-0.6726952562304629,0.23858118047894125
1178,0.1351151346886239,15.70926172294797,-0.8866693451703833,0.2782988055765284
1179,0.14693682629232682,20.22808287789707,-1.149281797008723,0.31489924808212183
1180,0.15262658223486614,25.647021966766207,-1.4661788542666394,0.34426862167904493
1181,0.149148734900459,32.040848016065524,-1.8423545986415826,0.3612644702982588
1182,0.1329572531371344,39.46575722464201,-2.281805750101911,0.35972611671687815
1183,0.10004651055341414,47.9533155623844,-2.7871846063228682,0.332549700007983
1184,0.04603713589550083,57.5046175528558,-3.3594735285533437,0.2718357808059667
1185,-0.03370164282531917,68.08503153676853,-3.9977060064173946,0.16911337276129002
1186,-0.14389425594643393,79.61991666403327,-4.698758849306369,0.015639208657014847
1187,-0.28916949984325396,91.99168839986908,-5.457237431694048,-0.19723467447050738
1188,-0.4738462992226576,105.03857390580501,-6.26547135041942,-0.47763782372851005
1189,-0.701703925859568,118.55533619878287,-7.113631795062247,-0.8327209679536942
1190,-0.9757476825619223,132.29615678676157,-7.9899747948009585,-1.2681810545860013
1191,-1.2979825100490565,145.9797549807193,-8.881206707535613,-1.7877977564756296
1192,-1.6692072383399694,159.29669356154443,-9.77296011735228,-2.3930093760675275
1193,-2.0888424669995547,171.91868351567504,-10.650360010916803,-3.0825563854669347
1194,-2.554804091631911,183.50956461914765,-11.498652102835832,-3.852219260755952
1195,-3.0634332906169153,193.73751352297498,-12.303858078063328,-4.694673676162953
1196,-3.6094911587335656,202.28792720842438,-13.053417222593879,-5.599480584898933
1197,-4.1862233192111455,208.87635497958763,-13.736771354515612,-6.55322161141307
1198,-4.785495976107381,213.26081407628055,-14.345850982683194,-7.539781944569
1199,-5.39800078435811,215.2528258169095,-14.87542549924041,-8.540774080456076
1200,-6.013521781830498,214.726553176249,-15.323288758100444,-9.536086923658962
1201,-6.621253341950172,211.62550442211025,-15.69026282951467,-10.504536644649377
1202,-7.210154996954127,205.96638739222098,-15.980016040034226,-11.424589089999623
1203,-7.769326257779051,197.8398473785908,-16.19870539032511,-12.275118966305222
1204,-8.288383450208547,187.40799004007403,-16.354466882746443,-13.036168756414986
1205,-8.757819955312364,174.89876814674827,-16.456789068120397,-13.689670387242904
1206,-9.169332216121164,160.597485873487,-16.515814198714104,-14.220095056176076
1207,-9.516095327707202,144.83583570654528,-16.541616976840828,-14.61500117910976
1208,-9.792975038747112,127.979019454778,-16.54351242742571,-14.865456849898685
1209,-9.996666256919909,110.41160821374952,-16.529441789475758,-14.966320875587854
1210,-10.12575237607076,92.52285881981693,-16.505478781459022,-14.916374699587214
1211,-10.180684147260608,74.69222333635419,-16.475488905153068,-14.718305688930077
1212,-10.163681357361586,57.275761803110846,-16.4409625205766,-14.378549829464879
1213,-10.078565479373882,40.594100230707596,-16.40102926091778,-13.907008390258612
1214,-9.93053534725805,24.922470228534145,-16.352647874122795,-13.316658098920843
1215,-9.725901368587746,10.48323257344044,-16.290952604303047,-12.623077519034174
1216,-9.471795379672104,-2.558866473352941,-16.209725629041014,-11.843913559605893
1217,-9.175874084102135,-14.098618949569723,-16.101955672308712,-10.998311661622168
1218,-8.846033108178485,-24.089530914840772,-15.960436653053929,-10.106331541204948
1219,-8.490147310526545,-32.5404684398861,-15.778357892311465,-9.1883678063347
1220,-8.115850006316208,-39.51011663336337,-15.549839614976646,-8.26459159086416
1221,-7.730360416091007,-45.099690904347,-15.270374298716876,-7.35442596168539
1222,-7.340364235042069,-49.44440276216183,-14.93714527950035,-6.476064692469954
1223,-6.951947722912164,-52.704211305069606,-14.549207576624987,-5.646041422817579
1224,-6.5705814117941435,-55.054386012589774,-14.107530324992457,-4.878854446213812
1225,-6.201145263056329,-56.67637048368992,-13.614913570950058,-4.186651355021912
1226,-5.847984116106487,-57.74937438418503,-13.075802814773073,-3.5789774651875668
1227,-5.514979805604258,-58.44303921335773,-12.49603155293832,-3.0625922154273812
1228,-5.205625749065184,-58.91142889068908,-11.882524788031292,-2.6413583564794205
1229,-4.923090010807217,-59.288496342247406,-11.242995336072129,-2.3162092980240208
1230,-4.6702547777098795,-59.68507908228306,-10.585660370112995,-2.085199885052489
1231,-4.449722470573127,-60.18738600687237,-9.91899881127113,-1.9436447298870814
1232,-4.263782374809538,-60.85685997648183,-9.251561630282929,-1.8843458407681886
1233,-4.114335532827117,-61.7312390479829,-8.591837615508464,-1.8979078046233369
1234,-4.002780472728395,-62.8265964271954,-7.948167524920861,-1.9731344023368351
1235,-3.929867172010136,-64.14011503330924,-7.328690763515896,-2.0974955727223765
1236,-3.8955310723922008,-65.65334698311968,-6.7413020019569405,-2.2576484961433643
1237,-3.898722970940812,-67.33571828139107,-6.193591547473098,-2.4399917635696147
1238,-3.9372528807630562,-69.14806239691445,-5.692743655101126,-2.631227740017931
1239,-4.007667216024944,-71.04599880394456,-5.245371579094684,-2.8189057592465625
1240,-4.105177518608581,-72.98301103663925,-4.857276723475301,-2.9919180450044984
1241,-4.2236565263966614,-74.91311937451114,-4.5331308066616645,-3.1409214098823046
1242,-4.355712849292913,-76.79308300731263,-4.276093221436271,-3.258661007752368
1243,-4.492850459258688,-78.58410340494784,-4.087389172686018,-3.340177660776353
1244,-4.625713159449969,-80.25303220090797,-3.9658860853127726,-3.382887286902872
1245,-4.74440816094373,-81.7731129575837,-3.907714644106209,-3.386529123049961
1246,-4.838897061702803,-83.12430532863347,-3.9059852895365843,-3.3529880620077366
1247,-4.899436729390023,-84.29325322419703,-3.950650197902858,-3.286004822042059
1248,-4.917048129026919,-85.27296510956147,-4.028554378098807,-3.1907951867000595
1249,-4.883987287045304,-86.06227614321968,-4.123707897430288,-3.0736056093956523
1250,-4.794190778397816,-86.66515857734836,-4.217795260374716,-2.9412364677135177
1251,-4.643667485205183,-87.08994070214442,-4.290918926797347,-2.80056582491428
1252,-4.430810254771127,-87.34848605316202,-4.322553399630196,-2.658105576633917
1253,-4.156604433375566,-87.4553751928568,-4.2926658462519685,-2.5196185107318896
1254,-3.824716026038266,-87.42712293407105,-4.182940525226762,-2.389819304278836
1255,-3.4414488271811416,-87.28145463271345,-3.9780289840079703,-2.272175185651218
1256,-3.01556757490329,-87.03665722425653,-3.6667377628380016,-2.168813387478928
1257,-2.5579918084315962,-86.7110133364557,-3.2430616514418307,-2.08053343635076
1258,-2.081372334372818,-86.32232102141421,-2.7069745482801015,-2.006913768585129
1259,-1.5995691783530903,-85.88749656008174,-2.0649020087806864,-1.9464950405060544
1260,-1.1270553329083115,-85.42225431147168,-1.3298191315299932,-1.8970174703153413
1261,-0.6782752241992057,-84.94085483721027,-0.5209429726527258,-1.85568686724377
1262,-0.26698921466445763,-84.45591141679313,0.3369820460170666,-1.819443783035304
1263,0.09436332619861429,-83.97824463199088,1.2147770298383318,-1.7852123320225892
1264,0.3952509393565493,-83.51677573033957,2.080242707445597,-1.7501093921276647
1265,0.6275577621773952,-83.0784509614634,2.8998135250151367,-1.7116005184254894
1266,0.7859871763368481,-82.66819155690114,3.6403525131652352,-1.6675952950356048
1267,0.8683418462765479,-82.28886676425496,4.270976689968775,-1.6164813380817447
1268,0.8756671091497028,-81.94129011907482,4.764799121572643,-1.5571022253847815
1269,0.8122513501383136,-81.62424198653757,5.100477403012544,-1.4886898576990961
1270,0.6854834555321343,-81.33452329038273,5.263469115842406,-1.4107657348436666
1271,0.5055738332155393,-81.0670468643306,5.246912424938528,-1.323028104490133
1272,0.2851506195496723,-80.81497295247743,5.052073784615638,-1.2252427948175482
1273,0.03874737850847053,-80.56989483847653,4.688333419568305,-1.1171549236770468
1274,-0.21779841202117137,-80.32207872035191,4.172710747283403,-0.9984367000055999
1275,-0.4680142213816926,-80.06075941519094,3.5289634446491442,-0.8686832618894947
1276,-0.6955054645689313,-79.77449024066061,2.7863224049705844,-0.7274639453834595
1277,-0.8846880074328922,-79.45154168179174,1.9779476914659826,-0.5744307891968128
1278,-1.0215150626952234,-79.08033949578346,1.1392059543325712,-0.40948005052631403
1279,-1.094173375361107,-78.64992908054542,0.30587695145723987,-0.2329568710409442
1280,-2.0016636955539446e-11,-7.48996795843604e-11,-2.1242489778086662e-10,-4.1913618701713465e-11
1281,-3.1040580241338657e-10,-1.4639359106806886e-09,-1.151841666839355e-09,-7.313033377082135e-10
1282,-3.5709973943755707e-09,-1.6214303104213633e-08,-1.566185908466237e-08,-8.404211074521944e-09
1283,-2.707660667913673e-08,-1.1763547007837951e-07,-1.1614112709943985e-07,-6.345991281289131e-08
1284,-1.575105382311253e-07,-6.401700543107812e-07,-6.537636393135432e-07,-3.6278146792302763e-07
1285,-7.497028621663227e-07,-2.7950598110762556e-06,-2.9526866205488484e-06,-1.6776288745490277e-06
1286,-3.0386901209980326e-06,-1.0234085905346005e-05,-1.1173867790148953e-05,-6.549748189135618e-06
1287,-1.0762070245696278e-05,-3.243083817599296e-05,-3.6571215255201114e-05,-2.2230597986672507e-05
1288,-3.3897702385579993e-05,-9.107159301931933e-05,-0.00010595100507321641,-6.698862247623217e-05
1289,-9.621704777198737e-05,-0.00023084791029625274,-0.0002767052334918536,-0.00018207997250729044
1290,-0.00024879903701517523,-0.0005360173811284985,-0.0006610220734325573,-0.0004520448785456264
1291,-0.0005916841636139183,-0.0011538181938525694,-0.0014618652359989434,-0.0010357745197139168
1292,-0.0013053516339563893,-0.0023252968418569896,-0.0030229096162182707,-0.002209914630720862
1293,-0.0026928056912431508,-0.00442341731743512,-0.005894031312208425,-0.004424868506532206
1294,-0.005232012611414772,-0.007997546022111873,-0.01091296640954804,-0.008372283006949413
1295,-0.009637416055124234,-0.01382263217080285,-0.019302411103507684,-0.015061685887636723
1296,-0.01692824606760122,-0.02295066092288275,-0.032779914107884674,-0.025902857545992246
1297,-0.028500204576684493,-0.03676122674339838,-0.0536756054183128,-0.04278940036765062
1298,-0.046195786261561136,-0.05700733331269455,-0.08505039818495906,-0.06817767301434977
1299,-0.07236703643404559,-0.08585175639083738,-0.13080508031930732,-0.10515379431158213
1300,-0.10992307955717234,-0.12588858170816147,-0.19576906728082794,-0.15747991170760708
1301,-0.16235343516328596,-0.1801439892462435,-0.28575643639611503,-0.2296095853696532
1302,-0.23371725085627953,-0.2520502292070366,-0.4075763599090901,-0.32666131893808653
1303,-0.3285885429403596,-0.3453872479257003,-0.5689850713947993,-0.4543394432848353
1304,-0.4519487910834258,-0.46418775968885667,-0.7785674094392705,-0.6187931959049033
1305,-0.6090209782120575,-0.6126037496171316,-1.0455379777792568,-0.8264081090889016
1306,-0.8050432160085185,-0.7947353087921261,-1.3794556075450637,-1.0835285126575127
1307,-1.0449849760489789,-1.0144260548679729,-1.789850164710607,-1.3961155590430585
1308,-1.3332141842893632,-1.2750328173357461,-2.2857678089093736,-1.7693511397254325
1309,-1.673128709644444,-1.5791804174185498,-2.87524888818432,-2.2072039392977842
1310,-2.066770871187648,-1.9285149591168222,-3.564760805866163,-2.7119792862068803
1311,-2.5144482352928943,-2.323470896685842,-4.3586154385450655,-3.2838790386701557
1312,-3.014387765490276,-2.763068138042599,-5.258406028577195,-3.9206011035735804
1313,-3.5624528432419247,-3.2447555350514152,-6.262501594624306,-4.617010026605519
1314,-4.151953306552605,-3.7643162403135895,-7.3656374694781075,-5.3649101735838745
1315,-4.773577030782138,-4.31584852750643,-8.558638745424402,-6.1529511298580815
1316,-5.415467378121367,-4.89183269629717,-9.828309017018922,-6.966690809476614
1317,-6.063463985636343,-5.483290578780121,-11.157510019078796,-7.788835212346822
1318,-6.70151509655745,-6.080038967940029,-12.525448463606377,-8.59966484936682
1319,-7.312258568237361,-6.671032213572965,-13.90817500452718,-9.377646976574844
1320,-7.8777565896834325,-7.2447826814581475,-15.279287171759217,-10.100220576912424
1321,-8.380356812894707,-7.789841316727046,-16.610814166945868,-10.744728277822404
1322,-8.803640835094452,-8.295314857271975,-17.87424756496751,-11.289456966292214
1323,-9.133410644797154,-8.751391915885153,-19.041669288040655,-11.714737780715119
1324,-9.358655776915864,-9.149847672968836,-20.086918072751796,-12.0040475505358
1325,-9.472439466315215,-9.484496530794575,-20.986729052227282,-12.14504858977499
1326,-9.472641704108005,-9.751563795099544,-21.72177914864611,-12.130502612729599
1327,-9.362501005715353,-9.949951077916104,-22.27757406964753,-11.9589975301932
1328,-9.15090479655171,-10.081375386656672,-22.64512093618936,-11.635432823212831
1329,-8.85239031894787,-10.150368456438308,-22.82134314154933,-11.171219758922062
1330,-8.486833405465314,-10.164130481792194,-22.809210031554386,-10.584166503087346
1331,-8.07882057789758,-10.13224064010299,-22.61757203420691,-9.898034566478072
1332,-7.656719597318949,-10.066235237937205,-22.260710620248517,-9.141771140859246
1333,-7.251483437198583,-9.97907244626249,-21.757630670866,-8.348440704437213
1334,-6.895241262665616,-9.884509845595117,-21.131139013702814,-7.553897714525929
1335,-6.619746020422969,-9.796426810266079,-20.40676599697395,-6.795259110497039
1336,-6.4547603974073855,-9.728127593491216,-19.61159580983907,-6.109249489847759
1337,-6.4264700870519595,-9.691662481562934,-18.773075304205474,-5.53050200558092
1338,-6.556014751403195,-9.697203430093829,-17.917869907676963,-5.089903317596422
1339,-6.858222582214674,-9.752507327432474,-17.0708292141865,-4.813070856110766
1340,-7.340624278693958,-9.86249479397327,-16.254114443244493,-4.719045235273457
1341,-8.002807307873402,-10.028965713492285,-15.486526260457518,-4.819270284394163
1342,-8.836152450296064,-10.250465009005238,-14.78305544963326,-5.116918463424902
1343,-9.823973019522281,-10.522304019364563,-14.154661991945279,-5.606601276626217
1344,-10.942054148488637,-10.83673465829162,-13.608271593459973,-6.274483802265636
1345,-12.159566666066553,-11.183265765641396,-13.146963917774098,-7.098800895267996
1346,-13.440308830052414,-11.54910410093277,-12.77031514808504,-8.050751260275723
1347,-14.744210850009575,-11.919696634663847,-12.474849919242091,-9.095725596182502
1348,-16.029022853985936,-12.27934647955236,-12.254554971260463,-10.19480747320479
1349,-17.252097647684607,-12.61187217364052,-12.101409064674623,-11.306471539933208
1350,-18.37217592788225,-12.901279182977902,-12.005890469788385,-12.388393958079314
1351,-19.35108372250247,-13.132413368887514,-11.957433475823331,-13.399285170630007
1352,-20.15525938937114,-13.291568577869635,-11.944817504272889,-14.300655375911987
1353,-20.75703971601108,-13.367024137023213,-11.95648479356309,-15.058428201017582
1354,-21.135650503778553,-13.349492509963811,-11.980793718206353,-15.644327650754972
1355,-21.277865355086256,-13.232462307803956,-12.006223480753457,-16.036976856135727
1356,-21.17831596075859,-13.012426934875702,-12.021551256856828,-16.222663612003526
1357,-20.839456626336222,-12.68899413891838,-12.0160246952954,-16.195746028907276
1358,-20.271203704989805,-12.264876455022533,-11.97955082990204,-15.958690564090581
1359,-19.490285912469062,-11.745766888601922,-11.902917442688276,-15.521753097291523
1360,-18.51935347867831,-11.140108095574675,-11.778055175039317,-14.902330658019755
1361,-17.38590240751826,-10.458766746484491,-11.59833910906203,-14.12402615423354
1362,-16.12107463683537,-9.714627647997709,-11.358918119851852,-13.215480315730664
1363,-14.75839563988476,-8.922124512847157,-11.057050139390444,-12.209033510533354
1364,-13.332508220171825,-8.096725976724095,-10.692413002914236,-11.139284832038479
1365,-11.877955449859847,-7.254396548553116,-10.267354871583684,-10.041616948971313
1366,-10.428057627150588,-6.411052625319164,-9.787046547879338,-8.950752919309647
1367,-9.013918605412455,-5.582033513345114,-9.259500771121514,-7.899405851742007
1368,-7.663586675976368,-4.781606569561347,-8.695431028747027,-6.917074361709854
1369,-6.401385126066388,-4.022524132371278,-8.107933843401524,-6.029026801503769
1370,-5.247418339757138,-3.315647857450064,-7.5119929480035195,-5.255505987394057
1371,-4.217251363267988,-2.669653450095726,-6.923819650063076,-4.611174372872411
1372,-3.3217544266283907,-2.0908256350772887,-6.360059332713584,-4.104807922244359
1373,-2.567098933644997,-1.5829496258904756,-5.836907876778319,-3.7392357263684564
1374,-1.9548877786116992,-1.1473014558397074,-5.369192317607359,-3.511512048054438
1375,-1.4824005035647623,-0.7827354547363162,-4.969476483319715,-3.4132984405656757
1376,-1.1429328674099195,-0.485863038895723,-4.647254021958334,-3.4314263646338166
1377,-0.9262108392294471,-0.2513129782971659,-4.408288158274299,-3.548605686250429
1378,-0.818860577633095,-0.07205960743132586,-4.254149713153428,-3.744241634814068
1379,-0.8049180990366582,0.06019772647301999,-4.181992902899282,-3.9953219901389505
1380,-0.8663645105250921,0.15462305974874962,-4.184592697081528,-4.277337053238108
1381,-0.9836744546470201,0.22082047521828427,-4.250649130828882,-4.565196898845444
1382,-1.1363665430648466,0.2684195688549832,-4.365344344499258,-4.834113154066801
1383,-1.3035450378275382,0.3066891016025556,-4.511118975115271,-5.060415873374753
1384,-1.4644221201673644,0.3441958630300727,-4.668617912277582,-5.222279988924877
1385,-1.5988102179788315,0.38852243820242677,-4.817742926544215,-5.30034045203534
1386,-1.6875745083872877,0.446053536135826,-4.938742664193641,-5.278180674125142
1387,-1.7130370713946432,0.5218361469385949,-5.01326931766141,-5.142685076049479
1388,-1.6593261000420139,0.6195143765190925,-5.025335881150895,-4.884253004371692
1389,-1.5126657135678532,0.7413356516081456,-4.962117327329478,-4.496877377991362
1390,-1.2616039697790946,0.8882213332891797,-4.8145522519976405,-3.9780967082208463
1391,-0.8971785124893203,1.0598917773799912,-4.577717058334521,-3.3288333860582258
1392,-0.41302091178677813,1.255033663543249,-4.250961179368658,-2.5531343413665675
1393,0.19459782773693582,1.471496062365209,-3.837807893055891,-1.6578324615243631
1394,0.9267768971353396,1.7065013028406468,-3.3456396795621925,-0.6521486527226917
1395,1.7820456609994253,1.9568572592528284,-2.785199092710127,0.4527446794917559
1396,2.7564681280124836,2.2191591650935787,-2.1699450394716404,1.6441775555583873
1397,3.84378504555785,2.4899713351579096,-1.5153100599452378,2.908432735522235
1398,5.035586017581794,2.765982014858708,-0.8379063994558092,4.231172410988435
1399,6.32150389115244,3.0441276676458284,-0.15472755327721383,5.597823447192883
1400,7.689424244170347,3.3216860154154624,0.517612451121775,6.99390683925438
1401,9.125704033430226,3.5963397362215876,1.163566925203781,8.405301630973865
1402,10.615395089497374,3.8662146257800005,1.769245781231691,9.818438766524823
1403,12.142469936955575,4.129897109592756,2.3228908762435694,11.220425658666757
1404,13.69004919622031,4.386436235546942,2.8152325164623617,12.599107157523399
1405,15.24063137971971,4.6353348036336515,3.2397312315222835,13.94307266037998
1406,16.7763269657187,4.87653328237727,3.592715473926871,15.241622019380804
1407,18.27909899844604,5.110388822463163,3.873429265549782,16.48470460771867
1408,1.0858811824575479e-10,-7.070283104339752e-11,-9.468142901210552e-11,1.904023519928092e-11
1409,1.8044880839700471e-09,-1.1799097412370387e-09,-1.9686754544328965e-09,1.855138789900762e-09
1410,1.9907140362383015e-08,-1.3186459650540701e-08,-2.200166788151537e-08,1.9115527112200243e-08
1411,1.433276070044155e-07,-9.570588768702802e-08,-1.6196182788023445e-07,1.3614229461925868e-07
1412,7.669951125704189e-07,-5.208912769715346e-07,-8.936473341437247e-07,7.187700541651842e-07
1413,3.2712681107288774e-06,-2.2724172651280768e-06,-3.953726767525022e-06,3.020694855861362e-06
1414,1.1615730820917255e-05,-8.307376608536274e-06,-1.4658007388514912e-05,1.0550465401198386e-05
1415,3.544012768587022e-05,-2.6273300573842106e-05,-4.698586594128087e-05,3.1602125876881435e-05
1416,9.516885875313372e-05,-7.363280249494276e-05,-0.00013331794806736486,8.313809496151744e-05
1417,0.00022926256148762356,-0.00018634795791796292,-0.0003410453953559934,0.0001957734817537102
1418,0.0005032618041508377,-0.0004323654095009368,-0.0007982413247045295,0.0004191109895612441
1419,0.0010198148852330875,-0.0009311341036834131,-0.001730146745328165,0.0008263190155679131
1420,0.0019286213457542808,-0.0018802715879790198,-0.0035074152359869677,0.0015167554786200159
1421,0.0034350750909596167,-0.0035902900824885133,-0.006706007952303818,0.002615452520754249
1422,0.005806242019976384,-0.006527960684809083,-0.012177455637347645,0.004268190240264189
1423,0.009372569049164533,-0.011368401350366637,-0.02112701703910013,0.006630627266839702
1424,0.014523514725597044,-0.019055240282652847,-0.035196119786756415,0.009849683915868329
1425,0.021695226931403796,-0.030867207683769673,-0.05654437726107511,0.014035316600619435
1426,0.03134855273119557,-0.04848825516979558,-0.08792543597641048,0.019221193675925268
1427,0.043935985454333026,-0.07407690675354246,-0.13274993385048592,0.025313553991800488
1428,0.05985665371922441,-0.11032916462036077,-0.19512801237271102,0.03202870037876536
1429,0.07939918544271424,-0.16052808845232985,-0.2798832255074436,0.038821054659773695
1430,0.10267334456515517,-0.22857230241469625,-0.39252950292710304,0.04480535450005605
1431,0.12953268863323633,-0.31897526687272465,-0.539203290718796,0.04867819251528717
1432,0.15949196686845726,-0.43682730945443327,-0.7265444038442874,0.048645365607308075
1433,0.1916443927368533,-0.5877132235691186,-0.9615216837640733,0.0423623147412599
1434,0.22458512945813913,-0.7775798082916254,-1.2512032614214952,0.026895251121143816
1435,0.25634823840480647,-1.0125500628033373,-1.6024757792126447,-0.0012894879118863188
1436,0.28436475807747147,-1.2986838592852636,-2.021721795744079,-0.04630081737535403
