,TP9,AF7,AF8,TP10
0,2.4781277929753524e-10,-1.2296747878665382e-10,-7.306709096853761e-11,6.952020433285399e-11
1,6.497408285713768e-09,-1.8654165196180896e-09,-1.459494730549703e-09,2.1759067911777043e-09
2,6.99340298950562e-08,-2.1360182401363537e-08,-1.6302271902679875e-08,2.3225880865414158e-08
3,5.008012749179965e-07,-1.5712800960200554e-07,-1.2003791754086592e-07,1.6586457552789468e-07
4,2.6636546352492457e-06,-8.680666859934669e-07,-6.631626899469577e-07,8.75604305738115e-07
5,1.126098717171436e-05,-3.846446590684131e-06,-2.941016848076688e-06,3.656218297946747e-06
6,3.951557653040581e-05,-1.4285745010907176e-05,-1.0944626042652733e-05,1.2593601215618666e-05
7,0.00011870961007200229,-4.589260601758492e-05,-3.527223095559785e-05,3.684917537037436e-05
8,0.0003125465958995028,-0.0001305576579264641,-0.00010080560892034394,9.357713497834093e-05
9,0.0007347353055346202,-0.00033502560188985054,-0.00026024729475183006,0.0002095292172920391
10,0.00156579124649567,-0.0007870112123586886,-0.0006159625325356492,0.00041833479544464903
11,0.003063421967171144,-0.0017129810362641615,-0.0013526990497090734,0.0007496531582458244
12,0.005560677527360964,-0.0034892662624544713,-0.002783607884662907,0.0012064465256646625
13,0.009446916125680233,-0.006707428104608134,-0.0054115423889661545,0.0017273294422574797
14,0.015127679402924024,-0.012253895156907967,-0.010006867837120832,0.0021318767004459404
15,0.02296015842008774,-0.021402873768217704,-0.017702010639461415,0.002047572160393543
16,0.03316126261117847,-0.03592028407287644,-0.030101739486195198,0.0008178469441793404
17,0.0456858971260657,-0.058174946146750825,-0.04940670751154865,-0.0026083488002080846
18,0.06007433627596843,-0.09125136994729079,-0.07854604586261181,-0.009803525592027847
19,0.0752696349531582,-0.13905640851784914,-0.12131275725300633,-0.023001299403966866
20,0.08940903683211174,-0.2064099492289597,-0.1824933768769842,-0.04524232490059448
21,0.09959753815613383,-0.2991080576155988,-0.2679810554223175,-0.08051717380049181
22,0.10167703524211479,-0.42394593728930985,-0.3848592103822455,-0.13389359632085804
23,0.09000997006706433,-0.5886879805423121,-0.5414415414991705,-0.2116126993409673
24,0.05730072109107608,-0.8019732818168075,-0.7472538324536966,-0.32113678248973104
25,-0.0055198129009169095,-1.0731472831568927,-1.012943769766706,-0.4711314521137579
26,-0.10932119016629455,-1.4120136926016984,-1.3501071136930274,-0.6713663590792444
27,-0.2666890294056956,-1.8285052638939285,-1.7710219473300657,-0.9325222888496716
28,-0.49171063066150206,-2.332277263398392,-2.2882873257430365,-1.2658972142766114
29,-0.7996184292537436,-2.932233205807119,-2.9143682691153674,-1.683010169427425
30,-1.2062876184853042,-3.6359984531678693,-3.661055462908304,-2.1951092380310384
31,-1.7275943201627901,-4.449363267709594,-4.538854944546759,-2.8125981103452853
32,-2.378651495652074,-5.375722496228235,-5.556330113797274,-3.5444039470036492
33,-3.172950773005282,-6.4155438176653705,-6.719425167334343,-4.397317152213324
34,-4.121449161148203,-7.565899798096131,-8.03080498244382,-5.375340582914422
35,-5.2316496150915635,-8.820100315657381,-9.489250949460384,-6.479091100883805
36,-6.506732351620413,-10.167460706264507,-11.089154642834846,-7.705299328054054
37,-7.944798296616495,-11.59323700778185,-12.82015099947408,-9.046453170548398
38,-9.538286104671313,-13.078752918609446,-14.666929479191946,-10.490626648443502
39,-11.27361971760834,-14.601733873166834,-16.60925541210605,-12.021527904034329
40,-13.131134594081184,-16.136852456319993,-18.622224537258962,-13.618789323554868
41,-15.085317698420535,-17.656476912962646,-20.676762016056816,-15.258508968305941
42,-17.10537917144052,-19.131601480929877,-22.7403635633703,-16.914036468425657
43,-19.156153059748533,-20.532924423769288,-24.778061544595733,-18.55697903623851
44,-21.19930203048624,-21.83202777928764,-26.753583824061554,-20.158385571137337
45,-23.194778566201112,-23.002602739432174,-28.630658799064346,-21.690050445368154
46,-25.102474419551736,-24.0216570916517,-30.37440745031649,-23.125864935374192
47,-26.88397251344807,-24.870636999345333,-31.952753370817284,-24.44313462243344
48,-28.50430251353329,-25.536395238615192,-33.33777548990181,-25.623776590355064
49,-29.933594568613632,-26.01194218716627,-34.506926295324156,-26.655311837413358
50,-31.148526513118107,-26.296924505643013,-35.44404128889946,-27.531576516581904
51,-32.13346837165489,-26.397789258303547,-36.14007340928261,-28.253090104162894
52,-32.88124356929712,-26.327607611947176,-36.59349907265828,-28.827038350256473
53,-33.39344758503517,-26.105551244630924,-36.81035970527062,-29.26685242332758
54,-33.68029075756485,-25.756035021394474,-36.803923139396304,-29.591391562227404
55,-33.75996126091113,-25.307559976468443,-36.593971656358725,-29.823763250478905
56,-33.65753507610157,-24.791309799947193,-36.205746272424896,-29.98984068516397
57,-33.403489711003715,-24.239570583806252,-35.66859855146533,-30.116560182506557
58,-33.0319050745011,-23.68405640044446,-35.014420350573815,-30.230099266799467
59,-32.57845654014885,-23.154231516137425,-34.27593718645394,-30.354048120447402
60,-32.07832057282408,-22.675723057196066,-33.48496127729764,-30.507691841818374
61,-31.564121167001304,-22.268915399964573,-32.670704953729654,-30.70451793592984
62,-31.06404461934397,-21.947809396692556,-31.858253547217018,-30.951052334059888
63,-30.600240297236144,-21.71921607439977,-31.067288931571632,-31.24610831206286
64,-5.433738821323813e-10,-8.512486115981925e-11,-1.2160024688955124e-10,-3.270506488524133e-10
65,-1.1403590020922997e-08,-1.279494997364586e-09,-2.6489506065685554e-09,-6.313826430643737e-09
66,-1.2555834631865899e-07,-1.503827266085507e-08,-2.9079956998230782e-08,-7.024717252256378e-08
67,-9.112261212240487e-07,-1.1230687939480302e-07,-2.1152923204109217e-07,-5.139585383760471e-07
68,-4.928723400059171e-06,-6.305611339761247e-07,-1.1529895151745745e-06,-2.8043007681762115e-06
69,-2.127325771538217e-05,-2.840200948223897e-06,-5.040792462711716e-06,-1.2225752355219405e-05
70,-7.658221003678766e-05,-1.0720945932212448e-05,-1.847683925239079e-05,-4.450795562097668e-05
71,-0.00023735434707165565,-3.4986703297212745e-05,-5.859715289188822e-05,-0.00013966464605787675
72,-0.0006488346931432865,-0.00010102897659778682,-0.0001646317760090839,-0.0003869678450775017
73,-0.0015946855499068325,-0.0002628689671083264,-0.0004174053988391802,-0.0009648927509410557
74,-0.0035795483488918083,-0.0006253109697326462,-0.0009692570522329212,-0.002199002187792041
75,-0.007434380100979687,-0.0013762065732992187,-0.002086447670729755,-0.004639515543865371
76,-0.014442794308995486,-0.0028300548574035213,-0.004205413370631706,-0.009159037373072573
77,-0.02648539105959161,-0.005483237136399097,-0.008003333563446896,-0.017069693542622354
78,-0.04619751942587101,-0.010080136287217349,-0.01448249152083196,-0.030257465912172713
79,-0.07713361280967301,-0.01768835902715274,-0.025066813122416997,-0.051329673554160224
80,-0.12392826444843812,-0.029780229892940133,-0.041707716174716386,-0.08376925614368208
81,-0.19244098486256817,-0.04831660684191506,-0.06699492602932569,-0.13208685474808274
82,-0.2898684018583714,-0.07582775658398633,-0.10426620403012452,-0.20195868281767218
83,-0.42480480974991164,-0.1154845410470811,-0.15770809100183728,-0.30033495568461704
84,-0.6072301547796025,-0.17115166316440994,-0.23243799569695517,-0.43550073382442855
85,-0.848404759340586,-0.24741350342831434,-0.33455654276360586,-0.6170692298799905
86,-1.160653127914975,-0.34956256516405254,-0.47115835406966,-0.8558877972551883
87,-1.5570249027273542,-0.48354103116654024,-0.6502896689127524,-1.16383929187632
88,-2.0508286604945947,-0.6558276160383747,-0.88084264176882,-1.5535261968504854
89,-2.6550429086707563,-0.8732647074818254,-1.1723788521514114,-2.037831402172187
90,-3.381617993668242,-1.1428245715882588,-1.5348783437046196,-2.6293575028546505
91,-4.240692436152134,-1.4713178426669158,-1.9784149754558236,-3.339755500206851
92,-5.239756894630844,-1.8650523467624212,-2.5127635503376404,-4.178963323313504
93,-6.38280760527438,-2.329455173428265,-3.1469487476116185,-5.154383991625243
94,-7.669537899664801,-2.8686754726241985,-3.888750222276264,-6.270041898362576
95,-9.094620879274004,-3.4851893715613085,-4.744182394951527,-7.5257632337647
96,-10.647138190249734,-4.179431294226437,-5.716971449514033,-8.916432479179443
97,-12.310208483390978,-4.949477522658028,-6.80805569648621,-10.431380488714929
98,-14.060863643150174,-5.790807744278597,-8.015138309501815,-12.053959918548694
99,-15.870210806565025,-6.696168419839791,-9.332322885392104,-13.761359908803119
100,-17.703904006208724,-7.655557965238693,-10.749861651670134,-15.524703636981435
101,-19.522932133124115,-8.656348063934388,-12.254042938047972,-17.309459936050846
102,-21.28471094442839,-9.683548092333309,-13.827238612146784,-19.076184089463958
103,-22.94444694618819,-10.720211047588881,-15.44812399996539,-20.78158392308123
104,-24.45672118391167,-11.747969997585425,-17.092073341922116,-22.379886365488606
105,-25.777222825495432,-12.747684592149488,-18.731724250570068,-23.824458220149342
106,-26.86454787877794,-13.700168332123708,-20.33769585118911,-25.069614779587006
107,-27.681969046697784,-14.58695987158238,-21.879437668655644,-26.07253289079471
108,-28.19907954844332,-15.391096412017138,-23.32617974543648,-26.79517269537505
109,-28.393217092862947,-16.09784481973515,-24.647948611751403,-27.206105627324074
110,-28.250584305332623,-16.695346892581842,-25.816608424483924,-27.282146243139834
111,-27.76699860218498,-17.175139298561493,-26.806882088589873,-27.009692451197274
112,-26.94822686009986,-17.532515938366895,-27.597304157974445,-26.385692523248455
113,-25.80988636472355,-17.766710299352315,-28.171056716382505,-25.41817695446496
114,-24.376921222068425,-17.880887040455676,-28.51664211538876,-24.126317487906654
115,-22.68269078242269,-17.8819446537577,-28.628352786143143,-22.54000295921829
116,-20.767732120546167,-17.780143656262645,-28.50650803693238,-20.698950550189434
117,-18.67828066794117,-17.58858650642177,-28.15743979668511,-18.651399822091143
118,-16.46464967897498,-17.322585488167114,-27.593222278896203,-16.452463341605498
119,-14.17957839515485,-16.99896248175293,-26.83115322609703,-14.16222955146006
120,-11.87665928928291,-16.63532917794258,-25.893005962607397,-11.843728704868049
121,-9.608946429336768,-16.249397408125123,-24.804081746312253,-9.560879780863802
122,-7.427830194505197,-15.858366511380567,-23.592101030144526,-7.376534458370028
123,-5.3822390610910205,-15.478428041865323,-22.28598033877286,-5.350723260299449
124,-3.5181982279525337,-15.124417980386585,-20.91454834153192,-3.539189434780111
125,-1.8787397680740947,-14.809633689930445,-19.505259856057922,-1.992269546637022
126,-0.5041230552786683,-14.545818211941896,-18.082969321207184,-0.7541485002962525
127,0.5677090494830977,-14.343299415058759,-16.66882518316613,0.13751638553972256
128,1.6329042682857362e-10,-1.8375103800225252e-10,1.0934995348171841e-10,4.961370058815658e-11
129,4.057244489099078e-09,-3.90475224128351e-09,2.306364211647076e-09,1.5180471357145826e-09
130,4.3293095648808725e-08,-4.343178771078065e-08,2.5052120374240746e-08,1.5881300218008537e-08
131,3.0536469234384106e-07,-3.19154337646027e-07,1.8022882775885504e-07,1.1088323725104299e-07
132,1.5904900113122944e-06,-1.7580616236134509e-06,9.69683245425444e-07,5.689464182245062e-07
133,6.537506134630685e-06,-7.76732058444776e-06,4.1727755561748275e-06,2.29248127806042e-06
134,2.2111153915177914e-05,-2.8764917326729796e-05,1.4994008517794232e-05,7.548760750479432e-06
135,6.334319544325165e-05,-9.213223074379079e-05,4.638322156406054e-05,2.085233448526021e-05
136,0.0001569276733233608,-0.0002612966895409308,0.00012640370200296637,4.910754483253785e-05
137,0.0003412134085751873,-0.00066836924370957,0.0003090624278182192,9.922045953331455e-05
138,0.0006572962998306544,-0.0015648437707834178,0.000688245852045786,0.00017064416586744257
139,0.0011252984333396875,-0.003394244514635291,0.0014136989144742616,0.0002401637802955084
140,0.0017008741762245365,-0.006889380051701343,0.0027077282139157817,0.00023676840665770783
141,0.0022088442087280125,-0.013195212293622532,0.0048815529927232655,5.3516717501383986e-06
142,0.0022526663440688203,-0.02401636832343421,0.008350582726312866,-0.0007411820169138619
143,0.0010997720345121598,-0.041786005992421923,0.013647777541055589,-0.0024812000466012817
144,-0.0024559444626598742,-0.06985000188329032,0.021433274596938636,-0.005954115376089694
145,-0.010251373424433389,-0.1126572343138351,0.032496808264097767,-0.012238697626371196
146,-0.024925417937335756,-0.17594318799806732,0.0477477900240391,-0.022836470894151153
147,-0.05009521980788023,-0.2668904866668604,0.06818706971958874,-0.03975501694748992
148,-0.09052481965478915,-0.39424670949987284,0.09485490153087849,-0.06558423986775992
149,-0.15226987873824213,-0.5683774800886994,0.12875145928691276,-0.10355693126222777
150,-0.24277837434854754,-0.8012318726673379,0.170728902374968,-0.15758343637595765
151,-0.37092440746798055,-1.10619809917071,0.22135682679344934,-0.23224916816700827
152,-0.5469515576904802,-1.4978305465367117,0.2807654334051845,-0.33276361978134367
153,-0.7823042430750659,-1.9914346548422166,0.34847272973179283,-0.4648506594995573
154,-1.089330237391989,-2.6025038209298077,0.42320374093006996,-0.6345722702288444
155,-1.4808443931429656,-3.346012203671007,0.5027114445694034,-0.8480813537052654
156,-1.9695524466553633,-4.235578516147965,0.5836113044801828,-1.1113037100123129
157,-2.567344374395277,-5.282527897712228,0.661243824699505,-1.4295547686863963
158,-3.284478629853879,-6.494890861613434,0.729581918547243,-1.8071028323532181
159,-4.128690561095624,-7.876389095246367,0.7812011370339854,-2.2466968649223857
160,-5.104269042615323,-9.425466516766855,0.8073299437877798,-2.7490824840822445
161,-6.211153962135633,-11.134429576381914,0.7979937324601479,-3.3125343235414566
162,-7.444113331491614,-12.988762650246937,0.7422603960805398,-3.9324361304782514
163,-8.792062174290031,-14.966682111216716,0.6285879652454222,-4.6009417683637075
164,-10.237585284474976,-17.03898608068458,0.4452674113721364,-5.306750383189925
165,-11.756721617933843,-19.16924597349575,0.18094708906470602,-6.035026946383725
166,-13.319059014347944,-21.314370896555186,-0.17478034683507782,-6.7674948982502015
167,-14.88817438951849,-23.425557178089157,-0.6307527968392953,-7.482720707168535
168,-16.422437044728756,-25.449613564551402,-1.1936045761703327,-8.15660102029427
169,-17.876171963566218,-27.330629155541757,-1.8671573261610848,-8.763052018700476
170,-19.201156790223887,-29.011927564564086,-2.651873885242383,-9.274888044270526
171,-20.34840222635717,-30.438228919092527,-3.5444147185780697,-9.664863368195899
172,-21.270143125690016,-31.557922969620105,-4.537334918226522,-9.906838280457
173,-21.921948857821278,-32.32534333375514,-5.618954397570691,-9.977019652663005
174,-22.264848108196215,-32.7029259648002,-6.773424971054609,-9.855217602096348
175,-22.26735593831319,-32.66313501960216,-7.981006497443509,-9.526054306596045
176,-21.90729017301916,-32.19004663914444,-9.218551520124219,-8.980058764379166
177,-21.17327046109192,-31.280495445733276,-10.460185213343319,-8.21458274440239
178,-20.065806778859045,-29.94470904331055,-11.678155961035072,-7.234478642040194
179,-18.597903935543638,-28.20638128418821,-12.843822121927776,-6.052489332387448
180,-16.795133309830927,-26.102164031202662,-13.928732685019787,-4.689312909031034
181,-14.695150920285363,-23.680587852283317,-14.90575366627572,-3.17332067135963
182,-12.346670586931038,-21.000452676234097,-15.750188396665141,-1.5399241348083388
183,-9.80793089615104,-18.12875805189339,-16.440838595089147,0.16939470160698405
184,-7.144722999363833,-15.138267518386023,-16.960954647006147,1.908357232582745
185,-4.428070666148758,-12.104821186033423,-17.299027979570145,3.6274167310926044
186,-1.7316724961728502,-9.104523735464529,-17.449385665861996,5.275477586414159
187,0.8707722784506206,-6.210940895927216,-17.41255688823287,6.801730513598854
188,3.3082286800332232,-3.4924357542457485,-17.19539196319647,8.157521853217457
189,5.514858793029674,-1.009767147240297,-16.810926606815524,9.298172167065344
190,7.432309797199833,1.185943455268782,-16.277996423349514,10.18466095380779
191,9.011661091174751,3.0547916780313824,-15.620618667999555,10.785100559966562
192,-5.160784291998789e-10,2.279878126406547e-11,-1.2253625476448e-10,-2.7132138850576237e-10
193,-1.0268750627594748e-08,4.750631819742856e-10,-2.6227193490484995e-09,-5.914245729850008e-09
194,-1.1252782920613471e-07,5.253389514133892e-09,-2.9368324801345588e-08,-6.481652912008487e-08
195,-8.105780766927781e-07,3.843784420965518e-08,-2.1691725167932574e-07,-4.6913739668580055e-07
196,-4.347005211196915e-06,2.1043026745392525e-07,-1.1989339861974615e-06,-2.5327965929341973e-06
197,-1.8588632502591913e-05,9.22613012944202e-07,-5.304534868066558e-06,-1.0918452991123842e-05
198,-6.624087224022868e-05,3.384023215511334e-06,-1.9631803837904475e-05,-3.928678467250576e-05
199,-0.00020305502823344987,1.070920911728545e-05,-6.271256091027873e-05,-0.00012180552820427123
200,-0.0005485650833786035,2.9923140977600194e-05,-0.00017706090716437217,-0.00033338240238613663
201,-0.0013315106591545987,7.515633105746143e-05,-0.00045016577297249817,-0.000821161807283249
202,-0.0029500339994556544,0.00017212559936425636,-0.0010463296994637232,-0.001849018377055248
203,-0.006044955746586079,0.0003636667300766643,-0.002251252625026076,-0.0038559124759881603
204,-0.011583534053789852,0.0007156680474001909,-0.004530579976011941,-0.007528293411998386
205,-0.020950724996321446,0.001322337565809352,-0.008602923838682094,-0.013886109223601725
206,-0.03604427853412902,0.0023094079224724347,-0.015527125706783957,-0.02438104136624221
207,-0.059368568898540676,0.003833697776785127,-0.026802661491699572,-0.041004128702757034
208,-0.09412001881713752,0.006077417542133756,-0.04448092763466991,-0.06639807843953675
209,-0.14425484999590746,0.009235703305911771,-0.07128354097057926,-0.10396752906421339
210,-0.21452802966946435,0.013496049868983444,-0.11072163119227534,-0.15797850777682992
211,-0.31049094363428226,0.019008574510157795,-0.16720747231241825,-0.23363645193354976
212,-0.43843508998866026,0.02584640454680025,-0.24614700621132748,-0.3371307283088181
213,-0.6052706178408864,0.03395600197763581,-0.35399940150566533,-0.4756330145690638
214,-0.818332251955147,0.04309797727181924,-0.49828837374164464,-0.6572375609208683
215,-1.0851105823912646,0.05277991536570089,-0.6875500022754989,-0.8908332796501165
216,-1.4129129943092198,0.062183889995140997,-0.9312033866369867,-1.1859006587236802
217,-1.8084648970616228,0.07009256240594976,-1.2393335959906298,-1.552230515812208
218,-2.2774681314586824,0.07481889143128635,-1.6223807563316517,-1.9995665671194272
219,-2.824139389199423,0.07414535238702967,-2.0907345100899946,-2.5371795489660403
220,-3.4507566620149204,0.06527900637748513,-2.654239217600782,-3.1733867735754835
221,-4.157245476022678,0.044828649417404234,-3.3216219038085355,-3.9150368848621153
222,-4.940838393004246,0.008809532142141481,-4.099861841873516,-4.7669846459601155
223,-5.795840979402349,-0.04732020115613724,-4.993527538463009,-5.7315845391347535
224,-6.713535131163891,-0.12858903361528792,-6.004113419047824,-6.808234573958473
225,-7.682246015549305,-0.24040736198987564,-7.129414304173879,-7.993002624270704
226,-8.687591305559996,-0.38843057286509003,-8.3629802288168,-9.27836635513526
227,-9.71292073972363,-0.5783940818080718,-9.693696496913308,-10.653094056590819
228,-10.739941001096595,-0.8159264687174057,-11.105533175764439,-12.102287574097156
229,-11.749506762508561,-1.106348530602366,-12.577503801144182,-13.607600440653087
230,-12.722544601879479,-1.454467386450145,-14.083864612898406,-15.147634716245864
231,-13.64106304515158,-1.864375569019797,-15.594573528679904,-16.698509317016043
232,-14.489189993046331,-2.339265159983644,-17.07601318248437,-18.234581293066913
233,-15.254169324579756,-2.881266337213489,-18.491965945043567,-19.729290435439324
234,-15.927243160706416,-3.4913181705910437,-19.8048122156063,-21.1560878148859
235,-16.504346479194965,-4.169077232541504,-20.97690758809737,-22.48940129757401
236,-16.98654726148525,-4.912866819103113,-21.972080644520297,-23.705586367830463
237,-17.380177831481387,-5.7196666288137585,-22.757181749866998,-24.78380912338548
238,-17.69662057848368,-6.585139951539039,-23.30360489104901,-25.706810450509998
239,-17.95173240061616,-7.503693058133411,-23.588700001893915,-26.461506305471865
240,-18.16491557067568,-8.468559761412486,-23.596993217383904,-27.039388453215967
241,-18.357866944857882,-9.47190318030158,-23.3211379182416,-27.43670212706302
242,-18.553061245835547,-10.504926688001644,-22.762530673061935,-27.65439080872474
243,-18.77204624411629,-11.557986929324468,-21.931542911420014,-27.69781271493074
244,-19.033646461945562,-12.620703654728608,-20.847340231066696,-27.57624782548037
245,-19.352185922164537,-13.682063818300925,-19.53728495786183,-27.3022275743196
246,-19.735847885318993,-14.730520650005067,-18.035942108842196,-26.890730642212123
247,-20.185289545061767,-15.754091816250202,-16.383732627835677,-26.358296636253105
248,-20.692621954370804,-16.74046381860283,-14.625299323002888,-25.722114122220287
249,-21.240850271778807,-17.67711194740888,-12.807669164349328,-24.999140230994648
250,-21.8038469694635,-18.551446009997214,-10.978309284871246,-24.20530589287145
251,-22.34690139720567,-19.350991480734283,-9.183181918305868,-23.354853819490813
252,-22.827854236972136,-20.063613659677138,-7.46490452138479,-22.459846057554074
253,-23.19878741004461,-20.67778903165094,-5.861114963088963,-21.52986511445309
254,-23.40820239626257,-21.182923541758257,-4.403128279453304,-20.571918485922744
255,-23.403586098224874,-21.56971225400295,-3.1149523253317,-19.59054209140422
256,2.98887101039141e-10,-5.666990900425216e-11,-1.4008433695032704e-10,1.193290680109636e-10
257,6.61587819484355e-09,-1.2616409951220064e-09,-3.038275498831527e-09,2.6244120907534028e-09
258,7.109295218803031e-08,-1.4230977695202906e-08,-3.261757400363662e-08,2.7822544660101846e-08
259,5.033990339189555e-07,-1.0660443235967552e-07,-2.3177033272973175e-07,1.938534420844104e-07
260,2.6461678799151135e-06,-5.992819026976923e-07,-1.2308451012779356e-06,9.986783417222012e-07
261,1.1043519513537442e-05,-2.704814654015354e-06,-5.231006875303522e-06,4.06329536505824e-06
262,3.82198831086293e-05,-1.0240329820213965e-05,-1.8604597459096804e-05,1.3614898678391764e-05
263,0.0001131470605120922,-3.354400134786532e-05,-5.717460502692608e-05,3.8668801278383755e-05
264,0.0002933649051831502,-9.730171142348822e-05,-0.00015555147307324443,9.502892065949729e-05
265,0.0006787530059269347,-0.00025450152206196855,-0.0003818945441090026,0.00020500991283392016
266,0.0014229711238071601,-0.0006090118272961794,-0.0008592774172325946,0.00039170772912223333
267,0.002737622101798666,-0.0013492100923699266,-0.0017946242299473113,0.0006642941729245005
268,0.004884603012489574,-0.002794643204421393,-0.0035160914289998632,0.0009913759523388478
269,0.00815328649334726,-0.0054569263967920445,-0.006519817748094628,0.001260570786003857
270,0.012820149375421945,-0.010115063718044454,-0.011527005086602066,0.0012235153877872033
271,0.019088808553966923,-0.017904160686060166,-0.01955206245488913,0.0004262053701100362
272,0.02700850293222804,-0.03041511120378103,-0.031981807922751834,-0.0018749832784982622
273,0.03636953462835516,-0.049801252734054294,-0.05066442257264582,-0.00681063301884094
274,0.04657544384908195,-0.07888618129448395,-0.07800518656174679,-0.016006915530488837
275,0.0564938464613798,-0.12126496284776178,-0.11706440903008856,-0.03170164129482936
276,0.06429107974838436,-0.18138905472284034,-0.17165183347281,-0.05686124104253614
277,0.06726029571123586,-0.26462366716116037,-0.2464114139174325,-0.09528878989026092
278,0.06165820141171696,-0.3772654234206047,-0.3468906380605877,-0.15170935104755062
279,0.042571306565191876,-0.5265083625212252,-0.4795891299691013,-0.23181541246829154
280,0.003836961861189818,-0.720347827027898,-0.6519815738190184,-0.34225289154775723
281,-0.06195325098640091,-0.9674147128644235,-0.8725096965682337,-0.4905276059931011
282,-0.16334022853966393,-1.276736861952612,-1.1505372002937864,-0.6848132320947549
283,-0.30974869592131277,-1.6574297014050685,-1.4962607074566332,-0.9336443020943231
284,-0.5110819799745344,-2.118323959844313,-1.9205697542947064,-1.2454816139996698
285,-0.7771458023573556,-2.6675437504995063,-2.434850152258342,-1.6281427669141275
286,-1.1168964093545997,-3.3120530238762487,-3.05072751497926,-2.088097775463074
287,-1.5375207731870772,-4.0571921315694155,-3.7797506739146707,-2.6296390431639205
288,-2.0433709711762953,-4.906228843117078,-4.633017124033216,-3.253946107091181
289,-2.634790096772168,-5.859949269313372,-5.6207439583347485,-3.9580776570873666
290,-3.306881991730244,-6.916313068078274,-6.751788081263372,-4.733935177927436
291,-4.04829065803943,-8.070193086019712,-8.033119558385627,-5.567253134719515
292,-4.840066747345537,-9.313211440219419,-9.469252662082035,-6.43667954072819
293,-5.654707704104676,-10.633671978166705,-11.061641110069996,-7.313018116581291
294,-6.4554643252355985,-12.016574185543377,-12.808047133587852,-8.158708772609904
295,-7.196008078936559,-13.443677950237579,-14.701897589638257,-8.927625344200388
296,-7.820548030577813,-14.893574447109218,-16.73164312669803,-9.565265980012475
297,-8.26447163101576,-16.341707768416004,-18.88013751432194,-10.009400347971333
298,-8.45555984992401,-17.760286054274662,-21.124053916098294,-10.191218675296767
299,-8.31579646377507,-19.118020408913893,-23.4333546729572,-10.03700236216601
300,-7.76375724584232,-20.37963543537537,-25.770832873471672,-9.47030724369651
301,-6.7175303717210175,-21.505107895318417,-28.091748268443055,-8.41462083069222
302,-5.098086093905623,-22.448611085095806,-30.34358591921722,-6.796425195024498
303,-2.8329821652636746,-23.15717237757928,-32.465971395623946,-4.548567946535366
304,0.13973767094691103,-23.56908861516789,-34.390779589412446,-1.6138155316361247
305,3.8676198024156654,-23.612185673581997,-36.042474275214026,2.0515626295290574
306,8.380037400224385,-23.202050937363325,-37.33871215606096,6.474351379838075
307,13.684782432408152,-22.24040722125674,-38.191238612108066,11.661273503298874
308,19.765205535764593,-20.613830682922117,-38.50709368734082,17.596387286605303
309,26.578081722042658,-18.193040028710005,-38.1901373374658,24.23917556679682
310,34.052353368055584,-14.832995523212395,-37.14289359510002,31.523481346699377
311,42.08886493571748,-10.374039225861305,-35.26870387277325,39.357410832159026
312,50.56115920010251,-4.644278600798469,-32.474168596135705,47.6242810435938
313,59.31735596286189,2.5366373192396767,-28.671841770376876,56.18463896810962
314,68.18308465665979,11.352275033803826,-23.783123893230886,64.87932566919946
315,76.96539453206829,21.98272538252895,-17.741275742708385,73.53350473832286
316,85.45752223722161,34.596586689332966,-10.494451835841737,81.96152258663078
317,93.44435827406197,49.341853933633786,-2.0086315510500996,89.9724209283232
318,100.70842265301168,66.33605274578233,7.729688643759072,97.37588203991383
319,107.03613735161916,85.65605524801379,18.711184721948975,103.98835754382428
320,-8.075214835235294e-10,1.4890518475924595e-09,9.584359827979994e-10,-4.162064712233426e-10
321,-1.750772592909814e-08,3.1432870415647265e-08,1.9978587814565017e-08,-9.210630885931609e-09
322,-1.9337285539858228e-07,3.501160438502018e-07,2.246050869039514e-07,-1.0192268918366453e-07
323,-1.4102080988228474e-06,2.5738457656738504e-06,1.6704415750079406e-06,-7.465411084883547e-07
324,-7.688082854819448e-06,1.4181926748089446e-05,9.328064283417298e-06,-4.089360893555151e-06
325,-3.353293184402808e-05,6.266406241502929e-05,4.183592032080793e-05,-1.793031028384554e-05
326,-0.0001223239091034416,0.00023205447810418166,0.0001574484889957519,-6.578110293708278e-05
327,-0.00038521793094392577,0.0007431193167204627,0.0005128817810891764,-0.0002084173317742982
328,-0.0010727237119469463,0.002106896323779906,0.0014799354436343555,-0.0005840972970213347
329,-0.0026920205886828735,0.005386738332719246,0.0038515834460243637,-0.0014755193022300466
330,-0.006181964822373656,0.012603996726107933,0.009172049948197423,-0.003411383235485214
331,-0.013155044214737625,0.027316310799746318,0.02022260926378258,-0.007309296522699296
332,-0.026211869381751313,0.055385957344394984,0.041686251582850886,-0.01466501212388768
333,-0.049329291977553265,0.10594075636143714,0.08100120469004513,-0.02779071734875061
334,-0.08831762701708137,0.19251301080139058,0.14939716215132454,-0.05010219001348467
335,-0.1513355225980649,0.33432341753757117,0.2630901118594632,-0.08645095850318034
336,-0.2494427399968148,0.5576561510228744,0.44459191129227316,-0.14349306265327416
337,-0.3971616038628282,0.8972476233307094,0.7240687086804235,-0.23008058310657928
338,-0.6130073711756128,1.3975847717163767,1.1406575570107536,-0.3576558318041886
339,-0.9199369566775911,2.1139807661958643,1.7436240279999602,-0.5406213412133294
340,-1.3456559630811709,3.1132704231334047,2.5932179303032177,-0.7966524368141046
341,-1.922717988998558,4.473949194581624,3.761063517454708,-1.1469144740592307
342,-2.6883497410350596,6.285573779244995,5.329909794450567,-1.6161448988272369
343,-3.6839415605353194,8.647253549864699,7.3925701701502815,-2.2325617358579883
344,-4.954155703912639,11.665092917227193,10.049902061289163,-3.0275649902198962
345,-6.545623691607699,15.448495706005284,13.407717383860412,-4.03520559548278
346,-8.505228717495516,20.105311697513745,17.57257345884525,-5.291407754163972
347,-10.877998395290694,25.735888605737955,22.64646790683255,-6.83294439150066
348,-13.704665175607952,32.42618462793439,28.720546371263165,-8.69618120175448
349,-17.018984145943676,40.2401911659469,35.86802295466803,-10.915621285934662
350,-20.844928204906925,49.21200587825344,44.13660395179966,-13.522298494429235
351,-25.19390667158393,59.337976318122465,53.54078920077574,-16.54208226471804
352,-30.062173135561693,70.56939729844663,64.05449511550464,-19.993968974462234
353,-35.42859942550116,82.80628437633142,75.6044923405079,-23.888443478120955
354,-41.25299255485809,95.89275531909685,88.06517258653209,-28.225998374200373
355,-47.475118760749666,109.6145262165619,101.25514857283008,-32.99589679002242
356,-54.01457283322815,123.69896575530626,114.93614479880249,-38.17525677150505
357,-60.771592553522524,137.8180495639758,128.81455414884002,-43.72852198923353
358,-67.62886865818176,151.59441891472915,142.54591758581478,-49.607365053832574
359,-74.4543426404975,164.61058050291797,155.74243588191305,-55.7510472818116
360,-81.10492145015802,176.42109570570017,167.98345070920038,-62.08723377906287
361,-87.4309746162596,186.5674107109683,178.82864742296132,-68.53323725545384
362,-93.28142096300742,194.5947870400608,187.83354544428636,-74.99764029267571
363,-98.50916382519122,200.07061969946864,194.56666739269787,-81.38222584104338
364,-102.97659939236529,202.60329141139607,198.6276285051549,-87.58413101074478
365,-106.56090537462207,201.86061794948122,199.66527594264736,-93.49813079215093
366,-109.15881869981773,197.58690070740346,197.39494398154392,-99.01895686144204
367,-110.69063233404263,189.61762355757224,191.61388307872954,-104.04356220529674
368,-111.1031818019738,177.89091323827944,182.21397165710064,-108.47325421980054
369,-110.37164890761547,162.4550229023045,169.1909278678305,-112.21563568818489
370,-108.50007965623774,143.47129010441637,152.64939925946211,-115.1863127357662
371,-105.5205909911192,121.2122524682804,132.80351231105345,-117.31034967754911
372,-101.49132180752544,96.05486272467549,109.9726995161609,-118.52347094791942
373,-96.49326223525804,68.46901361752545,84.57287500121514,-118.77302830292881
374,-90.62616524214141,39.00184522198056,57.10328467128948,-118.0187653425712
375,-84.00380043791638,8.25854559133235,28.12959704764854,-116.2334194514425
376,-76.74884713022128,-23.119445369854883,-1.735989627674356,-113.40320252694984
377,-68.98773968999991,-54.47777241866686,-31.856683389649266,-109.52819630430413
378,-60.845772179595336,-85.17290136358278,-61.59402670562632,-104.62268640414173
379,-52.44274146122137,-114.59509861692878,-90.33071661933427,-98.71544270220274
380,-43.88936067920103,-142.18954985857866,-117.49223092423074,-91.84993408642508
381,-35.28461200462529,-167.4746313873849,-142.56625047848502,-84.0844455411546
382,-26.714134276127105,-190.05652185175072,-165.1190004946564,-75.49204750725124
383,-18.249663667152436,-209.63956028143286,-184.80781440857706,-66.16035410124933
384,4.518778820175394e-10,-5.197412032445308e-10,-3.1809813328029154e-10,1.809473156745079e-10
385,9.204515843651906e-09,-1.108694042151604e-08,-6.477289746963669e-09,3.9933264365263234e-09
386,1.0009316220363159e-07,-1.2386922814351628e-07,-7.261373283599257e-08,4.3739848358880817e-08
387,7.175757859164728e-07,-9.140666887266805e-07,-5.37029749301086e-07,3.1595666107945914e-07
388,3.826957750538929e-06,-5.057145610912774e-06,-2.9782022449036772e-06,1.6981742158356637e-06
389,1.6253222539888327e-05,-2.2443576064182313e-05,-1.3248506916208935e-05,7.265489426709995e-06
390,5.744254988211199e-05,-8.349855345832223e-05,-4.9406367591072626e-05,2.585717488220002e-05
391,0.00017436761226844908,-0.00026869268067936927,-0.00015936940763378895,7.9000603881954e-05
392,0.0004657160150063767,-0.0007656353796251389,-0.0004552482781373991,0.00021227037575715068
393,0.0011157497552292217,-0.0019676142092183097,-0.0011730034758561814,0.0005113734578002373
394,0.002436002796061615,-0.004627997320800185,-0.0027667438984625378,0.001122239176826379
395,0.00491133405838217,-0.010083170353924802,-0.0060464387947725615,0.0022736851517232344
396,0.009246319827217356,-0.020552820347552393,-0.01236603839972029,0.004301111126380957
397,0.01640813443655159,-0.03952105017627481,-0.02386614299762988,0.007669941112331706
398,0.027662114769858415,-0.07219555570627434,-0.04377146227141589,0.012997718432303396
399,0.04459569765554042,-0.12603519308449454,-0.0767384116397494,0.021073539939503134
400,0.06912558413945638,-0.21132850046222604,-0.1292423584455301,0.03287293212809174
401,0.10348226722719978,-0.34179681034775483,-0.20998751774399685,0.04956557330348287
402,0.15016575932184803,-0.5351853631601805,-0.330315675928705,0.07251268575067364
403,0.2118665954035625,-0.8137948318312905,-0.5045831592963511,0.1032506307243388
404,0.29134734900641485,-1.204895145987644,-0.7504691095839486,0.14345742098525327
405,0.39128240809886783,-1.7409552996164093,-1.0891725410499578,0.19489967054129134
406,0.5140577100235142,-2.4596190113452376,-1.5454516033343948,0.2593588668646563
407,0.6615368732555745,-3.4033584023739283,-2.147457188676157,0.33853743590059987
408,0.8348047121982345,-4.61874736200063,-2.9263160987077885,0.43394648564524163
409,1.0339028426778167,-6.155313125068833,-3.915427713446852,0.5467782398024729
410,1.2575748541470864,-8.063948128992601,-5.149452982440685,0.6777671964025439
411,1.5030404135714692,-10.394893025759727,-6.662994874719124,0.8270451714641327
412,1.7658183854655074,-13.195333965522307,-8.488993491081958,0.9939965492848354
413,2.0396182118605046,-16.506690800783872,-10.656884523856062,1.17712098619928
414,2.316316267208479,-20.361705439252837,-13.190594251347889,1.3739113210367253
415,2.58603010906205,-24.781468918321465,-16.106465756071202,1.580754598849134
416,2.837298884302754,-29.772549552502518,-19.411228091177577,1.7928640507989488
417,3.05737267301025,-35.324400482780234,-23.100131823396474,2.0042495555956474
418,3.2326069975454823,-41.407230976470295,-27.155380099457634,2.207733341695379
419,3.348951252012455,-47.970520145260714,-31.544983425240495,2.3950163829837154
420,3.392512216117838,-54.9423331836637,-36.222157648291855,2.556799237969609
421,3.3501671161621247,-62.229568580879864,-41.12536701606162,2.682959187731037
422,3.2101955103017827,-69.71922088494561,-46.17908674604406,2.7627834379859326
423,2.962895667564972,-77.28068962878223,-51.2953224580421,2.7852556754210465
424,2.6011492179898887,-84.76910414940252,-56.37587869049393,2.739390325102952
425,2.1208981308093198,-92.02957035315293,-61.3153187576515,2.614605692426634
426,1.5215011493068933,-98.90218359939587,-66.0045077413668,2.4011242340893704
427,0.8059427267622692,-105.22759646378432,-70.33458419708775,2.0903858056156834
428,-0.01912427115817438,-110.85288558376288,-74.20116857757748,1.6754579347577796
429,-0.9435111301225098,-115.6374317184027,-77.50859074818999,1.1514259339205444
430,-1.9537995246344537,-119.45851430105505,-80.17390732296401,0.5157450722202798
431,-3.0338088139814974,-122.21632759348209,-82.13048258888897,-0.2314627598698588
432,-4.1652011847264285,-123.83815025352159,-83.33092425757901,-1.0871843904842842
433,-5.328192382458342,-124.2814424135154,-83.74919618212141,-2.045377383202573
434,-6.502329205661576,-123.53570164719262,-83.38177301339998,-3.0969308813824417
435,-7.667291005945155,-121.6229776394017,-82.2477544138604,-4.229734076757923
436,-8.80367090399784,-118.59702030540264,-80.38791611188721,-5.428856728591157
437,-9.89369312917246,-114.54111232972694,-77.86273819954727,-6.676840863475787
438,-10.921826137900071,-109.56470935890101,-74.74951351634952,-7.95409703330853
439,-11.875257189516722,-103.79907451959126,-71.13869631582249,-9.239392892194099
440,-12.744202587644727,-97.39214440079031,-67.12969931065986,-10.510416766459477
441,-13.522037966008325,-90.50289811989377,-62.8263817606526,-11.744394505996352
442,-14.205244017435504,-83.29551774724679,-58.33248942453035,-12.918734424277815
443,-14.79317443675872,-75.93362668787265,-53.74730717428141,-14.01167295151168
444,-15.287664169876,-68.57487336329558,-49.16176668651595,-15.002893153926882
445,-15.692506548296631,-61.366092698918415,-44.65521643389554,-15.874089650665258
446,-16.012836451334458,-54.43923062960405,-40.29301232793639,-16.609456497220712
447,-16.2544624521725,-47.908161104347414,-36.12502910533097,-17.19607900654037
448,-5.331370309000328e-10,-4.817812366368157e-10,-4.427016126018752e-11,-2.9173152099606973e-10
449,-1.1563507586503286e-08,-1.0554481032597084e-08,-5.856369449150547e-10,-6.375600638254478e-09
450,-1.2465650210884688e-07,-1.1779381031709735e-07,-7.191959950699099e-09,-6.890687642172936e-08
451,-8.872095310813921e-07,-8.705845237841724e-07,-5.630972212104281e-08,-4.92022133616694e-07
452,-4.706111285016941e-06,-4.822542850341277e-06,-3.3231000685342896e-07,-2.6196647191948617e-06
453,-1.9913035598905636e-05,-2.142535924136789e-05,-1.5746644466666525e-06,-1.1131190377653001e-05
454,-7.025909571213211e-05,-7.978209827394306e-05,-6.259813805392655e-06,-3.945593512405108e-05
455,-0.000213380177572308,-0.00025691530582645837,-2.152752959763961e-05,-0.00012042691292773492
456,-0.00057149434147887,-0.0007324575180565005,-6.554127043818491e-05,-0.0003242264238638922
457,-0.0013760850929503516,-0.00188300802575856,-0.0001798576219163289,-0.0007848683583477619
458,-0.003026219327634847,-0.004429921081647616,-0.0004512570650111877,-0.0017352019004004007
459,-0.006158430561361401,-0.009652690598909865,-0.001047048270357248,-0.003549272728402448
460,-0.011725280561195293,-0.019676666440176814,-0.0022676843037958564,-0.006790254338229383
461,-0.02107947004953154,-0.03783922375212557,-0.004619346204229396,-0.012262058670401817
462,-0.03605999835608678,-0.06913319859097089,-0.008907000058275525,-0.02106284091779494
463,-0.05907599187657716,-0.12072049854665323,-0.016345811283649914,-0.03463860828029045
464,-0.09318255031682234,-0.2025019618535581,-0.028686385136352046,-0.054834845051121725
465,-0.14214155805444145,-0.32772136795535506,-0.048347564556204925,-0.08394338432663957
466,-0.21045900425733124,-0.5135718591589485,-0.07854944500199013,-0.1247406756704973
467,-0.3033891747547541,-0.7817623923265863,-0.1234383580950518,-0.18051233759023372
468,-0.4268957626539862,-1.158991333603633,-0.18819420884033058,-0.25505799738812973
469,-0.5875613133999695,-1.677265570083488,-0.2791084145938895,-0.35267056202515445
470,-0.7924397919788079,-2.373998366233991,-0.4036181171560179,-0.4780855147100725
471,-1.048851842032806,-3.2918192251344642,-0.5702802759729672,-0.6363982412157033
472,-1.3641274054382475,-4.478035304250758,-0.788668951707324,-0.8329500085869781
473,-1.7453049729780095,-5.98369681817959,-1.069181487218748,-1.0731854148536069
474,-2.1988006179431463,-7.862237981620992,-1.4227446133376338,-1.3624856885609116
475,-2.7300631302861227,-10.167689408462683,-1.8604191072571497,-1.70598323616212
476,-3.343233799396207,-12.952486075056761,-2.3929103951140216,-2.108363447207163
477,-4.04083035217642,-16.26492526698731,-3.0300012683862714,-2.5736600632632713
478,-4.823474192867821,-20.146359512072987,-3.779930870908964,-3.1050505434783644
479,-5.689678743406622,-24.628238443208446,-4.648750849814699,-3.7046580285045647
480,-6.635714579674774,-29.729138846615,-5.639694704233327,-4.373366797744196
481,-7.655563950124918,-35.45194183363389,-6.7525995875899945,-5.110658336550999
482,-8.740972655576353,-41.781328111586184,-7.983420791769023,-5.9144749431789325
483,-9.881601113698364,-48.6817648980847,-9.32387772440836,-6.781117053821758
484,-11.06526940602679,-56.09614966055948,-10.76126638928197,-7.705179309647734
485,-12.27828420552692,-63.9452557958912,-12.278467297455448,-8.67952911497776
486,-13.505829415200969,-72.12809367990225,-13.854169355348372,-9.695330168289502
487,-14.732397452367996,-80.523258350442,-15.463319530084611,-10.742112148366635
488,-15.942234774026986,-88.99128456257253,-17.077794995717014,-11.807886428889946
489,-17.119774079708765,-97.37797408342865,-18.667279461982663,-12.879306585695982
490,-18.250027145477105,-105.51860250776768,-20.20030954678681,-13.941871766080146
491,-19.318916272136025,-113.24285752027164,-21.64544206609748,-14.980170648714395
492,-20.313528103943842,-120.3803113695869,-22.97248101998107,-15.978163388987655
493,-21.22228029607163,-126.76619096367048,-24.153695634616383,-16.91949827455081
494,-22.034998805300024,-132.2471824774487,-25.164959113577893,-17.787858728795264
495,-22.74291125474715,-136.68699582406984,-25.986741701110283,-18.567334931810358
496,-23.338569351282874,-139.97141890701812,-26.604900376295706,-19.24281280193234
497,-23.81571977088784,-142.01261219075508,-27.01121969744316,-19.800371425676985
498,-24.169147410634142,-142.75242965181818,-27.20367290505186,-20.227678321527314
499,-24.394517119372633,-142.16460041641642,-27.186388595991897,-20.514370428450615
500,-24.48824003117773,-140.2556633973587,-26.969325595465975,-20.652407730860297
501,-24.447388429309484,-137.0646114583717,-26.567676475571485,-20.63638610483721
502,-24.26967846625437,-132.6612681623549,-26.001037555041787,-20.46379624739238
503,-23.95353315352746,-127.14348498561556,-25.292398756228575,-20.135216438562846
504,-23.49822961030261,-120.63330607233364,-24.467018652318423,-19.654428635726287
505,-22.904125881215098,-113.27229760791727,-23.55125683218604,-19.028450339443733
506,-22.172954687173114,-105.21627671824591,-22.57143640146825,-18.267478815119418
507,-21.30816458528952,-96.62969830937064,-21.552804120314324,-17.384749108317326
508,-20.315283210474465,-87.67996629861439,-20.518645366019783,-16.396312079271738
509,-19.20227285323228,-78.53192822593687,-19.489597332928064,-15.320742766473675
510,-17.97984624055783,-69.3427903770487,-18.483188173219364,-14.178792452965535
511,-16.661710501640904,-60.25765641371857,-17.51361334120024,-12.992999708179982
512,2.474965293028533e-10,-1.4695511883041444e-10,-6.598959810325373e-11,2.3303368935477314e-11
513,5.5671471718857656e-09,-3.186167931201443e-09,-1.454111552513199e-09,6.539480493079025e-10
514,5.937432582189097e-08,-3.5472662855980845e-08,-1.7181595879852583e-08,6.226308564477074e-09
515,4.167915803263662e-07,-2.613184597952521e-07,-1.3386834291693065e-07,3.7306571906211166e-08
516,2.1661568163980248e-06,-1.4429476020537346e-06,-7.800398197544473e-07,1.474669564993725e-07
517,8.912594481423873e-06,-6.390500218758054e-06,-3.636421275976385e-06,3.498234597191658e-07
518,3.0311574660489487e-05,-2.3722995200938027e-05,-1.4172258161743001e-05,3.585641027884291e-08
519,8.786001265277763e-05,-7.616333871671426e-05,-4.7635774413856826e-05,-4.263140024962245e-06
520,0.00022209285520876618,-0.0002165075526661283,-0.00014134405576819912,-2.5098080290471167e-05
521,0.0004984381059467911,-0.000555046304781844,-0.0003770076528101516,-9.796352458920561e-05
522,0.0010072998382532163,-0.0013023321228535364,-0.0009171821084336891,-0.00030735634976797587
523,0.0018533289269512705,-0.002830720413555951,-0.0020594429370769775,-0.0008295744944829895
524,0.0031294554061230173,-0.005757173888407817,-0.00431047890158449,-0.0019958183995637795
525,0.004872414173777075,-0.011048596689469491,-0.00848030792333791,-0.0043776461984738595
526,0.006997413384997463,-0.020149562420517426,-0.015794802621631278,-0.008895264132049762
527,0.009210103660108018,-0.03513069504440582,-0.028023174023165714,-0.016947638039849118
528,0.010894608372755969,-0.05885400922183471,-0.04761613944460497,-0.03056173277418021
529,0.010977602057501349,-0.0951490927402418,-0.07784984005639928,-0.05255605245786043
530,0.007770409887857709,-0.1489911114648978,-0.12296954458518723,-0.08671102710817204
531,-0.001206290211022565,-0.22666843192740466,-0.18832528724285716,-0.13793584939592593
532,-0.01940734995292651,-0.3359245564217928,-0.28048884384538997,-0.21241829865057318
533,-0.05144589000194483,-0.4860565163363698,-0.40733842991800523,-0.31774109381296173
534,-0.10325789682518459,-0.6879503496311102,-0.5780951176862222,-0.4629458084363878
535,-0.18222897291412715,-0.9540341895195473,-0.8032940892069297,-0.6585240512053236
536,-0.29726147597492697,-1.2981310903131626,-1.0946750248962567,-0.916316210542369
537,-0.4587603947956604,-1.7351971248971718,-1.46497925598249,-1.2493009525055416
538,-0.6785184600948596,-2.2809354722332116,-1.927646434442782,-1.6712637395574614
539,-0.9694848536525138,-2.951283975656385,-2.4964097239631116,-2.196339500915036
540,-1.3454074440142851,-3.761781674581927,-3.1847951423080407,-2.8384328371712355
541,-1.8203458548121692,-4.7268286539386875,-4.00553708455324,-3.6105283801081534
542,-2.408061616099516,-5.858862689416687,-4.969927923641571,-4.5239135895819755
543,-3.121301377798555,-7.167484994937215,-6.087124904755616,-5.587345588198527
544,-3.9709988122279536,-8.65857525159795,-7.363442430683363,-6.806201840776324
545,-4.965429899448974,-10.333442368661425,-8.80166229951872,-8.181661033651773
546,-6.109364491542378,-12.188061477509082,-10.400398257841566,-9.709964977919565
547,-7.403263821724609,-14.212448969233222,-12.15355384371415,-11.381814254255904
548,-8.842577907201669,-16.390225560267165,-14.049913190950743,-13.181948984715921
549,-10.417197567058068,-18.698412209814766,-16.072902547882205,-15.088961070528832
550,-12.111112596779831,-21.107495229592335,-18.200555252186696,-17.075375427183555
551,-13.90232067039184,-23.58178538272926,-20.405704732089593,-19.10802559951998
552,-15.763020993665698,-26.080081644539618,-22.656419165835608,-21.1487342211272
553,-17.660112642523075,-28.556634291200925,-24.91667853217358,-23.155291679797223
554,-19.55600013020337,-30.962384980560703,-27.14728096616901,-25.08270783790012
555,-21.409689120381266,-33.246444550435086,-29.30695165444484,-26.88469298722353
556,-23.1781351895846,-35.35775356940282,-31.353614864921457,-28.51530708529849
557,-24.817790060013994,-37.24685742301757,-33.24577878523957,-29.930702365802883
558,-26.28627413198132,-38.86771798058393,-34.94397417079515,-31.090874796681327
559,-27.54409227016212,-40.17947846563008,-36.41218183731087,-31.961335146327244
560,-28.55630243372429,-41.14809750672299,-37.6191812322163,-32.514610872658096
561,-29.294044748423413,-41.74777253559086,-38.539753101062686,-32.73149574980367
562,-29.735842535464585,-41.96208143485927,-39.155673952405955,-32.601974909002834
563,-29.86859642212341,-41.78478400774091,-39.45644871287291,-32.12576816874933
564,-29.688207218536025,-41.220240631448014,-39.43974040959096,-31.31245323339393
565,-29.199781980378383,-40.2834234214013,-39.1114712313167,-30.181151546510527
566,-28.417399968404045,-38.99951441097595,-38.48558682853069,-28.75978235424348
567,-27.3634401337985,-37.403104677557714,-37.583493920338626,-27.08391377306734
568,-26.06749766258427,-35.537027062917396,-36.43319890151248,-25.195261952733468
569,-24.564941884533724,-33.4508721812235,-35.06819108447035,-23.139909172743753
570,-22.895189590642584,-31.19925183362333,-33.52612758295379,-20.966327492730002
571,-21.099785250436423,-28.839884922341668,-31.84738692878995,-18.7233054694622
572,-19.22039191379466,-26.43158786984181,-30.073564664724206,-16.45788096684534
573,-17.296802885067105,-24.032254116702234,-28.24598579928003,-14.213382996190694
574,-15.365083875187368,-21.696905570399952,-26.40430577432718,-12.027679856895405
575,-13.45594823057983,-19.475893290578856,-24.585263543937018,-9.931720024795387
576,-4.869120324951656e-10,-1.1155283611945786e-10,-9.956838034288882e-11,-2.71803265411207e-10
577,-1.0745542197674251e-08,-2.3842217512623177e-09,-2.141411537252651e-09,-5.395935489200108e-09
578,-1.1432494262625523e-07,-2.645381663714595e-08,-2.3917877954024994e-08,-5.834071018299182e-08
579,-8.036817011873672e-07,-1.9434618672406152e-07,-1.7710743505165187e-07,-4.1506818023158096e-07
580,-4.2069353888175e-06,-1.0703511614618194e-06,-9.8392170325393e-07,-2.199808543860195e-06
581,-1.75514952019899e-05,-4.729004929089962e-06,-4.386930211606578e-06,-9.30187533951889e-06
582,-6.100602114628858e-05,-1.7518014803022622e-05,-1.640037602981681e-05,-3.2800159731615925e-05
583,-0.000182367974030656,-5.614224032422153e-05,-5.3029458880490975e-05,-9.956735661994343e-05
584,-0.0004803821345692226,-0.00015937280848496468,-0.00015180020273151718,-0.0002665835831492226
585,-0.001136835323471846,-0.00040817922951661665,-0.0003917753937913842,-0.0006418199023235397
586,-0.002455734915862091,-0.0009572234682809872,-0.0009250814834320869,-0.0014116226809296757
587,-0.004906745939127381,-0.0020803981346089475,-0.0020226595315704613,-0.002873751828015823
588,-0.00916989205965355,-0.00423249520579499,-0.004136228072395325,-0.005474795014684223
589,-0.016178729455190215,-0.008128263694581835,-0.007977449605544277,-0.009850387074623015
590,-0.027158990551874377,-0.014839098578546992,-0.014614174084234472,-0.016866203163946332
591,-0.043658812339046,-0.025906356115056144,-0.02558249540318759,-0.027656963147486897
592,-0.0675654778185313,-0.04346869863031808,-0.04301219115622235,-0.043659834239994845
593,-0.10110258387446079,-0.07039885847443027,-0.06976180418887125,-0.06663781715379453
594,-0.1468009466693411,-0.1104428083146953,-0.10955797620436945,-0.09868804711955924
595,-0.20743653684917732,-0.16835172988430305,-0.16713152258112096,-0.1422295090876682
596,-0.2859297414769063,-0.2499947122037605,-0.24834019018790468,-0.19996476960453344
597,-0.38520276150044225,-0.3624381646546707,-0.36026538475987196,-0.2748113038985847
598,-0.5079959540219646,-0.5139768538007411,-0.5112679623298513,-0.369799987487518
599,-0.6566486312753955,-0.7141015151042132,-0.7109871061395568,-0.48794099924156337
600,-0.8328542054025637,-0.9733893028385281,-0.9702668788463346,-0.6320602731134669
601,-1.0374030832668373,-1.3033059834320342,-1.3009974204818389,-0.8046124079980435
602,-1.2699294515208743,-1.7159127591598176,-1.7158617313037263,-1.0074785692496944
603,-1.5286802372843504,-2.2234758610792054,-2.2279840256520833,-1.2417604011386014
604,-1.8103258489322278,-2.8379834011202028,-2.8504812324446003,-1.5075830676773545
605,-2.109832327232659,-3.570581099047338,-3.595924993840226,-1.8039218864868607
606,-2.4204130508972366,-4.430945929314187,-4.475727392160395,-2.128467318486442
607,-2.7335753537096594,-5.426623884917146,-5.499469692283581,-2.477542325859001
608,-3.039273512788285,-6.562364302267613,-6.674199650060417,-2.846084347612551
609,-3.326174405995403,-7.839487946467105,-8.00372916688477,-3.227701357995493
610,-3.5820354343530885,-9.25532881329613,-9.487969648121128,-3.6148075684141845
611,-3.794186290328498,-10.802789979359614,-11.122346447608173,-3.9988394560661162
612,-3.9500977108199793,-12.470051553935225,-12.897335309476983,-4.3705473328572815
613,-4.038012524195589,-14.240463725497388,-14.798162091981576,-4.7203521227875935
614,-4.0476077132376,-16.0926500772707,-16.80470207841401,-5.0387517735378715
615,-3.970651091284866,-18.00083601578745,-18.89160712553602,-5.316757056589838
616,-3.801612881930404,-19.93540480622439,-21.02867835389454,-5.546332811650079
617,-3.5381916853467583,-21.863670092363744,-23.181489771576178,-5.720818480183687
618,-3.181716632919116,-23.750839849103134,-25.312254871971636,-5.8353015385632725
619,-2.7373929399221946,-25.56113352227922,-27.380914541977255,-5.886919242561117
620,-2.214365898639333,-27.25900269793942,-29.346411170591733,-5.875067658718409
621,-1.625587837675765,-28.810396934545967,-31.168101220100034,-5.80150186054541
622,-0.9874832716518969,-30.184011131122745,-32.807247318432864,-5.670317172412311
623,-0.3194190505386368,-31.35244948302531,-34.22852190737421,-5.487808248003854
624,0.3570018639496203,-32.293243914830484,-35.401448600684034,-5.262210227474448
625,1.018793317673041,-32.989671793337706,-36.30170568918584,-5.0033336806265
626,1.6425464985593887,-33.43132835239436,-36.91221945949223,-4.722111921889439
627,2.2054516118489507,-33.614422971330086,-37.223983367681264,-4.430085201876263
628,2.6863289561933446,-33.54178438162047,-37.236552113191465,-4.138850903455091
629,3.0666148684577563,-33.222576979076365,-36.95817617998109,-3.8595118105537902
630,3.3312483518732647,-32.67174752008234,-36.405561083402375,-3.6021552538334953
631,3.4694081020021557,-31.909237374822528,-35.60325507231571,-3.375394227820825
632,3.4750568197194642,-30.95900904399105,-34.582688331731426,-3.185997608846985
633,3.3472593345471147,-29.847945822395722,-33.38090501747912,-3.0386309939505556
634,3.0902524642005154,-28.6046895537337,-32.03904605660696,-2.93572297436319
635,2.713257372394735,-27.25848294698593,-30.600654833468308,-2.8774642234077223
636,2.2300391209007584,-25.83807988842079,-29.109888737561285,-2.861938849987315
637,1.658232300568899,-24.370779951419138,-27.609726035245817,-2.8853794618804747
638,1.018464877475595,-22.88163257274442,-26.14025871389403,-2.9425298155416395
639,0.33332379058884487,-21.392843041101006,-24.73715733339937,-3.0270921999678517
640,3.857133085226064e-10,-1.4454275062609099e-10,-6.635584034458922e-13,2.4359600869769064e-10
641,8.459411429217427e-09,-3.1239370310040513e-09,2.951292217216555e-11,5.295762284285078e-09
642,9.11210892704973e-08,-3.482563101350691e-08,-6.772999365311228e-10,5.7424437439152975e-08
643,6.473766449473572e-07,-2.567992494704176e-07,-1.2637012790432819e-08,4.1110075269054027e-07
644,3.4224320150516887e-06,-1.4195773912641927e-06,-1.1629500398673398e-07,2.1937402092629926e-06
645,1.4409591968860187e-05,-6.295021543774984e-06,-7.352163153058263e-07,9.340582541562811e-06
646,5.05143421676259e-05,-2.340274248440969e-05,-3.5828798311381716e-06,3.317691243721475e-05
647,0.0001522397279949064,-7.526074520953718e-05,-1.4305137278433613e-05,0.00010150013891226295
648,0.0004042652555201872,-0.000214345183366884,-4.865123520554415e-05,0.0002740930718331813
649,0.00096469073031483,-0.0005506491337322553,-0.0001448908216110772,0.000666212074951108
650,0.0021025359250333477,-0.0012949237406473504,-0.00038585267013513375,0.0014809999221570772
651,0.004242506562297278,-0.002821263721404953,-0.0009341456950418776,0.0030513401780286296
652,0.008016109492409822,-0.005751712594095433,-0.0020837791267348665,0.005891497756557933
653,0.014318296164535158,-0.011064168511357442,-0.00433070115593229,0.010758725815760723
654,0.024368279594437933,-0.020223198846401655,-0.00846394931478874,0.018724523075425284
655,0.03977196539363575,-0.03533147261551838,-0.01567823550982746,0.03125430976981085
656,0.06258205403432805,-0.05929733234946702,-0.02770770506558999,0.05029311978073167
657,0.09535073842523999,-0.09601146221497163,-0.04697902604213176,0.07835365342910426
658,0.14116908586194019,-0.15052262452940088,-0.07677969249659372,0.11860171999174483
659,0.20368661995559506,-0.22919915669059912,-0.12143455546957187,0.17493272954393954
660,0.2871045880931501,-0.33985967895039354,-0.18648046722126305,0.2520316773288416
661,0.3961373592371172,-0.4918537896949634,-0.27882593658902893,0.35540834390978643
662,0.5359384023072905,-0.6960720555503471,-0.40688012652999517,0.49139941394380554
663,0.7119897996351832,-0.9648649039449197,-0.5806335010831641,0.6671297885497476
664,0.9299565906156333,-1.3118524579938906,-0.811671089255552,0.890426310005453
665,1.1955092665758076,-1.7516119621379833,-1.1130990021123703,1.1696783938786028
666,1.5141198071283164,-2.2992360030852637,-1.4993660647816807,1.51364187484422
667,1.8908390207725325,-2.9697628002721186,-1.9859657546662441,1.9311848907467453
668,2.3300653398787943,-3.7774889190028516,-2.5890093414486044,2.4309777736132787
669,2.8353170450730314,-4.735184317999325,-3.32466897863853,3.021132407095161
670,3.4090208595948415,-5.8532391496303005,-4.208498810925773,3.7088001224094036
671,4.052330082588552,-7.13878062345842,-5.2546519656615995,4.499740841994485
672,4.764985019364869,-8.594805888533454,-6.475020646343898,5.397879713755559
673,5.545227139604865,-10.219382595339678,-7.878334792215094,6.404870607573475
674,6.389775763582775,-12.00497182200928,-9.469261649494635,7.519688205322359
675,7.293872227523938,-13.937927711649063,-11.247554099681823,8.738271821277289
676,8.251392089335104,-15.998223953056796,-13.207299575584004,10.053244554029817
677,9.2550217428499,-18.159448954874772,-15.336323354428599,11.453730877171049
678,10.2964920609323,-20.389099404709768,-17.615799046777227,12.92529407874426
679,11.366858244413729,-22.649186479646886,-20.02011424765527,14.450011734909255
680,12.456811952415215,-24.89715122126326,-22.517029984053117,16.006702567261836
681,13.55700950062982,-27.087066690707406,-25.068158838633874,17.571311876037832
682,14.658398948706681,-29.171085782578196,-27.629769184785914,19.117455685086863
683,15.752529278072497,-31.101076331284368,-30.153903115346996,20.617116052861437
684,16.831826172325652,-32.830370671825065,-32.589775003000014,22.041471827070385
685,17.889820854784094,-34.3155462392569,-34.88539793334056,23.361840732675855
686,18.92132116190414,-35.518147997969244,-36.98936815953325,24.55070068832774
687,19.92251778755485,-36.40626303566832,-38.85272460804298,25.5827513883198
688,20.89102320947137,-36.955862735245844,-40.43079227978533,26.435972018103776
689,21.825845481269337,-37.15183836035208,-41.68491562606746,27.0926277399357
690,22.727303146962512,-36.98867112707253,-42.58399070960491,27.54017643867615
691,23.59689078082889,-36.47069701580992,-43.105712951238814,27.772028376900295
692,24.43710711996929,-35.61194855827878,-43.2374701252155,27.78811509997739
693,25.251259288773493,-34.435579216610364,-42.976827522221534,27.595230158602384
694,26.043256809504918,-32.97289919331186,-42.33157327462414,27.207112727039316
695,26.817407788944355,-31.262072960663787,-41.31931592769864,26.644255670794106
696,27.578227318334886,-29.346546960468064,-39.96665228308407,25.933431824349764
697,28.330265504672987,-27.273289570461078,-38.307949725076845,25.1069458644248
698,29.077960123167475,-25.090933729390365,-36.38381160757645,24.20163352115703
699,29.825516544779564,-22.847915205669825,-34.23931451012502,23.257643852263474
700,30.576815118111636,-20.590696479518474,-31.922120054426504,22.31705271700789
701,31.33534371967796,-18.36215806518383,-29.48056992480536,21.422365530129532
702,32.10415119511444,-16.200226600590277,-26.961870253008723,20.614974335298616
703,32.88581617867206,-14.136793155595779,-24.410461328075527,19.933637880379543
704,-1.8784763840123044e-10,-7.829719239656105e-12,-8.16796091979878e-12,9.158627093961371e-12
705,-4.076531492436008e-09,-3.210496486157469e-10,5.18038670234239e-10,1.4508739037476464e-10
706,-3.960313777145721e-08,-3.358825808796026e-09,4.736010547354537e-09,4.5220307019026616e-09
707,-2.486287537230946e-07,-2.398619109642421e-08,3.078043466745189e-08,5.497286211467129e-08
708,-1.1185157144853495e-06,-1.2727491462025693e-07,1.4121571258237467e-07,4.317438887871332e-07
709,-3.777232946943383e-06,-5.382134143084522e-07,4.79200924466577e-07,2.5077046967389132e-06
710,-9.54990040323248e-06,-1.8933271863580727e-06,1.1651766518024e-06,1.1587412133555196e-05
711,-1.624719730363649e-05,-5.713141626377012e-06,1.5733839423345721e-06,4.460117576505928e-05
712,-5.872386926721138e-06,-1.5128769910865078e-05,-2.119375063553984e-06,0.00014766953138816065
713,8.468989092057969e-05,-3.578353387697246e-05,-2.3020991242488373e-05,0.0004307590133816475
714,0.00042059337029923255,-7.665789058529513e-05,-9.581125904948357e-05,0.0011280529597757578
715,0.0013643072359685597,-0.0001503751387798943,-0.0002979046075299636,0.002692610326115974
716,0.0036181461320207715,-0.00027237505720350397,-0.0007814690638615603,0.00593233449151315
717,0.008420050392743027,-0.0004582052449956015,-0.0018169226677655528,0.012191797358779207
718,0.017795645828360546,-0.0007180698611613721,-0.003846961688053974,0.023581696689201088
719,0.034866772846014846,-0.001047667677078986,-0.0075489253034057985,0.04325489644464102
720,0.06421334705273705,-0.0014142509102772261,-0.013902691393658647,0.07572481127225723
721,0.11228092813982482,-0.0017367661331782998,-0.024261190262424025,0.12721791185477077
722,0.1878204949423706,-0.0018589645472253547,-0.04042051959599518,0.20604708718202674
723,0.3023398334821611,-0.001514554427071106,-0.06468594687458668,0.3229865655347371
724,0.47053795075463056,-0.00028387418137215177,-0.09992842562266059,0.4916224007451915
725,0.7106855843698779,0.0024578006710275365,-0.1496238430782328,0.7286458399251109
726,1.044907381714915,0.007599359969634074,-0.21786480866253066,1.0540513148040522
727,1.4993164340144374,0.016358421845569616,-0.30933336854746013,1.4911977072682137
728,2.1039512498627673,0.03034833720157232,-0.429223397714438,2.066692123477067
729,2.8924696841769486,0.051643554140510146,-0.5831037617532738,2.8100601666031637
730,3.901563554979829,0.08283831975947176,-0.7767172970491186,3.7531754072857275
731,5.170070958736774,0.1270929908727274,-1.0157154777128674,4.929432765749
732,6.737780009912301,0.18816186059420872,-1.3053335965200035,6.372665167299357
733,8.643937209397025,0.2703964289869968,-1.650015944024712,8.11581941391199
734,10.925494844345552,0.37871847064258835,-2.053004678417096,10.189424897406354
735,13.615153277332363,0.5185580837511643,-2.515909967536652,12.619906518427092
736,16.739274312909497,0.6957531988067928,-3.0382826396284837,15.427809888901397
737,20.31576002417319,0.9164088539373774,-3.6172139999455313,18.626021574935738
738,24.35200649267064,1.1867169648301703,-4.246990356532581,22.218078707090633
739,28.843052395657793,1.512740264681498,-4.918831702408652,26.196669468973077
740,33.77004630150327,1.9001673379453097,-5.620744305425145,30.542427358169512
741,39.099152259866855,2.3540488590154887,-6.337515157553789,35.22311663143984
742,44.781000159160456,2.878527859877287,-7.050871942717624,40.193293642538485
743,50.750765831235434,3.476578754774475,-7.739825309893407,45.39450929570403
744,56.92893700896893,4.1497707279026255,-8.381200870161617,50.75609249858635
745,63.22278629307461,4.898070862900955,-8.950356868964374,56.19652459413625
746,69.52853309034504,5.71970104642842,-9.422070568897423,61.6253819603413
747,75.73413574480703,6.611060255042692,-9.771563079576431,66.94579049759857
748,81.72261601909383,7.566720408519122,-9.97562002943397,72.05730409208446
749,87.37578365226648,8.57949969919688,-10.013755440153993,76.8590917207023
750,92.57820112019408,9.64061241268443,-9.869359468357557,81.25329653535071
751,97.22120952827422,10.739889050138176,-9.530767658910907,85.14841636932468
752,101.2068271827697,11.866055403566637,-8.99218979647578,88.46254962759176
753,104.45133393452697,13.007054515423922,-8.254439781896961,91.12635401711103
754,106.88836719473751,14.150391606468066,-7.325413853857567,93.08557802194309
755,108.47137871362325,15.283479524460828,-6.220272956784794,94.30304563609602
756,109.17533309818351,16.393961480017126,-4.961296606900813,94.76000226820445
757,108.9975676712906,17.46998909737585,-3.577390642817319,94.45676222337393
758,107.9577766517014,18.500437223380878,-2.103249706563187,93.41263387051944
759,106.0971283165855,19.47504232700632,-0.5781961983916759,91.66513532498537
760,103.4765686795732,20.38445824326409,0.955261028381778,89.26854872862775
761,100.17440594336726,21.220230814165415,2.4530850437768055,86.29189253544916
762,96.28330383128325,21.97470090899371,3.871506884339343,82.81641665165884
763,91.90683717975067,22.640852637351454,5.1688688173776,78.93274364412096
764,87.15577893477301,23.212129657699883,6.307419242724646,74.73778993220074
765,82.14429333160588,23.682246815924564,7.254964470182545,70.33160370496314
766,76.9862053725923,24.045026514417525,7.986289002057913,65.81425142518323
767,71.79150246447863,24.294288910416718,8.484267280563316,61.282872932440455
768,6.546495732805399e-10,8.768008414117696e-11,-7.073099738101521e-11,4.5651769415731447e-10
769,1.4060577087821167e-08,1.922120186649511e-09,-1.5454219955467942e-09,9.902080657380077e-09
770,1.5422820892858203e-07,2.1476799197207273e-08,-1.6949311246418886e-08,1.0938309901438448e-07
771,1.1175293954771857e-06,1.5890573358873575e-07,-1.232986077914654e-07,7.981400659396577e-07
772,6.045112721242851e-06,8.809332930971092e-07,-6.715157270113388e-07,4.354025854409419e-06
773,2.6140227628308635e-05,3.915344006961331e-06,-2.929258941275694e-06,1.9006138982015018e-05
774,9.447743769296715e-05,1.4579490004059579e-05,-1.0691156488003562e-05,6.940505699024942e-05
775,0.00029468561807532057,4.692877590696871e-05,-3.367640781135809e-05,0.00021887034532256768
776,0.0008127889311433083,0.00013368259667635257,-9.37206182838368e-05,0.0006105786156574727
777,0.00202092402585196,0.0003432780843421349,-0.00023473671401631776,0.0015356571758010386
778,0.004600946614399212,0.000806465511482714,-0.0005371409464346346,0.003535845633210041
779,0.009714488621159301,0.0017545522615436892,-0.0011369970128147701,0.0075471345905972305
780,0.019223925675907992,0.0035707763356410457,-0.002249640373998116,0.015088769998930775
781,0.035965700980075815,0.006855436926189136,-0.004197081302739819,0.02849928601244234
782,0.06407322853439915,0.01250438755018083,-0.007438078175123034,0.05121774146661349
783,0.1093413236401909,0.02179932047593917,-0.012599444051882605,0.08810411284403648
784,0.17961815998636835,0.03650691269565115,-0.0205069105904605,0.14578788472716284
785,0.2852043586177824,0.058982341570349144,-0.03221367445709866,0.23302828272476622
786,0.4392319583614321,0.09227092701957926,-0.04902446910465896,0.36106332319828255
787,0.6579889542824571,0.14019981096330697,-0.0725125231485475,0.5439182237155452
788,0.9611488184895737,0.20744982657040476,-0.10452609595194526,0.7986375829455681
789,1.371860364132676,0.299596299159882,-0.14718061205847865,1.1454012833751488
790,1.9166527058007516,0.4231067600770286,-0.20283206185253597,1.60748243684201
791,2.6251134380134857,0.5852837282496145,-0.2740276078597079,2.2110076247600268
792,3.5293056594620182,0.7941420361005729,-0.3634304409705439,2.98448559396047
793,4.662901205550111,1.0582127319344186,-0.47371790340317615,3.958080577161915
794,6.060023439360365,1.3862693209503085,-0.6074545852895786,5.162620336121056
795,7.753812583534903,1.7869768119472367,-0.7669452085550466,6.628346174967754
796,9.774748505978422,2.2684694410775235,-0.9540752546785253,8.3834314126448
797,12.14878836417895,2.8378687560883558,-1.1701500590817226,10.452314850802589
798,14.895398041008942,3.5007596782721477,-1.4157450696042362,12.85391549620088
799,18.025575584464026,4.260647860489159,-1.6905808393146036,15.599813142234067
800,21.539980392841827,5.11842661031826,-1.9934360722835918,18.69249507582093
801,25.427291860490307,6.0718852066757165,-2.322111032083445,22.123780552452377
802,29.662923947837456,7.115292036993022,-2.673452429451176,25.873540184435445
803,34.208216875458604,8.239085368271223,-3.0434498915304715,29.90882595009987
804,39.010213854076646,9.429701835776989,-3.4274130244609244,34.18351860331685
805,44.0021096611916,10.669568123305995,-3.8202358857763774,38.63858254806026
806,49.104428978625634,11.937274895894769,-4.216750803255272,43.20299355798535
807,54.226956218410976,13.207943729153088,-4.612164409617196,47.79537253210613
808,59.27139683865161,14.453787615574536,-5.002554962071614,52.32632039673124
809,64.13470591716968,15.64485426903267,-5.385392697051578,56.70140795043487
810,68.7129762300332,16.74993020826708,-5.760027367389505,60.82473272734722
811,72.90573773205483,17.73757409336204,-6.128073795823789,64.60291508371296
812,76.62048497792742,18.577241511067644,-6.493621515431966,67.94936948654706
813,79.77722065042505,19.240461523267268,-6.863200317058413,70.78865637401013
814,82.3127847482852,19.70202851072519,-7.245448354116707,73.06069764822884
815,84.18473299764854,19.941181024282432,-7.650449267680975,74.72462782045359
816,85.37453647073188,19.942751147304584,-8.088725176052268,75.76205533276404
817,85.88989706617075,19.69828082277519,-8.569891088597956,76.17952529394817
818,85.76600873482704,19.207112933563646,-9.10099427093353,76.0100048288216
819,85.06563961360848,18.477472510915195,-9.684582269363862,75.31325332948131
820,83.87796276368556,17.527556290321197,-10.316568453968525,74.17498942694309
821,82.31611995664657,16.386646928236257,-10.983994618375856,72.70482153762845
822,80.51356103841702,15.096261887786834,-11.66282380019728,71.03296668822294
823,78.61925873260817,13.711336296818446,-12.3159275631545,69.30584088318686
824,76.79195403719646,12.301423185935336,-12.891453415311423,67.68066193368767
825,75.19363931435949,10.951872086529654,-13.3217633111019,66.31926047907781
826,73.98253231927198,9.764917118164025,-13.523119519608727,65.38134388144009
827,73.30583125127933,8.86056935855509,-13.396259516973764,65.01749687024373
828,73.29256494915225,8.377169111441201,-12.827950280598758,65.36222851909866
829,74.04686138330625,8.47141775892227,-11.693549919174622,66.52738487972502
830,75.6419508884379,9.317683367435121,-9.860537494379333,68.596239453415
831,78.11519837431833,11.106365648504394,-7.192906544618601,71.6185499460817
832,-2.363388187110472e-10,1.7572297591605224e-09,9.824109246804113e-10,4.0755924917959106e-11
833,-7.3208081710069935e-09,3.821507937382314e-08,2.1067381334403464e-08,5.520638273574381e-11
834,-7.557694053511049e-08,4.2918401519678724e-07,2.4205045053957673e-07,2.706084862148963e-09
835,-5.264513482718492e-07,3.1875716757959857e-06,1.8397019184440394e-06,3.019601060272251e-08
836,-2.724841090629077e-06,1.7742549249022495e-05,1.0486560868551361e-05,2.2789637280444762e-07
837,-1.123560989332333e-05,7.918913009687415e-05,4.793653768936527e-05,1.2873861266143257e-06
838,-3.856209920720444e-05,0.0002961577963226017,0.00018355414773033241,5.8212647475066635e-06
839,-0.00011369852699045703,0.0009575273108177027,0.0006071757590271582,2.2019958503851583e-05
840,-0.0002949903304472707,0.0027398686410405933,0.001775646941466079,7.18676281501383e-05
841,-0.0006864176785369918,0.007066580300546719,0.004674556306492301,0.0002071582825504432
842,-0.0014549290977202314,0.016671326712547452,0.0112404615624493,0.0005371201032063297
843,-0.0028454294553894753,0.03641115786910367,0.024985162253947164,0.0012713604422733937
844,-0.00518978969361644,0.07435968737454429,0.05185240661590707,0.0027809428643486567
845,-0.008906509551527912,0.14319087059381666,0.10132092671445772,0.005678810950863304
846,-0.01448831670604656,0.26184165348506777,0.18774818036628188,0.010918488301819048
847,-0.022475956609706357,0.45741767393514826,0.33192790459639304,0.019907046490192343
848,-0.033417876204179374,0.7672786676623774,0.5628109948671497,0.034624817692866405
849,-0.04781713184782071,1.2412071555178519,0.9193119738552483,0.05774067728129398
850,-0.06606821003787218,1.9435245334709161,1.4520915555841947,0.09270852516082391
851,-0.08838736866409531,2.9549751146162326,2.2251708212293804,0.1438282217746724
852,-0.11474105075506363,4.374156464802697,3.317198068147036,0.2162526747104515
853,-0.14477861278159235,6.318241234814868,4.822161115834749,0.31592174055469185
854,-0.17777822782223685,8.92271986395083,6.8493220470843275,0.44940322482095496
855,-0.21261774324444213,12.339901607611315,9.522153469897258,0.6236221236616482
856,-0.24778429992397374,16.735947194238484,12.976079377234944,0.8454623362104707
857,-0.28143689303969155,22.286270336640985,17.354871281946963,1.1212310681023554
858,-0.3115342829688101,29.16923471815143,22.805620944200484,1.4559853042268738
859,-0.33603671324469725,37.558182975640634,29.47230147892714,1.8527317035442792
860,-0.35318365655482525,47.611958432220405,37.48803365381461,2.3115253479231375
861,-0.36184170876513805,59.464211752396686,46.96628685434531,2.8285077195797457
862,-0.36190778494676096,73.2119154899637,57.99135680051012,3.3949384505020466
863,-0.35474427303123274,88.90363107195569,70.60856664047078,3.996287044183091
864,-0.3436159045428034,106.528175564256,84.81472635921291,4.61145848127565
865,-0.33409303732703594,126.00440966881389,100.54944960835425,5.212229665537968
866,-0.33438285294893066,147.1729039224649,117.68795947874563,5.762971719832574
867,-0.35554872524022796,169.7902286016506,136.0360089352629,6.220726104652309
868,-0.41157942435267264,193.52654838919494,155.32749280244968,6.535690189027848
869,-0.5192743892231061,217.967083327075,175.22523429985657,6.65215027235816
870,-0.6979193033094235,242.61782522014894,195.32529137390262,6.509877452650623
871,-0.9687373087404068,266.91568074973054,215.16495156217655,6.045975040388309
872,-1.3541151742815345,290.2429608523054,234.2343775990793,5.1971366295652865
873,-1.8766201800938729,311.94586614179576,251.9916416122435,3.902243134752556
874,-2.557841571535709,331.3563486212219,267.88065831598095,2.1051972601949274
875,-3.417108583076089,347.8164800828571,281.3513134118134,-0.24213235769982222
876,-4.47015305839441,360.7042465348628,291.88089921189714,-3.177004874692547
877,-5.727796832963615,369.4595326740726,298.9958307835746,-6.723097449742363
878,-7.194750957000251,373.60897461154326,302.2925355489549,-10.88815147272431
879,-8.868614780463874,372.78835186088025,301.45639590991806,-15.662124582516197
880,-10.73915704060316,366.7612650146959,296.2776819079512,-21.01597793860954
881,-12.787948044090966,355.4330016645108,286.6635375472499,-26.901198225117117
882,-14.988392180057295,338.8587224919676,272.64527366509986,-33.25011583861602
883,-17.306185066758452,317.2453890803034,254.38046102018978,-39.97703719144423
884,-19.700191833417378,290.9471874652917,232.14959505806067,-46.98016312000841
885,-22.123714626170564,260.4545558394787,206.34740143216789,-54.144220165047734
886,-24.526090219196515,226.37727830955828,177.469150166984,-61.34369000453629
887,-26.85453432288163,189.4224360675808,146.09262728155196,-68.4464873103693
888,-29.056129848349208,150.36829095802662,112.8566572949285,-75.31791036667919
889,-31.079843772155765,110.03539559619479,78.43726191740211,-81.8246739348528
890,-32.878452664828316,69.25636464999813,43.52266612041934,-87.83883128758622
891,-34.41026070593473,28.84579506214984,8.788413935659618,-93.24140218691905
892,-35.64050611753923,-10.42821356790017,-25.12617066869263,-97.92554513963698
893,-36.542372045705825,-47.869609567020845,-57.639045220613134,-101.799144103545
894,-37.09754520755893,-82.87588008043943,-88.2430701727373,-104.78671976924743
895,-37.29629823916915,-114.95461068371773,-116.51945273589442,-106.830620585456
896,4.179449224240374e-10,-5.152465861110461e-10,-3.162894446113168e-10,2.652266473305621e-10
897,8.89373146447774e-09,-1.119701327537884e-08,-5.7821384005437384e-09,5.567783382831752e-09
898,9.6125168273585e-08,-1.2477167794669526e-07,-6.600075256687636e-08,6.053044367636149e-08
899,6.848062991222756e-07,-9.200278805195223e-07,-4.908871574648378e-07,4.341928554983324e-07
900,3.6335086675511e-06,-5.084440256169862e-06,-2.7452474510228066e-06,2.3240165799024253e-06
901,1.537513943130241e-05,-2.253456128651918e-05,-1.2336337178934382e-05,9.94148038145312e-06
902,5.42566891110212e-05,-8.370958159876876e-05,-4.6532043168227505e-05,3.5540053583997416e-05
903,0.00016490635941828345,-0.0002689219868610794,-0.00015194006420039973,0.00010965075098326347
904,0.0004425024669418594,-0.0007649375528600049,-0.0004394351072247301,0.0002992181948942239
905,0.001069230148524697,-0.0019622942067447626,-0.0011458592820810611,0.0007363722745352771
906,0.002364414785054463,-0.00460737025667446,-0.0027323401247112064,0.0016603215346130823
907,0.004849270561992931,-0.010021580200174546,-0.0060274334840756715,0.003474493210644201
908,0.009326819246683807,-0.02039655210443146,-0.012419612244515791,0.006820543220554794
909,0.016976816655156865,-0.03916929165041101,-0.024098708219454347,0.012670030138331075
910,0.02946407180856146,-0.07147559055618302,-0.04434067116490404,0.022433213149132773
911,0.0490565019269081,-0.12467343033644743,-0.07782511934225433,0.03808264321573338
912,0.0787470266250886,-0.208920658669645,-0.1309705067933531,0.062287083840100996
913,0.12237113944305117,-0.3377825349492533,-0.2122668342898549,0.09854885254300484
914,0.1847095777293213,-0.5288348133254311,-0.33258022012374006,0.15133486538765248
915,0.27156300658517285,-0.8042173420613052,-0.5053974432624838,0.2261886396565524
916,0.3897836678175233,-1.1910827865810627,-0.7469727900075636,0.3298078000845724
917,0.5472483573133473,-1.7218766142368336,-1.0763356441424705,0.4700699350277201
918,0.7527583125994038,-2.434379756088017,-1.5151169741592956,0.6559894733704656
919,1.0158543597324756,-3.371446048943933,-2.0871573470094353,0.8975896999566941
920,1.3465395549850627,-4.580373860397457,-2.8178688715097255,1.2056770163797286
921,1.7549064358524102,-6.111865623647307,-3.733338073819306,1.5915090255775801
922,2.2506720337016777,-8.018549994969446,-4.859175115765311,2.0663539930817705
923,2.8426308980654174,-10.3530678606982,-6.219135532835254,2.640946549410009
924,3.5380439592087747,-13.165753829983457,-7.833562331803222,3.3248527464952815
925,4.34198839691286,-16.501977183060504,-9.717717427179013,4.125766240972255
926,5.256700369492687,-20.39923841620656,-11.88009043461477,5.048766005827537
927,6.280948313577266,-24.884147421103275,-14.320788222732057,6.095574129243709
928,7.409479058355803,-29.969434807083903,-17.030118634059946,7.263859232372624
929,8.632581236819181,-35.65116680787342,-19.987484984369374,8.546635814379664
930,9.935809396658906,-41.906344533697556,-23.160703017112436,9.931811352362935
931,11.299907458095808,-48.69106823845266,-26.505838156969443,11.401930605525033
932,12.700962088788383,-55.939435393774225,-29.96763791007125,12.93416015884693
933,14.110805755955242,-63.56331706723314,-33.480602928428105,14.500546009633407
934,15.497676006746445,-71.45312063689072,-36.970702353413024,16.068563262237753
935,16.827122246891772,-79.4795995874601,-40.3576972916302,17.60196028067924
936,18.063134764397876,-87.49671541731828,-43.55799373745134,19.06188087090952
937,19.169454419976827,-95.34549591753911,-46.487905991531456,20.40822859149601
938,20.111006838613804,-102.85877231783361,-49.06717653972037,21.60121862634415
939,20.855393129531507,-109.86661940841674,-51.22257093723719,22.603046122822857
940,21.37436077106712,-116.2022720806524,-52.891348834709106,23.379586643445048
941,21.645173960912487,-121.70825263604395,-54.024406753239404,23.90203548964745
942,21.65180329694113,-126.24241881340737,-54.58889607082097,24.148389258586455
943,21.385860669487585,-129.68363484792746,-54.57014147173575,24.10467591607051
944,20.847216506638773,-131.9367779659784,-53.972720400109175,23.765849153844524
945,20.0442520895701,-132.93682025184916,-52.82061094582129,23.13627840081746
946,18.993718519234132,-132.65176936755458,-51.15637103636249,22.229786741394722
947,17.720195240034,-131.08430859327407,-49.039371713182106,21.06921408819596
948,16.255163906893692,-128.27204360802048,-46.54316710214478,19.68551093988746
949,14.635736375856544,-124.28633613865527,-43.7521389591306,18.116397152774642
950,12.903096779654119,-119.22977847887796,-40.75760023548108,16.404648238949854
951,11.100735272250647,-113.23243328840559,-37.65357665030852,14.596096633952781
952,9.272563940422586,-106.44702566313875,-34.532505222997884,12.737455302447069
953,7.461012939107373,-99.04332547318437,-31.481092794609538,10.874084525673515
954,5.705206531858226,-91.2019944176244,-28.576565581144497,9.047828605821952
955,4.039313990546073,-83.1081921656224,-25.88351403475641,7.295046865456115
956,2.491159455384385,-74.94523845051833,-23.451498153025977,5.644952761054511
957,1.0811590418006904,-66.88861336034078,-21.313530068117966,4.118357052941798
958,-0.17836563759641666,-59.10054784848643,-19.485496657003814,2.7268872332467784
959,-1.2834693981828034,-51.72541333926015,-17.966528175750348,1.47272739221582
960,-5.04776734293144e-10,-4.939429554705211e-10,-2.334553318774107e-10,-2.7821708054673145e-10
961,-1.0870787273781781e-08,-1.0435363779999945e-08,-3.9479726810273615e-09,-6.0045768208930195e-09
962,-1.1458837944204748e-07,-1.1656424860902173e-07,-4.591075893360668e-08,-6.351798275571122e-08
963,-7.977384259158003e-07,-8.593213140726065e-07,-3.4469906425216753e-07,-4.438710583578926e-07
964,-4.138385215545256e-06,-4.749618001977409e-06,-1.9419877038524325e-06,-2.3120563180008466e-06
965,-1.7126687605310047e-05,-2.105786748027305e-05,-8.76853602509285e-06,-9.610671797721935e-06
966,-5.912703175275819e-05,-7.826682586546685e-05,-3.314613662244481e-05,-3.333706983042629e-05
967,-0.0001758506145812731,-0.0002516258227270783,-0.00010820068566340632,-9.965339255019365e-05
968,-0.0004618162601182721,-0.0007164108059046877,-0.0003121598434753145,-0.0002631224461565561
969,-0.0010923037135195386,-0.0018398259972432108,-0.0008104550795210367,-0.0006258688494451455
970,-0.0023649089872880033,-0.00432510585257986,-0.0019212906880036,-0.0013629624946908515
971,-0.00475055459134351,-0.00941997489697742,-0.004208701770361606,-0.002754116442375488
972,-0.008954052794217276,-0.01919835306001116,-0.00860433170787558,-0.005221832399150008
973,-0.015984341499642098,-0.03691956924654611,-0.01655596681519547,-0.009376039560672808
974,-0.02723369856021212,-0.06746372811686745,-0.030198011718273247,-0.016064727035784054
975,-0.044563634533580844,-0.11783539469957804,-0.05253695073274081,-0.026429081674319257
976,-0.07039326072526726,-0.1977201951695719,-0.08764317737733371,-0.04196049276896805
977,-0.10778411918474043,-0.32007008732194675,-0.14083871917042254,-0.06455572613660979
978,-0.16051382085589286,-0.5016829390192178,-0.21886760146277603,-0.09656569754410362
979,-0.23312946256790298,-0.76373123629755,-0.33003177863220245,-0.14083265315466242
980,-0.33097109412584097,-1.1321843635052675,-0.48427141051568007,-0.20071036405978676
981,-0.4601559520981386,-1.6380605609901597,-0.693165113443179,-0.28006232803579745
982,-0.6275157893221452,-2.3174402167417014,-0.9698251985018659,-0.3832338903128831
983,-0.840481883724343,-3.211173189574571,-1.328665728538159,-0.5149953601991816
984,-1.1069146683230295,-4.3642205516035935,-1.7850276865517352,-0.6804543759583422
985,-1.4348773406297701,-5.824585840604999,-2.3546549289379892,-0.8849370070352431
986,-1.8323556379869792,-7.641812309914834,-3.053025793638886,-1.1338386251475048
987,-2.3069293833416515,-9.865049702332005,-3.894556907079751,-1.432447520769417
988,-2.865405146109959,-12.540725257472188,-4.89170678023087,-1.7857463734115235
989,-3.513423028339939,-15.709887071284061,-6.054016542029828,-2.1981986698843854
990,-4.255054080883374,-19.405321403130543,-7.387133341163705,-2.6735288466474794
991,-5.09240825866926,-23.648576734598528,-8.891868652730775,-3.2145063472549684
992,-6.025275849508637,-28.44705383102865,-10.56334882691322,-3.8227448936784367
993,-7.050827104599228,-33.79134030801397,-12.39031833140695,-4.498528788473764
994,-8.163394447402931,-39.65297790451517,-14.354656306135688,-5.240677631769304
995,-9.354358875038642,-45.9828488778793,-16.431163252784643,-6.04645933130622
996,-10.61215744915984,-52.710353238011386,-18.5876660020922,-6.911558897060554
997,-11.922422736016994,-59.74352040597775,-20.785475368928875,-7.8301075425156075
998,-13.26825803407917,-66.97015777250228,-22.980212610849073,-8.794773261529958
999,-14.630644431265662,-74.26008625643954,-25.122999260590156,-9.796910478089062
1000,-15.988967674358529,-81.46845211555754,-27.161981875566088,-10.826762874515989
1001,-17.321645321196655,-88.44003871117674,-29.04414068813799,-11.873710486832724
1002,-18.60682826981806,-95.01443600408392,-30.717310970063988,-12.92654983937979
1003,-19.82314551608606,-101.03186381239081,-32.132329528688615,-13.973794166949856
1004,-20.95045665491748,-106.33939182978507,-33.24520704927272,-15.003979416591244
1005,-21.970573435099485,-110.7972592382824,-34.019220184584306,-16.005960762514786
1006,-22.86791047569711,-114.28497306526317,-34.42681537519539,-16.969184203494866
1007,-23.6300269674921,-116.70685979521396,-34.451219263454405,-17.88391889614148
1008,-24.248026082006568,-117.99676045364737,-34.0876585480397,-18.741438346503518
1009,-24.716786434121712,-118.1215950799255,-33.34410556893509,-19.534142190054133
1010,-25.03500962687928,-117.08357631215361,-32.24148513048445,-20.25561465322019
1011,-25.20507912260761,-114.92092036585133,-30.81330263657804,-20.90062057537704
1012,-25.232737857061533,-111.70698267322672,-29.104682395031308,-21.46504473879242
1013,-25.12660418243161,-107.5478298504225,-27.17083600022514,-21.945784731344567
1014,-24.897556673222773,-102.57834422241788,-25.075011778208623,-22.34061112934423
1015,-24.558027125009918,-96.95703666862433,-22.88600525565742,-22.648011128706347
1016,-24.12124733968515,-90.85981314735984,-20.67533568057251,-22.867032884511534
1017,-23.600498877864702,-84.47299566592892,-18.514213556257562,-22.997147864862804
1018,-23.0084154820191,-77.98593624977755,-16.470438031808097,-23.038147415859974
1019,-22.356384781004028,-71.58358039962118,-14.605370373647743,-22.990087204717305
1020,-21.654089035349717,-65.43933371986996,-12.97113045109211,-22.853289098264856
1021,-20.90921471325006,-59.70856243832596,-11.608157277046582,-22.628404571619008
1022,-20.12734869799203,-54.52301741421681,-10.543262287394121,-22.316537498974743
1023,-19.312065842198493,-49.986415171023594,-9.788285287991442,-21.91941781019831
1024,1.6688610425184982e-10,-2.1671956624589373e-10,2.552579663064678e-11,-4.010259683448102e-11
1025,3.6099584876013027e-09,-4.7053279201458234e-09,6.950221169129544e-10,-7.156681770471092e-10
1026,3.653519866205259e-08,-5.2675335619463806e-08,7.418841186344175e-09,-9.755589712976275e-09
1027,2.4032945290183794e-07,-3.901135082255311e-07,5.2762084258991745e-08,-8.527916720215905e-08
1028,1.1504741272583492e-06,-2.1659401576652823e-06,2.78080135467316e-07,-5.532669896362047e-07
1029,4.256969084937296e-06,-9.645738921065047e-06,1.1610268081013515e-06,-2.841281498113216e-06
1030,1.2567915683121589e-05,-3.600560091349248e-05,4.000982971298685e-06,-1.2057293741450356e-05
1031,2.9867082903934017e-05,-0.00011622602842798469,1.1699254292301059e-05,-4.360692739088174e-05
1032,5.5671847041380365e-05,-0.00033212646960108883,2.9575188096557638e-05,-0.0001376170631243533
1033,7.115142666799679e-05,-0.0008556743801490187,6.537932357350569e-05,-0.0003861973045177339
1034,1.040683656121532e-05,-0.0020169205387699832,0.00012686556307559135,-0.000978943359437531
1035,-0.0002878901147828076,-0.004402093765309268,0.00021447073605857097,-0.0022712193213905497
1036,-0.0011517752274991376,-0.008985674116756279,0.0003060737520683474,-0.004877873645641494
1037,-0.003171556375798745,-0.01729799476597025,0.000330608835720821,-0.009792809415331165
1038,-0.0073196145432169474,-0.031627365414720464,0.00012747811147899781,-0.018532757166743897
1039,-0.015093324562923461,-0.05525293147402365,-0.0006108700538972139,-0.033301734875805934
1040,-0.028678590775936617,-0.0927013110245043,-0.00241523971493278,-0.057170660871039475
1041,-0.05112932168490996,-0.1500162679577995,-0.006136131024602834,-0.09426409677923926
1042,-0.0865552420636151,-0.23502619477331096,-0.013060497837458147,-0.14994308694534852
1043,-0.14030701470468826,-0.35758922538845017,-0.0250473590219051,-0.23096974413232105
1044,-0.2191438975494792,-0.5297909544334445,-0.04467843041713843,-0.3456359429343505
1045,-0.3313653984321579,-0.7660658369646534,-0.07541675671795055,-0.5038357024112263
1046,-0.4868854068172491,-1.0832112968201981,-0.1217625232910429,-0.7170592971000189
1047,-0.6972262168252753,-1.5002641378114159,-0.18939134706891136,-0.998287641778823
1048,-0.975411512179419,-2.0382124943462534,-0.285257141594539,-1.361768629826128
1049,-1.335741674088085,-2.719523336813046,-0.4176398676735641,-1.8226628651979042
1050,-1.793440983188141,-3.56747518448027,-0.5961186344738586,-2.396554141281756
1051,-2.3641737647667216,-4.605297611359097,-0.8314528388539382,-3.098829403206817
1052,-3.063435050644774,-5.855132652705028,-1.1353581232047762,-3.9439431580594677
1053,-3.905830737741624,-7.336847528200077,-1.5201695156623183,-4.9445917084442526
1054,-4.904271937718382,-9.066742346906445,-1.9983908641310357,-6.110832396087086
1055,-6.069117311409832,-11.056209759636161,-2.5821373642161434,-7.449191428718276
1056,-7.407304895426576,-13.310414916599454,-3.282486399038325,-8.961810161283005
1057,-8.921520907447686,-15.827072577830192,-4.108760651808555,-10.645683525286312
1058,-10.609456968325558,-18.595402790942682,-5.067775868452778,-12.492045303299628
1059,-12.463208444953183,-21.595346287152932,-6.163092957573521,-14.48595268234332
1060,-14.468864264437128,-24.797114952427805,-7.394319593045961,-16.60611646860863
1061,-16.606332014928043,-28.161141105799807,-8.756509570213597,-18.825013291649555
1062,-18.849431634280766,-31.63847204319294,-10.239708389813819,-21.109302342335727
1063,-21.16627725723357,-35.17163414266074,-11.828690451442133,-23.420552431084342
1064,-23.51995064735838,-38.69596503604777,-13.502926381268198,-25.716266401213343
1065,-25.869451856257093,-42.141384599869866,-15.236808153132998,-27.951170371657703
1066,-28.170894442382817,-45.434547684491264,-17.000145014805604,-30.07871636965278
1067,-30.378895403710242,-48.50129550661596,-18.75892575248921,-32.05273034710255
1068,-32.448095719786934,-51.26930031113087,-20.47632419190941,-33.82912498791725
1069,-34.334737275220114,-53.670780879263376,-22.113907157820254,-35.367589216723324
1070,-35.99821642124128,-55.645156074375855,-23.632989451958245,-36.633164417603695
1071,-37.40253367095357,-57.14150084990068,-24.99607022471455,-37.59762113395809
1072,-38.517563288617346,-58.12067454675751,-26.168279982780955,-38.24055937543068
1073,-39.320076017499765,-58.55700487964372,-27.1187670722078,-38.55017028585333
1074,-39.79446248907764,-58.439432188314406,-27.82195594150922,-38.52361606619954
1075,-39.933122770214325,-57.77204614433849,-28.25861590653196,-38.16700735889445
1076,-39.736507530552984,-56.573979486602404,-28.416688002921447,-37.494981161879494
1077,-39.212817155826116,-54.878658418888186,-28.291828825898534,-36.52990612833894
1078,-38.37738569848787,-52.73244470743415,-27.88764424362987,-35.300764315002034
1079,-37.25179551203781,-50.19273788960989,-27.215602388790725,-33.841777569819534
1080,-35.862784057876816,-47.32563513031265,-26.294633441647743,-32.19086129937625
1081,-34.24101516952498,-44.20326931121754,-25.1504416555623,-30.38799716186183
1082,-32.41979225732813,-40.90096157124638,-23.8145706816282,-28.47361874197215
1083,-30.433790635597635,-37.49433198009958,-22.323274604498447,-26.487100608587113
1084,-28.317880763178415,-34.05651110913174,-20.716253061922778,-24.46543182459706
1085,-26.106104049221837,-30.655586236173757,-19.035309315211595,-22.44214059000853
1086,-23.83084848522616,-27.352399459002587,-17.322986143905606,-20.446518060808547
1087,-21.522253834100667,-24.198792138954808,-15.62122762840937,-18.503167712824112
1088,-5.8154473717624e-10,-6.340182002966999e-11,-1.3075354487546027e-10,-3.8764778223826185e-10
1089,-1.2048771347834664e-08,-1.318139544219645e-09,-2.83705362335264e-09,-8.201383033359117e-09
1090,-1.278229250183801e-07,-1.4870206691223506e-08,-3.115805747349106e-08,-8.83848816322195e-08
1091,-8.953860417721078e-07,-1.1083243430509393e-07,-2.2660810026506324e-07,-6.291072002650107e-07
1092,-4.6810550965112756e-06,-6.197018468092577e-07,-1.2345962834874183e-06,-3.349681246008688e-06
1093,-1.9563843070783235e-05,-2.7809529851298774e-06,-5.392227752347865e-06,-1.4284319364533028e-05
1094,-6.836588441566219e-05,-1.0467945268643928e-05,-1.973224438499064e-05,-5.102023063911112e-05
1095,-0.00020633320872008923,-3.410296848903366e-05,-6.242749169445756e-05,-0.0001576143028497188
1096,-0.0005513263905386518,-9.844411802879879e-05,-0.00017483540972713604,-0.00043151703874271365
1097,-0.0013302069138557383,-0.00025645271118081796,-0.00044155669045113595,-0.0010672739562819539
1098,-0.0029447805650253994,-0.0006117891403687979,-0.0010207932467163803,-0.0024217224317484827
1099,-0.0060604565028187585,-0.0013525282055537422,-0.0021868371020705097,-0.005104910543233756
1100,-0.011720384890786808,-0.002798371596874464,-0.00438587854006091,-0.010099945661270083
1101,-0.02148665772856932,-0.005462976064321904,-0.008305582477397004,-0.01891330132358906
1102,-0.0376078979643372,-0.010132052784351253,-0.01495802286253133,-0.03375474758633579
1103,-0.06320958303490289,-0.01795668658011608,-0.025774508636388412,-0.057743230088798045
1104,-0.10250027918732947,-0.030559900957608833,-0.04270952733968026,-0.09513189022621847
1105,-0.16098378157075438,-0.050152866957868907,-0.06834948829617818,-0.15154199051699058
1106,-0.24566374532873636,-0.0796553195537562,-0.1060202073701242,-0.23419163614566646
1107,-0.3652237064015938,-0.12281275311947983,-0.1598852046025277,-0.3521009692683723
1108,-0.5301619765210352,-0.18430094624453655,-0.2350250167126049,-0.5162515161557404
1109,-0.752858577455071,-0.269806543661682,-0.3374861230230653,-0.7396744358400691
1110,-1.047550731437926,-0.38607111435905633,-0.4742871455396651,-1.0374413112897332
1111,-1.430194445647278,-0.5408856397324608,-0.6533701371492676,-1.4265322458615461
1112,-1.9181922181397235,-0.7430230484916371,-0.8834863229125208,-1.9255595692388985
1113,-2.5299708199214375,-1.0020983549847449,-1.1740086488746813,-2.5543314844368985
1114,-3.2843988266916857,-1.3283491779927565,-1.5346676736356784,-3.3332484369690394
1115,-4.20004147685497,-1.7323337723437526,-1.9752122540744774,-4.282535436365587
1116,-5.294260628005447,-2.2245489648642027,-2.5050016484631956,-5.421325286755888
1117,-6.582179592159901,-2.8149762526904714,-3.1325407332828985,-6.76661988131723
1118,-8.0755454661545,-3.5125704532677835,-3.864974836928311,-8.332168743181853
1119,-9.781534004533812,-4.324711293705405,-4.707565171922152,-10.127315280464192
1120,-11.701552933207875,-5.256643732457487,-5.663169874596164,-12.155870958435667
1121,-13.830108105672986,-6.310937135961935,-6.731758941188196,-14.415084685010767
1122,-16.15380272385567,-7.486996206297714,-7.909993404866491,-16.894777996860277
1123,-18.650542938636022,-8.780657367630164,-9.190899410286065,-19.57671532140617
1124,-21.289023183384533,-10.183902872860731,-10.563665994119352,-22.434272303439055
1125,-24.028560689331982,-11.684721067954856,-12.013591174464764,-25.43245391685757
1126,-26.819339533482736,-13.267135113145125,-13.52219443736071,-28.52829808547396
1127,-29.6031096255223,-14.911414273766033,-15.067505206068832,-31.671680564172867
1128,-32.314365822098466,-16.59447208838759,-16.6245269764944,-34.80651424477374
1129,-34.882008537589684,-18.290444879289065,-18.165866323348517,-37.872312663627916
1130,-37.23146154934121,-19.97143287949177,-19.662505848403597,-40.80606504113333
1131,-39.28719635072852,-21.608375468956922,-21.084691191172503,-43.54435000193863
1132,-40.97558614096404,-23.17202242430759,-22.402895061658555,-46.025598240211835
1133,-42.22798739291234,-24.633955434857572,-23.58881621549009,-48.19240183424866
1134,-42.98392457248795,-25.967609088767095,-24.61636851032708,-49.993760844503385
1135,-43.194235831689525,-27.149238590387892,-25.462614700902733,-51.38715719910266
1136,-42.82402591680552,-28.158782926335395,-26.108601485966982,-52.340352088025874
1137,-41.85526825441222,-28.98057706436081,-26.540056532636434,-52.83281585896968
1138,-40.2889022411692,-29.603874783716563,-26.747914716745445,-52.85671795807318
1139,-38.14628497950042,-30.023154372765855,-26.728649396823986,-52.417427595343064
1140,-35.46987920010522,-30.23819197093916,-26.484394720410982,-51.53350193215911
1141,-32.32308984808115,-30.25390090824499,-26.022856046548196,-50.23616562217141
1142,-28.789198920974666,-30.079949059168722,-25.357016710503274,-48.568311281343526
1143,-24.969389603385146,-29.7301790287441,-24.504659676852985,-46.58307303565049
1144,-20.979894805861587,-29.221867049021302,-23.487731313093825,-44.34204338980795
1145,-16.948350066973457,-28.574865066356367,-22.33158090696319,-41.913216500786234
1146,-13.00947406515774,-27.810676113108826,-21.06411320152157,-39.36874802792887
1147,-9.30023881874516,-26.95151537026037,-19.71489201318662,-36.78262289332594
1148,-5.954723202993602,-26.019408240184593,-18.314231194566375,-34.22831785165217
1149,-3.0988655852258264,-25.03537238364705,-16.892305406732827,-31.776536721760156
1150,-0.8453430296717742,-24.01872338660351,-15.47830812700451,-29.493083964814502
1151,0.7111947719092788,-22.986534095126412,-14.0996787239358,-27.436928652068
1152,5.222851720186384e-11,-1.2347875249511762e-10,-2.03854499207377e-10,-1.0977578620044064e-10
1153,1.4521522972938746e-09,-2.497472802975009e-09,-4.158064697835138e-09,-2.1012139860082156e-09
1154,1.1820152997825357e-08,-2.8154775021723703e-08,-4.5043379174059434e-08,-2.5550106466388915e-08
1155,5.525066888680044e-08,-2.0929773899988783e-07,-3.222200371340994e-07,-2.0375996660233622e-07
1156,1.130519857872866e-07,-1.1671774448748609e-06,-1.7232582699365624e-06,-1.2196361157525125e-06
1157,-3.9475284825431526e-07,-5.2226466269114965e-06,-7.380408595940955e-06,-5.844540453072456e-06
1158,-4.863880641570489e-06,-1.959427657051552e-05,-2.646223128061757e-05,-2.3385961888241686e-05
1159,-2.6460477558289016e-05,-6.359283868900511e-05,-8.199958886269722e-05,-8.049877263082134e-05
1160,-0.00010502994578264864,-0.00018276294710482954,-0.00022495931807380463,-0.00024379025717556827
1161,-0.00034128816430203083,-0.00047369267407054407,-0.0005568685990022966,-0.0006612789558338903
1162,-0.000956390125905752,-0.001123534148161038,-0.0012630530623022147,-0.0016302590335689612
1163,-0.002383933726821478,-0.002468012404643405,-0.0026581272132821816,-0.0036981330646502866
1164,-0.005399059635328656,-0.005070840226930658,-0.005244843107751552,-0.007800588559057326
1165,-0.011286604883113959,-0.009826139867947597,-0.009786732842009644,-0.015438828686793235
1166,-0.02204786384232945,-0.01808382471270353,-0.017394026861027905,-0.02889490145497293
1167,-0.0406431666842731,-0.03179598900148498,-0.029621044612288417,-0.05148145240869742
1168,-0.07126441040830171,-0.05368013459401302,-0.0485717086896201,-0.08781894258200194
1169,-0.11962741067781038,-0.08739245556474724,-0.07700822573619252,-0.14412912185119597
1170,-0.19326858313343884,-0.1377013794321246,-0.11845641557770997,-0.2285282856839346
1171,-0.30182449352819324,-0.21064829610172017,-0.1772996281687333,-0.3512979810119742
1172,-0.457266775413301,-0.313679252813546,-0.2588515476596835,-0.5251050619790224
1173,-0.6740595396681311,-0.4557288508058531,-0.3693964551322341,-0.7651382610399916
1174,-0.9692028976463752,-0.6472361861170451,-0.5161840593417504,-1.0891258676742783
1175,-1.3621259232391563,-0.9000728692549054,-0.7073654349215945,-1.5171996922752862
1176,-1.8743961522633352,-1.22736524781194,-0.9518576377398816,-2.0715747916437195
1177,-2.529220420822089,-1.6431970488928689,-1.2591275924232572,-2.776022294375578
1178,-3.3507227737648444,-2.1621847043894378,-1.63889081230293,-3.655123557430433
1179,-4.362998635827553,-2.7989253719529574,-2.100726897312405,-4.733307198449406
1180,-5.588960068966656,-3.5673267327019658,-2.6536208096251306,-6.033685807990751
1181,-7.049004193814334,-4.4798374961451914,-3.305445882259863,-7.5767257195797555
1182,-8.759554618554084,-5.546607539003666,-4.062410706214449,-9.378800116450984
1183,-10.731542479435056,-6.774616037950207,-4.928497026898035,-11.45069169636336
1184,-12.96890805708837,-8.166814048376972,-5.904919329104888,-13.796124763782966
1185,-15.46721491996625,-9.72133396251251,-6.989638928973612,-16.41041681476094
1186,-18.212475153505164,-11.430821400262046,-8.176966232770187,-19.279345266603375
1187,-21.180285163960086,-13.281944741581661,-9.457284428782774,-22.37832480316252
1188,-24.335365381946293,-15.255133274786086,-10.816926008640484,-25.671983813112362
1189,-27.631583246431116,-17.324586688244985,-12.238229622424607,-29.114214178392828
1190,-31.012517487642942,-19.458586547967588,-13.699798095957346,-32.64874760143515
1191,-34.41259416968772,-21.620125014754155,-15.176968431779558,-36.21028486813363
1192,-37.75879263686023,-23.767848182341652,-16.642491328604656,-39.72617339597912
1193,-40.97288407065564,-25.857292156729446,-18.06740216711758,-43.11859485346544
1194,-43.974128952268615,-27.84237061322558,-19.422049317179003,-46.30719061421976
1195,-46.68232514372687,-29.677054409025946,-20.677231187471506,-49.21202073186286
1196,-49.02106857508606,-31.317168237327873,-21.80538261225899,-51.75672451866752
1197,-50.92106610208156,-32.722217480954605,-22.781745145166624,-53.8717298783852
1198,-52.3233266909886,-33.85715137836653,-23.585454926244804,-55.49734602409932
1199,-53.18205385941481,-34.6939670814486,-24.200485534510186,-56.58657134446473
1200,-53.46707020017391,-35.2130635920158,-24.616390781767215,-57.107455809294066
1201,-53.165624141629245,-35.40426492082122,-24.828802819912635,-57.04487557130399
1202,-52.283459070289965,-35.26744769517391,-24.839653543082104,-56.401605569204655
1203,-50.84506352820685,-34.81272892813349,-24.657101630146883,-55.198612200329244
1204,-48.89306580176403,-34.060193450404455,-24.295163433668357,-53.47453015343172
1205,-46.486784189718136,-33.039166003973186,-23.773062911389875,-51.284332660802974
1206,-43.69999293249956,-31.787058510184014,-23.114333226071196,-48.6972500568539
1207,-40.618010175469394,-30.347846898717396,-22.345719337493627,-45.79403478158001
1208,-37.33425495434766,-28.77025259489214,-21.495945221475022,-42.66370887963421
1209,-33.94645182908172,-27.10572004836222,-20.594419441555466,-39.39995994654257
1210,-30.552682158631214,-25.406292566436388,-19.669957060204023,-36.09737129642856
1211,-27.24748894237668,-23.722493576303407,-18.749593462988567,-32.847680609781115
1212,-24.118237186104214,-22.1013190309399,-17.85755675930666,-29.736257850651572
1213,-21.241913939362632,-20.584439129699554,-17.014451193589387,-26.83897784923492
1214,-18.682522435890654,-19.206694370772954,-16.236686286978646,-24.219636512464806
1215,-16.489185397078238,-17.99495308339901,-15.536167265222428,-21.928024096173857
1216,-5.226878105738768e-10,-1.2150373913078306e-10,-1.181880398002867e-10,-3.1811347933322133e-10
1217,-1.0981720808378382e-08,-2.512629865049869e-09,-2.4988663165320534e-09,-6.697509137663901e-09
1218,-1.1529143117293725e-07,-2.8025044084688632e-08,-2.6793856983599337e-08,-7.14078336272393e-08
1219,-7.99192042410574e-07,-2.0655095183901953e-07,-1.901478048006892e-07,-5.032571838697595e-07
1220,-4.132304626614045e-06,-1.1418524686048944e-06,-1.0103784267229873e-06,-2.6498602950761926e-06
1221,-1.706973724071643e-05,-5.065476699629953e-06,-4.304874213974527e-06,-1.1165364434342881e-05
1222,-5.892721400271792e-05,-1.8845178157871983e-05,-1.538169864288836e-05,-3.937600155336674e-05
1223,-0.00017563091975564184,-6.0664633377891124e-05,-4.759264858221413e-05,-0.00012004077019712976
1224,-0.00046338878051229647,-0.00017298888308069253,-0.00013064236344187107,-0.000324234897900935
1225,-0.0011041455582160205,-0.0004450444704555121,-0.0003242442229980864,-0.0007912002658798868
1226,-0.0024150215450775636,-0.0010482561114920636,-0.0007387592374731859,-0.0017719168438347628
1227,-0.0049141093554637034,-0.0022877992995804703,-0.0015643820369516078,-0.0036889526163323637
1228,-0.009405105846262432,-0.004672662875932737,-0.0031102952113864456,-0.007214721985146997
1229,-0.017082596070500767,-0.009005469948822795,-0.005855033714511977,-0.013369400818124436
1230,-0.02965806695463084,-0.016491863359196893,-0.01050905999567008,-0.023638314968583606
1231,-0.04950426308993048,-0.028867578171023815,-0.018090146323842253,-0.04010679851681072
1232,-0.0798128592189307,-0.04853938286281089,-0.03001141918554337,-0.06560848416423525
1233,-0.12475782368595757,-0.07873385414958413,-0.04818068863541872,-0.10388074269233619
1234,-0.18965414804984032,-0.12364545475968866,-0.07510793264057455,-0.15971840315478067
1235,-0.2810988539986606,-0.18857271391206334,-0.11401568711159446,-0.2391140443161875
1236,-0.40707886091071166,-0.2800287072954123,-0.168944893849515,-0.34937048643834534
1237,-0.5770290084237618,-0.4058098785041005,-0.24484680211716411,-0.4991692090181583
1238,-0.8018234878551563,-0.5750060176123836,-0.3476500910961083,-0.6985776703702398
1239,-1.0936849269292577,-0.7979343628796253,-0.4842917072952481,-0.9589790160810573
1240,-1.4659972938527883,-1.0859826551033707,-0.6627001721969461,-1.2929095012292868
1241,-1.933011970115187,-1.4513496616334427,-0.8917214061567954,-1.7137922759905104
1242,-2.5094412710075082,-1.9066771025853295,-1.1809794113760372,-2.235561155328111
1243,-3.2099403888711593,-2.4645737511173382,-1.5406672896902633,-2.872174467685877
1244,-4.048486636006578,-3.1370403245491167,-1.9812677790579827,-3.637026591890132
1245,-5.037673248453668,-3.9348121280186374,-2.5132065150156215,-4.54227277399092
1246,-6.18794341868711,-4.8666447176313214,-3.1464454146080603,-5.5980908281383766
1247,-7.506798309530607,-5.9385755516036935,-3.890027929803577,-6.811911000088223
1248,-8.998019878648421,-7.153201096088908,-4.751592448606944,-8.18765207223813
1249,-10.660954366037664,-8.509013553026634,-5.736874697090856,-9.725006991722589
1250,-12.48990435824041,-9.999843694574903,-6.849224165684303,-11.418824207037071
1251,-14.473676195003012,-11.614455741549191,-8.089162624751026,-13.258631108573779
1252,-16.595325366277613,-13.336336468782402,-9.454013910630863,-15.228343318546422
1253,-18.832135643425087,-15.143713649900011,-10.937632782585156,-17.30619792996333
1254,-21.15585786068371,-17.009828693872997,-12.530256641245428,-19.464939957021066
1255,-23.53322150301925,-18.9034752874013,-14.218497632020949,-21.67227928724955
1256,-25.926717192534806,-20.78980069914895,-15.985484861928636,-23.891620900798245
1257,-28.295632034796938,-22.63135004025927,-17.811157972563155,-26.083055134235074
1258,-30.597303838904214,-24.389317324481855,-19.67270482745829,-28.204578527434634
1259,-32.78854533472824,-26.024951866752108,-21.54512802718637,-30.213500345854925
1260,-34.82717641307716,-27.501055653056707,-23.401917620318066,-32.0679761418951
1261,-36.673592112957955,-28.783497902952636,-25.215800985122222,-33.72859866840335
1262,-38.29228781522065,-29.8426679756844,-26.95953581229859,-35.15996908195512
1263,-39.653261751552414,-30.654787524230688,-28.60670895392299,-36.33216839201484
1264,-40.73321863628012,-31.20300751565038,-30.132503154167253,-37.22205078925956
1265,-41.51650656692423,-31.478225189983103,-31.51439568050578,-37.81428670067427
1266,-41.99573190954218,-31.479569729638648,-32.73275761866959,-38.10209395221118
1267,-42.17201333947111,-31.21452260170729,-33.771329636516036,-38.08760997494548
1268,-42.05485584787675,-30.69865826999139,-34.617558541878886,-37.78187600745497
1269,-41.66164694904534,-29.95501210188078,-35.26278793121347,-37.20442469390285
1270,-41.01679876463095,-29.0131035088176,-35.702304682109826,-36.382484003544405
1271,-40.15057963502893,-27.907662252013413,-35.93525031904916,-35.34983165676282
1272,-39.097696432994496,-26.677123010839857,-35.964412128230954,-34.14535403453848
1273,-37.895702980060406,-25.361966513229437,-35.795913401036614,-32.811380715958045
1274,-36.58331976596097,-24.002993812253937,-35.43882550408468,-31.391879063733832
1275,-35.19875442795765,-22.639623136057523,-34.90472656521456,-29.93060148799978
1276,-33.77811072146118,-21.308296073460102,-34.20723208821283,-28.469280462324047
1277,-32.353966547200216,-20.04107205103107,-33.361521319342856,-27.045963042691884
1278,-30.95419005733875,-18.864477803906503,-32.383879510435534,-25.69356808347505
1279,-29.60104786906893,-17.798662751370202,-31.291270749764777,-24.43873628058598
1280,1.0563443584237487e-10,-1.2498938286254426e-10,-1.1476593194345327e-10,-2.927647547517043e-11
1281,2.3310180823184952e-09,-2.556484469126374e-09,-2.232912689654685e-09,-3.8554889536296883e-10
1282,2.1477936930223516e-08,-2.8682034009819517e-08,-2.4400976774967384e-08,-6.468192914642863e-09
1283,1.2468993472560255e-07,-2.1223703813296263e-07,-1.758344904673628e-07,-6.308788139084171e-08
1284,4.913738476540617e-07,-1.177002986660744e-06,-9.519633774901998e-07,-4.4066338392357785e-07
1285,1.277112497957282e-06,-5.233106743568945e-06,-4.144927503899796e-06,-2.3770885287155467e-06
1286,1.4026172834392895e-06,-1.9494935285055766e-05,-1.5178608106375132e-05,-1.0420279927540085e-05
1287,-5.915826438931534e-06,-6.27894303367479e-05,-4.8259717270677484e-05,-3.848763567727071e-05
1288,-4.481736617401357e-05,-0.00017901774501431097,-0.0001364232838847006,-0.00012307783930359218
1289,-0.00018099664179138428,-0.0004602202872307896,-0.000349219454711125,-0.0003481577114827025
1290,-0.0005641056039334458,-0.0010827658882756196,-0.0008212434501797983,-0.0008865425257826599
1291,-0.0014928848945151916,-0.0023597751690819188,-0.0017947475287909442,-0.002061906331248449
1292,-0.0035056125649197446,-0.004812130292323873,-0.0036790055224943065,-0.0044341771594548895
1293,-0.007496650126677944,-0.009259325361188807,-0.007127911214896161,-0.008909521161733354
1294,-0.014858555836358173,-0.016930031758208817,-0.013135653428880713,-0.01687462848241073
1295,-0.02764796533306362,-0.029590614004478002,-0.023148567255520038,-0.030353395867409077
1296,-0.04877143922533826,-0.04968789831905053,-0.03918972695745686,-0.052181952936552554
1297,-0.08218446655711739,-0.08050026534614761,-0.06399162070694986,-0.08619516344210065
1298,-0.1330930943283406,-0.12628864423431524,-0.10113111867752243,-0.13741442532711162
1299,-0.20814370887494238,-0.1924363649607972,-0.15515951930385763,-0.21222313959632833
1300,-0.31558263538072756,-0.2855643098618904,-0.23171842769765413,-0.31851291291797384
1301,-0.4653638012202414,-0.41360571117843425,-0.3376296825654754,-0.4657807294428849
1302,-0.6691804875237736,-0.5858236618490995,-0.48094506184408187,-0.6651555306435376
1303,-0.9403971322744463,-0.8127543261616688,-0.6709398980631609,-0.929332545165366
1304,-1.293859840146105,-1.1060603076888365,-0.9180348158181836,-1.2723958483643552
1305,-1.745569506180804,-1.4782818589253968,-1.2336319700972223,-1.7095140930936752
1306,-2.312208686218044,-1.942478645773184,-1.6298563361736744,-2.2565009420016526
1307,-3.0105221155327087,-2.5117614243585336,-2.119198243679005,-2.9292401279041917
1308,-3.8565609730744215,-3.1987208797973246,-2.7140597705929355,-3.742984958562429
1309,-4.864812290929661,-4.014769469007977,-3.426214234604208,-4.7115529074980085
1310,-6.047246438035675,-4.9694207592045565,-4.266194550476358,-5.846446803742845
1311,-7.412326187913123,-6.0695387897792425,-5.242632588995861,-7.155944015975787
1312,-8.964029611141289,-7.31859675725617,-6.361577758066459,-8.644203059361514
1313,-10.700945496005104,-8.715989272648674,-7.625828501177706,-10.310442724988771
1314,-12.615503767035213,-10.256445066581819,-9.034314679299968,-12.14825169270066
1315,-14.693403648231156,-11.929586914226842,-10.581571238973414,-14.145086093617946
1316,-16.91329812640111,-13.719682374408352,-12.257343666776766,-16.282008007083377
1317,-19.246784152645937,-15.60562249147897,-14.046363257475084,-18.533709088893243
1318,-21.658734299672478,-17.56115587875032,-15.928325129527524,-20.868850550585666
1319,-24.107988104587992,-19.55539286591595,-17.878094281738598,-23.250734079789957
1320,-26.54840092077646,-21.553579214453215,-19.86615488588501,-25.638298731871004
1321,-28.930225727349637,-23.518122159412396,-21.859305651522924,-27.987417352070427
1322,-31.201780428955356,-25.409834331183138,-23.82158988255956,-30.252444177648954
1323,-33.31133173230668,-27.189344708574676,-25.715433544682508,-32.38794484886241
1324,-35.20910879303149,-28.81861148558951,-27.502949418876646,-34.35052316257656
1325,-36.84934693828229,-30.26246084279212,-29.147351612251832,-36.10064712901042
1326,-38.19225463351609,-31.490069171742267,-30.614413752272707,-37.604371252273815
1327,-39.20579588854274,-32.47630504922794,-31.873897277482406,-38.83485293105902
1328,-39.86718592889822,-33.202851577633425,-32.90087413235428,-39.77356865398195
1329,-40.16401034244387,-33.65903953470367,-33.67687107594898,-40.411149986757856
1330,-40.09489647865149,-33.842336640129474,-34.190770372198514,-40.747779414494566
1331,-39.66968926742792,-33.75845725674176,-34.43941302653448,-40.793110541644374
1332,-38.90911024911728,-33.42107881975936,-34.427865054402886,-40.565704412289605
1333,-37.84390701429748,-32.851174854263505,-34.16932381741982,-40.09200224086441
1334,-36.513528929475626,-32.07599815663304,-33.68465996949447,-39.404883004176774
1335,-34.964391914708095,-31.127770075528307,-33.00161086326137,-38.54188013596929
1336,-33.24781759262139,-30.042151216296887,-32.15366275531231,-37.54315263176686
1337,-31.417748224453707,-28.856583685087152,-31.178680168914074,-36.44932016309312
1338,-29.528347654979786,-27.608603751493305,-30.117358656129145,-35.29927821601626
1339,-27.631600481867654,-26.334225663345933,-29.01158909950435,-34.12810788354818
1340,-25.77501767515246,-25.066492188957092,-27.90282571273615,-32.96518644171405
1341,-23.99954734638582,-23.834275906495087,-26.830545770255007,-31.832589988284376
1342,-22.337774672667063,-22.661398188789246,-25.83087789170011,-30.74385915123532
1343,-20.81247628888343,-21.566110850055704,-24.935459044691832,-29.70317483754045
1344,2.028165607634053e-10,1.063194628347546e-09,8.267114120361086e-10,2.3828934854370284e-10
1345,9.55291060044519e-10,2.2993012140078064e-08,1.7849333488279653e-08,4.664453346986461e-09
1346,2.138048398153548e-08,2.6482588627218184e-07,1.9098924545503278e-07,5.661617717916826e-08
1347,2.1772183133466472e-07,2.017727588410546e-06,1.3511598953670875e-06,4.5603189354630737e-07
1348,1.582503843381277e-06,1.152557221619821e-05,7.139784537355938e-06,2.7746373654179684e-06
1349,8.810405668992922e-06,5.2790306202767834e-05,3.0189682674036023e-05,1.3562295900957149e-05
1350,3.9588510353667314e-05,0.00020254506332667964,0.00010687364343326311,5.540280717594191e-05
1351,0.00014903851594390795,0.0006714314590841582,0.0003272234718104738,0.0001945013967216667
1352,0.0004833995936980962,0.0019681510462282305,0.0008882285402109242,0.0005994499155698185
1353,0.0013809453198224157,0.005194476622760744,0.0021796040845875435,0.0016500758910793886
1354,0.003537680504170471,0.012524203148048396,0.004911454504075721,0.004115821928755292
1355,0.008249861755927573,0.027915457568752258,0.010293250226385395,0.00941896486063345
1356,0.01773662946629285,0.058093014462866056,0.020273057349098293,0.01999058422565824
1357,0.03553763969033494,0.11381821961230261,0.03784467704143987,0.03971946639448839
1358,0.06697470919473125,0.21144286541529025,0.06742806474168035,0.0744880234959546
1359,0.11966228193670042,0.3747228068294406,0.11532504611651861,0.13278422150566213
1360,0.20404575644990694,0.636846726278271,0.1902476941865332,0.2263715587732113
1361,0.3339365113464159,1.0426116431564634,0.30391038124178094,0.37098750927822666
1362,0.5269973510994695,1.650645070076451,0.47166842948394466,0.5870239705193412
1363,0.8051149725815075,2.535532692127534,0.7131772865212443,0.9001237034619248
1364,1.1945815013015677,3.789664100870737,1.0530377494814183,1.3416090200403623
1365,1.725999434136818,5.524566755725217,1.5213862904471613,1.9486474537372176
1366,2.433826286288852,7.871471463131512,2.154385394932447,2.764056625892652
1367,3.3554872479829427,10.980850242065747,2.994566430076848,3.8356577117595188
1368,4.53000536995641,15.0206930879584,4.090976101248854,5.215103271226239
1369,5.996127164529895,20.173341721413564,5.4990769564282,6.956129641334891
1370,7.789955446517394,26.630770768689572,7.280353769545601,9.112215683058675
1371,9.942139260903135,34.588294499219586,9.501582844865208,11.733667656152608
1372,12.474712025962058,44.2367762485042,12.233731915061322,14.864193564299436
1373,15.397711934161917,55.753524873842316,15.550474613975602,18.53707794796179
1374,18.70576052570804,69.29217444132173,19.52632407900366,22.771117201890053
1375,22.374812467932973,84.97195431079487,24.23441252709048,27.566522354924313
1376,26.359317509289603,102.8668587412543,29.74396506839426,32.901036397344086
1377,30.590050431200613,122.99530805712683,36.11753491084169,38.72654205364381
1378,34.97286274025767,145.31094657002325,43.40808298914498,44.966448869841734
1379,39.38858815391913,169.69523659592508,51.65599822724677,51.514141854655065
1380,43.694290926350206,195.9524767350756,60.88616553597952,58.23274510905647
1381,47.725982523935535,223.80779392659414,71.10519728672162,64.95640229452196
1382,51.30285082137008,252.90853437996617,82.2989497292856,71.49320294928147
1383,54.23295179464121,282.8293137258986,94.43044728966049,77.62979330364224
1384,56.32021274133426,313.08079001994565,107.43833316723915,83.13760778994514
1385,57.37249522870032,343.12200600948756,121.23595270010651,87.78054964093685
1386,57.21037289601395,372.37592341822017,135.7111560785605,91.32384327600616
1387,55.676201160238904,400.2475578434314,150.72688001440594,93.54368512491348
1388,52.64299957833769,426.14393459074915,166.12253600343936,94.23724017432714
1389,48.02263793383392,449.49493824037,181.71619858622947,93.2324748264188
1390,41.77281767181134,469.77403400518403,197.30755309742315,90.39728762882696
1391,33.90237300078061,486.51780510963647,212.68153063091398,85.64740195280267
1392,24.474481770886538,499.3432815654225,227.61252934295715,78.95252142762395
1393,13.607473596394343,507.96213154855604,241.86909630009842,70.34032042959291
1394,1.4730475378397876,512.1909426955193,255.2189233992519,59.89794594806065
1395,-11.708143440410682,511.9570283521608,267.4339952476906,47.77083822008539
1396,-25.673428639279706,507.29944070698906,278.2957172959351,34.15882745636727
1397,-40.127308564113875,498.3651430683384,287.5998498943788,19.30962261777111
1398,-54.75248474104417,485.40056935655065,295.16107889530366,3.509964417297426
1399,-69.22219605380954,468.7390613560756,300.8170660911167,-12.925142707809018
1400,-83.21323592890575,448.7849051515614,304.4318428957169,-29.66458639502652
1401,-96.4189714290599,425.99487154672426,305.89843759913,-46.37407063826125
1402,-108.56167428358799,400.8582887379755,305.14065923667727,-62.729141542011156
1403,-119.40350583351099,373.87673145485616,302.11399810358216,-78.42764096418504
1404,-128.7555710015398,345.5443967307348,296.8056421647401,-93.20094916017247
1405,-136.48456641978686,316.3301552656686,289.23364756853465,-106.82345107013423
1406,-142.51668791529147,286.6621266728434,279.44533755266656,-119.11976833578318
1407,-146.83862334402593,256.91543847353273,267.5150348738165,-129.96943323835916
1408,-2.462544967773815e-10,-5.892811130609451e-10,-6.934999867065646e-10,-6.238746500823674e-10
1409,-3.3019181831850683e-09,-1.2589791226717122e-08,-1.4463449431194221e-08,-8.7625037275318e-09
1410,-4.3606218946655586e-08,-1.4095458320817855e-07,-1.6008939475869636e-07,-1.0396453305156066e-07
1411,-3.5720411225523324e-07,-1.0448038651310975e-06,-1.1679127716640257e-06,-7.814843746864039e-07
1412,-2.184647138861473e-06,-5.8077175876624965e-06,-6.385745534233951e-06,-4.416308327328709e-06
