,TP9,AF7,AF8,TP10
0,1.9196420337605115e-10,-5.704805530640305e-11,-6.523969990997254e-11,1.721103894765076e-11
1,4.264729019945662e-09,-1.1439877991859844e-09,-1.3058700080436004e-09,6.430544681623678e-10
2,4.6027714588857035e-08,-1.2797756669382052e-08,-1.4683841254248338e-08,6.319091933918448e-09
3,3.2702887709626105e-07,-9.442138632060411e-08,-1.0911335951754764e-07,4.08514698316465e-08
4,1.7234102036223995e-06,-5.22770356550055e-07,-6.096325474734172e-07,1.8673599040046712e-07
5,7.203727386124878e-06,-2.3234807803395103e-06,-2.738384255797742e-06,6.273013274309484e-07
6,2.4943920822641165e-05,-8.663944627263273e-06,-1.0329793447073097e-05,1.4945170894056183e-06
7,7.37987111947578e-05,-2.7966719295026264e-05,-3.374646031571671e-05,1.8811457209319773e-06
8,0.00019098158894633436,-8.000351290449356e-05,-9.769742044614853e-05,-3.4150171820370244e-06
9,0.0004403948514879296,-0.00020656963428432272,-0.00025516974336015205,-3.183873518802001e-05
10,0.0009186169111623683,-0.0004885141591227916,-0.0006099610359932882,-0.00012896935414810062
11,0.0017548156540516566,-0.001070862706370251,-0.0013502489242367174,-0.0003958782250304687
12,0.003101095961266858,-0.0021975109617137197,-0.0027952313041365927,-0.0010309932850490618
13,0.005110638823005028,-0.00425652586526162,-0.005456164508929138,-0.00238843909790859
14,0.007901835833476575,-0.007836489341957353,-0.010112152360519605,-0.005053427493936775
15,0.011507168286112075,-0.013793557806664022,-0.017899830967879667,-0.009933763914650864
16,0.015805999348327337,-0.023327945972842358,-0.030414664726136263,-0.018364918791448227
17,0.020441052735253706,-0.03806734341673886,-0.04981995288299263,-0.03222438582397748
18,0.024719281504068272,-0.06015333934480499,-0.07895787869131836,-0.05404924622657317
19,0.027499102236113918,-0.09232535171253359,-0.12145508320210663,-0.08714905438441409
20,0.02706770616395845,-0.1379949860220429,-0.1818134247605453,-0.1357043572461194
21,0.021014527814840606,-0.20130238179615845,-0.26547497375281887,-0.20483935664628536
22,0.006109816507124429,-0.28714515277369773,-0.3788491530766144,-0.3006556407112087
23,-0.021800013110023633,-0.40117017697912033,-0.5292895641231116,-0.43021304404058297
24,-0.06786679746875757,-0.5497189104835407,-0.725008735692208,-0.6014441881613756
25,-0.1382710125876569,-0.739718187988593,-0.9749210028044949,-0.8229915188265949
26,-0.24019541846119952,-0.9785106882228618,-1.2884070312902038,-1.1039597576504696
27,-0.3817315120367187,-1.27362235484522,-1.674998022098405,-1.4535823492852709
28,-0.5717116947242407,-1.6324679835739957,-2.143983077092057,-1.880807296705757
29,-0.8194644462879045,-2.0620007315145985,-2.703949202341226,-2.3938151754231853
30,-1.1344949273689655,-2.5683162241160558,-3.362269565167458,-2.9994893965252793
31,-1.526098725751062,-3.1562268988090323,-4.124561522099843,-3.702865182930478
32,-2.00292138739099,-3.8288268527660496,-4.99414120036031,-4.506588614172896
33,-2.5724807801544705,-4.5870713492816995,-5.97150562846575,-5.410420199765629
34,-3.2406733287571052,-5.429397870989942,-7.053876106669948,-6.410818660469365
35,-4.011288662229225,-6.351416822899619,-8.234837249323958,-7.5006398090746425
36,-4.885559759965226,-7.345699377242629,-9.504104566090204,-8.66898231356815
37,-5.861776666301751,-8.401687324632132,-10.847449413407801,-9.901206398700598
38,-6.934990922048867,-9.505745086189092,-12.246803681048709,-11.17914313314323
39,-8.09683502646345,-10.641367362899468,-13.680557949032924,-12.481501201668847
40,-9.335476563111133,-11.78954754104501,-15.124056488389009,-13.784465601686682
41,-10.635720118956655,-12.929302410675195,-16.550280951476477,-15.062469377309455
42,-11.979261997139275,-14.038338590947715,-17.930702555632887,-16.289106337987736
43,-13.34509364549989,-15.093835963195277,-19.23627073262756,-17.43814089705713
44,-14.71004073427041,-16.073314088506233,-20.438495399389637,-18.484561924634384
45,-16.0494168380058,-16.955539714284786,-21.510571047060697,-19.405621761672815
46,-17.33776416427946,-17.72142772676639,-22.428484606730375,-20.181799798235126
47,-18.549648847743402,-18.35488488761792,-23.172046282232486,-20.797632395621005
48,-19.660475172034673,-18.843545893139286,-23.725783775037886,-21.242357370902077
49,-20.647282024551096,-19.17935498246349,-24.07964571967205,-21.510331516684637
50,-21.489486127455862,-19.3589534936407,-24.2294694498946,-21.601193181610462
51,-22.1695399016872,-19.3838440903288,-24.177180784332734,-21.519757862181702
52,-22.673476706645882,-19.260315229384656,-23.93070847347991,-21.275651849038315
53,-22.991322236117508,-18.999123929263554,-23.503612289258548,-20.88270597571587
54,-23.117357843017604,-18.614949999936798,-22.914440467839754,-20.358147252002116
55,-23.050229263995885,-18.125649532276384,-22.185848378921612,-19.721639532467464
56,-22.79290204618248,-17.551348587268805,-21.343524948034407,-18.994234290300298
57,-22.352472165966148,-16.91342877157552,-20.414985581236614,-18.19729815167243
58,-21.739846311044595,-16.233463980929123,-19.42829923412829,-17.35148459591916
59,-20.969310941829736,-15.532171467385696,-18.41082205367449,-16.475813173277906
60,-20.058012623167794,-14.828440165829857,-17.388010146714517,-15.586911148088584
61,-19.02537414432395,-14.138494761099869,-16.38237927333276,-14.698460266846741
62,-17.892471409436883,-13.475245433792445,-15.412669812157933,-13.820876181068398
63,-16.681394969113143,-12.84786105726001,-14.493261806105671,-12.96123100615652
64,-3.3025218537819575e-10,-4.2987696288468886e-11,-9.54755807312342e-11,-1.8227667137712106e-10
65,-7.154812619010043e-09,-8.287127725098151e-10,-7.993719514963611e-10,-3.925438086369789e-09
66,-7.617768156512114e-08,-9.353952805341152e-09,-1.0141048029881718e-08,-4.19565644997153e-08
67,-5.353517536771786e-07,-6.939092509168529e-08,-7.622381013321603e-08,-2.9612060918348154e-07
68,-2.802191431874638e-06,-3.8630149486672305e-07,-4.32850785134763e-07,-1.558117806615218e-06
69,-1.1694009791495321e-05,-1.7260147946663813e-06,-1.9725225734517496e-06,-6.5436540848826105e-06
70,-4.0679534964181265e-05,-6.468686739346405e-06,-7.532548593446512e-06,-2.293613597096075e-05
71,-0.00012179976465064357,-2.0982091445053722e-05,-2.486804835671228e-05,-6.928752260332471e-05
72,-0.0003216886073134224,-6.030109432648841e-05,-7.26358282987565e-05,-0.0001848891728594217
73,-0.000764316757572627,-0.00015637500436032798,-0.0001911351270278758,-0.00044444853775949255
74,-0.0016602526778313465,-0.0003712734332530643,-0.00045976436080072565,-0.0009780831836146847
75,-0.0033418868866763604,-0.0008166589911113077,-0.0010231403180543748,-0.0019970119997992242
76,-0.006304227066048075,-0.001680518746130136,-0.00212752323655876,-0.0038254123941682933
77,-0.011251052534681021,-0.0032616463599677518,-0.004168711928999197,-0.006939004048559821
78,-0.01914589256914453,-0.0060117594598210885,-0.007751899513066247,-0.012010754370883673
79,-0.031266388932033574,-0.01058450359014124,-0.013763176420114905,-0.019963593537888794
80,-0.0492594687856078,-0.017889954053532258,-0.023451324842715077,-0.0320292691390697
81,-0.075193751352388,-0.029152551401785486,-0.038517276911831703,-0.04981157527257649
82,-0.11160483886781232,-0.04596962979229375,-0.06120703912703971,-0.07535119685555303
83,-0.16152858093285752,-0.0703667990818283,-0.09440211389435137,-0.11118835865854795
84,-0.22851717436337712,-0.10484548216836183,-0.14169962818461498,-0.16041850347809303
85,-0.3166332813868513,-0.1524170374432996,-0.20747272483177903,-0.2267355380213082
86,-0.4304182310017609,-0.21661731812128265,-0.296900617491883,-0.31445686084782193
87,-0.5748315251232818,-0.3014954220768269,-0.41595725659251254,-0.428524335656794
88,-0.7551600175002008,-0.41157091206352847,-0.571348059171124,-0.5744754879416912
89,-0.9768963110043738,-0.5517549902937225,-0.770385666634545,-0.7583795404578295
90,-1.2455874152931459,-0.7272329720499496,-1.0207983055763226,-0.9867336850686989
91,-1.5666566245489135,-0.9433078005960405,-1.3304679341405672,-1.266316398883022
92,-1.945203595032277,-1.2052070983228083,-1.7070999117922847,-1.6039966343469005
93,-2.3857892466939936,-1.5178591226179312,-2.1578311770560474,-2.0065001674616054
94,-2.8922131955655823,-1.8856457578591395,-2.688789629854288,-2.4801371057503823
95,-3.4672921495523616,-2.312143135030919,-3.304623201257243,-3.0304974456215077
96,-4.112648317186683,-2.7998624798410754,-4.008022528995614,-3.6621245262982605
97,-4.828517350204958,-3.350005249536631,-4.7992657643926755,-4.378179050405764
98,-5.613585424025653,-3.9622474250976474,-5.6758172035353205,-5.180108771203645
99,-6.464864642051345,-4.634567874716618,-6.632012678497002,-6.067340804363128
100,-7.377615144045243,-5.363134861730045,-7.65886348263778,-7.037014724108238
101,-8.345321194423553,-6.142262916187978,-8.74400691337236,-8.083775027054099
102,-9.359726957684975,-6.964449342885256,-9.871825302212633,-9.199640916239119
103,-10.410935394625882,-7.820495646401099,-11.023747008713995,-10.373969347408725
104,-11.487570806671917,-8.699714317602064,-12.178732652089097,-11.593523752431869
105,-12.57700249762465,-9.590216125703398,-13.313938394392814,-12.842655998450118
106,-13.665624324388986,-10.479267777631039,-14.40553597615325,-14.10360336145909
107,-14.739182695828772,-11.353705025178558,-15.429657135459955,-15.35689602232412
108,-15.78314361835936,-12.200382416640304,-16.363418919370524,-16.581864214474265
109,-16.783087487661767,-13.006638145969887,-17.185977114838884,-17.757228053089843
110,-17.72511860453689,-13.760750974482972,-17.879548614161326,-18.861747670417962
111,-18.596275088333957,-14.452366021104078,-18.43034076506735,-19.874906917898386
112,-19.384924015014654,-15.072867349201287,-18.82932727954788,-20.77760077220471
113,-20.081126061977148,-15.615677699176029,-19.072816236395383,-21.552794812778792
114,-20.67695368461024,-16.076469370734273,-19.162765976579664,-22.186124912240764
115,-21.166747207430497,-16.453274991860354,-19.106818597661807,-22.666406892043938
116,-21.547294616679096,-16.746492461732547,-18.918037414222898,-22.98602956432222
117,-21.817923413462033,-16.958784340315592,-18.61435294402462,-23.141210221646787
118,-21.980496371551904,-17.094877931095382,-18.21774040498984,-23.13209883007763
119,-22.03930713091119,-17.161277815324137,-17.753169098726378,-22.96272535338553
120,-22.000876153107786,-17.165907243936786,-17.24737916904789,-22.64079323650864
121,-21.873652641571326,-17.117698283078585,-16.727553082708212,-22.177330569883175
122,-21.667633293813502,-17.026152754326127,-16.219956886267134,-21.586218228940947
123,-21.39391361350518,-16.900896753517515,-15.748629263745524,-20.88362067654494
124,-21.06419145511379,-16.75125091654777,-15.33419429006172,-20.087349625027088
125,-20.690245388418017,-16.585836754479416,-14.992866520897742,-19.216193185347738
126,-20.283412496949026,-16.412236491187983,-14.735705039669206,-18.28924354034978
127,-19.854091342126797,-16.236720136051847,-14.568157066830969,-17.325254679388628
128,1.6018067352074336e-10,-8.702489343395847e-11,-5.502360427268936e-11,4.509745027874683e-11
129,3.722444677785773e-09,-1.807142979482834e-09,-1.1875728740124485e-09,9.887545496172835e-10
130,3.8996781929246866e-08,-2.0067234852168044e-08,-1.3343136269183474e-08,1.0001882778040705e-08
131,2.6912252190739247e-07,-1.473017041386043e-07,-9.956272237438892e-08,6.541188142118628e-08
132,1.3719326032383565e-06,-8.109047244462108e-07,-5.583592652579438e-07,3.0840380039868e-07
133,5.525155038543631e-06,-3.582315860326417e-06,-2.5172489704900744e-06,1.1060326850186713e-06
134,1.835005433201677e-05,-1.3273516526023147e-05,-9.528895254782658e-06,3.0679991690358667e-06
135,5.18053344585393e-05,-4.256687580422717e-05,-3.123063977726519e-05,6.3716619351884614e-06
136,0.00012715495124661352,-0.00012096312024511631,-9.067115616050458e-05,8.076005308438066e-06
137,0.0002760316326188007,-0.0003102475156533158,-0.0002373669255500567,-4.763352812525187e-06
138,0.0005368612641245884,-0.0007288188007344879,-0.0005683406774543048,-6.902960992676853e-05
139,0.0009439422783029199,-0.0015870291237223885,-0.0012591942807014273,-0.0002695514247081334
140,0.0015071961671898385,-0.0032351506300856794,-0.002606680436048525,-0.0007758478533520509
141,0.0021814633266168688,-0.006224796653017681,-0.005083385887123094,-0.0018936231954992968
142,0.002824755711572422,-0.011383667899538,-0.009404194209509487,-0.004132292305568187
143,0.00314513184271103,-0.01990242732423914,-0.016603292233950295,-0.008289045527316505
144,0.002636226112750473,-0.033431319411872384,-0.028119645540881262,-0.015549016420770102
145,0.0005022290077813645,-0.0541827998470329,-0.0458880136762586,-0.02759988187890499
146,-0.004425737684817369,-0.08503489315655857,-0.07243156115846014,-0.04675769897251672
147,-0.013778524430938844,-0.12962829048214589,-0.11095084072315375,-0.07609900457668475
148,-0.029738184364165945,-0.19244847459710435,-0.16540240495485115,-0.119592167477138
149,-0.055120682611639576,-0.2788826428357451,-0.24055874588329315,-0.1822187296118229
150,-0.09344330061519965,-0.39524018309941933,-0.3420400267107148,-0.27007325097323304
151,-0.14896650592819105,-0.5487252297293221,-0.4763075533859862,-0.3904284428469612
152,-0.2266996031452223,-0.7473506312312298,-0.6506094474864891,-0.5517515944994786
153,-0.33236011944844257,-0.999784634771033,-0.8728706376975462,-0.7636586830441381
154,-0.4722784520886985,-1.3151247442588685,-1.1515219787351738,-1.0367940735254297
155,-0.6532417202435782,-1.702597392136577,-1.495266755116165,-1.3826262681621433
156,-0.882274165188237,-2.171187012218133,-1.9127866958868813,-1.8131537266103317
157,-1.1663558583257088,-2.7292034507136056,-2.412393616095966,-2.3405193282232792
158,-1.512086526480788,-3.3838020212491875,-3.0016367081342583,-2.976537421730969
159,-1.9253062773049336,-4.140475542411057,-3.686879211549229,-3.732143294286998
160,-2.410689370146586,-5.002542083071426,-4.472861595807896,-4.616780958747462
161,-2.9713308461082466,-5.970655624247867,-5.362271359275549,-5.637751134672001
162,-3.6083489021536725,-7.042369166059544,-6.355341853165147,-6.799546889471329
163,-4.3205282323197975,-8.211780695402792,-7.449503884644322,-8.103209179675444
164,-5.104030660193056,-9.469291589811336,-8.639113920522666,-9.54573795437302
165,-5.952198775330482,-10.801504222754861,-9.915281253994866,-11.119596114377782
166,-6.855475783459463,-12.191280618933373,-11.265813396553513,-12.812343233352893
167,-7.801460471110438,-13.617977045258934,-12.67529427556638,-14.606433457568658
168,-8.775110090214621,-15.057860679060765,-14.125303772001303,-16.47920731940011
169,-9.759096086574205,-16.484704451735634,-15.59478006903654,-18.40310024874995
170,-10.734308194961555,-17.870545476148237,-17.060518629314693,-20.3460814537312
171,-11.680492308869741,-19.186581891224158,-18.497793862312882,-22.272325998057592
172,-12.576997785899431,-20.404173288744413,-19.881082192620106,-24.14311098313879
173,-13.403601341449896,-21.49590183387771,-21.18485878814905,-25.917914422319644
174,-14.141367895937684,-22.436645330753876,-22.384435087900226,-27.555683270072628
175,-14.773503984635672,-23.204610215713622,-23.456800806564964,-29.016225756453604
176,-15.286157084583943,-23.782272032998947,-24.381432492073532,-30.261673414910845
177,-15.669114920972634,-24.15717345148104,-25.14103105350629,-31.257950750768828
178,-15.916362599072704,-24.32253527431636,-25.722152953175197,-31.976185987378233
179,-16.0264618476385,-24.277643965214455,-26.11570388640911,-32.39399508939512
180,-16.002725173723626,-24.027989599703208,-26.317269613782088,-32.49657347754824
181,-15.85316789962204,-23.585140310135866,-26.32726593801451,-32.277535640905626
182,-15.59023263555031,-22.966352571530642,-26.15089831111337,-31.739452237169512
183,-15.230293256761163,-22.193930322121357,-25.79793078242785,-30.89404696386318
184,-14.792958038496574,-21.294359151828655,-25.282273422863522,-29.762030839356655
185,-14.300203293178114,-20.297253863764876,-24.621406396980646,-28.372568701859777
186,-13.775378960117706,-19.234167895073607,-23.83566693270002,-26.76239087616586
187,-13.242135730203952,-18.137320728994087,-22.94743209153547,-24.974581251955804
188,-12.723328989486273,-17.03830401262536,-21.98023515475451,-23.057090516810902
189,-12.239957449335133,-15.966828281058508,-20.957856449916665,-21.06103883458705
190,-11.810193195289672,-14.949569896415197,-19.903430500548872,-19.038884661003475
191,-11.448555002718406,-14.009172224143029,-18.838610504757167,-17.04254469177494
192,-3.6976226383599344e-10,-1.1463713758686187e-10,-6.182642761356698e-11,-2.3025102987332178e-10
193,-8.007532992665043e-09,-2.0429628635268012e-09,-1.2944287646744968e-09,-4.882820208047e-09
194,-8.445813624578836e-08,-2.315396846029895e-08,-1.428401303923634e-08,-5.19443259368236e-08
195,-5.887346248967946e-07,-1.705144082029545e-07,-1.0424173274913465e-07,-3.651203640806428e-07
196,-3.059329224300656e-06,-9.418420545987381e-07,-5.702824967672281e-07,-1.91551321361067e-06
197,-1.268889836685749e-05,-4.170509044062626e-06,-2.5030181124690577e-06,-8.031326932217675e-06
198,-4.392694463547801e-05,-1.547084131953026e-05,-9.213560573350046e-06,-2.8140555878026594e-05
199,-0.0001310782018550625,-4.9610216748429915e-05,-2.9356099052830464e-05,-8.508059494531006e-05
200,-0.0003455660272780255,-0.0001407884251949615,-8.290965820606017e-05,-0.00022743514329813015
201,-0.0008208668467687365,-0.0003601459841350842,-0.00021146008416078103,-0.0005479882316054306
202,-0.0017853877662923076,-0.0008427591840180986,-0.0004943635017845528,-0.0012087340737314874
203,-0.003603094192596767,-0.001825886659045265,-0.0010723494682043251,-0.002472142237570558
204,-0.0068214202345471915,-0.003699371164914557,-0.002179918452031363,-0.004737639780006471
205,-0.012225516470187981,-0.0070680671019736655,-0.004187490683397425,-0.008581516325439397
206,-0.020896934000546954,-0.012825090527213511,-0.007653648692321461,-0.014797663982668716
207,-0.03427353606713931,-0.02223367163936687,-0.013386983690975941,-0.02443577837155554
208,-0.05420609212853707,-0.03701436330035875,-0.02251603165284451,-0.03883292319199369
209,-0.08300582152711455,-0.059433238346974934,-0.036564626343506115,-0.059633670308821836
210,-0.12347612523120599,-0.09238537272330669,-0.057528770231535825,-0.08879334531704461
211,-0.17892099180209114,-0.13946638593828048,-0.08794989622618808,-0.12855836922069416
212,-0.25312247282186656,-0.2050232745289342,-0.13097824310695497,-0.18141764630849
213,-0.35028056440722705,-0.294174558041424,-0.19041909908930338,-0.25001978156880905
214,-0.4749107984798597,-0.41278928980048785,-0.27075403544969917,-0.3370527678062508
215,-0.6316974333478085,-0.5674150774496036,-0.37712913329208064,-0.4450855023433954
216,-0.8253029461037243,-0.7651470945723754,-0.5153027733743372,-0.5763737824657983
217,-1.0601374991498635,-1.0134330613100984,-0.6915469106970736,-0.732637029921533
218,-1.3400953147344827,-1.3198131206771653,-0.9124978985633688,-0.9148156935632723
219,-1.668268387273313,-1.6915980987023806,-1.1849557624525477,-1.1228227863545979
220,-2.0466513198246696,-2.1354944669019007,-1.5156341914369826,-1.3553059361418425
221,-2.4758538618158745,-2.6571891189265697,-1.9108672127237327,-1.6094383226130753
222,-2.954839738980607,-3.2609115371240143,-2.376282322838866,-1.8807577512877405
223,-3.480711530251433,-3.9489948476011545,-2.9164535180145417,-2.163072825111504
224,-4.048561406163903,-4.721460377894843,-3.5345508974429096,-2.448453619213042
225,-4.651406041832916,-5.575652392958556,-4.232005972256388,-2.727321271315578
226,-5.280220645775858,-6.505950361073054,-5.008213165954389,-2.9886463462124317
227,-5.924082018106902,-7.5035851283189325,-5.860287995275255,-3.220259836014702
228,-6.570424488922879,-8.556582527066643,-6.78290097105982,-3.4092735758203494
229,-7.205406079862589,-9.649853178896379,-7.768203412644683,-3.542599159973738
230,-7.8143755666796055,-10.765440661254912,-8.805857282198435,-3.607546631642919
231,-8.382424486050455,-11.882932098316315,-9.883176034856508,-3.5924768632906594
232,-8.895001954000488,-12.980026023808154,-10.98537759969788,-3.4874753703773664
233,-9.338565085976967,-14.033242629811108,-12.095944276677807,-3.285011042583136
234,-9.701234330920608,-15.018751920360819,-13.19707795673985,-2.9805414447998504
235,-9.973421257657282,-15.913286513687611,-14.270233107823392,-2.5730270573772214
236,-10.14839617005189,-16.695098553262333,-15.296704881698851,-2.065319961839346
237,-10.222764420039757,-17.344914915608012,-16.258245868431423,-1.464397861810306
238,-10.196823654940571,-17.846842082436098,-17.137682732682503,-0.7814218230618659
239,-10.074779518134648,-18.189171922140652,-17.919503369799095,-0.03160545248215759
240,-9.864804136633559,-18.36504235094288,-18.590386406098197,0.7661061366798333
241,-9.57892941971876,-18.372912344998987,-19.1396478467553,1.5895381142013976
242,-9.232775216401482,-18.21681885064152,-19.55958436393278,2.4139482892536632
243,-8.845120409014141,-17.906393359310066,-19.84569886020908,3.2128202900679605
244,-8.43733267751151,-17.456627747748367,-19.996801051129562,3.9587501542150463
245,-8.03267932899115,-16.887391764628923,-20.01498316290429,4.6243837696748615
246,-7.655546572332765,-16.222717559325442,-19.90547761708432,5.183360436394828
247,-7.330597646389603,-15.489879167497728,-19.676409086223554,5.611218722886265
248,-7.081901508581653,-14.71830613818572,-19.338457199735828,5.886224512200279
249,-6.932063772895463,-13.938379855148959,-18.904448500077486,5.990087197782294
250,-6.901390439924945,-13.180167973241193,-18.388897288243054,5.908537907112393
251,-7.007112674331019,-12.472156344847708,-17.807515083369683,5.631752853415118
252,-7.262697570783378,-11.84003859858376,-17.176707748678588,5.154614736589151
253,-7.6772659353309765,-11.305621112616837,-16.513077951158127,4.47681464473267
254,-8.255134075526836,-10.885895671510259,-15.83294852104678,3.6028052807853266
255,-8.995492625286538,-10.592323965482906,-15.151919523411191,2.541622940838515
256,1.193758760124554e-10,-5.481361631302702e-11,-1.1109446799842803e-09,8.17794158468676e-12
257,2.448994100477982e-09,-1.1467771753475383e-09,-5.970188033859295e-10,7.897629247835501e-11
258,2.4252466593468308e-08,-1.2797737206038563e-08,-2.600462269591724e-08,-5.033285589765699e-10
259,1.5535821542108816e-07,-9.449604179223875e-08,-1.8544518259065172e-07,-1.4362531189750822e-08
260,7.216755044044614e-07,-5.236964945156164e-07,-1.0437708480428527e-06,-1.398479100788053e-07
261,2.5768964158116444e-06,-2.3309132796755956e-06,-4.71409010428424e-06,-8.873589574996242e-07
262,7.273084636315497e-06,-8.707700132894204e-06,-1.7795866629961504e-05,-4.259472830511952e-06
263,1.6215796594610262e-05,-2.8168507807635953e-05,-5.8056580310081646e-05,-1.6592791265241036e-05
264,2.6985518446958273e-05,-8.076715453790177e-05,-0.00016744287048789107,-5.4740069900515193e-05
265,2.4233108667078502e-05,-0.00020902082843848117,-0.0004348357031408177,-0.00015752656076485565
266,-3.7557975416721515e-05,-0.000495361924792906,-0.0010316802676732355,-0.00040429896612113783
267,-0.00026147433235188086,-0.0010878663022185554,-0.002263129038316366,-0.0009417914110829706
268,-0.0008467250107860475,-0.002235715761252278,-0.004635698814544462,-0.0020197363810088896
269,-0.0021385084726390407,-0.004335417544201846,-0.008940505832937255,-0.004034979843414438
270,-0.004688963777306146,-0.007988266830817973,-0.01634917311978525,-0.007583405163047302
271,-0.00932864143381739,-0.01406887194932542,-0.028517323569385307,-0.013518513881721518
272,-0.0172471323727406,-0.02380367036389358,-0.047689278181431906,-0.023014761400559792
273,-0.03008004801059168,-0.03885716905554222,-0.07679602618371437,-0.03763260637098672
274,-0.049997667187187275,-0.061422143801206926,-0.1195377190837984,-0.059380847502412945
275,-0.07978856984284985,-0.09430833461001507,-0.18044057337887517,-0.09077041786101449
276,-0.12292966441915396,-0.1410224605016116,-0.2648773318633006,-0.13485257428201047
277,-0.18363240601944672,-0.20583086246884463,-0.37903946743676753,-0.19523355808144574
278,-0.26685410595014897,-0.2937949963861019,-0.5298497953913728,-0.27605760404822965
279,-0.3782635022053673,-0.410769542648238,-0.7248054620967866,-0.38195093747796427
280,-0.5241513346521414,-0.5633532434275031,-0.9717449415942966,-0.5179212257568435
281,-0.711279266845776,-0.7587838068648519,-1.278537639451628,-0.6892096439746153
282,-0.946663741582393,-1.0047703395304095,-1.652701653707553,-0.9010959212611742
283,-1.237295147948848,-1.3092597269450768,-2.100962919732541,-1.158660179059276
284,-1.5897971391989079,-1.680137108749547,-2.628776589332266,-1.466508915266573
285,-2.010035998136391,-2.1248650217804212,-3.2398385904440317,-1.8284759789621492
286,-2.5026950657417086,-2.6500708357137044,-3.9356200739781575,-2.247312519382016
287,-3.0708336876972626,-3.2610976144718085,-4.7149603811847856,-2.724382296097054
288,-3.7154534006169606,-3.961539149625805,-5.573753900575964,-3.259380109481098
289,-4.435096040425318,-4.752785043172745,-6.50476413883424,-3.850091290944006
290,-5.225498996292726,-5.633605632618369,-7.497593908387103,-4.492209020453937
291,-6.0793315837513315,-6.59980861169836,-8.538835357102263,-5.179223464709599
292,-6.986032985750413,-7.643999073832784,-9.612416518753232,-5.902392117956594
293,-7.9317661686730485,-8.755472438328463,-10.70015299418975,-6.650794236084683
294,-8.899493744462683,-9.920265580985502,-11.782502637163292,-7.411464088720136
295,-9.86917133708069,-11.12138577165134,-12.839508334557937,-8.1695884044367
296,-10.818042474538203,-12.339229805826683,-13.851897742645969,-8.908743853772252
297,-11.721008036674503,-13.552196709905635,-14.80228995199895,-9.611142490804339
298,-12.551035316029399,-14.737485873201768,-15.676439023549088,-10.257849117788147
299,-13.27956915653381,-15.872057650919999,-16.464426168576118,-10.828936546722655
300,-13.876911338558013,-16.933715434453493,-17.161701434029364,-11.30355322000116
301,-14.312543193686022,-17.90224858904939,-17.769874374559343,-11.659891201190081
302,-14.555377748500039,-18.76055775917212,-18.29716293102845,-11.875058421697043
303,-14.57393905759766,-19.495671279291,-18.758426606044186,-11.924874529662837
304,-14.336476889804436,-20.099555671945534,-19.174730751924397,-11.783623249595017
305,-13.811035500685257,-20.56962407047198,-19.5724088109655,-11.423806058610976
306,-12.965507577389156,-20.90885220629127,-19.981609456342866,-10.815953467921556
307,-11.767719403661902,-21.125421067369633,-20.43433731357337,-9.928561998432134
308,-10.185609473029915,-21.231818543501614,-20.962024104099555,-8.728235833739689
309,-8.187576371680105,-21.24335064023113,-21.592703266786323,-7.180118583745101
310,-5.743077614092435,-21.176038086478567,-22.34790389294708,-5.248697795287447
311,-2.823554658709683,-21.04390808278038,-23.23942387904126,-2.899048706843513
312,0.5962615707482586,-20.855733971333123,-24.266178615427947,-0.09855275423736479
313,4.536644326990262,-20.611325811123358,-25.41134442002595,3.1809175173977584
314,9.010786172692614,-20.297527630038037,-26.640021026615457,6.96040714582934
315,14.022403433865277,-19.884126458047437,-27.89762598801655,11.25099394476234
316,19.563140922845427,-19.319918648614735,-29.10920816296554,16.050770903137455
317,25.609925214468202,-18.52920707157826,-30.179829819003203,21.341894534223314
318,32.12244457636801,-17.409017275732968,-30.996118387953306,27.087923409188274
319,39.04095490590387,-15.827321500308559,-31.429030003371714,33.23168265186174
320,-2.0902556660895236e-11,1.6655549050615928e-09,8.56311369938074e-10,3.569612449994876e-10
321,2.5514803543298183e-11,3.6326296309139145e-08,1.859626960700333e-08,2.3978306007581904e-09
322,-1.955977931418304e-11,4.077304222827373e-07,2.100074847361397e-07,2.7361725778813564e-08
323,2.1082074450679212e-11,3.0257228075728576e-06,1.571920825541838e-06,1.9304789666960426e-07
324,-3.8682359764144216e-10,1.6817123845155104e-05,8.837909120619569e-06,1.0092261771426026e-06
325,-8.670666599190754e-09,7.489633652948037e-05,3.9911183231053815e-05,4.253419480600223e-06
326,-1.0197644164699344e-07,0.0002792909759593966,0.00015118641902577156,1.508010159178055e-05
327,-7.901813187044566e-07,0.0008997459889890778,0.0004953365671928772,4.645088715805885e-05
328,-4.564948750332311e-06,0.002563751860750733,0.0014361342920353602,0.00012718535697402297
329,-2.103574941681702e-05,0.00658177965509316,0.003750970427817965,0.0003148000318461885
330,-8.081201303790917e-05,0.015451866322028609,0.008952997720726061,0.0007131490226078553
331,-0.0002671128734076933,0.03358062485625047,0.01975966198718563,0.001492549554086389
332,-0.0007780433151454909,0.06824477652143734,0.04072324027970181,0.0029068292336918234
333,-0.0020351947476514353,0.13080056697967737,0.07902435780131632,0.0052983694380290105
334,-0.004854578834831562,0.2381292087352906,0.14541428799231787,0.009080056769832413
335,-0.010693585570518506,0.41428488278438746,0.25527812209723055,0.014682604198510283
336,-0.021983043239508074,0.6922867961638624,0.42977829471569123,0.02245728472050963
337,-0.042547213984059924,1.1159674612340524,0.6970243194583177,0.03252700035199869
338,-0.07810718775596638,1.7417559153497895,1.0931974094258963,0.044582321094623754
339,-0.13685496066240607,2.640239353841088,1.663537223937703,0.05762284342085656
340,-0.23007655434474555,3.897314060445665,2.463074537385571,0.06964800478983242
341,-0.37279272279967735,5.614712520057307,3.55697316181587,0.07730543082399287
342,-0.5843749706701559,7.909684432445012,5.020333303438376,0.07550981059640884
343,-0.889083130949573,10.913619939727564,6.9373121941949005,0.05705151595567404
344,-1.3164599253227909,14.769436609359701,9.399439431280326,0.012221544601832848
345,-1.9015098564657706,19.62760771597928,12.503043744617834,-0.07151299469342409
346,-2.6845867884348142,25.640786036401625,16.345761813137646,-0.2097424423168272
347,-3.7109184145149907,32.95707055761872,21.022163309420833,-0.42121340961275844
348,-5.029707444801072,41.7120677798569,26.61859431301195,-0.7277500919451576
349,-6.692768921683646,52.02000812806183,33.20740893610553,-1.1539612466262625
350,-8.75269010776936,63.9642840965592,40.840822809364326,-1.726707261085453
351,-11.260532538760891,77.58787235477871,49.54467898748771,-2.4743174343774714
352,-14.263132847287633,92.88417900095665,59.31246376144507,-3.425566593393548
353,-17.800096915763564,109.7888976433697,70.0999432301818,-4.608440531296746
354,-21.90061782928741,128.17348683085942,81.8208070166822,-6.048739694908323
355,-26.58027933866231,147.84085104461133,94.34369891672932,-7.768588642581953
356,-31.838030707889214,168.5237446577511,107.4909818722374,-9.78493362393891
357,-37.653533545369626,189.88631076172382,121.03952450210507,-12.108121330233836
358,-43.98508416414815,211.52901962832155,134.72370881786645,-14.740657099718266
359,-50.76830443453197,232.9970916387894,148.2407469320567,-17.676239908480984
360,-57.91576920175064,253.792286817476,161.25826455172822,-20.89916338528262
361,-65.3176994789876,273.38773060409056,173.4239693674689,-24.384156753315104
362,-72.84379898607031,291.24523797187294,184.37708323548298,-28.096716826890056
363,-80.34624933624109,306.8344109379474,193.76108901235995,-31.993952842090227
364,-87.66380958008752,319.6526329057041,201.23723626814586,-36.0259312389167
365,-94.62689352114857,329.2449800214343,206.49817343797375,-40.137470100893054
366,-101.06342867841504,335.2230246504981,209.2810335060995,-44.27029594776095
367,-106.8052394759906,337.28152469183306,209.37929928546637,-48.36544229511257
368,-111.69464911801285,335.212075704913,206.6528131780098,-52.36574326168371
369,-115.59096373864047,328.9129467333576,201.03537278761198,-56.21825900406479
370,-118.37649197934866,318.39451698983345,192.53946387465948,-59.8764651613242
371,-119.96176492921933,303.7799669878777,181.25782028376332,-63.302046648682364
372,-120.2896553439942,285.30113926472995,167.36165981262621,-66.46615724133113
373,-119.338149192093,263.2897535662518,151.0956172493145,-69.35003897478683
374,-117.12159334222257,238.16442162923775,132.7695713270041,-71.94493749558485
375,-113.69032616685013,210.41414038549354,112.7477303437946,-74.25129818000669
376,-109.12868799380229,180.57913401584872,91.43549042998339,-76.27727981240469
377,-103.55150003942028,149.2300522647518,69.2647004955932,-78.03667424136434
378,-97.09918757409218,116.94660595468552,46.67805025596232,-79.54636751810492
379,-89.93179961034565,84.29672654442041,24.113337001351173,-80.82351696643335
380,-82.2222383002599,51.81727552609216,1.9883610343385458,-81.8826460466625
381,-74.14905276313463,19.997206962782546,-19.312849482809003,-82.73287260976237
382,-65.88917182006482,-10.73608762007412,-39.45187157632509,-83.37548475373752
383,-57.610946913219585,-40.026735119597035,-58.14528571848825,-83.80206150828737
384,2.8143571735950276e-10,-1.5825549638407413e-09,-3.12480864961674e-10,1.479206226349672e-10
385,5.925336699248455e-09,-8.805313967241907e-09,-4.216384291211839e-09,3.1661744738433937e-09
386,6.234421671789624e-08,-1.1847253632012372e-07,-4.9146210385708274e-08,3.369474204424567e-08
387,4.3283600407604944e-07,-8.605628707827573e-07,-3.618095619108358e-07,2.3718488863437612e-07
388,2.243440715874618e-06,-4.742241449551633e-06,-2.0056097990443824e-06,1.2478524395707961e-06
389,9.303036016191147e-06,-2.096395466400701e-05,-8.93052075678715e-06,5.257086814830908e-06
390,3.231181895883492e-05,-7.764780895857634e-05,-3.3370336731890934e-05,1.8556678226308695e-05
391,9.71790440244252e-05,-0.0002487836468919534,-0.0001079474111335181,5.6697346483011535e-05
392,0.00025962014969960374,-0.0007058860469445441,-0.0003093501994120664,0.00015369350999553603
393,0.0006286553482335996,-0.0018066948297320888,-0.0007995815736705823,0.0003768565319476988
394,0.001402111294641382,-0.00423331875108228,-0.0018908845158018945,0.0008488087274249992
395,0.002917516268788781,-0.009190932818359884,-0.004139391698192442,0.0017779558313683465
396,0.005721447046472537,-0.01867435232759456,-0.008470316498673823,0.003498111921529008
397,0.010659176783724496,-0.035805187306670955,-0.01633470169401762,0.006517125025108594
398,0.018984581781601617,-0.06523590456846862,-0.029894712353167652,0.011573446169803249
399,0.03248817639795081,-0.1136103918743528,-0.05223156660734944,0.019698832041743712
400,0.05363913289242146,-0.190062492592066,-0.08756720145474012,0.032284766960481194
401,0.08573505235054531,-0.3067252344362296,-0.14148753956978333,0.05114947625283979
402,0.13305078610212503,-0.47921431084169763,-0.22115147715681177,0.07860132245675665
403,0.20097480468402848,-0.7270398777814856,-0.3354656785140798,0.11749297821948494
404,0.2961189265852552,-1.0738929307234915,-0.4952014664275905,0.17125944874572707
405,0.42638516681950167,-1.5477465177238297,-0.7130273221213556,0.24393224296493177
406,0.6009723271935333,-2.1807106089715407,-1.0034298186947115,0.340122029779882
407,0.8303048727775477,-3.008582746172003,-1.3824978805000372,0.4649629733148518
408,1.1258679486308594,-4.0700469831218635,-1.8675506559289785,0.6240135327611309
409,1.4999355625833768,-5.405490241038195,-2.4765978062284724,0.8231107609436353
410,1.9651842362954721,-7.055428958552443,-3.2276322193528153,1.0681779254172719
411,2.5341914850732823,-9.058567386481185,-4.137768125155424,1.3649883768458455
412,3.2188266293234293,-11.449541219425804,-5.2222513437192895,1.7188917286212162
413,4.029550041899752,-14.256433327108944,-6.493382009481067,2.134511423239412
414,4.974645643343642,-17.49817951903783,-7.959402503910047,2.615425607824254
415,6.0594199211875255,-21.18200933839944,-9.623413685111817,3.1638458543252734
416,7.285408297402304,-25.30108625871102,-11.482389753619486,3.7803103769957955
417,8.64963540363361,-29.83252239148415,-13.526365489942556,4.463409624396822
418,10.143979002774634,-34.7359418962621,-15.737868231376137,5.209562138688011
419,11.754687540078526,-39.952754814149976,-18.091660423811135,6.012857285200772
420,13.462098382041281,-45.40627724835707,-20.55484659425023,6.864978912229837
421,15.240597383106373,-51.002796303745356,-23.087381623487452,7.75522027800046
422,17.05885023305379,-56.633628949260704,-25.642995950143604,8.670595780732732
423,18.880322327787404,-62.178166496083485,-28.170529134438755,9.596049421647427
424,20.66408764187473,-67.50783288197485,-30.61563732149652,10.514754018673578
425,22.36590965255131,-72.49082024578183,-32.92281414025664,11.408489549615567
426,23.939560063120638,-76.99740401569842,-35.03764008432817,12.258084090592725
427,25.338324918346263,-80.9055863745877,-36.909154219720754,13.043896908307639
428,26.516633673691636,-84.10677730521381,-38.49222621307884,13.746320605697344
429,27.431735975892888,-86.5111992603274,-39.749797857340475,14.346278106436545
430,28.04534438438747,-88.0526989750678,-40.65486296975812,14.825690952732431
431,28.325159649379284,-88.6926680477401,-41.1920631720335,15.167897919885315
432,28.246198642898882,-88.42281348799828,-41.35879441579367,15.3580071011194
433,27.791853569562782,-87.26657709932454,-41.165743856482855,15.38317004427544
434,26.954624555227866,-85.2790757990032,-40.63680712013731,15.23277288454421
435,25.736485681459293,-82.54551835952537,-39.80836996482352,14.89854631462587
436,24.148865864622,-79.17814220636207,-38.727973626228135,14.374603079491374
437,22.212248839874427,-75.31180154754507,-37.45241763246115,13.65741771321516
438,19.955418885958366,-71.09841840193091,-36.045385349516906,12.745767712463946
439,17.414399134010754,-66.7005768572252,-34.574704181117994,11.640657777224831
440,14.631146081619448,-62.28459216312254,-33.10937252100381,10.345248940970967
441,11.65207622742997,-58.01341764934226,-31.71649840247479,8.864812331314448
442,8.526507613980174,-54.03976066685799,-30.458299734991026,7.206723023515741
443,5.305099984798269,-50.49976393933101,-29.38931312632991,5.380503229641527
444,2.0383723753979095,-47.50757172300274,-28.55394758992029,3.3979164235099795
445,-1.2246330041225737,-45.15104378845654,-27.984501380281554,1.2731056334286155
446,-4.437485862808435,-43.48880866825489,-27.69973552520591,-0.9772392779276897
447,-7.557264554238007,-42.548766086761255,-27.704067716606637,-3.3337083982361335
448,-1.459175132962917e-10,-3.89991357328617e-10,-1.8984177788189145e-10,-1.3257326102750446e-10
449,-2.8640750907983246e-09,-8.394190162847103e-09,-3.9106513742849325e-09,-2.7023764087416654e-09
450,-2.9049295684076324e-08,-9.392801303665129e-08,-4.3698883913803256e-08,-2.9000927898319425e-08
451,-1.942048973302562e-07,-6.962858515308226e-07,-3.209880467055213e-07,-2.060632672652223e-07
452,-9.719998234121887e-07,-3.8712523628257e-06,-1.7637188518055265e-06,-1.100213508410732e-06
453,-3.913817735292743e-06,-1.7273254709557427e-05,-7.75479394686931e-06,-4.7306530147516624e-06
454,-1.3324432808587616e-05,-6.463713855724058e-05,-2.8515361831134903e-05,-1.7149567225673547e-05
455,-3.981534214120223e-05,-0.00020928331532188728,-9.049247956978006e-05,-5.4162221278270386e-05
456,-0.00010750033505551482,-0.0006002039822027741,-0.00025378637971348617,-0.0001527154488275175
457,-0.000268066030028925,-0.0015527571248361547,-0.0006408254162978411,-0.00039167137191113504
458,-0.0006269119077619236,-0.0036770519125417316,-0.0014789979755481907,-0.0009269181294875148
459,-0.0013883681346088612,-0.008066301480159285,-0.003158965197020717,-0.0020466639103963653
460,-0.002927799758149737,-0.016554766517382746,-0.006309262099632938,-0.004252852482036997
461,-0.005897737941851281,-0.03205083574673694,-0.0118868750097167,-0.008373681935311537
462,-0.011373320569343984,-0.058945741476364354,-0.02128272323037627,-0.01571031294223358
463,-0.021039985070180747,-0.10359266850450935,-0.036439979959050774,-0.028218381779958043
464,-0.0374239673103683,-0.17484451603611234,-0.059981343642251585,-0.048722161494142845
465,-0.06416354760191971,-0.2846310798067704,-0.09533838019020291,-0.08115615693553363
466,-0.10631562450360614,-0.44854773338681736,-0.1468721362637639,-0.13082539065055257
467,-0.17068775796058358,-0.6864179854937814,-0.2199702182813148,-0.2046715110971001
468,-0.26618035905753656,-1.0227823117280832,-0.32110256061852305,-0.3115272145903787
469,-0.4041175371729889,-1.4872567238636,-0.45781697899452733,-0.46233663683431386
470,-0.5985387321450879,-2.114698381387647,-0.6386565459263474,-0.6703149019827788
471,-0.8664174470074744,-2.9451139023990613,-0.8729834757221552,-0.9510167084085189
472,-1.2277693311056943,-4.023250271002138,-1.1706980977663208,-1.3222826275513582
473,-1.7056107594327605,-5.397818994469249,-1.5418463812171683,-1.8040334917320109
474,-2.3257316228381453,-7.120321259009276,-1.9961155185049013,-2.417888208828
475,-3.1162522209448236,-9.243464311572698,-2.5422245768356686,-3.186588374734326
476,-4.10694344796287,-11.819185708618893,-3.1872263322292276,-4.133223652936582
477,-5.3283014560408155,-14.896330678448404,-3.9357467888007536,-5.280264488475746
478,-6.81038243487233,-18.518056825981486,-4.789199753393676,-6.648422792027492
479,-8.581419635018538,-22.719067970329476,-5.745024012021816,-8.255376095109566
480,-10.666262370516959,-27.522803258147768,-6.795998795935852,-10.114405389695179
481,-13.084694193083529,-32.93872709017224,-7.929698119522574,-12.233010266270522
482,-15.849703486771457,-38.95987805747259,-9.128145273180818,-14.611575887086293
483,-18.965793313427636,-45.560839331163535,-10.367724739863723,-17.242173752465387
484,-22.427427289336084,-52.696287302166596,-11.619399883215177,-20.107581206832613
485,-26.21771320617633,-60.30025875000646,-12.849271087791868,-23.180602355503712
486,-30.307424671727016,-68.28624917584577,-14.019491030866357,-26.423764908288373
487,-34.654452496795535,-76.54821693002867,-15.089532177326687,-29.789453310584886
488,-39.203762013228086,-84.96252122456069,-16.017777440539298,-33.220518838785395
489,-43.88791073766037,-93.39076990285773,-16.76337962759576,-36.65138311873056
490,-48.62815381759419,-101.68349853318901,-17.28831051151965,-40.00962409056075
491,-53.33613377866857,-109.68454994786954,-17.559498171118115,-43.21800439632732
492,-57.91611799505023,-117.23597669316305,-17.55093378461119,-46.19687342458556
493,-62.26771433983655,-124.18325147127565,-17.245618305936773,-48.86684795855996
494,-66.28896511700468,-130.38054536704348,-16.637216865012903,-51.15165464928828
495,-69.87969374018436,-135.6958223520236,-15.731295074665969,-52.98100209431778
496,-72.94495930768623,-140.01550217663623,-14.546026853874663,-54.293342370690915
497,-75.39846250362498,-143.24846218274124,-13.112287480917551,-55.038382200308796
498,-77.16574322945226,-145.32918076561702,-11.473077501846614,-55.17921285458868
499,-78.18701668086894,-146.21986927382474,-9.682261365744758,-54.69394520407108
500,-78.41951006488405,-145.91149242963567,-7.8026471579639205,-53.576761055063244
501,-77.83918576102846,-144.4236366011688,-5.903477837591949,-51.83832245595977
502,-76.44176692531273,-141.80324672524117,-4.057446786040635,-49.505514949184
503,-74.24301655310711,-138.1223124133881,-2.3373878700312343,-46.62053658489485
504,-71.27825886631331,-133.47463787800393,-0.8128193510228154,-43.23937968023296
505,-67.60117017786608,-127.97187532868689,0.4534609030877232,-39.42978458952921
506,-63.28190249365453,-121.73903461345924,1.4085262889060255,-35.268772035591645
507,-58.40463469522526,-114.90970125701874,2.012024502431831,-30.839881082910733
508,-53.06467153607862,-107.62119985653531,2.2382611622343602,-26.230252391928413
509,-47.3652288109467,-100.00993030648148,2.077527089148002,-21.52770031594641
510,-41.41405313719666,-92.20708184491097,1.5365769587415261,-16.81791249491779
511,-35.320026281807614,-84.33489664211304,0.6382186744700147,-12.181902184237817
512,-4.8674665749325956e-11,-2.493375661908118e-10,-6.779958282389236e-11,-1.612728976685351e-11
513,-1.0819112576536226e-09,-4.424037572694145e-09,-1.3268789630519468e-09,-4.303433547811972e-10
514,-1.612684728291476e-08,-5.017149694976463e-08,-1.5224853359326466e-08,-6.984940575526482e-09
515,-1.458376728146448e-07,-3.711500818820547e-07,-1.1500939493398998e-07,-6.663770918116036e-08
516,-9.473548857791836e-07,-2.061048811733246e-06,-6.524927817725976e-07,-4.494617516302326e-07
517,-4.77327138137774e-06,-9.183751579073521e-06,-2.9716241327439502e-06,-2.3315961324532945e-06
518,-1.9621625465053628e-05,-3.431330730141392e-05,-1.134734956735498e-05,-9.820644488378786e-06
519,-6.821459837472601e-05,-0.00011092101213477648,-3.7469976017654694e-05,-3.488527029391649e-05
520,-0.00020606959113423544,-0.00031758120771280577,-0.00010950279214343593,-0.00010751311170300776
521,-0.0005526388618916265,-0.0008202207286797868,-0.000288414226548338,-0.000293911856650553
522,-0.0013388384925340883,-0.0019391117710551562,-0.0006947641934292421,-0.0007255456133966509
523,-0.0029727640475176727,-0.004246813297670849,-0.00154933410511342,-0.0016412809051250849
524,-0.0061237351610391655,-0.008701766452215844,-0.003230899746662944,-0.003444101565065013
525,-0.011823481948126774,-0.016820014911903203,-0.006354025340930334,-0.006772922724101754
526,-0.021582129415099738,-0.03088475638700644,-0.011868879601477242,-0.012588983861938317
527,-0.037515201506496614,-0.054190336135745705,-0.02118360168270857,-0.02227503225272362
528,-0.06247585851533207,-0.09131377515772958,-0.036307606532801025,-0.037743975174117754
529,-0.10018415161377643,-0.148402882316463,-0.06001154742600633,-0.061551966040092214
530,-0.15534256472629165,-0.2334652873848822,-0.09599672790389356,-0.09700908087457404
531,-0.23372477104270548,-0.35663752741723714,-0.14906390473567363,-0.14827887220342925
532,-0.3422226076635129,-0.5304081078758983,-0.2252688545429731,-0.22045622555998862
533,-0.488835187637945,-0.7697640076166301,-0.3320498263521341,-0.31961135332223434
534,-0.6825844709170907,-1.0922273660466086,-0.4783100666961234,-0.4527869084240512
535,-0.9333439242665211,-1.517748865597935,-0.6744371193296737,-0.6279355169868993
536,-1.2515710598724425,-2.068427234268854,-0.9322400241484637,-0.8537867140204611
537,-1.6479401774277564,-2.768030520381245,-1.2647865422757572,-1.139635254785261
538,-2.1328781511931694,-3.6413042887649625,-1.6861257707850947,-1.4950469269501587
539,-2.716013426989023,-4.713064227891583,-2.210887233853102,-1.9294831637247585
540,-3.405556346110398,-6.007085293122634,-2.853755430066965,-2.4518517627735297
541,-4.207636957399683,-7.544815624245127,-3.628828040216364,-3.0699974709972624
542,-5.125633726902349,-9.343960092013656,-4.548875552489422,-3.790152582731608
543,-6.1595322110308635,-11.416994332845142,-5.6245291427260575,-4.616373507454051
544,-7.305356308792354,-13.769684264435126,-6.863431803624752,-5.549994055606617
545,-8.554715852409593,-16.399697212511022,-8.2693947375048,-6.589129555271225
546,-9.894512622062908,-19.295397803259284,-9.841606624605673,-7.728267363735554
547,-11.306842006136621,-22.434923801826166,-11.573947034947707,-8.957978446220007
548,-12.769119429085652,-25.785633230192364,-13.45445621242921,-10.264781259937338
549,-14.254449878520639,-29.304003800531486,-15.465010997219967,-11.631183341032925
550,-15.732246154329564,-32.93604862244098,-17.581250291664684,-13.035918033611713
551,-17.169087472339466,-36.6182886087736,-19.772783198332455,-14.454384002228982
552,-18.529795210985945,-40.27929290452053,-22.00369917712673,-15.859283798925938
553,-19.778687514774408,-43.841765604121754,-24.23338307308319,-17.22144532397356
554,-20.88096031748548,-47.22512208102513,-26.41761970946613,-18.510797416271416
555,-21.804130535066296,-50.348463777190894,-28.509954221153308,-19.697459153651586
556,-22.519468925388814,-53.13382876814427,-30.46325687745137,-20.75289276219695
557,-23.00334610941966,-55.50956907914692,-32.2314262483921,-21.65106305300941
558,-23.238415911046584,-57.41368664890804,-33.771153372778876,-22.369542557575134
559,-23.214565789581343,-58.796949590665875,-35.04366276173041,-22.890501472543768
560,-22.92957479807569,-59.62561020036974,-36.01634384277765,-23.201525496622757
561,-22.389434631667182,-59.8835565817281,-36.66418876497845,-23.296212626884675
562,-21.608307691458844,-59.57375088090602,-36.9709592878982,-23.174511490790753
563,-20.608116115871795,-58.71883825972567,-36.930016733816785,-22.842777956405968
564,-19.417776067344775,-57.36085060428967,-36.54476458204981,-22.313542596852457
565,-18.072111140537256,-55.55997549779608,-35.828672742142906,-21.60499806252311
566,-16.61049649667261,-53.39241162845521,-34.80487482842837,-20.74023146210413
567,-15.075300058952482,-50.94738351583521,-33.50535324327467,-19.746241353763605
568,-13.510197776421888,-48.32343802003506,-31.96974957901616,-18.652790888649736
569,-11.958446077730311,-45.62418939916946,-30.2438578405925,-17.49115732594005
570,-10.461196136525073,-42.95371575411129,-28.377873803519574,-16.292843139029856
571,-9.055931528491922,-40.411835114400006,-26.424484711943517,-15.088315006561146
572,-7.775103219082598,-38.08950232350995,-24.436889416742726,-13.905833952000593
573,-6.645023680278658,-36.06456718994664,-22.46684027399566,-12.77043280559234
574,-5.685065982893466,-34.398119843687496,-20.562795007949504,-11.703086498169213
575,-4.907195285098138,-33.13162150404821,-18.768259429556192,-10.720107417652894
576,4.239287152898097e-11,-2.0855137990967355e-10,-1.1435138535600446e-10,2.4043747506980626e-11
577,1.000833418529897e-09,-4.207741147227846e-09,-2.531748203800281e-09,5.320200307625591e-10
578,1.2669489277465788e-08,-4.6788137139720516e-08,-2.8302069562459295e-08,6.509120659734263e-09
579,1.0357901434012297e-07,-3.431287549462218e-07,-2.1006109999366103e-07,5.16799370860184e-08
580,6.204135334434227e-07,-1.8871651197744146e-06,-1.1703177397665364e-06,3.0175954531407004e-07
581,2.917860313957238e-06,-8.327800096975498e-06,-5.236932724966213e-06,1.3873121790249998e-06
582,1.1266584057520892e-05,-3.0819236384133856e-05,-1.966496432142786e-05,5.245390766587215e-06
583,3.687506873133757e-05,-9.870388594729543e-05,-6.390976188308916e-05,1.6824304038338922e-05
584,0.00010481875147344675,-0.0002800981349143424,-0.00018394794124672556,4.686040781563548e-05
585,0.00026382672587783244,-0.000717368267405286,-0.00047733181448518454,0.00011544386389953188
586,0.0005974388513539494,-0.001682781072420677,-0.0011327051643868049,0.00025531767280754104
587,0.0012336098295454608,-0.0036591679706284453,-0.0024866662511941026,0.0005130942226443206
588,0.002349107043969939,-0.007449280295484587,-0.0050991918755463285,0.0009461714580595468
589,0.0041652523512809795,-0.014315816586172862,-0.009846701648310056,0.0016132114985728072
590,0.0069322857059935334,-0.026152001057848,-0.018029757292179958,0.0025564396805772905
591,0.010900248601711135,-0.045680149467850574,-0.03149075785890669,0.003774445986296411
592,0.016274553085270545,-0.07667277487067631,-0.052735902562164906,0.005184502793056596
593,0.023154579561130387,-0.12418735577168093,-0.08505492014530364,0.006573758692558359
594,0.031454153054953055,-0.19480186363231475,-0.1326312277931789,0.007539216541336441
595,0.04080376810423303,-0.29683372267294617,-0.2006339900203011,0.007417243668905163
596,0.05043596594899893,-0.4405205063245409,-0.2952819831024655,0.0052044938959073025
597,0.059057342658404594,-0.6381370245798641,-0.42386756403835435,-0.0005264620640740913
598,0.06471335517079166,-0.904021294234389,-0.5947280062185022,-0.01171181799532075
599,0.06465520016813336,-1.2544818609059702,-0.8171516976492063,-0.030874755341429253
600,0.05522096900384703,-1.7075615271426494,-1.1012087569074727,-0.06118889410387399
601,0.0317453135632492,-2.2826378760288386,-1.4574996860109846,-0.10651774262410582
602,-0.011487405674763383,-2.9998489707503704,-1.8968214459914772,-0.17142084542636268
603,-0.08123205825597096,-3.8793429124914707,-2.429757075014894,-0.2611180994526379
604,-0.1852010758325037,-4.940362086841064,-3.0662017185552926,-0.38140528797294093
605,-0.33190253662170316,-6.200186291432404,-3.8148438121937605,-0.5385163085601401
606,-0.5303928812686547,-7.672972740243627,-4.682624528565676,-0.7389308786704303
607,-0.7899448959909389,-9.36854424596355,-5.674201222051056,-0.9891305026606941
608,-1.1196379272300025,-11.291188591037605,-6.791441565604541,-1.2953097438472372
609,-1.5278834886630435,-13.43854109376638,-8.032974696525816,-1.6630538866637663
610,-2.021905170857321,-15.800627573520474,-9.393824364671598,-2.0969975904752327
611,-2.607197058889141,-18.359145464965653,-10.865147106870626,-2.6004820031637013
612,-3.2869895448997064,-21.087056110871334,-12.43409591135296,-3.175229883951537
613,-4.061754945199931,-23.94855103201055,-14.083826464423744,-3.8210593376477164
614,-4.928786990853253,-26.89943930769669,-15.793658485648372,-4.535656513433259
615,-5.881887620937285,-29.887982610932966,-17.539398525659028,-5.314425935354049
616,-6.9111914581221905,-32.856179826479014,-19.293822929259115,-6.150434013979113
617,-8.00315287117182,-35.74147589821418,-21.027310959674608,-7.034456789826701
618,-9.140712568120263,-38.478841340503884,-22.708609260103774,-7.955137138343441
619,-10.303650401261319,-41.003141708452794,-24.30570097899739,-8.899249756187647
620,-11.469119248525026,-43.25169237130718,-25.786746944052457,-9.852064808989445
621,-12.612342712832023,-45.16687513650653,-27.121062784573336,-10.797793968555963
622,-13.707448181144418,-46.698681320221304,-28.280094922467047,-11.720096490990485
623,-14.728397294969628,-47.807041942691534,-29.238359451195198,-12.602618487298336
624,-15.64996851058612,-48.46381051521858,-29.974310382658132,-13.429535841214166
625,-16.448741529069423,-48.65427741445181,-30.471106825681847,-14.186070446707713
626,-17.104031426428683,-48.378116584383896,-30.717251873291797,-14.85895068256129
627,-17.598721656193554,-47.649694132008456,-30.707079186544,-15.436790344703905
628,-17.919949713846123,-46.49770266722001,-30.441066659407788,-15.910365468272962
629,-18.05960681104307,-44.96412288979047,-29.925960472985157,-16.272775245268296
630,-18.014623026106054,-43.10255254597658,-29.174697628056194,-16.51948113727954
631,-17.787021657680608,-40.97597991499883,-28.20612087698536,-16.648226769255594
632,-17.38374020731125,-38.654111907907044,-27.04448687188808,-16.658849599054996
633,-16.816229378246852,-36.210393419864516,-25.718776111542525,-16.55300287500901
634,-16.099854350479312,-33.71887293479795,-24.2618215371332,-16.333812256006453
635,-15.253133382847397,-31.25107832586666,-22.70928091373204,-16.005495240156463
636,-14.296857102224866,-28.873065774708913,-21.098485939631107,-15.572973197341673
637,-13.253137563230654,-26.642793886279705,-19.467207896178078,-15.041505507543487
638,-12.144439070488774,-24.60795518628759,-17.85238522177953,-14.416373198161335
639,-10.992642482191664,-22.804369602432768,-16.2888623824665,-13.702635564216383
640,-3.733892463243885e-11,-1.560087989670642e-10,-1.5161257604149034e-10,-1.187368555731217e-11
641,-9.682712979041828e-10,-3.3076036050448273e-09,-3.283556410173391e-09,3.692998626962384e-11
642,-1.3632190371162396e-08,-3.7169810058970295e-08,-3.568124577789881e-08,-1.293677942785361e-09
643,-1.1912678721536805e-07,-2.763378970474707e-07,-2.566704887391878e-07,-1.992975392153762e-08
644,-7.461132664423812e-07,-1.5405869226051338e-06,-1.3817577751423878e-06,-1.6022839656302042e-07
645,-3.6218277720495672e-06,-6.890467903830942e-06,-5.959250132769482e-06,-9.005301715689427e-07
646,-1.4325864876394866e-05,-2.583645536590552e-05,-2.1525856731083386e-05,-3.917874431367353e-06
647,-4.784868594443261e-05,-8.378943463332427e-05,-6.722067497754655e-05,-1.3979867666757983e-05
648,-0.00013863850133259426,-0.00024059325262185076,-0.0001858723327852594,-4.2489954879844106e-05
649,-0.0003559890901208891,-0.0006229481025194894,-0.0004637248159860862,-0.00011307075030410442
650,-0.0008243580982648502,-0.0014759127542425562,-0.00105979017656281,-0.0002691163989327219
651,-0.001746876111864495,-0.003238300868710421,-0.002246406922883775,-0.000582771871820563
652,-0.003429533742627324,-0.006645696888861715,-0.004462077955614906,-0.0011645414336667807
653,-0.006303472371141642,-0.012863207725275414,-0.008377146892372218,-0.0021727293675661767
654,-0.010943069266638752,-0.02364811587929905,-0.014972339737348912,-0.003821976982316272
655,-0.018077600071944075,-0.041540382894122554,-0.025629588736011816,-0.006390073798203103
656,-0.02859407117680465,-0.07007638001095584,-0.04223376764432138,-0.010221949476477163
657,-0.043528599622000716,-0.11401816564649196,-0.06728287847907787,-0.015729465046207126
658,-0.06404376710119081,-0.17958702330188706,-0.10400270321105547,-0.023385469933279498
659,-0.09138974554429231,-0.27468597178328785,-0.15645990523963693,-0.03371060255160392
660,-0.12684769530316625,-0.40909195300129053,-0.22966514175968883,-0.04725150104099989
661,-0.17165512900592927,-0.5945949714048878,-0.32965527422641766,-0.06454951528191592
662,-0.2269148335002576,-0.8450592736856014,-0.46354179020572456,-0.08609981112502302
663,-0.29349145251644143,-1.1763813153518154,-0.6395116687510505,-0.11230191675152197
664,-0.371902431524268,-1.606321203056048,-0.8667675555355165,-0.14340407036603814
665,-0.4622120826333174,-2.1541886979960765,-1.1553963289322755,-0.1794449160087464
666,-0.5639387006045714,-2.8403716322904526,-1.5161586310576278,-0.22019698928988438
667,-0.6759849568859422,-3.6857033899396137,-1.9601961928673404,-0.26511706183253325
668,-0.796601224112323,-4.710676455020394,-2.4986583439112473,-0.31330876220712295
669,-0.9233898834555364,-5.934520341951673,-3.1422537558221983,-0.36350288454726787
670,-1.0533559113283786,-7.374173842230693,-3.900738272977892,-0.4140602740407486
671,-1.1830053875189224,-9.043192719903272,-4.782354749827612,-0.46300113836520146
672,-1.3084895960004257,-10.950643940823614,-5.79324609444694,-0.5080631669019735
673,-1.425788610568032,-13.100045376082381,-6.936867876257866,-0.5467890718146537
674,-1.5309247789337754,-15.488414841934981,-8.21343131402255,-0.5766420683710667
675,-1.6201932361870155,-18.105493637896977,-9.619410553887455,-0.5951453607776084
676,-1.690393629494927,-20.93320691558636,-11.147149258566778,-0.6000390235415862
677,-1.7390451288166073,-23.945416015138488,-12.784600191349046,-0.5894451097274979
678,-1.7645661195413966,-27.108006369090077,-14.515227449593812,-0.5620297999552417
679,-1.766400976390836,-30.379339057957797,-16.318094346359633,-0.5171501762651716
680,-1.7450789547627046,-33.71107530471984,-18.168151032608375,-0.45497290026152154
681,-1.7021944121076311,-37.04936218414514,-20.036725406390012,-0.3765527658973752
682,-1.6403032801017796,-40.336345962041975,-21.89220936277571,-0.28386091895259624
683,-1.562737730976339,-43.511958311904976,-23.700920699073276,-0.17975547435603015
684,-1.4733486208873865,-46.51590175285594,-25.428109733470034,-0.06789110099096002
685,-1.37619250796025,-49.28974542574475,-27.039069745906396,0.04743155078995751
686,-1.2751859148963363,-51.77903195174766,-28.500302600471343,0.16147131931400513
687,-1.173753570501088,-53.93529144249529,-29.780686135863355,0.2692973934322687
688,-1.0744994226904867,-55.71786025345813,-30.852588548710337,0.36607212075581086
689,-0.9789290399629782,-57.09540986973024,-31.692876993803246,0.4473489246569359
690,-0.8872493118793968,-58.04710504094896,-32.28377253303727,0.5093660790422367
691,-0.7982661140931242,-58.563329141946014,-32.613510751221725,0.5493160444873847
692,-0.7093932899861827,-58.645937573512555,-32.67677627404637,0.5655706561258438
693,-0.6167776867347083,-58.30802539542801,-32.47488971962189,0.5578447072606249
694,-0.5155357199131194,-57.5732217092931,-32.01573709194365,0.5272843556935495
695,-0.4000875066797519,-56.474548932621694,-31.313444053888414,0.4764720920168708
696,-0.26456558782429707,-55.05290840396643,-30.387810448970292,0.4093463605136969
697,-0.1032675611552646,-53.355273265606066,-29.263533093091663,0.3310406342838636
698,0.08888340794921958,-51.4326840556199,-27.96925615018362,0.24765306064350195
699,0.315908587097598,-49.33815103876374,-26.536497148534277,0.16596311946861747
700,0.5804117613728978,-47.12456956035547,-24.99850186086855,0.09311570763421506
701,0.8833190889628807,-44.84275061474748,-23.389082304644404,0.03629545900583412
702,1.2237475547566035,-42.53965881484618,-21.741489161360207,0.0024147031821453455
703,1.5990192395317284,-40.25693485939077,-20.087363826841884,-0.002162894625450089
704,4.1263429292067004e-10,-1.7417441088541374e-10,2.1597637798945224e-11,2.0948273776539617e-10
705,7.4493915064417055e-09,-3.80496796237069e-09,1.6089726628816077e-10,4.24670715802164e-09
706,8.389692688616325e-08,-4.247412538297241e-08,2.129092913831173e-09,4.752599818060241e-08
707,6.201185251012576e-07,-3.1386293073528804e-07,1.6883388242528195e-08,3.506790014918847e-07
708,3.4185331378461476e-06,-1.738279544605851e-06,9.769843211581786e-08,1.932682607811554e-06
709,1.5059845707528014e-05,-7.720886818452088e-06,4.470176108560159e-07,8.518339434491852e-06
710,5.537366917405087e-05,-2.874211757517089e-05,1.6865899105079999e-06,3.1369096005666474e-05
711,0.00017533595760100182,-9.252337306635882e-05,5.412918143458855e-06,9.95906707840391e-05
712,0.0004895715015560959,-0.00026366891923423566,1.5106140105291518e-05,0.0002791410707013883
713,0.0012282995659121006,-0.0006774907807478456,3.723993302788425e-05,0.0007038578671331377
714,0.0028119339376957773,-0.0015928536307408532,8.194582351126779e-05,0.0016212523104698346
715,0.0059493473897254765,-0.0034682279081436973,0.00016179955242453357,0.003454854552757282
716,0.011758807017578117,-0.007063835542444195,0.0002863302311288938,0.0068838387678175515
717,0.02190904384478785,-0.013571073424494618,0.0004489676851609807,0.012939641398536964
718,0.03877642605629205,-0.024768499257023242,0.0006026946065550966,0.023118126003871243
719,0.06561222180580643,-0.04320159526529359,0.0006208902363899635,0.03950435040964288
720,0.10671119691710877,-0.07238113847751353,0.0002407878293867795,0.06490507599149796
721,0.16756957540169995,-0.11699212190439809,-0.0010115695555883576,0.10298195134346567
722,0.2550171065849064,-0.18310172487463247,-0.00391422571503078,0.15837596899431125
723,0.37730504305600143,-0.27835101702640574,-0.009657535133787967,0.2368115070216496
724,0.5441299105658753,-0.41211135211517413,-0.01996324806140536,0.34516634105203375
725,0.7665727681394605,-0.5955833895287971,-0.03720797800720081,0.49149288263416274
726,1.0569359953591018,-0.8418150393801986,-0.06454246722903742,0.6849760750052702
727,1.4284645328025238,-1.165614915749368,-0.1059959091429112,0.9358150920699493
728,1.8949454787878557,-1.5833404711252603,-0.1665525587879014,1.255019204687614
729,2.470188147605032,-2.112544976147648,-0.2521862559758394,1.6541126412282399
730,3.1673956558081775,-2.771474747721418,-0.36983774618120324,2.14474877880607
731,3.9984484796514645,-3.578417103594972,-0.5273202622128809,2.7382403410293725
732,4.9731297796255935,-4.550909856269616,-0.7331411212752056,3.4450190970355448
733,6.098330838981037,-5.704834086283711,-0.9962312576563002,4.274045295199833
734,7.377281705486815,-7.0534227838733,-1.3255805819737305,5.232193078372651
735,8.808856476420898,-8.606228063623108,-1.7297844697128129,6.323642979898011
736,10.38700419304258,-10.368098362105435,-2.2165149814850147,7.549315998158684
737,12.100354778847656,-12.338223614787873,-2.791938876551636,8.906385471139993
738,13.932044327411223,-14.509310124732737,-3.4601123112492482,10.387902666100725
739,15.859795099087549,-16.86694698342469,-4.222388555868403,11.98256937969048
740,17.85627298150561,-19.389221923036825,-5.0768794509094235,13.674685790635916
741,19.88972983446687,-22.04663609721129,-6.018013187347542,15.444294492086039
742,21.924921064480184,-24.802354598965255,-7.036230007231888,17.267532285030867
743,23.924270966160293,-27.612813067349656,-8.117853437403356,19.117190258775576
744,25.849240792325674,-30.428681440248806,-9.245167662892152,20.96347037304775
745,27.661838422556947,-33.19616502979179,-10.396721802575016,22.774914032862245
746,29.32619554151663,-35.85860205238868,-11.547869532190099,24.51946615637908
747,30.81012974489518,-38.3582970003216,-12.671538312861065,26.165628132647917
748,32.08660585339584,-40.63851220274345,-13.739207165142213,27.683645740546524
749,33.13501304558993,-42.645526846514144,-14.7220563707627,29.04667401123593
750,33.94218221060993,-44.330664670876125,-15.592237706640224,30.231860385217438
751,34.50308082107119,-45.652189268289284,-16.324200988652255,31.221290317150284
752,34.82114004841868,-46.57696979751652,-16.896003122698595,32.00274551493027
753,34.90818939848397,-47.08182985801864,-17.290520737981094,32.570233758133796
754,34.78399619533328,-47.15450774620636,-17.49648775802148,32.92426012884871
755,34.47542915344819,-46.79417634307332,-17.509285348388747,33.07182191512279
756,34.015285897747674,-46.01149418594601,-17.331423386060507,33.026122978852854
757,33.44084272661462,-44.8281843525544,-16.972669135911197,32.80601750287544
758,32.79220006512334,-43.27616303894281,-16.449798996769758,32.43520702199064
759,32.110507892950295,-41.396263558122,-15.785971516840824,31.941227578796926
760,31.436161046182967,-39.236622427658794,-15.00974284707395,31.35427478812564
761,30.80705452126779,-36.85081095341445,-14.153767953194281,30.705922847416883
762,30.256983863884386,-34.29580722760674,-13.253250897146117,30.027798570301734
763,29.814265854014632,-31.629909100528234,-12.344224112851506,29.35027301576156
764,29.50064046836318,-28.910688240739574,-11.461748763184698,28.701231107447253
765,29.330497567435806,-26.19307908624948,-10.638135159619315,28.104974054928032
766,29.310452469503375,-23.527684920308033,-9.901283377783828,27.5813011011057
767,29.43927529353963,-20.95936743057345,-9.273239442693662,27.144807028612576
768,-4.068934935037494e-11,-7.484271059479083e-11,-4.591597179336502e-11,3.1653782673625454e-11
769,-1.2585713503520478e-09,-1.5417892289025183e-09,-5.450157530641948e-10,2.523388320431009e-10
770,-1.4873814235658309e-08,-1.7513700663003225e-08,-6.727041692119185e-09,2.7397353340393955e-09
771,-1.1394625398902574e-07,-1.3057956529382533e-07,-5.22787681255343e-08,1.9416993672188243e-08
772,-6.325829436896817e-07,-7.292015307940723e-07,-3.062218321733376e-07,1.1405367995497874e-07
773,-2.724783096215183e-06,-3.2614763476185334e-06,-1.439474250592486e-06,5.816497927244697e-07
774,-9.496042033155702e-06,-1.2207959207129193e-05,-5.675096502341875e-06,2.6150263984112813e-06
775,-2.751352571427159e-05,-3.945435294978006e-05,-1.9348021693758188e-05,1.0371471962820323e-05
776,-6.734411790982983e-05,-0.00011271072428708651,-5.836334937837804e-05,3.636940220703631e-05
777,-0.00013986078673214049,-0.00028989917788805757,-0.00015856518434679618,0.00011351536387515864
778,-0.00024295491048917419,-0.0006813720549797167,-0.00039353924189832503,0.00031837830511236606
779,-0.0003318995672115088,-0.0014814258049732731,-0.0009025604655626372,0.0008110154162257379
780,-0.0002665822076729879,-0.0030099475756302807,-0.0019310438165086822,0.0018962898861568927
781,0.00026990865423464136,-0.00576433813393573,-0.003884887957444318,0.004110260580722125
782,0.001884908745281483,-0.010481172565266006,-0.007398571376674748,0.008333266564103515
783,0.0056235288193591665,-0.018206356589111117,-0.013415003394877278,0.015929241752860403
784,0.013149182220765642,-0.030371664731074482,-0.02327322609807098,0.028908739086459957
785,0.026954430150801796,-0.04887438527249984,-0.03879831398002622,0.05011103115396692
786,0.0505964978678769,-0.07615531825005295,-0.062386336752117945,0.08339826792447431
787,0.08894850769752759,-0.11526872581103695,-0.0970760213821345,0.13385189906071307
788,0.1484536051450589,-0.16993630106394966,-0.14659779482180876,0.20795837866566333
789,0.2373646589830307,-0.24457613528722352,-0.21539025985063717,0.3137677101502592
790,0.36594728831061074,-0.3442973209047811,-0.3085740449120154,0.46100505250471907
791,0.5466193922581929,-0.47485138822773293,-0.43187359525822167,0.6611131064355265
792,0.7939973946290331,-0.6425332774761251,-0.5914791038399086,0.9272022294530936
793,1.124819202195164,-0.8540269101587387,-0.7938435626935106,1.2738868949293727
794,1.5577169509222661,-1.1161935281790023,-1.0454139130674158,1.7169915101787951
795,2.1128188960548786,-1.435804661338148,-1.3523003714262143,2.2731155548284407
796,2.811168964459067,-1.819225709311437,-1.719893996850028,2.9590570495451924
797,3.673964091956009,-2.2720604714806814,-2.1524490282121755,3.7911038842926836
798,4.721622819595188,-2.798771258027139,-2.6526528254322117,4.784213732837555
799,5.972712604308658,-3.4022931438652892,-3.2212115467468556,5.9511142122567735
800,7.442776656794561,-4.0836641182079205,-3.8564830193102435,7.301364661370987
801,9.143112929271167,-4.8416949956954545,-4.554188868186883,8.840428736447244
802,11.079567665813883,-5.6727036685358,-5.307235517125961,10.568812540871606
803,13.251413328848347,-6.570337358412206,-6.105668419036633,12.481325920237019
804,15.650384994959149,-7.525503820912037,-6.9367764611663985,14.566524382724584
805,18.259949454520203,-8.526427966785123,-7.785354759626566,16.806385264224843
806,21.054876383991704,-9.558844229821409,-8.634124673598237,19.176263759310523
807,24.001170768891377,-10.60632753501458,-9.464300241993403,21.64516221511838
808,27.0564103825921,-11.650757320171177,-10.256280555667445,24.176329981513693
809,30.17051200606253,-12.672900274179735,-10.990438017102521,26.728191895857428
810,33.2869259715394,-13.653088883843928,-11.647963501860511,29.255582264597212
811,36.34423197155749,-14.57196518059428,-12.211721979085642,31.711239535653466
812,39.27808207796022,-15.411252909493113,-12.66706735588132,34.04749661243456
813,42.023412043130605,-16.1545172770705,-13.002564287447028,36.21808485857972
814,44.51682133648883,-16.787869915268974,-13.210568179125447,38.17995789123456
815,46.69900745028748,-17.300577950364964,-13.287622626096697,39.8950352992342
816,48.51713176862273,-17.68554010886011,-13.234645450261299,41.331767008225114
817,49.92699343696596,-17.939599412918398,-13.056889083113724,42.46642624041303
818,50.894894548126324,-18.063670830181362,-12.763676824919333,43.284052564859635
819,51.39909423980012,-18.062672685572785,-12.367932009673805,43.77898554184099
820,51.43076997382468,-17.945262056425893,-11.885531040323105,43.954952654808295
821,50.99442998157858,-17.723386016378516,-11.334522719680264,43.82470108219592
822,50.10775025163931,-17.411671715927106,-10.734264660271096,43.409189871930856
823,48.80084100875473,-17.02668816736708,-10.10453243594559,42.736385706098105
824,47.11497946172597,-16.586120569728,-9.464658205989046,41.83972996301594
825,45.10087532928385,-16.107903508124423,-8.832752569008875,40.75636537231687
826,42.81656099246524,-15.60936195334675,-8.22505631569429,39.52522550421866
827,40.325017403446864,-15.106408430624162,-7.655457905934898,38.1850984431503
828,37.69165914740791,-14.612841002810569,-7.135198754351988,36.77277669283662
829,34.981806762789205,-14.139780062146057,-6.672773063109339,35.32139861593308
830,32.25827126107703,-13.695272835604191,-6.2740134751795145,33.859072943803746
831,29.579164890243213,-13.284083679834731,-5.942339637992955,32.40785801462084
832,3.654631228198657e-10,-6.822548787825717e-11,-1.2245929704183524e-10,1.9942802677656247e-10
833,7.923841160660484e-09,-1.4329477322836204e-09,-2.647789404625972e-09,4.306858492681966e-09
834,8.720604582732926e-08,-1.601502130149463e-08,-2.994382362013282e-08,4.7424866234519256e-08
835,6.341361138743405e-07,-1.1791631782707953e-07,-2.2366565204539297e-07,3.4544208844718687e-07
836,3.440959049049351e-06,-6.501390054690504e-07,-1.2510462574266754e-06,1.880414752843434e-06
837,1.4909717347569147e-05,-2.8721402702737985e-06,-5.603762408675677e-06,8.187416496380932e-06
838,5.390648312324183e-05,-1.0627063324252937e-05,-2.0997835902370047e-05,2.979726098687495e-05
839,0.0001678216699906843,-3.398945671212684e-05,-6.78895119519714e-05,9.353980682764388e-05
840,0.0004607593040208558,-9.623388007955976e-05,-0.00019385357957459016,0.00025939143901714895
841,0.0011370179810904065,-0.00024572454853407396,-0.0004978750206118373,0.0006474926276395866
842,0.002561369243152068,-0.0005743653624586115,-0.001167224320753881,0.0014773572605785716
843,0.0053358424312357254,-0.001244033772155472,-0.0025285502143106726,0.003120416589118073
844,0.010391433836154844,-0.002521962570720081,-0.005113414081992596,0.006166172906080739
845,0.019092389416193286,-0.004825390546391215,-0.009737072416971953,0.01150145903094184
846,0.03334993907913833,-0.00877503058348659,-0.017588083135341492,0.020401436500387105
847,0.055741082403597424,-0.015256039816346509,-0.03032520554691642,0.034629820218572915
848,0.08962614320553916,-0.025484200138248682,-0.050176855040340786,0.05654431381706942
849,0.13925657486729529,-0.04107389127701049,-0.08003686181223246,0.08920144203699307
850,0.20986221378447406,-0.06410314288380142,-0.12354846176902562,0.13645299219930082
851,0.3077051689269148,-0.09716965961556362,-0.1851665663121444,0.20302432307199172
852,0.4400863389240197,-0.14343039971070215,-0.27018688444424627,0.294563234286234
853,0.6152908494793957,-0.20661630434453745,-0.38472990982525196,0.41764738418659053
854,0.8424609733155619,-0.29101339577928387,-0.5356684910828228,0.5797387679080157
855,1.131389157014319,-0.4014018996436272,-0.7304897122887907,0.7890755534241257
856,1.4922289585669932,-0.5429464245574945,-0.9770849194570866,1.0544943900379598
857,1.935127306878851,-0.7210325447528274,-1.2834656630416603,1.3851798832824163
858,2.469787219616272,-0.9410482756315152,-1.6574079261659633,1.7903421699290096
859,3.104975875976434,-1.2081127212893135,-2.106032189927584,2.2788283778318443
860,3.8479984678339623,-1.5267583960651132,-2.6353325028526267,2.8586790142592435
861,4.704163022774236,-1.9005781463255202,-3.2496734265481164,3.536645569029226
862,5.676264890109132,-2.3318519667487485,-3.9512789804686768,4.317690362151435
863,6.764121617473904,-2.821173006249512,-4.739741925577847,5.204493578272877
864,7.964189482671109,-3.3670953145057556,-5.611584430604221,6.196995288948764
865,9.26929178619741,-3.9658280025871706,-6.559902085000206,7.29200181291504
866,10.66848569403884,-4.611001128228935,-7.574122224414128,8.482885623588093
867,12.1470886456317,-5.293527532772653,-8.639904552803785,9.759405851413488
868,13.68687730709955,-6.00158194184049,-9.739207025166245,11.107672134731287
869,15.266462441839774,-6.720713932530551,-10.850532946363519,12.510268315647957
870,16.86183262836818,-7.434105018456377,-11.949366462721258,13.946544570598691
871,18.447049084737845,-8.122972390122435,-13.008793523102552,15.393077422730215
872,19.99506359116363,-8.76711315503983,-14.000294574450725,16.824287267999384
873,21.478622528690813,-9.345573753889363,-14.894684439147229,18.213193317612287
874,22.87121338218237,-9.837420193465976,-15.663164694402312,19.53227704287047
875,24.1480063331521,-10.222576515932888,-16.278445070707004,20.75441793185055
876,25.286742882190282,-10.482692216514394,-16.715883494172342,21.853859978648643
877,26.268525554617952,-10.601994739868939,-16.954589974168115,22.807164014266586
878,27.078467541279558,-10.568081194707695,-16.9784381251985,23.594100013632435
879,27.706168591756104,-10.372604283083616,-16.776930077048274,24.19843516786197
880,28.145993357910548,-10.011811208645831,-16.34586590571273,24.60857791293396
881,28.397139905705604,-9.48690086062932,-15.68777711467561,24.818044987267935
882,28.46349821708434,-8.804173532948468,-14.812094458681349,24.82572739522265
883,28.353310292953708,-7.974958289996443,-13.735032845361353,24.635941238140422
884,28.078654323496878,-7.015315138066766,-12.47918964022104,24.258260159275096
885,27.654784758608926,-5.945521600262177,-11.07286697433581,23.707137034363075
886,27.09936727176653,-4.789365297641316,-9.549143046594223,23.00133284750981
887,26.431651952098218,-3.5732749246989157,-7.944731116072119,22.163179749304415
888,25.67162941765326,-2.3253308653341858,-6.298676863600251,21.217712597650397
889,24.83921327347949,-1.074203055997739,-4.6509540251637125,20.191708577936467
890,23.953488856774094,0.151932833528856,-3.0410238451145055,19.1126776426724
891,23.032062666264462,1.3264494221104568,-1.5064255770875312,18.007847367021395
892,22.090539265355982,2.4252429114499825,-0.08146304751994715,16.903184304210097
893,21.142143113000525,3.427585902939105,1.203953355339273,15.822490201050472
894,20.197492581308406,4.316821335210219,2.32525832448591,14.786605972169651
895,19.264523453488945,5.080870160494572,3.2639364624352707,13.812749788401577
896,-1.3012327404922306e-10,-4.976208589800229e-11,-1.0919383015409177e-10,-1.0254637915851477e-11
897,-3.0473596990794187e-09,-5.372804962345797e-10,-2.2038392081349767e-09,-6.419592821328941e-10
898,-3.3332941545696975e-08,-5.14741441576094e-09,-2.369268332028321e-08,-6.405854383194249e-09
899,-2.3880926371708007e-07,-2.9725684955079904e-08,-1.6926958525102963e-07,-4.2063116274177837e-08
900,-1.2584623470484895e-06,-1.2492165603851282e-07,-9.131307283753636e-07,-1.912204664526085e-07
901,-5.206692032972092e-06,-4.120164204842135e-07,-3.98361741365472e-06,-6.120414637006403e-07
902,-1.7608438110293098e-05,-1.1652819878129518e-06,-1.4689466933717883e-05,-1.2030323611770294e-06
903,-4.9963690550728954e-05,-3.176224543087568e-06,-4.7201920894735276e-05,1.6504571753795278e-07
904,-0.00012083117869315294,-9.288779911620938e-06,-0.00013511419663808473,1.34237146771116e-05
905,-0.0002503695504070295,-2.928905011819011e-05,-0.0003502943254631207,7.084134876274677e-05
906,-0.0004399061714935933,-9.202625145508473e-05,-0.0008333285345929562,0.0002574741011242125
907,-0.0006255650287180391,-0.000269789772971975,-0.0018386108827690712,0.0007665407849634695
908,-0.000594227779999488,-0.0007191896167585849,-0.0037965587360443043,0.0019893518994773445
909,0.00014886165899478474,-0.0017392665700595553,-0.007394833274152757,0.004648671700637411
910,0.0025694223619024317,-0.003842001944781934,-0.013679773266003295,0.00998254066434001
911,0.008356385695491514,-0.007825015692493343,-0.024177923408410844,0.019982948652197713
912,0.020239881317594296,-0.014833313544245759,-0.04103484977526228,0.03769020512576708
913,0.042373289820307,-0.0263969160371724,-0.06716437639677632,0.06753897404740543
914,0.08077135387172815,-0.04443222703189167,-0.1063968985628425,0.11574538776861275
915,0.14378830785154384,-0.07119434979426163,-0.1636117453784524,0.19071670166934354
916,0.24261114063432962,-0.109163697169118,-0.24483612171873478,0.30345658880011606
917,0.3917346652377826,-0.16084390510349708,-0.3572912768487596,0.46793181556077895
918,0.6093780960295286,-0.2284416327206115,-0.5093642135007371,0.701360942780436
919,0.9177978123781466,-0.3133949796761603,-0.7104803538191518,1.024383307521445
920,1.3434477699122767,-0.41571793158936243,-0.970850587110837,1.4610664525434287
921,1.916937301595213,-0.5331344220173618,-1.3010674891032046,2.0387116885645384
922,2.672736281233052,-0.6599874763141748,-1.7115321955467147,2.7874207340748773
923,3.6485815555608956,-0.7859258627977245,-2.2117055805163504,3.7393928538218657
924,4.884548721661001,-0.8943913138138665,-2.8091931923766658,4.9279339117108485
925,6.421771391690052,-0.9609517106277056,-3.508690025755244,6.386177722005761
926,8.300815270549823,-0.9515478501798778,-4.3108263493121655,8.145545211438003
927,10.559743305316076,-0.820742543139307,-5.210968587833244,10.233994877648799
928,13.231936430150938,-0.5100805743834051,-6.198040099725734,12.674144391394588
929,16.34375855593786,0.053313705634761004,-7.253436381844363,15.481364161940409
930,19.912172890123237,0.9577586748140449,-8.350117719339787,18.66195719790746
931,23.94242937599667,2.3075038922706423,-9.45196806857493,22.211545230551906
932,28.42595037823639,4.2225269875027465,-10.513509313556614,26.113779189347216
933,33.338543726336546,6.837487519252345,-11.480052242142763,30.339483199853888
934,38.63906830888191,10.299705566086564,-12.288348282492288,34.84632546252845
935,44.26866667013859,14.766066757972512,-12.867780113743251,39.57908662675608
936,50.150660516378046,20.39880444331925,-13.14209750606706,44.47056660316959
937,56.1911781720332,27.36017211823588,-13.03167043566297,49.44313473404121
938,62.280548355129504,35.80609160505381,-12.456196927028191,54.41088735835381
939,68.29545411982474,45.878939652682206,-11.337769145512546,59.2823337272859
940,74.10179763097649,57.699711904404126,-9.604168814907368,63.96348958061947
941,79.55818433681723,71.35987315551286,-7.192234266124112,68.36122160087947
942,84.51989766064861,86.91326195997597,-4.051120254592302,72.38665939991533
943,88.84320551025866,104.36846210598377,-0.14526236910865453,75.95847786921726
944,92.38981998561172,123.68207948708162,4.543136963251751,79.00585373610683
945,95.03132309437727,144.75336653477927,10.012264256608628,81.47091665696377
946,96.65337440549325,167.42061396535746,16.239624161064075,83.31054624987976
947,97.1595304459696,191.45967876672228,23.18183300683824,84.49740965154058
948,96.47452836420106,216.5849379668106,30.77532082519832,85.02018585561166
949,94.54691565594341,242.4528523956635,38.93793524038777,84.88297900990189
950,91.35094138305729,268.66819852454773,47.5713879977241,84.10397871521674
951,86.8876601817536,294.79288675505654,56.564432988216126,82.7134770755273
952,81.18523620103315,320.3571397933427,65.79661696893068,80.75139596407021
953,74.29846762652495,344.87266415690164,75.14240477914673,78.26451037460659
954,66.30758167053189,367.84732060356697,84.4754534655689,75.3035722700714
955,57.316373555680734,388.8006939466673,93.67279709503515,71.92054254663917
956,47.44978035120296,407.2798869232706,102.61870754425149,68.1661261869385
957,36.85099106252379,422.874822599063,111.20801625700126,64.08777795921841
958,25.678197892799584,435.2323392861207,119.34871669242746,59.72830471006831
959,14.101090456131075,444.06840270079465,126.96371471568528,55.125138143725565
960,1.1147595260392038e-10,3.950431443670399e-10,1.5842597549813002e-10,-1.4406370530828926e-10
961,2.9546449002349358e-09,6.604586907470898e-09,3.1854073995877523e-09,-2.341380235991356e-09
962,3.0893246854291586e-08,7.362780004520089e-08,3.546010950841487e-08,-2.792353000322854e-08
963,2.1419690265804164e-07,5.383759263210146e-07,2.5935410009170884e-07,-2.160546923032239e-07
964,1.0938441379133905e-06,2.9416073664157083e-06,1.4210337866227407e-06,-1.2601736188922586e-06
965,4.393468699212259e-06,1.2879736213639031e-05,6.2393375817327135e-06,-5.9135134824500775e-06
966,1.4442678795572419e-05,4.720510518798198e-05,2.2943930635217503e-05,-2.3303453961263905e-05
967,3.987422062719219e-05,0.0001494226291978675,7.291680642514302e-05,-7.94719367557488e-05
968,9.389817931886172e-05,0.0004181846420561091,0.00020504417041690578,-0.00023981125035445788
969,0.00018955025126722748,0.0010539086880551156,0.0005196417742649963,-0.0006514199323351249
970,0.0003244920918330262,0.0024272185606376132,0.0012043986182968586,-0.0016150235712856728
971,0.0004490266238066217,0.005170296415768399,0.0025835924872862604,-0.0036962641636142037
972,0.0004113946014350805,0.01028875402256758,0.005179915322855378,-0.007884479584328866
973,-0.00012415760306056694,0.01928799569584238,0.009785848309890403,-0.01580384866461104
974,-0.001789171019017561,0.03430471812831187,0.017538991836097136,-0.029977463972297416
975,-0.005653294636424564,0.05823123498778853,0.02999344000259962,-0.05413999840479554
976,-0.013395624462234185,0.09481761684728805,0.049177456304483926,-0.0935892351017742
977,-0.02750092113654597,0.1487338850617384,0.07762638137113606,-0.15556079405426668
978,-0.0514733282857316,0.22557183684202478,0.11837877878149397,-0.24960381609295632
979,-0.09005640479468928,0.3317638727028335,0.17492318416880728,-0.38792830745174817
980,-0.14944388479246273,0.47439537849581437,0.2510826631812093,-0.585687705071079
981,-0.23746068393464131,0.6608886652216114,0.3508252629727952,-0.8611537538919729
982,-0.3636887853155781,0.8985411414852509,0.47799117943639435,-1.2357362465342434
983,-0.5395088324863283,1.1939086443790488,0.6359326377518272,-1.7337990199168316
984,-0.778026822330461,1.5520366583203213,0.8270700829443031,-2.38222722881998
985,-1.09385705548286,1.9755567354454848,1.0523775351826907,-3.209710009021545
986,-1.5027376737376232,2.4636815718028395,1.310819720652166,-4.245717184365401
987,-2.0209634616713363,3.0111483914851185,1.5987727817197948,-5.5191679545347965
988,-2.6646318867121406,3.6071748665080645,1.9094683025492851,-7.056812566155026
989,-3.4487122151371175,4.234503417483544,2.2325066541469525,-8.881373519139544
990,-4.385963181258716,4.868617159286726,2.553489712758756,-11.009519201146428
991,-5.485740756944043,5.477213231057489,2.853823992923152,-13.449767858525625
992,-6.752752626251349,6.020016050563831,3.110742157706115,-16.20044116036426
993,-8.185828941764797,6.449003776838791,3.2975831134725366,-19.24780224350584
994,-9.77678908196839,6.709105547162247,3.3843585245688472,-22.564521308934943
995,-11.509490681065563,6.739404993713771,3.33861735286474,-26.108611294009886
996,-13.359149021960066,6.47485760519666,3.1266009942808566,-29.822965813783977
997,-15.292010792335196,5.848496958130376,2.71466085918464,-33.63561092997965
998,-17.265455399286726,4.7940696240976175,2.070888895026378,-37.46075145483707
999,-19.22857943561396,3.2490031450268213,1.166890763073147,-41.200652444787984
1000,-21.12329591797722,1.1575788278374697,-0.020387335160282728,-44.74834903315464
1001,-22.885950505106003,-1.5258459013494667,-1.5068820275440922,-47.991125342802256
1002,-24.44942355752482,-4.833739433601032,-3.2997991826034916,-50.81464915462645
1003,-25.745651953618168,-8.782604195192313,-5.396277695551794,-53.1075971632011
1004,-26.70847092948348,-13.370669399670996,-7.782437923233221,-54.76656029168198
1005,-27.27664673337398,-18.576230670114903,-10.432906369917148,-55.700983649159575
1006,-27.396947970001715,-24.356771225314986,-13.310884774176563,-55.83787466561731
1007,-27.0270889658366,-30.648961480533615,-16.368802115113894,-55.126008040290756
1008,-26.138373848078743,-37.36958796318547,-19.54955424459093,-53.539368718234705
1009,-24.717876415857795,-44.4174112280808,-22.788300061492993,-51.0796042321846
1010,-22.770008682672355,-51.675899227115934,-26.014747577179225,-47.77730423665715
1011,-20.317359403142774,-59.016730859310094,-29.155830028380635,-43.69198528663177
1012,-17.400721237678876,-66.30391788774789,-32.13864351141599,-38.910729185927266
1013,-14.078269146434597,-73.39835531950644,-34.89349552343787,-33.54549907465777
1014,-10.423900626265324,-80.1625836023999,-37.3569003302099,-27.729234030851767
1015,-6.524797622557206,-86.46553249423212,-39.47435391500029,-21.61089538907033
1016,-2.478317023680649,-92.18701732685938,-41.20272946887641,-15.349701300585394
1017,1.6116419227143286,-97.22177347266182,-42.512154015516934,-9.108835879335036
1018,5.638612223539372,-101.48284309196215,-43.387256741297506,-3.0489520792385054
1019,9.497672932738798,-104.90416743931748,-43.82771764957365,2.6781989137470408
1020,13.089489782449283,-107.44228520142826,-43.848088153679235,7.935685364132484
1021,16.32407399473332,-109.0770888996801,-43.47689962230466,12.606559365940395
1022,19.124067677370714,-109.81164359808743,-42.75511831685682,16.59801173974148
1023,21.427393784901266,-109.67112146090766,-41.734042781295514,19.844320909102244
1024,-3.8098371995063685e-10,-2.9725158196353196e-10,-2.256222491428533e-10,-2.1717482103373625e-10
1025,-8.259143912294965e-09,-6.412992896663377e-09,-4.912787251731357e-09,-4.68423191581927e-09
1026,-8.86764046244372e-08,-7.160218437947206e-08,-5.3849236503504154e-08,-5.070703706297488e-08
1027,-6.288406067598195e-07,-5.286603300702186e-07,-3.911588745634792e-07,-3.6284722576108794e-07
1028,-3.3248325198728787e-06,-2.9262675238614264e-06,-2.1292085298574097e-06,-1.9387665813411884e-06
1029,-1.403028251045772e-05,-1.2993195157598417e-05,-9.296185806774765e-06,-8.282307957603132e-06
1030,-4.940414493087075e-05,-4.836427660514798e-05,-3.4026831052362766e-05,-2.9578391731926516e-05
1031,-0.00014988039784129213,-0.00015571372563049775,-0.00010774296394393727,-9.118030802791938e-05
1032,-0.00040143938554109115,-0.00044393734091564406,-0.0003021479040237584,-0.0002486120708345184
1033,-0.0009679221422750914,-0.0011414930952856337,-0.000764312426137553,-0.0006112636154153923
1034,-0.0021346093451742303,-0.002686395572379586,-0.0017697539002254153,-0.001376662374686456
1035,-0.004363027747536557,-0.005856459086340337,-0.0037961837815999513,-0.0028768162213843504
1036,-0.008356600759686833,-0.011945330795817687,-0.0076187851787269415,-0.005637678360969407
1037,-0.015136470591312326,-0.022987014928328327,-0.014425894999825953,-0.010452158247983113
1038,-0.02612613184896726,-0.04202824731839916,-0.025952141609529314,-0.01846615710943599
1039,-0.043242336644441645,-0.07344432593210301,-0.04462454364616432,-0.03127587240016162
1040,-0.06898832117308502,-0.12328966706663351,-0.0737156906035258,-0.051033225396230245
1041,-0.10654400919531606,-0.1996692217987298,-0.11749667361147753,-0.08055478355172968
1042,-0.15984646986749035,-0.31311085882149825,-0.18138074131521242,-0.12342788695334833
1043,-0.23365250801405046,-0.4769121702490977,-0.2720467333378747,-0.18410578935581556
1044,-0.33357409413133354,-0.7074285748000798,-0.3975294048780087,-0.26798167973114045
1045,-0.46607689808837494,-1.0242641148615006,-0.5672621467643197,-0.3814299146013858
1046,-0.6384328268674265,-1.4503231689217289,-0.7920567389847581,-0.5318021564715968
1047,-0.8586190969909293,-2.011681463014339,-1.0840050952067564,-0.7273666481388279
1048,-1.135158645130371,-2.7372389471622554,-1.4562899251176975,-0.977180573170866
1049,-1.476899356702876,-3.6581254571203474,-1.9228952072008518,-1.2908882402188981
1050,-1.892732663955948,-4.8068423186643034,-2.498213345686503,-1.678441546449944
1051,-2.391255505952056,-6.216138503944743,-3.1965533746802213,-2.1497436364303164
1052,-2.980383204323659,-7.917637766538353,-4.0315625802797195,-2.71422162564479
1053,-3.666924167715697,-9.940252369869548,-5.015581265711187,-3.3803394470576325
1054,-4.456130394821749,-12.308438496489964,-6.15895614712768,-4.155067147153268
1055,-5.351240634081507,-15.04036697376719,-7.46934166482663,-5.043328187089996
1056,-6.353035788774067,-18.146099195720257,-8.951020548867543,-6.047451207262746
1057,-7.459428358568981,-21.625870599288252,-10.604275882440351,-7.166656722208769
1058,-8.665108819895549,-25.468591295631704,-12.424847198529296,-8.396611614581381
1059,-9.961271574649798,-29.650674236423946,-14.403502958781244,-9.729084560520928
1060,-11.335441584799234,-34.13529475148484,-16.525760684236115,-11.151733460908835
1061,-12.771420344809613,-38.872171116445536,-18.77178327026665,-12.648051665529435
1062,-14.24936646911477,-43.79793422665659,-21.116474870569117,-14.19749341951368
1063,-15.746021722761233,-48.837126313732696,-23.52979184318825,-15.775790727234634
1064,-17.23508778613619,-53.90383534850481,-25.977273903279432,-17.35546405191863
1065,-18.687752775254005,-58.90393529737616,-28.420788717234366,-18.906518523592467
1066,-20.073360045157216,-63.73786512683033,-30.819470949636134,-20.397306330277143
1067,-21.360205401042375,-68.3038440009613,-33.130825503554966,-21.795525408240387
1068,-22.51644261413448,-72.50138910982372,-35.31195537748778,-23.069315043332413
1069,-23.5110712230359,-76.23497832549279,-37.32086778204655,-24.188401163331413
1070,-24.3149753605233,-79.41768428663707,-39.11780810234233,-25.125238616121404
1071,-24.90197817272796,-81.97460080498111,-40.66656982304937,-25.856095186187595
1072,-25.24987341950175,-83.84588728224257,-41.93572932318298,-26.36202284801457
1073,-25.34139395908409,-84.98927204261064,-42.89975705307478,-26.62966582252879
1074,-25.165076068439667,-85.38188043036668,-43.53996058902871,-26.651862235136125
1075,-24.715979325062605,-85.02128685285763,-43.845220113958774,-26.4280062814327
1076,-23.996224554332947,-83.92572975723424,-43.81248297574233,-25.96415028658167
1077,-23.01531722758756,-82.13347234598633,-43.44699140786717,-25.272840041985134
1078,-21.790230319570586,-79.70133679904804,-42.76222666722544,-24.37269119513748
1079,-20.345228565322003,-76.70248286694843,-41.779563928677035,-23.28772815511081
1080,-18.711425159265573,-73.22354006824611,-40.52764494082624,-22.046519122237648
1081,-16.926072255684495,-69.36123401368194,-39.04148878477597,-20.681150884669776
1082,-15.031597958982498,-65.2186699073415,-37.36137384070875,-19.226094445359244
1083,-13.074414198890016,-60.901449147570034,-35.5315350133847,-17.71701686807039
1084,-11.103531182103703,-56.51379797397212,-33.59872846009749,-16.189595644796043
1085,-9.169024417861964,-52.15488068716516,-31.610721050673725,-14.678389423852995
1086,-7.320409261639358,-47.915454981215085,-29.614763645576765,-13.215813452485754
1087,-5.60498504449995,-43.87500461570832,-27.65610650738035,-11.831260055926219
1088,1.7743522342042985e-10,-2.458710369658707e-10,-3.220566107187745e-10,4.135608091039484e-11
1089,3.985339652454601e-09,-4.983342569720973e-09,-6.960904446194134e-09,1.0480437580574046e-09
1090,4.176504006596637e-08,-5.5996870737719825e-08,-7.57791051214374e-08,1.0424927370373424e-08
1091,2.878366860859009e-07,-4.1487381082755353e-07,-5.46067351863638e-07,6.757600562305498e-08
1092,1.46576650056307e-06,-2.304971722752163e-06,-2.942417759262522e-06,3.1486512098494547e-07
1093,5.896018526224849e-06,-1.0272412021900141e-05,-1.269295437830928e-05,1.1113731714588325e-06
1094,1.955019881997376e-05,-3.837738489091853e-05,-4.582402311296679e-05,3.0055406833855365e-06
1095,5.505567141650259e-05,-0.00012401313912162025,-0.00014290468915054578,5.924645207025424e-06
1096,0.00013458702744607387,-0.00035485217138081867,-0.00039428686044878686,6.166619042542115e-06
1097,0.00029026107431026545,-0.0009157480293749422,-0.000980741736309933,-1.1110206003133306e-05
1098,0.0005586671746516461,-0.0021628854131020506,-0.002232849136237317,-8.684413940459832e-05
1099,0.0009660726800569346,-0.004731848573457483,-0.004711232016829322,-0.00031351124095384736
1100,0.0015016370220535384,-0.009684583435972925,-0.009308375985337401,-0.0008736226861593156
1101,0.0020770741015274856,-0.018697713870475287,-0.017371646840819648,-0.002093113976641446
1102,0.002472030508608937,-0.034291543406101445,-0.030846226348545266,-0.004510734361387455
1103,0.0022648859772042753,-0.06009544240891837,-0.05243572651972976,-0.008963880229835868
1104,0.0007490907095136548,-0.10114108572462809,-0.0857767525611645,-0.01669049650821121
1105,-0.0031640618664574233,-0.16417007275725912,-0.13562131519725346,-0.02944544161306501
1106,-0.01105400025795482,-0.25793684487792307,-0.20801771921740506,-0.04962793303422824
1107,-0.025106707797365894,-0.3934818696735027,-0.3104767748042274,-0.08041438934890607
1108,-0.04823142837728416,-0.584344466746583,-0.45210657589957176,-0.12588829855420133
1109,-0.08416918750012398,-0.8466803105090533,-0.6436963987882852,-0.19115594223490162
1110,-0.13758152640993382,-1.1992465471382512,-0.8977290801244702,-0.2824343490578786
1111,-0.21410614949685916,-1.663218408175956,-1.228301861665782,-0.4070962816466478
1112,-0.32036593511060385,-2.2618057664457516,-1.6509382153752399,-0.5736568149796795
1113,-0.46391902531984763,-3.0196464425984026,-2.182277413104446,-0.7916872666837514
1114,-0.6531401519412134,-3.9619651100869553,-2.8396342456811228,-1.0716447938493694
1115,-0.8970266513508116,-5.113501852581876,-3.6404279361908043,-1.4246097391511237
1116,-1.2049267558648789,-6.497232014500057,-4.601486652118892,-1.8619277588180854
1117,-1.5861927642210607,-8.13291784026317,-5.738241955417126,-2.394759823845415
1118,-2.0497673377154695,-10.035551189705426,-7.0638359573567495,-3.033550099216989
1119,-2.6037168733955345,-12.213763880153007,-8.58817266784433,-3.787429001625905
1120,-3.2547311767954312,-14.668296411435787,-10.31695363863487,-4.663575899296333
1121,-4.007613318890691,-17.390625562375206,-12.250745875557561,-5.666572491666069
1122,-4.864787523846272,-20.361855297855485,-14.384136343478806,-6.797783399438087
1123,-5.825855808918486,-23.55197258545033,-16.70503131077064,-8.05480428265757
1124,-6.887235143508357,-26.919559403172755,-19.194159315848264,-9.431019164994312
1125,-8.041905482138429,-30.412034298293133,-21.824832840510613,-10.915307046293986
1126,-9.27929502016968,-33.9664717771253,-24.563015332210625,-12.491933148922872
1127,-10.585322754414639,-37.511016724686044,-27.367727113283514,-14.140652411542362
1128,-11.942610308261843,-40.966875697786975,-30.191806688268663,-15.837042385897432
1129,-13.330865353646557,-44.250829557763225,-32.98302430321389,-17.553069906155777
1130,-14.727428321084556,-47.27817507569765,-35.68552388112834,-19.257881436407295
1131,-16.107963311970018,-49.96596955958764,-38.24154916512644,-20.91879190134192
1132,-17.44726428102773,-52.23642491068673,-40.59339127914751,-22.502432344162678
1133,-18.720139454856216,-54.02027821006361,-42.685478835298056,-23.97600414400504
1134,-19.902330975978956,-55.25995693832741,-44.46651882635386,-25.308577718463656
1135,-20.971423099195572,-55.91235948258956,-45.89158747103233,-26.472367340402226
1136,-21.90769128156886,-55.95108612458695,-46.92406573798467,-27.44391150597367
1137,-22.694846641789017,-55.3679816805486,-47.53731542042893,-28.205090623600668
1138,-23.320635664440086,-54.17388694100362,-47.715999281146985,-28.743920768708268
1139,-23.777263261462004,-52.39853972721545,-47.45696342863382,-29.055073536022167
1140,-24.061617618537205,-50.089614841850256,-46.76962146827237,-29.140086949762022
1141,-24.1752869099596,-47.31094212990647,-45.675806886884494,-29.007250062441628
1142,-24.124370320646264,-44.13998987240831,-44.20909049163093,-28.671163227061488
1143,-23.919098059998642,-40.66474355906116,-42.4135908865374,-28.151995760329186
1144,-23.573286083944776,-36.98014481860866,-40.34233522796641,-27.4744813307162
1145,-23.10366000492195,-33.184279615644535,-38.055252579988476,-26.6667074571643
1146,-22.529088591633844,-29.374517096679067,-35.61690153104945,-25.75876785483253
1147,-21.86977033120934,-25.643799888938407,-33.094046510361935,-24.78135426828942
1148,-21.146416886913542,-22.077273312071593,-30.55320314883647,-23.764367377398074
1149,-20.379474901169996,-18.74941588170553,-28.05827203395928,-22.73562399155495
1150,-19.58842240553997,-15.721798566315954,-25.668372430562208,-21.719730025616187
1151,-18.791168444256016,-13.041558144913383,-23.435973296197663,-20.737176216250617
1152,-3.607408085656041e-10,-1.5364387443506986e-10,-2.210780560712493e-10,-2.1001151139352976e-10
1153,-7.72362720649271e-09,-3.1917583609290987e-09,-4.769489773783174e-09,-4.52078565903965e-09
1154,-8.183595137830616e-08,-3.5701157405789004e-08,-5.255653288610358e-08,-4.8500185072097936e-08
1155,-5.726466670101879e-07,-2.6378734648377674e-07,-3.8303407895959286e-07,-3.441918430082424e-07
1156,-2.9875608914528112e-06,-1.4611940407100074e-06,-2.0905760784249926e-06,-1.8248551998333242e-06
1157,-1.2441239913545141e-05,-6.491975201876581e-06,-9.144142734458167e-06,-7.740023178791488e-06
1158,-4.3245486060329264e-05,-2.4178677908098442e-05,-3.350071982406898e-05,-2.746572536903412e-05
1159,-0.0001295777974363345,-7.789689058377623e-05,-0.00010608343917736819,-8.42082831219117e-05
1160,-0.0003430474272115251,-0.00022229117097640722,-0.0002973073798205906,-0.0002286104083361128
1161,-0.0008184254781212084,-0.0005724158123606649,-0.0007512627122840535,-0.0005603540707466908
1162,-0.001788237266885889,-0.001350202522509811,-0.0017374153311024447,-0.0012597843391521516
1163,-0.0036266978864365395,-0.002953447362021243,-0.003722862031197354,-0.00263144960171274
1164,-0.006903519185677519,-0.006052536209253462,-0.007467059302792114,-0.005161196261615719
1165,-0.012447960020659735,-0.011719870421618544,-0.0141398084563637,-0.009587864850840743
1166,-0.021422769545230265,-0.02159619120328376,-0.02546217632521067,-0.01698956393227236
1167,-0.03540647996857117,-0.038096416025772406,-0.04386875691586257,-0.02888301291735342
1168,-0.05648121309481277,-0.06465489348663779,-0.07268784290572247,-0.047332738146417495
1169,-0.08732199663707345,-0.10600606610164541,-0.11633334544640589,-0.07506512912248565
1170,-0.1312824787372519,-0.16849154864336166,-0.18049860986740587,-0.11558057005896921
1171,-0.19247081850244804,-0.26037896824106904,-0.27233797816118194,-0.17325513834350084
1172,-0.27580861730605855,-0.3921720828973371,-0.40061776013070927,-0.2534219151099649
1173,-0.38706535880129744,-0.576886231551416,-0.5758150675222599,-0.3624210347028214
1174,-0.5328610258894564,-0.8302585764414955,-0.810141517752782,-0.5076073507361344
1175,-0.7206301283242982,-1.170859314488989,-1.1174695609131615,-0.6973050223767862
1176,-0.9585411037971321,-1.6200685157390966,-1.51314216815347,-0.9406994574581103
1177,-1.255366086332757,-2.2018839659682143,-2.0136515609679484,-1.2476590553063263
1178,-1.620297714607846,-2.9425288669630896,-2.6361791969030874,-1.628482274334706
1179,-2.0627121049858252,-3.869834917193818,-3.397997045336956,-2.093569714583233
1180,-2.5918800687944725,-5.012386423305001,-4.315739066525868,-2.653025889582043
1181,-3.216631718206643,-6.3984245957062855,-5.404561476897387,-3.3162007673640206
1182,-3.944982623447154,-8.054527579638444,-6.677220416083169,-4.091186627034044
1183,-4.783732707658227,-10.004100134764869,-8.143105409483743,-4.984290963215639
1184,-5.738052010302837,-12.265725909289968,-9.807275781682062,-5.999510606907241
1185,-6.811069935414184,-14.851453447877335,-11.669554115697892,-7.138035317907345
1186,-8.003486217396874,-17.76510285970135,-13.72373515328998,-8.397810330457036
1187,-9.313222510935189,-21.00069202469454,-15.956969449131487,-9.773186540188924
1188,-10.73513347786722,-24.54108809446011,-18.349378004334593,-11.25468439918441
1189,-12.260795659283556,-28.356990887390623,-20.87394665031263,-12.828893455418111
1190,-13.87839110412383,-32.40634887388342,-23.496737109398676,-14.478524062734918
1191,-15.572700361839196,-36.63429542139132,-26.177435858443552,-16.182621260608787
1192,-17.32521597191863,-40.97367280554861,-28.870243063968623,-17.916943408749308
1193,-19.11438325815382,-45.34618467831191,-31.525083294789656,-19.65450020448645
1194,-20.91597033330667,-49.664185247124536,-34.08909910171841,-21.366236569656333
1195,-22.70356378253781,-53.83307701338734,-36.50836959115056,-23.021840885077243
1196,-24.449180500093235,-57.754250750772975,-38.72978031032479,-24.59064856050069
1197,-26.12397989000363,-61.32846408562652,-40.702959195724866,-26.042605550469677
1198,-27.699054759108247,-64.45952136578224,-42.382186702083615,-27.349251912825217
1199,-29.146274367702755,-67.05809012820836,-43.72818687994164,-28.48468346232631
1200,-30.439149507169432,-69.04547069680254,-44.709710249192376,-29.426450183607244
1201,-31.55368705725212,-70.35712694066736,-45.30482874308183,-30.156353083209655
1202,-32.46920019622844,-70.94578898730747,-45.50187740624275,-30.66110612135004
1203,-33.169040494154835,-70.7839529220134,-45.29999610580324,-30.93283630251032
1204,-33.641219751046364,-69.86562770986072,-44.709245974628395,-30.96940246567283
1205,-33.87889263524965,-68.20721453553662,-43.75029801627751,-30.774521286402837
1206,-33.88067571250095,-65.84744664313753,-42.45371357540439,-30.357696957156712
1207,-33.650784207593304,-62.84636617578706,-40.85885673865483,-29.7339585643295
1208,-33.19897489625413,-59.2833656329263,-39.01249601249402,-28.923416162862345
1209,-32.54029189222328,-55.254372280542206,-36.967165948903634,-27.95065290219417
1210,-31.694621347671024,-50.86830098608452,-34.77936805584979,-26.843976149661128
1211,-30.68607041029818,-46.24294149693851,-32.50769382912778,-25.634555171882774
1212,-29.542194411736308,-41.50047750407665,-30.210950863820802,-24.35547640795482
1213,-28.2931037857521,-36.76285488093068,-27.946366029542858,-23.04074969327321
1214,-26.97048841541899,-32.147223952460436,-25.767928530281466,-21.72430002868254
1215,-25.606601611879665,-27.76167506712775,-23.72492179124022,-20.43897959850619
1216,2.5656078756182992e-11,-2.4801062049595736e-10,-1.2320576113691401e-10,-5.559278153217361e-11
1217,6.323669824118074e-10,-5.096152340370386e-09,-2.127334777771272e-09,-1.0678604623954597e-09
1218,4.1365763940520915e-09,-5.697554549721906e-08,-2.4399387341667488e-08,-1.323474164656951e-08
1219,8.447096173182054e-09,-4.2053235671944357e-07,-1.8298297825840282e-07,-1.0760521372194105e-07
1220,-8.545482916006679e-08,-2.3276316525413955e-06,-1.0343640221590462e-06,-6.564476361772013e-07
1221,-9.927093917955271e-07,-1.0335750179508618e-05,-4.708337154476174e-06,-3.2027958050148053e-06
1222,-6.011239061561274e-06,-3.8479405286031313e-05,-1.8023037793559633e-05,-1.303001317258885e-05
1223,-2.6707364438820136e-05,-0.00012392697334735772,-5.981201462251123e-05,-4.5535716295927496e-05
1224,-9.625134668130195e-05,-0.00035346941371516285,-0.00017600254163366853,-0.00013981487312021297
1225,-0.00029581016756515953,-0.0009093819891673679,-0.00046725672801704377,-0.00038404051347836924
1226,-0.0007999357471720652,-0.002141556121693724,-0.0011347277641001225,-0.0009578139099711532
1227,-0.0019461220222359655,-0.004672111956565745,-0.002549299780094206,-0.0021963837280331517
1228,-0.00433195711120724,-0.009537030576255452,-0.00534839808620307,-0.004680590430119929
1229,-0.00894128416395697,-0.018366957478338507,-0.01056233759996213,-0.009354908823519805
1230,-0.017298932580901625,-0.03360644163970492,-0.01976966771439786,-0.017674252207060696
1231,-0.03165174156749699,-0.05876759637144117,-0.03527853338268007,-0.031778229842540175
1232,-0.055171274785760865,-0.09871040035083035,-0.060328806266676784,-0.05468908023160622
1233,-0.09217053609168815,-0.15993747697918048,-0.09930745422563507,-0.09052638116323664
1234,-0.14832321950365418,-0.2508861341427512,-0.15796689669549552,-0.1447278680366495
1235,-0.23086984615505754,-0.382194924119811,-0.24363268442002955,-0.22426145399079173
1236,-0.34879086588949515,-0.5669165111522598,-0.365382823312241,-0.3378091568893998
1237,-0.5129229170753646,-0.8206440204902857,-0.5341769195004047,-0.4958996415136507
1238,-0.7359918209708193,-1.1615153010223132,-0.7629099084781396,-0.7109633035700416
1239,-1.032535574937018,-1.6100596183190476,-1.0663633988233974,-0.9972831346615434
1240,-1.4186933060549092,-2.1888549491776237,-1.4610285516982489,-1.3708166370892383
1241,-1.9118418036868952,-2.9219715460966817,-1.9647785095053736,-1.8488688830042637
1242,-2.5300692962360967,-3.8341886143606847,-2.5963758188959734,-2.44960409546978
1243,-3.29148593239899,-4.949985179767319,-3.3748105657176306,-3.1913923488788587
1244,-4.213381555000396,-6.292322674112339,-4.318477120882171,-4.091998688263736
1245,-5.311253399703408,-7.881254408688898,-5.444210288481335,-5.1676337135315835
1246,-6.597738656184484,-9.732414854410685,-6.766214171323408,-6.43189696228742
1247,-8.081498547961925,-11.85545834158001,-8.29492848942645,-7.894656636884463
1248,-9.766110917144967,-14.252531166658452,-10.0358869840625,-9.56092061390198
1249,-11.649036572254648,-16.916871866833237,-11.98863069419399,-11.42976335982372
1250,-13.72073002380141,-19.831640298004057,-14.145744884368169,-13.493380194295232
1251,-15.963966548123034,-22.969076009083864,-16.49209153996597,-15.736342981692857
1252,-18.353453610978665,-26.290079360292783,-19.004308570419695,-18.13512863128249
1253,-20.85578501503738,-29.7442944647441,-21.65064112184148,-20.65798321555475
1254,-23.429781090186353,-33.27075142991251,-24.39115890551453,-23.26517032430605
1255,-26.027238896401574,-36.799097302317826,-27.17839613187326,-25.909633369293406
1256,-28.594093972099625,-40.251411948698504,-29.958428226382996,-28.538079142483618
1257,-31.071970843777873,-43.544568827054064,-32.67237353014175,-31.092465344568907
1258,-33.40007468096869,-46.5930636321212,-35.2582806514828,-33.5118494792654
1259,-35.517352803191244,-49.312198805358776,-37.653335144150766,-35.73453202056975
1260,-37.36483399262725,-51.62148158819883,-39.79629473994591,-37.70040472078829
1261,-38.888037209137124,-53.44807013488651,-41.63004213481488,-39.35339682009186
1262,-40.03933048431059,-54.73008828998985,-43.104129757907906,-40.64389909655846
1263,-40.780116470946176,-55.41962646694393,-44.17718312386267,-41.5310393750971
1264,-41.0827242894926,-55.48525446289497,-44.819029083346756,-41.984684349282674
1265,-40.93189843963082,-54.91389197844304,-45.01242290451561,-41.987051921614054
1266,-40.32579423714135,-53.71191321507348,-44.75426362747533,-41.53383552989443
1267,-39.276414099764544,-51.90540145049681,-44.05621000888979,-40.634766023361266
1268,-37.80944818071771,-49.539515520769605,-42.94463867874428,-39.31356593582424
1269,-35.963514493044144,-46.67697971746696,-41.45992039572226,-37.60728355274801
1270,-33.78882605964203,-43.39575854502094,-39.65502762419215,-35.565027971693546
1271,-31.345343899380328,-39.78602486204956,-37.593524715819534,-33.24615931194718
1272,-28.70050272441961,-35.94657106923724,-35.34702815445958,-30.718018198972768
1273,-25.926619133033604,-31.980845488962103,-32.992256002797454,-28.053303695230742
1274,-23.09810841895585,-27.99281766202767,-30.607810559094105,-25.327227417689222
1275,-20.288645096640163,-24.08288543632852,-28.27085463663119,-22.614582618980823
1276,-17.56840344100176,-20.344032739851748,-26.053848897385357,-19.986869892459797
1277,-15.001507617404343,-16.858430050825767,-24.021515102251318,-17.509615735878356
1278,-12.643806714188834,-13.694640972074254,-22.228178332517764,-15.240006916676856
1279,-10.541069358829377,-10.905560015980434,-20.715620925375745,-13.224943551734832
1280,-3.0810282604841366e-10,-9.856150730864093e-11,-1.8079431240097168e-10,-1.7646655708045433e-10
1281,-6.535877693384736e-09,-2.1511765253140914e-09,-3.901752801475285e-09,-3.733436672772523e-09
1282,-6.872301621188923e-08,-2.4087462848352913e-08,-4.364195712859926e-08,-3.963328792522324e-08
1283,-4.775050943574948e-07,-1.788079574376011e-07,-3.223679993582372e-07,-2.783947773636766e-07
1284,-2.4760795393010523e-06,-9.95319077190862e-07,-1.7829330923616057e-06,-1.4628670665248817e-06
1285,-1.026291986724748e-05,-4.445513960306682e-06,-7.899224815494319e-06,-6.159420116571082e-06
1286,-3.55718613497994e-05,-1.6649287938399848e-05,-2.9297302410191836e-05,-2.1742543034731578e-05
1287,-0.0001065261578995569,-5.394510560788443e-05,-9.385724074600061e-05,-6.647709516535443e-05
1288,-0.0002826321064616534,-0.00015480042191163732,-0.00026591978221787846,-0.0001804765971061313
1289,-0.0006777946529553014,-0.00040067732059016807,-0.0006787551079313488,-0.0004436835133364635
1290,-0.0014933216758569567,-0.0009492346531797488,-0.00158428919262502,-0.0010033631200893152
1291,-0.003063074182823197,-0.00208299647044874,-0.0034232484241632053,-0.002113865337811408
1292,-0.005912911723531368,-0.004275828292680999,-0.006917587484444711,-0.004191381737192025
1293,-0.010835993512649359,-0.008278346534898322,-0.013185564694905368,-0.007885898517910266
1294,-0.01898427674631356,-0.015221909278776612,-0.02387821195071903,-0.01417149578222426
1295,-0.03197505070264014,-0.026739246618524143,-0.041334133086497596,-0.02445475710911904
1296,-0.052009896321424214,-0.0450981252470512,-0.06874735958010299,-0.040699522931401944
1297,-0.08200202379336531,-0.07334263511035388,-0.11034027152848608,-0.06556456056191244
1298,-0.12570620252018902,-0.11543462323028787,-0.1715303892966227,-0.10254880818870497
1299,-0.1878433442269638,-0.17638546427254193,-0.25907644902488147,-0.15613664749991557
1300,-0.2742095586445484,-0.26236592427671945,-0.381186114870272,-0.23193335388184738
1301,-0.3917576915020946,-0.38077972431729257,-0.5475656054894001,-0.3367787614409456
1302,-0.5486382860369259,-0.5402850530923803,-0.769391042054259,-0.4788254995366726
1303,-0.7541866134909632,-0.7507481999333034,-1.0591828384719535,-0.6675670603021655
1304,-1.0188429359874482,-1.0231150273994043,-1.4305680457136456,-0.9138006541151517
1305,-1.3539947228499105,-1.369189279189145,-1.8979210510903683,-1.229510625345969
1306,-1.7717323569438386,-1.8013115827541102,-2.475880110923851,-1.6276604274877227
1307,-2.2845138406615555,-2.331939107274617,-3.1787454567042044,-2.1218848315475776
1308,-2.9047387567998832,-2.973132722077318,-4.019773708590108,-2.7260789198813367
1309,-3.644236942652506,-3.73596569105268,-5.010392514743924,-3.453886154557683
1310,-4.5136829740423225,-4.62987499075563,-6.159368109786207,-4.318094153475835
1311,-5.521953662017836,-5.661982830164434,-7.47196622423958,-5.32995356642057
1312,-6.675452020946644,-6.836421425435715,-8.949152850150897,-6.498442315427656
1313,-7.97742685520293,-8.1536980437132,-10.586885191815787,-7.829503962670138
1314,-9.427321507322109,-9.61013925767293,-12.375544133120476,-9.32529454253113
1315,-11.020188050444066,-11.197452823933569,-14.299557244035636,-10.98347639534461
1316,-12.746204208767068,-12.90244238600936,-16.33725537156366,-12.796600032474057
1317,-14.590329401810978,-14.706904341866823,-18.46099617480267,-14.751615531040628
1318,-16.532133201910014,-16.5877279727085,-20.637574927285005,-16.82955307952304
1319,-18.545823966813046,-18.51720974855393,-22.828927325297666,-19.00540788919359
1320,-20.600497697450432,-20.46358117666263,-24.99311199372331,-21.248257837209216
1321,-22.660617862586317,-22.391737336469284,-27.085543087782348,-23.5216332460598
1322,-24.686726568259314,-24.264141167608877,-29.060427051948505,-25.784147528502746
1323,-26.63637633907666,-26.04186755690153,-30.872343370292775,-27.99038542132841
1324,-28.465260236025593,-27.685742237748205,-32.47789812588032,-30.092032656672558
1325,-30.128506708318977,-29.157524307047673,-33.837372297134614,-32.03921786156821
1326,-31.582095385852476,-30.42107841279388,-34.916284553149715,-33.78202510228522
1327,-32.78434174872978,-31.443483674760518,-35.686790978830885,-35.27212463264976
1328,-33.69739264753316,-32.19603108402335,-36.12885135272941,-36.46446069247838
1329,-34.28867114578623,-32.65506899371887,-36.23110269867506,-37.31892907468515
1330,-34.532208362836386,-32.80266657364802,-35.99139512744861,-37.801974023650224
1331,-34.40980225928336,-32.62707680753879,-35.41696172134355,-37.88803417231678
1332,-33.911948751635705,-32.12299280249083,-34.52421260596044,-37.56077081591182
1333,-33.03849884195129,-31.291602953435184,-33.33816247101619,-36.814018712756315
1334,-31.7990060243649,-30.1404610284786,-31.891519535691582,-35.65240945891957
1335,-30.212740602849994,-28.683195760068458,-30.22348104464206,-34.091629914410134
1336,-28.308361384011462,-26.939090393127138,-28.378294550629455,-32.15829274801244
1337,-26.123249975972232,-24.93256540819159,-26.40365444317093,-29.889412323658558
1338,-23.702527715912492,-22.69259715438863,-24.349008784017204,-27.33149602472509
1339,-21.09778899703545,-20.252101617910277,-22.263852432941746,-24.539277732386168
1340,-18.36559671910976,-17.64730659972312,-20.196079124186916,-21.574135694454835
1341,-15.565795465035325,-14.917128033123875,-18.190458374835615,-18.502250825037546
1342,-12.75970568268011,-12.102558016719419,-16.28729378957502,-15.392573054304547
1343,-10.008267293062636,-9.246064347980315,-14.521308320337791,-12.314672157080008
1344,2.2444490691865157e-11,-1.748624862601966e-10,-1.0377519551540386e-10,-4.565618860509288e-11
1345,4.1878246479407193e-10,-3.1868651514881243e-09,-2.294307616721118e-09,-9.81378775522378e-10
1346,1.8132021852714993e-09,-3.6200085788457135e-08,-2.578354570736217e-08,-1.1709424716036224e-08
1347,-7.92069448796454e-09,-2.673847895026092e-07,-1.917783067800337e-07,-9.23183245624691e-08
1348,-1.6495836401329054e-07,-1.480925803304684e-06,-1.067347912790403e-06,-5.45439370248736e-07
1349,-1.2676330952458719e-06,-6.573724515406858e-06,-4.756751414230407e-06,-2.5784907242808687e-06
1350,-6.64288197026001e-06,-2.4438475182869065e-05,-1.7742250884848114e-05,-1.0176433810836285e-05
1351,-2.719404427375998e-05,-7.851125690797575e-05,-5.7157269067367564e-05,-3.4555993183563505e-05
1352,-9.257737824419976e-05,-0.00022315054358583355,-0.00016286194795757318,-0.00010328952329944515
1353,-0.00027217512891726867,-0.0005715663924648082,-0.0004181822652803587,-0.00027674349835025253
1354,-0.0007094044339017843,-0.0013389412545832856,-0.0009823433479058017,-0.0006746534030338792
1355,-0.0016719343198728183,-0.00290365173236829,-0.002137505715351532,-0.0015154506754913254
1356,-0.0036191022666608296,-0.0058882108290963485,-0.004353027521912908,-0.003170574888766066
1357,-0.007286824732236144,-0.011259969503475195,-0.008369223561692894,-0.006235665306708214
1358,-0.013789671690016131,-0.02044987714071308,-0.015302413363565899,-0.011620196290522637
1359,-0.024739064876582038,-0.03548577196550254,-0.026772239303526766,-0.02065650524762053
1360,-0.042375206077184785,-0.05913462959350714,-0.04505084171554035,-0.03522791496745171
1361,-0.06970819661618324,-0.09504585347533225,-0.07323136136032353,-0.0579136472015085
1362,-0.11066111845574207,-0.1478850453807679,-0.11541043956347466,-0.09214557643989299
1363,-0.17020494972444544,-0.2234449320210363,-0.17687611984655488,-0.142368824161747
1364,-0.25447234084901005,-0.32871767780227223,-0.26428914988642593,-0.21419501466337085
1365,-0.37083483354743063,-0.4719111680607295,-0.3858425131138295,-0.3145340423830886
1366,-0.5279266662220556,-0.662391568730037,-0.5513814643721803,-0.4516878814996648
1367,-0.7355984742571219,-0.9105359301489991,-0.7724647569572786,-0.6353887155616105
1368,-1.0047861537829677,-1.2274820516478613,-1.0623474489106937,-0.8767636880061586
1369,-1.347283573460425,-1.6247681829712017,-1.4358669093426366,-1.1882098313190812
1370,-1.7754122402704298,-2.1138621862401634,-1.9092165254646423,-1.5831651466797911
1371,-2.301586299375222,-2.7055880506350234,-2.499596044674611,-2.0757654651639856
1372,-2.9377775110054065,-3.4094666411359937,-3.22473319010193,-2.6803818722161474
1373,-3.6948920738290676,-4.232996648606713,-4.102277808852262,-3.4110402532490665
1374,-4.582078907227621,-5.180910232151699,-5.149077111841311,-4.280732746480304
1375,-5.605996595642627,-6.254445113380474,-6.380348477240414,-5.3006400953908885
1376,-6.770073106235839,-7.450680150652959,-7.808774804926228,-6.479293463899042
1377,-8.07379827818899,-8.76198407894662,-9.443556316263535,-7.821713515065048
1378,-9.512093457937716,-10.17562659026586,-11.289461398613959,-9.328572603464018
1379,-11.074804720095928,-11.673596949881706,-13.34592661858742,-10.995431801300711
1380,-12.746365025558617,-13.23266772650867,-15.606261190457182,-12.812107244449386
1381,-14.50566605598279,-14.824730115928396,-18.057012889038006,-14.762219391259736
1382,-16.326172551713174,-16.4174131150919,-20.677549888531143,-16.822974119612695
1383,-18.176301298818004,-17.974982196215347,-23.439906082592792,-18.965216332363212
1384,-20.020073932248053,-19.45949509379233,-26.308926475687436,-21.153785172583156
1385,-21.81803792188835,-20.832174092965275,-29.242735104199408,-23.348185433784707
1386,-23.52843423973885,-22.05493714913906,-32.1935317711536,-25.50357285756767
1387,-25.10857437091443,-23.09201564006141,-35.108706772998076,-27.57203260621808
1388,-26.516374684992275,-23.91157586484512,-37.93224566658926,-29.50411135015838
1389,-27.711983606829122,-24.48725557594633,-40.6063796323224,-31.250545283016155
1390,-28.65942720098332,-24.799526622084976,-43.0734216686919,-32.764110226812605
1391,-29.328192468876683,-24.836800468798447,-45.27771528351908,-34.00150718687574
1392,-29.694665764236746,-24.59620485983324,-47.16761131792045,-34.92518864667937
1393,-29.74334693237063,-24.083976568333238,-48.697381083721936,-35.50502863411194
1394,-29.467768127260975,-23.315436087297932,-49.82897127574754,-35.719743640752824
1395,-28.87105918771543,-22.31453383373836,-50.53350914849354,-35.5579816930596
1396,-27.966118173474136,-21.1129823756286,-50.79247576647231,-35.019012669803004
1397,-26.77536539233895,-19.749013629976165,-50.598480573068784,-34.112973430154376
1398,-25.33008107452214,-18.265822218024603,-49.95559113605621,-32.86064525142507
1399,-23.66934943014729,-16.709774745879145,-48.87919616166161,-31.292766903061242
1400,-21.83865349646779,-15.128478453800664,-47.39540581411857,-29.448912610611906
1401,-19.88818440461902,-13.56881061109614,-45.54001904266534,-27.375988458261553
1402,-17.87094438795314,-12.075011694691762,-43.35711116165456,-25.126421974982918
1403,-15.840734293691542,-10.686940694873398,-40.89731486150452,-22.756136544424578
1404,-13.850122865418173,-9.438580132937716,-38.21588312523102,-20.322413815905776
