,TP9,AF7,AF8,TP10
0,7.869698118510491e-13,-7.91443553433708e-11,-1.1419058811129513e-10,-8.419984249188107e-11
1,-3.0670164976484154e-11,-1.720893349957732e-09,-2.2848206040337985e-09,-1.6891054668622033e-09
2,-2.041494732515089e-09,-1.913900904564418e-08,-2.5745627737856787e-08,-1.912945838508947e-08
3,-2.7539430360777727e-08,-1.4085251422190596e-07,-1.9022672895851852e-07,-1.4207479048365125e-07
4,-2.2327025015945215e-07,-7.766996117111594e-07,-1.0540390231645596e-06,-7.913474202613387e-07
5,-1.3038158499741579e-06,-3.434184336791026e-06,-4.68396924585693e-06,-3.5340346122887605e-06
6,-5.973042062655896e-06,-1.2724654951404308e-05,-1.7445197996265806e-05,-1.3219365852148176e-05
7,-2.2591625174062134e-05,-4.076854743244586e-05,-5.618879259727193e-05,-4.2720835798602986e-05
8,-7.304051743694291e-05,-0.00011563074566710185,-0.00016023069516361835,-0.00012207359004997296
9,-0.00020710894884957433,-0.0002957060174121649,-0.0004120419614002487,-0.00031405803327122874
10,-0.0005254707528391281,-0.0006919490611298249,-0.000969692049385932,-0.0007380962481844764
11,-0.0012123852495082306,-0.0014994609364021201,-0.002113729103535412,-0.0016036629111449063
12,-0.0025780131253038104,-0.0030392587728506567,-0.004310355887840689,-0.00325339495612376
13,-0.00510912548737709,-0.005810185944998063,-0.008291584250120193,-0.006214960069492674
14,-0.009526191514724001,-0.010549960945697873,-0.01515161040961669,-0.011259702589138441
15,-0.016844187333054966,-0.018303351405567,-0.026457026019522874,-0.01946517487306698
16,-0.028433686221274967,-0.030494364983495115,-0.04436667183715814,-0.03227780247157219
17,-0.04607774131812048,-0.048998134399438675,-0.07175496385857275,-0.05157100775109442
18,-0.07201884870953183,-0.07620685431989006,-0.11233039593652316,-0.07969308087808008
19,-0.10898905749857883,-0.11508281057028562,-0.17073872313819996,-0.1194980078794605
20,-0.16021527104499764,-0.16919043174755627,-0.25263825761355413,-0.17435156537699756
21,-0.22939123584038607,-0.24269864660832022,-0.36473306743903056,-0.24810457976058956
22,-0.3206080575334437,-0.34034491176168213,-0.5147491018385429,-0.3450256858980905
23,-0.4382366883563486,-0.467353283040365,-0.7113387993048337,-0.46968744839566073
24,-0.586758778721703,-0.6293009389598321,-0.9639019198637666,-0.6268023965686624
25,-0.7705462735574751,-0.8319305873721557,-1.282314287616364,-0.8210092009704475
26,-0.9935946963764303,-1.0809100372983855,-1.6765617283139658,-1.0566135893469661
27,-1.259219819842548,-1.3815446343175621,-2.1562833760426354,-1.3372933012404298
28,-1.5697321162501403,-1.738452914034941,-2.7302362096722144,-1.6657810547428344
29,-1.926107714429868,-2.155220363191619,-3.405700557548211,-2.0435437713249667
30,-2.327678110187852,-2.6340502120809837,-4.187853754942877,-2.470479748059229
31,-2.7718631379877063,-3.1754333441304006,-5.079145559930918,-2.944657679429497
32,-3.2539724510930386,-3.777861349551962,-6.078713782017295,-3.462122070689443
33,-3.7670999179063216,-4.437607180331263,-7.181881425650937,-4.016788467362699
34,-4.302132845963275,-5.148596565138388,-8.37977712271985,-4.600448962993113
35,-4.847893597284607,-5.90239019823043,-9.659118446770592,-5.202903662038963
36,-5.391424782856218,-6.688291719025507,-11.002192614016401,-5.812227246412443
37,-5.918420946618025,-7.493589787212064,-12.387060964870042,-6.4151717437197116
38,-6.413799952758802,-8.303934426675033,-13.788002536472542,-6.997697371428646
39,-6.862396852769761,-9.103838726785222,-15.176198385038042,-7.545613458193186
40,-7.24975251810911,-9.877287567400401,-16.520642856591955,-8.045301588447508
41,-7.562959501659165,-10.608425999825322,-17.78925187394747,-8.484484073435782
42,-7.7915193101781846,-11.282292049387362,-18.950122853341277,-8.852993504343555
43,-7.9281594793092545,-11.885552751202068,-19.972887444900874,-9.143494308320857
44,-7.969556312056921,-12.407198822006606,-20.830088106121558,-9.352105566666543
45,-7.9169102181972475,-12.839152941710196,-21.49850342595799,-9.478876244581054
46,-7.7763252734951624,-13.176749374138353,-21.960345665118577,-9.528069578957302
47,-7.558952753047431,-13.419048556067416,-22.204257368192756,-9.508222582999485
48,-7.280869789028681,-13.568959061602145,-22.226042110924226,-9.431959128906845
49,-6.962678542517176,-13.633150516933664,-22.029077167264308,-9.315550173069013
50,-6.628827560327408,-13.621753913305875,-21.6243725625128,-9.178231366994577
51,-6.306674172668897,-13.547859481521224,-21.0302606984901,-9.041305264231665
52,-6.025323680130692,-13.426835871636989,-20.27172226082368,-8.927071263935222
53,-5.814296612644656,-13.275506812554172,-19.379375938382516,-8.857640131145441
54,-5.702088529852523,-13.111231745204217,-18.38818001974756,-8.853700394519336
55,-5.714696671302027,-12.950944313950245,-17.33591171188426,-8.933310365533025
56,-5.87419331373625,-12.810206453561143,-16.26150381196261,-9.110791353499863
57,-6.1974263522334665,-12.702335780841587,-15.203327266804553,-9.395794534138709
58,-6.694923284836792,-12.637660032395452,-14.197511591359973,-9.792605786991745
59,-7.370065753116049,-12.622944627575071,-13.276392864041268,-10.299739915536287
60,-8.218588559292131,-12.661028595419737,-12.467171147678453,-10.90985860533637
61,-9.228440268814218,-12.750690843153576,-11.790846169511388,-11.610026278437228
62,-10.380022986468035,-12.88675398396251,-11.261482756922234,-12.382296032041168
63,-11.646807872684876,-13.06041771006953,-10.885837101244467,-13.204595737804992
64,-12.996301827483496,-13.259799050685267,-10.663352902712111,-14.051863794488135
65,-14.391320816476865,-13.47064381620503,-10.586514483484454,-14.897366486815823
66,-15.791507684574675,-13.677163026207067,-10.641523624677001,-15.71411568241016
67,-17.15501805657673,-13.862940898039804,-10.809249540682085,-16.47629767318136
68,-18.44028811213146,-14.011857545164956,-11.066388089572754,-17.160622048755517
69,-19.607793481253847,-14.108970100165658,-11.38675766320583,-17.7475039002585
70,-20.621709569957403,-14.141300408335129,-11.742655498812988,-18.222003269442066
71,-21.45139000346285,-14.098485279285546,-12.106199335411306,-18.574461904090953
72,-22.072590879727773,-13.973255820364384,-12.450585077002843,-18.80079792279119
73,-22.468383329199117,-13.761724701182239,-12.75120079500922,-18.90244242501579
74,-22.629714590165015,-13.463473315038906,-12.986550157257229,-18.885926685243724
75,-22.555597355982123,-13.08144371686602,-13.138953126732153,-18.762152526120094
76,-22.25292725299447,-12.62165203135603,-13.195007337456847,-18.54539999202141
77,-21.735947692810246,-12.09275002196227,-13.145808755581433,-18.25214400496594
78,-21.02539898018166,-11.505469175354174,-12.98694402537265,-17.89976409164324
79,-20.147403704372746,-10.871986672396735,-12.718278497341661,-17.50523778804065
80,-19.132152442120272,-10.205254831460865,-12.343572780966646,-17.083908596894123
81,-18.012461998199445,-9.518335022161017,-11.869966478441123,-16.648413417239468
82,-16.82228226778365,-8.823773807651513,-11.307370444245628,-16.207842538712153
83,-15.59522716241422,-8.13305351646093,-10.667808616853511,-15.767188352993827
84,-14.363200153240149,-7.456142086344985,-9.964747490255565,-15.327117997749442
85,-13.155176382042049,-6.8011585409413975,-9.212446180341665,-14.884081689025324
86,-11.99619161515161,-6.174161627398792,-8.425353490089789,-14.430744244166288
87,-10.906574392755616,-5.579060739398203,-7.617571204449249,-13.956704123429642
88,-9.901442646359097,-5.017640964953778,-6.8023958303826415,-13.449444101886789
89,-8.990471072513023,-4.489688424949359,-5.991944766183175,-12.895442035038744
90,-8.177921711626107,-3.9931982499265017,-5.1968678663515,-12.281360251366396
91,-7.462918063160778,-3.52464556295282,-4.426141735379954,-11.595228390539903
92,-6.839932862172756,-3.079299498510175,-3.6869418322655454,-10.8275369341105
93,-6.2994514621707705,-2.6515612980635375,-2.9845863829637724,-9.972166713825304
94,-5.828766895876861,-2.2353095782246237,-2.322545864710779,-9.02709256543545
95,-5.412859460076956,-1.8242386640178672,-1.7025120544019459,-7.994816069321754
96,-5.035313284540193,-1.412179112767339,-1.124520986870209,-6.882501895225874
97,-4.679224708673932,-0.9933928928126061,-0.5871244251179852,-5.701813357301053
98,-4.328062117806993,-0.5628387861579893,-0.08760446265709304,-4.468463927645766
99,-3.966443746331554,-0.11640614654715178,0.3777744172300177,-3.2015210952937885
100,-3.5808082277261932,0.3488830657876382,0.8134822553628606,-1.9225155763513673
101,-3.1599615506651757,0.8347031368055605,1.2244173049868743,-0.6544212428555758
102,-2.69549274064666,1.3412834389977861,1.6155864131567415,0.5794215731927074
103,-2.1820584657472053,1.867297004505449,1.9917847638726198,1.7563647847187358
104,-1.6175436571158615,2.4097797171196613,2.357290607742614,2.8554218163071368
105,-1.003111108762288,2.9640823875917204,2.7155930913587043,3.858083730363592
106,-0.3431577286404284,3.5238593164013903,3.0691726129209616,4.748930133835028
107,0.3548016422238856,4.0810979726064165,3.41935283229483,5.515997467649919
108,1.0803004179801576,4.626194866652864,3.766241422269371,6.150884109421319
109,1.8201143363750432,5.148082366921729,4.108773006382622,6.6485896419202835
110,2.558463320984045,5.634409986520448,4.444862663753122,7.007103528461639
111,3.277204773804755,6.071781556430861,4.771672061163172,7.226775184931739
112,3.9560072917611273,6.446046836852012,5.085982810861378,7.309512033443929
113,4.57250054022905,6.742642751225365,5.384663271605274,7.257863737887875
114,5.102404565074825,6.946975877052837,5.665206149256358,7.074058807490277
115,5.519649395746307,7.044834430612477,5.926305668429238,6.759063735935715
116,5.796502678063095,7.022815054349926,6.168435836987757,6.311734714365875
117,5.903728788217281,6.8687475253864445,6.394386478017234,5.728127919705109
118,5.810807034314353,6.572099285598893,6.609712032949637,5.001026813508001
119,5.486238721474105,6.12434162769202,6.823049815206101,4.119734279677962
120,4.897972574298764,5.519260565406383,7.046269139214392,3.070164256880378
121,4.013974971289038,4.753197862216629,7.294420126694431,1.8352522931836128
122,2.8029656040400055,3.8252112734099226,7.5854607503215705,0.3956877052283648
123,1.23533070259873,2.7371475502132605,7.939752667806805,-1.2690475971909603
124,-0.7157848530297117,1.4936268704101703,8.379330351800206,-3.17936633700866
125,-3.0732179803657633,0.10194273309249703,8.92696328413256,-5.354038986657713
126,-5.854385938671224,-1.428113439361196,9.605046525729625,-7.808498211978032
127,-9.06978310282288,-3.0844891658899383,10.43436952995362,-10.55306324908066
128,8.182654438509102e-11,-2.1834337163640294e-10,-6.363033176617592e-11,-1.9928776254942565e-11
129,-1.4219558136572228e-10,-2.5292053345923987e-09,5.918002174185812e-10,-2.1626325520638607e-10
130,1.2421646790979649e-10,-3.051663536581022e-08,4.658506013894773e-09,-3.1377979603559975e-09
131,-1.0228338048996425e-11,-2.2274750701489202e-07,3.0031373154492545e-08,-2.6534909409404875e-08
132,-2.050698321550018e-11,-1.2252753765572862e-06,1.387001651046619e-07,-1.6501682770398005e-07
133,1.90264127792028e-09,-5.405240408896079e-06,4.999104048786723e-07,-8.062213463822934e-07
134,1.8862356208821797e-08,-1.9976852684248096e-05,1.4460371418409669e-06,-3.2415092963205584e-06
135,1.3329569560696005e-07,-6.383847291415392e-05,3.396004593323668e-06,-1.10909502809116e-05
136,6.920804614660551e-07,-0.00018058773632831406,6.34418578292815e-06,-3.312160041071067e-05
137,2.8442025986448387e-06,-0.00046062690283899194,8.433711505648128e-06,-8.808688416126308e-05
138,9.64598744042482e-06,-0.0010751895516706916,2.9912277436680377e-06,-0.0002120825731650715
139,2.78290291239735e-05,-0.002324615482205882,-2.6686017180670604e-05,-0.00046864585866192846
140,6.985510752292065e-05,-0.0047022436488172925,-0.00011557983798066772,-0.0009615024783669099
141,0.00015521772003016627,-0.008974204618174433,-0.00032919254639182535,-0.0018495887625959728
142,0.00030939865777293086,-0.016274155448266513,-0.0007810199648427099,-0.0033637257057707744
143,0.0005587343092134717,-0.028210757317167053,-0.0016568464225822988,-0.005824051299892545
144,0.0009198389956035115,-0.04698419520045818,-0.0032475740868236768,-0.009656967129297402
145,0.0013828267284311348,-0.07550628224084181,-0.005992010854854432,-0.015409956734424038
146,0.0018881607579046837,-0.11751650534484313,-0.010530106922756952,-0.023762256097549492
147,0.002297353197639529,-0.1776839519572889,-0.01776568933115707,-0.03552905342829067
148,0.002358203249542973,-0.2616827168104632,-0.028935977856407055,-0.05165669901666566
149,0.0016658970750774824,-0.3762265190199573,-0.04568343900116542,-0.07320631855093931
150,-0.00037779469239877355,-0.5290474699441906,-0.0701240901940153,-0.10132331464284991
151,-0.004603964156716647,-0.7288044791547662,-0.10490527383353448,-0.13719058980754836
152,-0.012110365351008982,-0.9849090266409473,-0.1532452248193447,-0.18196402589757452
153,-0.02428424372961254,-1.30725981281131,-0.21894630321949188,-0.23668982007385306
154,-0.04280807845753142,-1.705883066752551,-0.30637361427504856,-0.302204670108186
155,-0.06964174822145466,-2.1904815721345097,-0.42039090224883563,-0.3790214026002432
156,-0.10697508185867069,-2.7699024742490668,-0.5662463969185798,-0.4672042860217949
157,-0.15714602349595372,-3.451541164535665,-0.7494029457680963,-0.5662397914020224
158,-0.2225217136017188,-4.240705607205116,-0.9753096518265195,-0.6749097963059418
159,-0.30534241616573354,-5.139972034160542,-1.2491163721256207,-0.7911751108282326
160,-0.4075314514371743,-6.148568442830745,-1.5753376674983184,-0.9120777146888618
161,-0.530478030631128,-7.2618264420600385,-1.9574785560794883,-1.033670251329647
162,-0.6748038998775794,-8.470744019256047,-2.3976400213626023,-1.1509810811656136
163,-0.8401285406764527,-9.761701333281225,-2.8961270455489068,-1.2580224948242302
164,-1.0248507301427996,-11.116368050436886,-3.4510854570435927,-1.347848450886319
165,-1.2259662807614193,-12.511833915830515,-4.058195925105617,-1.4126664353622027
166,-1.4389424754565097,-13.92098411150132,-4.710453768111172,-1.4440057689240606
167,-1.6576690263508362,-15.313128087387215,-5.398061787327094,-1.4329419925632478
168,-1.8745029938941724,-16.654875634630297,-6.108459836570988,-1.3703739192448716
169,-2.080420974752603,-17.911238096758115,-6.826509273583416,-1.2473467040420465
170,-2.265286005486678,-19.04691687110268,-7.534842806206342,-1.05541108892591
171,-2.4182294524620715,-20.027726760101697,-8.214380914877067,-0.7870060911787049
172,-2.5281399450140785,-20.822089411347484,-8.845005385075982,-0.43585007837222706
173,-2.584242577628128,-21.40252280518269,-9.406369130864489,0.002676445930105094
174,-2.576742684743422,-21.74704744780502,-9.878810115388509,0.5311738149015308
175,-2.4975003036569907,-21.840429105077387,-10.244326595063335,1.1499092913490385
176,-2.3406951377814416,-21.67518212485465,-10.487562210150333,1.8565625581677652
177,-2.103438204023296,-21.252266592705716,-10.596743585231327,2.6460448660736846
178,-1.7862859326893004,-20.581426602427953,-10.564511046921902,3.5104032870181894
179,-1.3936152327243447,-19.681134967719263,-10.388585210265868,4.438818157757618
180,-0.9338239551176463,-18.578130822062604,-10.072218582046608,5.417698072153614
181,-0.41933006295048425,-17.306559345084757,-9.624391405896983,6.430872827957785
182,0.13364557063263766,-15.906745845314331,-9.059724052182027,7.459880638581527
183,0.70551417368267,-14.423658174510624,-8.398093412833449,8.484341788219124
184,1.2739586088343202,-12.905130414895705,-7.6639572525546145,9.48240692484943
185,1.8147493570727555,-11.399935863210377,-6.885407464721401,10.431264572102625
186,2.3026952037013273,-9.955807364552783,-6.09298988424607,11.307689504871274
187,2.7126753793284064,-8.617507398374098,-5.318343859093637,12.088611690954268
188,3.020691933599359,-7.4250483998208825,-4.592728082121437,12.75168485817274
189,3.2048776401261203,-6.412155721910719,-3.9455091985709636,13.27583451868156
190,3.2463964066291453,-5.605051692499263,-3.4026952934654187,13.641767370625551
191,3.1301797984659467,-5.0216204140525935,-2.9855968436479734,13.832427076151703
192,2.845454420232767,-4.670990419587451,-2.709692726469443,13.83338513045421
193,2.386029669326325,-4.553547609011356,-2.5837687568096315,13.633159582018658
194,1.750332922957576,-4.661365663511674,-2.609381597605641,13.223458510080567
195,0.9411982401715177,-4.979016967478654,-2.780682829868599,12.599349175580578
196,-0.034566423731435494,-5.4847056533788505,-3.084617591562213,11.759357328964022
197,-1.166791309608891,-6.151646971465356,-3.501490905265468,10.705504000768817
198,-2.4426801450821656,-6.949605000720635,-4.005874100870061,9.44328899746365
199,-3.8476028620499125,-7.846494325622551,-4.56780504645553,7.981631187397296
200,-5.36587555898124,-8.809951144027059,-5.154220515604214,6.332775420477552
201,-6.981458955307362,-9.808785069616286,-5.730547612831849,4.512174545657779
202,-8.678514246276267,-10.814234260049885,-6.262374062782858,2.5383524591004125
203,-10.441768673419636,-11.800962413001542,-6.717114107423413,0.4327505896472413
204,-12.256661261331478,-12.74775557545553,-7.065587555803213,-1.7804439727632986
205,-14.109260406946735,-13.63789815009709,-7.28343395393508,-4.074494881130993
206,-15.98596758628492,-14.459229469360135,-7.352292021831382,-6.4203476424307
207,-17.873043545396456,-15.203903379992232,-7.2606864533474855,-8.78690866353375
208,-19.756012917946663,-15.867891881654865,-7.0045797578186075,-11.141387033325735
209,-21.61901843708072,-16.45028889192954,-6.587565197094351,-13.449713541718335
210,-23.44420513667587,-16.952480594331035,-6.020696633554786,-15.677049036937785
211,-25.211217373145036,-17.377254160304034,-5.321970566201831,-17.788389781718475
212,-26.896886784365385,-17.72791663497236,-4.515493130418327,-19.74927124843581
213,-28.475177730575513,-18.00749083217757,-3.6303793312472137,-21.526564229129207
214,-29.917438789944068,-18.21804563535468,-2.6994426627782975,-23.08934870094424
215,-31.192985677117417,-18.36020514154741,-1.7577406061421013,-24.40984210683709
216,-32.27001413731292,-18.432865554803264,-0.8410454942044268,-25.464350156050514
217,-33.116813202010306,-18.433131899500168,0.015688703623422912,-26.234200554055313
218,-33.70322201125743,-18.35646971169806,0.7797948647736673,-26.706613945314796
219,-34.0022493570796,-18.19705102456057,1.4222320542913085,-26.875462493718516
220,-33.991756212592946,-17.948260398997288,1.9187384051198315,-26.741865616054348
221,-33.65608936572288,-17.60331621455789,2.2507497094638267,-26.31457492582909
222,-32.98755022116912,-17.155955695875615,2.4060474100352924,-25.61010668395113
223,-31.987587300176322,-16.601129376433445,2.379112521697066,-24.65258982002651
224,-30.667613767685484,-15.935652024740177,2.1711756300734293,-23.473310364042177
225,-29.04937141654535,-15.158762011710278,1.789966976377441,-22.109948109507727
226,-27.164788745062012,-14.272549247437736,1.2491843794841009,-20.60551763798652
227,-25.055311400001013,-13.282222246758089,0.567709955836035,-19.007042559006013
228,-22.77071643548305,-12.196196821029549,-0.23138147556120553,-17.36400802678433
229,-20.367455106473567,-11.026001324283556,-1.1219695867985264,-15.72665129050891
230,-17.90659972246725,-9.786005418737945,-2.076131838626115,-14.144162164597605
231,-15.451496176160228,-8.492990231659723,-3.065420116632853,-12.66287391770003
232,-13.065243286357363,-7.165586790571773,-4.0621082971362235,-11.324529408679165
233,-10.80813193750808,-5.82361642638933,-5.040351827638844,-10.164706910012463
234,-8.735180325468278,-4.487371024750095,-5.977206520777618,-9.211484820786339
235,-6.893896345066594,-3.1768726708141997,-6.85346188340956,-8.484414601904026
236,-5.322384664464095,-1.9111513450620086,-7.6542541994881885,-7.993857252495368
237,-4.047895562762998,-0.7075762877044789,-8.369436006575437,-7.740721250648527
238,-3.0858866327361163,0.4187283258213729,-8.993691401317694,-7.716620017982925
239,-2.439638754672579,1.4553590768934381,-9.52640025848635,-7.9044456859293675
240,-2.1004361631331707,2.3929833122727215,-9.971268161196006,-8.27933435595134
241,-2.04828891755591,3.2255540129640683,-10.335751659561645,-8.809977313809048
242,-2.2531468197146496,3.9503874745920777,-10.630319370531609,-9.460213971333827
243,-2.6765285788882287,4.568108579615013,-10.86759771975116,-10.190826791107153
244,-3.273470312567958,5.082474225712349,-11.061455206850384,-10.961447121357104
245,-3.99468407791306,5.500090110442432,-11.226080722379601,-11.732474507501932
246,-4.788810698293579,5.830039281280305,-11.375109438813583,-12.466911170308133
247,-5.604651816680585,6.0834427699524625,-11.520844285911476,-13.13201807861442
248,-6.393273739929106,6.272973212130306,-11.673612259982209,-13.700709136030296
249,-7.1098892292115865,6.412341981503648,-11.841283583421681,-14.152614736162873
250,-7.715441565946353,6.515779183614761,-12.028968965216162,-14.4747643312478
251,-8.177836198164217,6.59752426830368,-12.238897198098641,-14.661858575379712
252,-8.472787596107015,6.671343099174766,-12.470463137387746,-14.716123990677836
253,-8.584271234764245,6.750085238374792,-12.720425673654393,-14.646765955905137
254,-8.50459167953175,6.8452929457017,-12.983227188362308,-14.4690580988257
255,-8.234096436954713,6.9668709466170515,-13.251400519770318,-14.203126699736488
256,-1.02000010887361e-10,-6.36611408838345e-11,-1.1965147058822698e-10,-9.931917613581511e-11
257,-2.409785929575528e-09,-1.407837393001489e-09,-2.6156332320132866e-09,-2.0966791082776865e-09
258,-2.8717914368050445e-08,-1.569312134381926e-08,-2.8960630960381114e-08,-2.4092529810797197e-08
259,-2.2511636431614863e-07,-1.162138411435274e-07,-2.120632417702609e-07,-1.8255730942521869e-07
260,-1.3123351754056476e-06,-6.460527925827084e-07,-1.1598353573068721e-06,-1.0357397133080767e-06
261,-6.08711839411357e-06,-2.8855045343283314e-06,-5.071424994899609e-06,-4.705870048666324e-06
262,-2.347795363893303e-05,-1.082075240467342e-05,-1.852839806708115e-05,-1.789107389698211e-05
263,-7.771178064926848e-05,-3.5149423865874635e-05,-5.837209720133198e-05,-5.872156942013844e-05
264,-0.0002261048036449451,-0.00010123694828621162,-0.00016240442359007838,-0.00017034505986352296
265,-0.0005893892699944483,-0.0002632690274239,-0.00040663094489312577,-0.00044487296104038255
266,-0.0013980642565814755,-0.0006271782868896663,-0.0009303869000906904,-0.001061613641410361
267,-0.0030571455130869716,-0.0013849393400174694,-0.001970143846030454,-0.002343234801491151
268,-0.006230268838734577,-0.0028624684755049075,-0.003902364713230654,-0.004832641924009224
269,-0.01194265885240885,-0.005582636208949424,-0.007295619914768682,-0.009392038652920045
270,-0.021700971978927005,-0.010343841950474946,-0.01297220221154171,-0.017323927281165327
271,-0.037626227057451486,-0.01831326019829952,-0.022079348677051327,-0.030511756726852614
272,-0.06259379786202798,-0.03113228970026579,-0.03616948631526853,-0.05157551883424178
273,-0.10037183423597512,-0.0510299624047042,-0.057287433228922754,-0.08403483710618426
274,-0.15574671317863265,-0.08093815237956811,-0.08806032372207116,-0.13246902488547474
275,-0.23462144495403592,-0.12460045937303328,-0.13178365728508876,-0.20266036967363296
276,-0.34407071145953355,-0.1866647730959762,-0.19249495058911345,-0.30170383333047895
277,-0.4923349066574744,-0.27274795304385313,-0.2750255553080853,-0.4380638996505179
278,-0.6887357798267963,-0.3894600290501394,-0.38502150921833217,-0.6215579898098206
279,-0.9434984553159569,-0.5443751033673713,-0.5289255765028831,-0.863246188123753
280,-1.2674687614008262,-0.7459369713463821,-0.7139143415693954,-1.1752093634363958
281,-1.6717207158340752,-1.0032895765955372,-0.9477857587078772,-1.5702023591377987
282,-2.1670564122140936,-1.3260258764897501,-1.2387936744668588,-2.061175811732953
283,-2.7634091512908743,-1.7238534542389254,-1.5954267775312263,-2.660669124694271
284,-3.4691700130434735,-2.206181027603436,-2.02613082428382,-3.380087655407143
285,-4.290467399961213,-2.7816364525729216,-2.5389754866704206,-4.228888468318978
286,-5.23043743920436,-3.4575333793986345,-3.1412710713725804,-5.213710140108014
287,-6.288529674884437,-4.23930984867276,-3.8391454041521134,-6.33749217599705
288,-7.459896652444913,-5.129967324947119,-4.637096611663329,-7.598637805165953
289,-8.734917402909268,-6.129542530140108,-5.537542412477019,-8.990279549784942
290,-10.09890304960227,-7.234646584016984,-6.540390034147268,-10.499709292261834
291,-11.53202736767619,-8.438106060676839,-7.642652565696355,-12.108032945102346
292,-13.009515960173339,-9.728738386776685,-8.838137396118915,-13.790103744901948
293,-14.50211504830668,-11.091289439734208,-10.117230632299753,-15.5147774396415
294,-15.976845339982964,-12.506554333464175,-11.466798402630545,-17.245517357384056
295,-17.39802885019919,-13.951693477341669,-12.870222091392717,-18.941358083673755
296,-18.728557852170127,-15.4007455023415,-14.307580042136456,-20.558214182585036
297,-19.93135657095519,-16.825327157551115,-15.755983169060036,-22.05049645640179
298,-20.97096934991858,-18.195498509709026,-17.190066105279882,-23.37297438456488
299,-21.815195459297666,-19.480760546367364,-18.582628825867523,-24.482801517552506
300,-22.436681826374432,-20.651142452695,-19.90541604006081,-25.34160258298366
301,-22.81438161132455,-21.67832822448676,-21.13001322300377,-25.91750849521758
302,-22.93478918032287,-22.53676758347466,-22.228829425660194,-26.187019634853012
303,-22.792870755587543,-23.204714840379214,-23.176128726275728,-26.13657955071979
304,-22.392624574964575,-23.66514159456279,-23.94906534030834,-25.76375102264205
305,-21.74722394607484,-23.90647485695134,-24.528672979413003,-25.077903980547596
306,-20.87871980038884,-23.923120951142085,-24.900757814304942,-24.100349261629912
307,-19.817304650126182,-23.7157467740432,-25.05664666219594,-22.863882181032164
308,-18.60016562384512,-23.291302912510897,-24.993747555373744,-21.41173355662522
309,-17.26997891802632,-22.66278686408358,-24.71588795664082,-19.795961023341967
310,-15.873119892567576,-21.848758339414367,-24.23340566579895,-18.0753479009976
311,-14.457680514809907,-20.87263152136396,-23.56297809497941,-16.312908243178764
312,-13.071397586691312,-19.761780485302236,-22.727186598009975,-14.573122849791657
313,-11.759600434473965,-18.54650309777259,-21.753823794682816,-12.91905014729777
314,-10.56328533311202,-17.258895057247273,-20.674963398503603,-11.409466475088701
315,-9.51741606824449,-15.931688918693753,-19.52582389504515,-10.096191484925285
316,-8.649536120313678,-14.597112758770505,-18.343469144798398,-9.021745639883873
317,-7.978758764389474,-13.285819670343573,-17.16539978278721,-8.217468508314248
318,-7.515178239402383,-12.025932899353888,-16.02809799474298,-7.702199809267384
319,-7.259719879603824,-10.842242793666118,-14.965593619366528,-7.481591882053152
320,-7.204421713662549,-9.755581628695454,-14.008120559204466,-7.548084857259859
321,-7.333116327919866,-8.782391658242316,-13.180928765979562,-7.881536991195236
322,-7.622461229806443,-7.934491183194219,-12.50330894268709,-8.450465045442959
323,-8.043249672781137,-7.219033648360712,-11.987875618977823,-9.213815654729363
324,-8.561922704431659,-6.638646199740149,-11.640140821486881,-10.123160344332856
325,-9.142197391278813,-6.19172704414611,-11.458396511370449,-11.125185737035537
326,-9.746725578812475,-5.872875559132453,-11.433910173204383,-12.164337542982537
327,-10.338701646301518,-5.673425584958114,-11.55142473313051,-13.18547268633046
328,-10.88334589903118,-5.5820508259694535,-11.789941351402058,-14.136378482996992
329,-11.349201830296616,-5.585411775917474,-12.12375161246622,-14.970030687257225
330,-11.709199599519419,-5.6688157848136465,-12.523674600940817,-15.646482409814004
331,-11.941453525435072,-5.8168652993131635,-12.958445006782636,-16.13430170896209
332,-12.029776897133122,-6.0140734210785025,-13.396191509459646,-16.4115050324372
333,-11.96391191336395,-6.245430461146147,-13.805940713141341,-16.465964483755148
334,-11.73948539665082,-6.496910088560774,-14.159080907802034,-16.29529703735849
335,-11.357711621997225,-6.755908868068938,-14.430721805382618,-15.906271420508354
336,-10.82487170050702,-7.011617898837297,-14.600891151009419,-15.313791722927514
337,-10.151604220151361,-7.2553288895927786,-14.655516685049673,-14.53953466476125
338,-9.35204456605973,-7.4806783481957355,-14.587151663643988,-13.610329323314435
339,-8.442851345473597,-7.683832371800066,-14.39541247234221,-12.556374147736312
340,-7.442158380463274,-7.863611581817754,-14.087106007882866,-11.409386659840008
341,-6.368489917677374,-8.02155236824292,-13.676031698068428,-10.20077659929357
342,-5.239674627308376,-8.161897589708751,-13.18244925379914,-8.959923634783005
343,-4.071790455433382,-8.29150685744554,-12.632210648915992,-7.712626881026392
344,-2.8781681246747,-8.419672392263347,-12.055565316024811,-6.4797769594559
345,-1.6684773587623691,-8.557820508769137,-11.485661594141472,-5.276284476250075
346,-0.4479178658396835,-8.719071848820695,-10.956783809691874,-4.110283667817291
347,0.783463010241432,-8.917627827119487,-10.50238067843062,-2.9826178276662647
348,2.0313028947377143,-9.167949033166298,-10.152954765390524,-1.8866042711341517
349,3.3072826011628575,-9.483695298407405,-9.93389361060678,-0.8080707650652587
350,4.629284060165637,-9.876407034038754,-9.863331604270444,0.27434780228226513
351,6.021321715100479,-10.353922415488128,-9.950139425135086,1.388664758133979
352,7.5132225524673455,-10.918543780292119,-10.192145643952196,2.568761109896275
353,9.140033930822371,-11.5649879924511,-10.574701674373312,3.853381270186225
354,10.941145187089143,-12.278178534217066,-11.069703537598393,5.284918235154123
355,12.959117908981481,-13.030961163052474,-11.635178432224881,6.908003527289628
356,15.238229481118173,-13.781849799141218,-12.215528479254246,8.767919715381893
357,17.822744030779138,-14.472934053143229,-12.742497680411514,10.908855649250462
358,20.75493414732593,-15.028102421593914,-13.13689243576905,13.372027055032008
359,24.072886665296505,-15.351752575600557,-13.3110438703542,16.193689220090167
360,27.808137866411933,-15.328169091037674,-13.171955490994861,19.40307601618937
361,31.983198848047458,-14.821746773981255,-12.625035804469627,23.020311722549806
362,36.60905050518015,-13.678222559044876,-11.578274759218576,27.054358738661225
363,41.682707810673456,-11.72704959674779,-9.946686326431736,31.50108311368552
364,47.18497157627986,-8.785003228582138,-7.656808045144933,36.34153722925948
365,53.078498895222076,-4.661051087836357,-4.651023643915272,41.54057103835491
366,59.30632816531957,0.8375486666051163,-0.8914601644686488,47.04588705209251
367,65.7909899040697,7.89803176293496,3.6367893033064784,52.787648634044764
368,72.43432105239883,16.693982261818448,8.92334803690173,58.67873660905091
369,79.11807939344641,27.37651842888489,14.931335425117153,64.61572707359723
370,85.70542719331883,40.0651389363884,21.5973785438239,70.48063491767842
371,92.04331999806143,54.83861557411159,28.83291821442671,76.14343399187287
372,97.96579858026628,71.7263618032418,36.52679338395885,81.46532722446567
373,103.29814061512893,90.70073157954778,44.54900927598829,86.30269996139548
374,107.86178531015024,111.67070644506414,52.755522365984696,90.51164939479033
375,111.47990036309285,134.47740850536815,60.99381197629068,93.95294408716575
376,113.98341770172082,158.89183143492326,69.10895588540264,96.49723184162116
377,115.21732440544318,184.61511129908158,76.94988778138769,98.03028300627913
378,115.04696098815785,211.28156532112303,84.37549089284332,98.45803191202366
379,113.36405469971334,238.46461278542682,91.2601787712269,97.71116476367405
380,110.09220463961803,265.6855626846095,97.49863442276117,95.74900181051451
381,105.19154123269915,292.4251137695615,103.00942400773673,92.56243822796436
382,98.66230615485675,318.1372719856518,107.73726915493583,88.17574297667998
383,90.54713922260821,342.2652561502823,111.65384743941945,82.64706620998032
384,-6.300604903525403e-10,5.227152525430465e-09,2.2294684761980616e-10,-4.700766164070793e-10
385,-1.203166207561789e-08,1.690840369075779e-08,4.376716818849106e-09,-8.074943662900852e-09
386,-1.3713328414666472e-07,2.652833924962019e-07,5.225044207959064e-08,-9.159662742946559e-08
387,-1.0182989117616423e-06,1.9098568965106428e-06,4.0363695336029313e-07,-6.759514512143231e-07
388,-5.665193318413722e-06,1.0511124214457369e-05,2.3242645790438885e-06,-3.742446191166255e-06
389,-2.524459434542545e-05,4.63759060498334e-05,1.0665371387148877e-05,-1.6616458059586143e-05
390,-9.416285311828035e-05,0.00017121043595018978,4.076164208155939e-05,-6.183877060832232e-05
391,-0.0003033952610702867,0.0005461916040558594,0.00013391845218533203,-0.0001990721358069438
392,-0.0008646394282918118,0.0015411432820791357,0.0003873538704693644,-0.000567608254145408
393,-0.0022203567517352883,0.0039177970781622195,0.0010051232980343176,-0.00146012957029379
394,-0.005215105517621674,0.009106691498931587,0.002375629314632182,-0.0034391811302469997
395,-0.011341635562565473,0.019591807578244337,0.005178794659158203,-0.007507057513224223
396,-0.023071187315872817,0.03940624616107073,0.010522346375072652,-0.015337380400986781
397,-0.044271900080790176,0.07473287316085375,0.02010278816466901,-0.02957286795427603
398,-0.08071235239343534,0.13459240064401076,0.03638324075350656,-0.05418885985713627
399,-0.14063926016984393,0.23159241574076722,0.06277768676193839,-0.09491641660953046
400,-0.2354091432005935,0.3826993968166376,0.10382914585293473,-0.15971228359518924
401,-0.3801434955304315,0.6099833468363104,0.16536742912111965,-0.2592558537374107
402,-0.5943656891170459,0.9412708948196362,0.2546299893762934,-0.40744543656395726
403,-0.9025660374046102,1.4106269313743598,0.3803268273436034,-0.6218579617466705
404,-1.334630233664971,2.05857359625836,0.5526279181282954,-0.9241283556646543
405,-1.926057517831604,2.931947508789662,0.7830501524919686,-1.3401982839737494
406,-2.7178907162959223,4.083299610798464,1.084221712974599,-1.9003802274467494
407,-3.756282617916708,5.569754330165864,1.4695061541807277,-2.639183223305816
408,-5.091633452496794,7.451271238914717,1.9524765868453202,-3.5948522670869028
409,-6.7772528859116745,9.788287006906936,2.5462415623871366,-4.808584821067585
410,-8.867526701459326,12.638759540637949,3.2626371997450705,-6.323405169027996
411,-11.415601816709502,16.05468388000152,4.11131324366933,-8.182699554169105
412,-14.470641424734469,20.07819784414503,5.098752853035071,-10.428440653862221
413,-18.07474192763257,24.737443493926797,6.227276133938416,-13.099156832908601
414,-22.259641899153113,30.042391186721954,7.494085046462181,-16.227727547253476
415,-27.04338776430122,35.98086754719219,8.890411764829713,-19.839109207558884
416,-32.427148512060235,42.51504886251623,10.400833275549305,-23.948113860008878
417,-38.39239014571602,49.578688958727916,12.002811692884864,-28.557374731152343
418,-44.89862705003331,57.07533852192682,13.666512403198192,-33.65563648462364
419,-51.881959889192984,64.87778474547775,15.354941049992256,-39.216502849655484
420,-59.25458646778503,72.82889132635272,17.024425938099366,-45.19775918228776
421,-66.90543303341943,80.74395516689324,18.625455273606597,-51.54136247066935
422,-74.70199960867458,88.41461637769234,20.10385944617357,-58.174156896485414
423,-82.49344643363507,95.61426906614562,21.402308348388274,-65.0093311009394
424,-90.11487287263618,102.10482700575106,22.462073860896783,-71.9485862940493
425,-97.3926600868206,107.64460502895716,23.224989628851244,-78.88493573514671
426,-104.15067025469259,111.99699466138404,23.635525620179884,-85.7060097556437
427,-110.21702434295439,114.93954333663638,23.642884828339326,-92.29770030199035
428,-115.43112342024342,116.27300126339019,23.203024771365406,-98.54794867885761
429,-119.65054023672954,115.82987837247407,22.28050765441676,-104.3504626445406
430,-122.75739235893408,113.48206298204411,20.850090489206277,-109.60814644488967
431,-124.66381796305359,109.14708926448529,18.897979803402958,-114.23604065022128
432,-125.31621126919595,102.79270505696364,16.42269394418139,-118.16359764103026
433,-124.69793497028921,94.43947635816993,13.43549770468352,-121.33616157061331
434,-122.8303085312177,84.16126839149638,9.960396937872417,-123.71557581648045
435,-119.77176874878808,72.08355611694972,6.03370282633339,-125.27990227776647
436,-115.61520646990874,58.37963271382518,1.7031948440686124,-126.02230066605031
437,-110.48359392460529,43.26489761012948,-2.97307265907704,-125.94917715034329
438,-104.52412337905136,26.989505369425313,-7.9282631602162255,-125.07776528558281
439,-97.90117238530107,9.82974159906008,-13.088484283125785,-123.43334374980427
440,-90.78848689493782,-7.921447829206914,-18.374677009225397,-121.04632145069957
441,-83.36102546450539,-25.964311389473927,-23.704595447275047,-117.94942893508721
442,-75.78693160009931,-44.00206108337999,-28.994806646096343,-114.17524481907472
443,-68.22009489992806,-61.750105786132046,-34.16264482460546,-109.75425785164363
444,-60.79372479262009,-78.94434528350212,-39.12806181711755,-104.71362102980932
445,-53.61529567381033,-95.34818817742324,-43.815324632758326,-99.07669713411157
446,-46.763133558950365,-110.75804204422194,-48.154520991043285,-92.86342924164028
447,-40.284808590956644,-125.00711920239827,-52.082843758209364,-86.091500286323
448,-34.19738235958739,-137.96749988031334,-55.545634872112934,-78.77817810815216
449,-28.4894420943207,-149.5504918948311,-58.49717837210336,-70.94268224532641
450,-23.12474333362218,-159.70541231231314,-60.9012404139762,-62.608861247882565
451,-18.047186062051885,-168.4169915572535,-62.731361664903304,-53.807938589665454
452,-13.186773033465164,-175.7016555698783,-63.97091414186702,-44.58107410483573
453,-8.466147644129597,-181.60297943071177,-64.61294037161024,-34.98149704017363
454,-3.807285097504574,-186.18662103148262,-64.65979763839182,-25.07599549236728
455,0.8620847091538983,-189.53504158986158,-64.12263417127146,-14.945592596124964
456,5.602712143021225,-191.742298387252,-63.020727542940676,-4.685298683605732
457,10.459053928462703,-192.90916185600182,-61.3807185986095,5.59710403207325
458,15.45574767308545,-193.13876262894806,-59.23577697392451,15.783217232970802
459,20.595502703949588,-192.53292254648053,-56.62473652629223,25.74702763961668
460,25.858479062441592,-191.18926638714564,-53.59124005509563,35.358598082988586
461,31.20313081620796,-189.1991542518548,-50.18293150000029,44.48824476516961
462,36.56840072987243,-186.64642095587288,-46.45072919000827,53.01096405151159
463,41.87707611553471,-183.60685940410707,-42.44820498691114,60.810856385729736
464,47.04005483347704,-180.1483460878198,-38.231081411235316,67.7852970234273
465,51.961228939816294,-176.33147577301884,-33.856843266681345,73.84862246465524
466,56.54267312896292,-172.2105549431605,-29.38444390717878,78.93513601820788
467,60.68982579145351,-167.83479501566737,-24.874071382514963,83.00128284055167
468,64.31637089621995,-163.24955097592087,-20.386928182022807,86.0269003407548
469,67.34856619948849,-158.49746295136163,-15.984971208290117,88.0155095002473
470,69.7288137829248,-153.61938079084044,-11.730556341555461,88.9936716599173
471,71.41832785574579,-148.65497867228285,-7.6859344372831195,89.0094890897721
472,72.39881702333552,-143.64300033325875,-3.9125529474491767,88.13037210037943
473,72.67315911906962,-138.62111107972262,-0.4701297862285394,86.44022783122351
474,72.26510229538738,-133.62536844407026,2.5845161622631436,84.03624460951562
475,71.21807376028322,-128.68935898282223,5.198870744471123,81.02545099059529
476,69.59321531994242,-123.84307821220887,7.326332782283124,77.52122124553897
477,67.46679166098569,-119.11165677572205,8.927963201789032,73.63988113157446
478,64.92713247850261,-114.51405228920247,9.974286847737002,69.49754158186751
479,62.071273695786765,-110.06183649655803,10.447036831101553,65.207256348304
480,59.001457301339485,-105.75820584175455,10.340716794585001,60.876565649349395
481,55.82163573328016,-101.59733483965887,9.663851663768197,56.605454483946346
482,52.6341072966705,-97.56417118266032,8.439803556918283,52.48472429841199
483,49.53638617976544,-93.63474496254639,6.707046539370274,48.59475228693283
484,46.618386655577915,-89.77702939353907,4.51882072443668,45.00459551088788
485,43.95997825363056,-85.95235188956553,1.9421207205369122,41.771387980151744
486,41.62894891599117,-82.11731460581537,-0.9439869018651541,38.93997791817709
487,39.67939722236731,-78.2261434309725,-4.050680275498146,36.54275857264955
488,38.15056297951908,-74.23335053916048,-7.282254107835285,34.59965752240975
489,37.06609734232617,-70.09656593018339,-10.539428439771818,33.118264220857014
490,36.43376854308754,-65.77937488816848,-13.722942013895175,32.094091150283155
491,36.245596107491885,-61.253987940006425,-16.737252183013123,31.5109782160045
492,36.47840382768964,-56.50357354781706,-19.494148357542088,31.341660845825807
493,37.09477857415566,-51.52409686883797,-21.916084005710363,31.548528361155515
494,38.04441736111888,-46.32553463276226,-23.939044424032353,32.08459966017549
495,39.26583875921468,-40.93237033539773,-25.51479366201857,32.894738090402356
496,40.688426609514416,-35.383317194607955,-26.61238236415028,33.91711690837285
497,42.234764166050375,-29.73026313063515,-27.21884549988172,35.08493189245675
498,43.82320530192187,-24.036479529015732,-27.33907051082777,36.32833960576302
499,45.370616837732165,-18.37418240297482,-26.994867492576585,37.57658010638562
500,46.79521339576494,-12.821573756958989,-26.22331927341465,38.76022339773656
501,48.019394731069234,-7.459524257077146,-25.07452753690166,39.8134615282741
502,48.97248671055662,-2.3680786694064957,-23.60889961165262,40.67635495944029
503,49.59328213472752,2.377023783411658,-21.89413858579875,41.29693407334443
504,49.83227768300813,6.707626251047965,-20.00210688756,41.6330556617655
505,49.65350918827727,10.566054557550308,-18.00573062498634,41.65392026852886
506,49.035899714174114,13.907494056696509,-15.976099037043507,41.34116924578856
507,47.9740530091864,16.70173060242896,-13.97989099645073,40.689499355006255
508,46.47844787364739,18.934183815645216,-12.077229881075313,39.70675638606361
509,44.57501531595297,20.606204606961523,-10.320031568240399,38.41349578820827
510,42.30410868020858,21.734652621199505,-8.750871128050445,36.84202589441529
511,39.718905741006296,22.350809817532113,-7.4023560071312255,35.03497618853583
512,-2.0310136333894278e-10,-3.25810644498937e-10,-2.9439288653776493e-10,-6.010772585072901e-11
513,-4.300800561830173e-09,-5.628503732847891e-09,-3.5949355527585897e-09,-1.2168225494722777e-09
514,-4.8476395087699753e-08,-6.395227580952096e-08,-4.132314000208715e-08,-1.450813791911109e-08
515,-3.6002255030036816e-07,-4.7349403189939255e-07,-2.995193036452079e-07,-1.131248646145496e-07
516,-1.994030307409843e-06,-2.6316946480636048e-06,-1.633625095040297e-06,-6.586816265775698e-07
517,-8.81957759162498e-06,-1.1734702731990794e-05,-7.149296682376449e-06,-3.062865621066811e-06
518,-3.255835986923587e-05,-4.3865752342645886e-05,-2.623538829887902e-05,-1.1888261520496631e-05
519,-0.00010354653230586627,-0.0001418363996162879,-8.332238200253117e-05,-3.9752507609545734e-05
520,-0.0002906130879710935,-0.0004061004553249238,-0.00023450399112136697,-0.00011728085716517574
521,-0.0007336216232273132,-0.0010485930376828879,-0.0005958093342338776,-0.00031106714178061253
522,-0.001691715474752576,-0.0024778305356430224,-0.0013870904513034945,-0.0007530361778672662
523,-0.0036093568834022803,-0.00542280852392541,-0.0029953379586106755,-0.001684610098996685
524,-0.007201079024887088,-0.011101113697454363,-0.0060607192245413655,-0.0035185916777770105
525,-0.013554542556462741,-0.021433585542416513,-0.011587907365606498,-0.006920704748008501
526,-0.024249883455837236,-0.039304091344227854,-0.02108405788113449,-0.012911322531064764
527,-0.04149141862894891,-0.06885881851573948,-0.03672295961897138,-0.022986162192252257
528,-0.06824561985501906,-0.11583490544943878,-0.06153211823405453,-0.03925269302067364
529,-0.10837700657267738,-0.18790321084620823,-0.09959591586681597,-0.06457673368816012
530,-0.16677126423545618,-0.29500443009346444,-0.15626383921217377,-0.10273118573086341
531,-0.24943247962232504,-0.44965179188773635,-0.23834856243284497,-0.15853610415663053
532,-0.36353917712662953,-0.6671677091125829,-0.35429508110178676,-0.2379765145925092
533,-0.517442421898692,-0.9658168838328028,-0.5142993881837398,-0.34828190309094675
534,-0.7205893359963981,-1.3667957081383393,-0.7303536928628969,-0.49794962763227657
535,-0.9833573693007854,-1.8940384560770265,-1.0161948964074945,-0.6966941275489705
536,-1.3167886300143739,-2.5738056584710565,-1.387134300831683,-0.9553051525465013
537,-1.7322192663731673,-3.4340294227465336,-1.8597495590663848,-1.2854015086262978
538,-2.2408059977314605,-4.5034040730376885,-2.4514252187285748,-1.6990720307049316
539,-2.8529599992450696,-5.810227438004754,-3.179735994921744,-2.2084023996890894
540,-3.5777068573602566,-7.381017293444555,-4.061677178264512,-2.8248946111421076
541,-4.421999507977387,-9.238947489743603,-5.11275879612954,-3.5587948413851525
542,-5.3900182592786425,-11.402167775588287,-6.345993445601981,-4.418354589379312
543,-6.482497713251032,-13.882088907821556,-7.77082101443278,-5.409058717203285
544,-7.696124203567568,-16.681728866170644,-9.39202541218601,-6.532861678364966
545,-9.023048769222502,-19.794225596968445,-11.208707823170588,-7.7874790144785715
546,-10.450559101001442,-23.201625382647368,-13.213386659426806,-9.165784290047018
547,-11.96094900382705,-26.874052745883965,-15.391295706302245,-10.655361416166233
548,-13.531615777827882,-30.769357021780515,-17.719948401692868,-12.238258519485965
549,-15.135404961472643,-34.833312261746855,-20.16902788198335,-13.890982226632872
550,-16.74120856512917,-39.00042127680261,-22.700649443425412,-15.584760703613696
551,-18.31480774176487,-43.195342494619425,-25.270024880488794,-17.28609036004634
552,-19.81993450401216,-47.33492154085603,-27.826537128944643,-18.957565264549007
553,-21.21951077865754,-51.330770425099836,-30.31520955676609,-20.55897078699191
554,-22.477008371610825,-55.092298679476414,-32.67852827134128,-22.04860492416247
555,-23.557861849017648,-58.53006571330986,-34.85854962611361,-23.384773619089035
556,-24.43085914835822,-61.55929498902376,-36.79920102233904,-24.527391711473914
557,-25.069432649811894,-64.10337089224295,-38.44866331354407,-25.439610382943524
558,-25.452776829110668,-66.09713041211639,-39.761709788044314,-26.08938621849979
559,-25.566727390676682,-67.48976505109198,-40.701871083962764,-26.450906945325183
560,-25.404350349824245,-68.24716402948472,-41.24329825950011,-26.50579464105016
561,-24.966206727967123,-68.35355697848277,-41.37220744312814,-26.244018260260912
562,-24.260277935179765,-67.81235132167222,-41.08780861471361,-25.664462840761523
563,-23.301557187994998,-66.64610397319402,-40.402647020830976,-24.7751216096365
564,-22.11133231433974,-64.89561604289653,-39.342317246360885,-23.592898244899718
565,-20.716203947754728,-62.618189777552224,-37.94454520381606,-22.143028526965363
566,-19.14689915894826,-59.88513576261858,-36.25767013293299,-20.45815220593709
567,-17.43695271881606,-56.77866229923475,-34.33859477305406,-18.577085691144756
568,-15.621335315514443,-53.388314808163905,-32.25030454863978,-16.54336271148544
569,-13.735109509589451,-49.8071586152724,-30.0590836033671,-14.40362215869458
570,-11.812189777229941,-46.12791158532443,-27.831574648609035,-12.205928961833862
571,-9.884272885058381,-42.439232876244255,-25.631839567724512,-9.998114534135976
572,-7.979989744423857,-38.82236054302263,-23.518577773200025,-7.826218052720131
573,-6.1243111374601495,-35.3482649961538,-21.542649759821355,-5.7330991279219665
574,-4.3382191075114065,-32.075449386997434,-19.745034868154747,-3.7572773542069653
575,-2.6386353557127853,-29.04848473201198,-18.1553264844313,-1.932036263306702
576,-1.0385794234409942,-26.297320216291553,-16.79083637665293,-0.28480993841223456
577,0.4524858935185536,-23.837361117029275,-15.656344618529577,1.1631484161934589
578,1.8281755204069174,-21.670261460918052,-14.74449463651132,2.3968338847360737
579,3.0846291621646302,-19.785338782991637,-14.036796411553267,3.4073254933684964
580,4.219944866036791,-18.161486651017302,-13.5051670513954,4.191432951119859
581,5.2336551313441655,-16.76943862863927,-13.11390880218737,4.751203681488119
582,6.126292824154927,-15.57422614293212,-12.8220021217122,5.0933413461084935
583,6.89908192680708,-14.53767240998979,-12.585577041736187,5.2285848818000575
584,7.553773475450829,-13.6207746131078,-12.360420700321715,5.171091163239058
585,8.092631038329905,-12.78584550233631,-12.104382587265441,4.937855522565137
586,8.51855410175965,-11.998311661924442,-11.779551152048581,4.54819350467478
587,8.835313228743228,-11.228096522818065,-11.354094452812987,4.023295576156075
588,9.047859164137517,-10.450549389157521,-10.803681723290213,3.385855179115581
589,9.162660074585183,-9.646914800016766,-10.112429992254926,2.6597605184090822
590,9.188017375220996,-8.804367169514594,-9.273348318335222,1.8698325967936926
591,9.134311384543041,-7.91566189528869,-8.28828029931622,1.041586859948728
592,9.01413344414037,-6.978474420359696,-7.167371971707929,0.20099376626994278
593,8.842270762778815,-5.994512200158794,-5.928116195413593,-0.6257852883601643
594,8.635523157693466,-4.968490747324624,-4.594045102670999,-1.4127062745225152
595,8.412345618759877,-3.9070642278627563,-3.193158444471426,-2.134208420984394
596,8.192325620774298,-2.8177941480531112,-1.7561867653068322,-2.765643385893439
597,7.995517975230924,-1.7082277186178831,-0.31479382458803595,-3.2837651265661316
598,7.8416717389909865,-0.5851418187869716,1.1001778424705855,-3.667269783625543
599,7.749392684405927,0.546009392367841,2.4603206393819597,-3.897367645649191
600,7.735290704763818,1.6814238310536218,3.741049084568765,-3.9583634429973995
601,7.813164070816645,2.819056583442779,4.922690946247955,-3.838217227997684
602,7.993271517200489,3.958515964485242,5.991232681594856,-3.5290561512643372
603,8.281738730618347,5.100779655710382,6.938691486003911,-3.027607575841762
604,8.680138117584322,6.247770604961989,7.7631089074793715,-2.3355261231694224
605,9.185270260877749,7.401839263742823,8.468183042413049,-1.4595912388231214
606,9.789163040579963,8.565201721969736,9.06257655702182,-0.411757406177852
607,10.479291064228338,9.739382586772257,9.558955350381499,0.7909542424687485
608,11.239004891913831,10.92470738204452,9.972826655539189,2.1267270013033768
609,12.048147433193504,12.119882529741513,10.321255248688777,3.569379243395808
610,12.883824516493409,13.321692298243663,10.621541606580712,5.0889447131227525
611,13.721288543102654,14.52483227042347,10.889946198644125,6.65238632864094
612,14.5348888720948,15.721888598622485,11.140539457499367,8.224422014604881
613,15.299040438790483,16.903462179478595,11.384247687427964,9.768436733952804
614,15.989163032882864,18.05842752277931,11.628151592862881,11.247451662146657
615,16.58254720664576,19.174307923414368,11.87507713368499,12.625119390067416
616,17.059108438273206,20.237742056371047,12.123498947588933,13.866713153883829
617,17.401998519724415,21.235012517102458,12.36775588344619,14.940078324656156
618,17.598051867300722,22.152604350604772,12.598557531652112,15.816515709353721
619,17.638054123958366,22.977761179561426,12.803741293922899,16.471568546310966
620,17.51683042059855,23.699008104226778,12.969222979649116,16.885688345319686
621,17.23316036371438,24.30661380146569,13.080071348261697,17.044758820143823
622,16.789535742742295,24.792968992880077,13.121629700437317,16.940462012993336
623,16.191784799438945,25.152864300517862,13.080606136646649,16.570476223893255
624,15.448593297964264,25.383657198395497,12.946058686924523,15.938501417862883
625,14.570957132408656,25.48532489076299,12.71021145141041,15.054114180890794
626,13.571603401124015,25.46040708724305,12.36905213484178,13.93246074232001
627,12.464416682705734,25.31384935483629,11.92267827702631,12.593802731914009
628,11.263904844348192,25.05276344176928,11.375377691358624,11.062935821314268
629,9.984734403771677,24.686125296850616,10.73544680737006,9.36850587616122
630,8.641359470652509,24.224434034199433,10.014767816746478,7.542250418796598
631,7.24776088851228,23.679355751757374,9.228180959291873,5.6181948779869195
632,5.817303798097488,23.063374899427334,8.392700946099126,3.6318331668552597
633,4.362713041952901,22.389473114560282,7.526635547384518,1.6193205818643475
634,2.896157190403086,21.670851338215805,6.648668804092864,-0.38329606978407127
635,1.4294239201142382,20.92070595104943,5.7769707887307735,-2.3407906312724274
636,-0.025837574770712926,20.15206392047913,4.92839048528189,-4.219397010220655
637,-1.4578370261094824,19.37767589195954,4.117778961368673,-5.987366852408657
638,-2.854359817488232,18.609960234030545,3.357477756791122,-7.615442634783777
639,-4.2025145896898355,17.86098578217157,2.656993614812391,-9.077249125187999
640,-2.8405638638567885e-09,-1.934982496494587e-10,-9.834913070105599e-10,-1.436257201327896e-10
641,-2.5326163186492455e-09,-1.867315754740645e-09,-6.32484636579529e-10,-1.3003462637692555e-09
642,-5.0519591202407354e-08,-2.2709031649588854e-08,-2.284800724778674e-08,-1.605349024364707e-08
643,-3.8179256438498427e-07,-1.672386801219369e-07,-1.5634412139562598e-07,-1.1704870502961466e-07
644,-2.012371544721518e-06,-9.284710672763484e-07,-8.442711713523724e-07,-6.430533549559718e-07
645,-8.587843262017088e-06,-4.135060742024897e-06,-3.661858484198814e-06,-2.8292116872646073e-06
646,-3.053622226780694e-05,-1.5434346988308175e-05,-1.3292159178285144e-05,-1.0414836440305941e-05
647,-9.362372096965704e-05,-4.982909598834061e-05,-4.177546816938937e-05,-3.3118443082254816e-05
648,-0.0002534511278509081,-0.00014244247511730794,-0.00011632992806170568,-9.316992785660534e-05
649,-0.0006177639648516057,-0.00036722427547572115,-0.00029244670836307525,-0.00023630054310721079
650,-0.0013771774548124532,-0.0008664612274782697,-0.0006736971110202849,-0.0005485892266613024
651,-0.0028450306927516383,-0.0018937564469292552,-0.0014398032615259594,-0.001180459527462471
652,-0.005506060497138992,-0.0038725294778764736,-0.0028841455778124856,-0.0023788460906782704
653,-0.010073956863350901,-0.0074712823560138955,-0.0054620902383449785,-0.0045282063603211435
654,-0.01755666129757581,-0.01369583916845248,-0.009851230894432302,-0.008200533023152434
655,-0.0293279749831587,-0.02399760346200677,-0.017024635054116877,-0.014213928751477178
656,-0.04720252825310314,-0.04039538892769592,-0.02833719304336408,-0.02369855364079822
657,-0.07351003623696069,-0.06560659147570051,-0.045624051223117176,-0.038167932483046244
658,-0.11116386828829235,-0.10318128221379998,-0.07130814714163819,-0.05959257938598446
659,-0.16371717468663144,-0.15763039777641694,-0.10851191418527384,-0.09047167325009503
660,-0.2353994443977845,-0.23453682814660232,-0.16116657869475207,-0.13389714455524385
661,-0.3311251246076319,-0.3406361354604576,-0.2341109965861791,-0.19360315210894205
662,-0.45646674802547665,-0.4838523256249226,-0.333171603567554,-0.2739928796894578
663,-0.61758524520849,-0.6732737421167909,-0.46521473033760896,-0.38013403330329
664,-0.8211123191942137,-0.9190551181463941,-0.6381630007543571,-0.5177146735907877
665,-1.073981301144598,-1.2322341346066374,-0.8609674477199198,-0.6929521025090841
666,-1.3832060648288302,-1.6244546175063348,-1.1435271680092778,-0.9124495528597524
667,-1.7556108281183367,-2.107593528941769,-1.4965479774117842,-1.1829981749651586
668,-2.1975169052358026,-2.693294992549626,-1.931332229613122,-1.5113251202358478
669,-2.7143964153117164,-3.392421320977701,-2.4594934200608947,-1.903792014108622
670,-3.3105052248299365,-4.214437975308609,-3.0925928606690207,-2.3660516975885857
671,-3.9885106050687114,-5.166756201820283,-3.8417004746358465,-2.9026746944538515
672,-4.749130610607903,-6.254063218108972,-4.716887788745066,-3.5167604092307987
673,-5.590804523019387,-7.47767490022892,-5.726667011156368,-4.209551471408438
674,-6.509413859651472,-8.834949360156672,-6.877394957931514,-4.980072511005165
675,-7.4980738162703044,-10.31880126726838,-8.172664577191107,-5.824816646289813
676,-8.547012825998854,-11.917355779103127,-9.61270919758861,-6.737503577426282
677,-9.643555926401465,-13.613777387624985,-11.193846778047952,-7.708932200274885
678,-10.772223125030623,-15.386302668022552,-12.907992780336972,-8.726947815377088
679,-11.914949486471372,-17.208497075492545,-14.74227197453967,-9.776539407719309
680,-13.051427158494016,-19.04974483192335,-16.67876022094673,-10.84007621957774
681,-14.15956297914715,-20.87596824849529,-18.694387369187904,-11.897685433576534
682,-15.21603913703014,-22.65055935474238,-20.761030020200735,-12.927764677208737
683,-16.19695800231926,-24.335493352754174,-22.84581836942174,-13.907614864897837
684,-17.078548128615857,-25.892581253026965,-24.911673422207702,-14.814171121989412
685,-17.83790412872258,-27.284808856905,-26.918080749807288,-15.624802625915676
686,-18.45373151780671,-28.47770188876026,-28.822094443886975,-16.31814668515966
687,-18.907066224039625,-29.440652982616626,-30.579551541383182,-16.874938565135263
688,-19.181939921953344,-30.14814583413175,-32.14646394297507,-17.278796867236526
689,-19.265963746820333,-30.58081511224323,-33.48054228465777,-17.516924764631813
690,-19.150806784795638,-30.72628766036741,-34.54279579727929,-17.580690282325374
691,-18.832549253117893,-30.579760632617056,-35.2991432313246,-17.466053970666014
692,-18.311896204236188,-30.14428507948293,-35.72196361868939,-17.173819699042216
693,-17.59424317395152,-29.43073829351504,-35.79151133182118,-16.70969341226624
694,-16.689592281497493,-28.457484185623418,-35.49711920997353,-16.084145023287412
695,-15.61232392210173,-27.24973705615978,-34.83811620936614,-15.312079373148084
696,-14.380835177444695,-25.838659352276277,-33.824393743645025,-14.412332633230053
697,-13.017062241962265,-24.26023744629776,-32.476566837559204,-13.407020007113198
698,-11.545908041147683,-22.553990193716604,-30.825693226880663,-12.320768410559207
699,-9.99459997286236,-20.761572498453877,-28.912534005724396,-11.1798735308927
700,-8.392003387035178,-18.92533980691787,-26.786363223189483,-10.011423804532534
701,-6.767916750161231,-17.08693935645467,-24.5033590922831,-8.842434316577078
702,-5.1523721055620015,-15.285990154298235,-22.124634591620314,-7.699031353064518
703,-3.574962526044854,-13.558906591089112,-19.71398870746896,-6.605723637012561
704,-2.064214314323099,-11.937910798563674,-17.33547866586144,-5.5847894067174915
705,-0.6470184818345076,-10.450267195615332,-15.050927691204176,-4.655800024415553
706,0.6518684800667635,-9.117759813367687,-12.917490168542145,-3.835291262876859
707,1.8102485544447353,-7.956419775352162,-10.985397236342665,-3.1365835689501274
708,2.808828402481249,-6.976497440172851,-9.295999802736002,-2.5697431662922425
709,3.631489377252151,-6.182661798687937,-7.880213933900362,-2.14166745706746
710,4.265485295671955,-5.574399445190639,-6.757454708351088,-1.856271458902252
711,4.701575038445291,-5.1465772232034315,-5.935120338903933,-1.7147473326833422
712,4.934097852040567,-4.890127005377358,-5.408658627285183,-1.7158668267358965
713,4.961000120953813,-4.792808115277896,-5.162214710511723,-1.8562966673296937
714,4.783820765754727,-4.840002747336214,-5.16982476755105,-2.1308994804001964
715,4.407641209526135,-5.015502035859262,-5.397087196018487,-2.5329972580781543
716,3.8410031449470186,-5.302244878082779,-5.803214284261519,-3.054580340440747
717,3.0957948071002512,-5.682977642992824,-6.343344831682944,-3.6864518401657755
718,2.1871041125523516,-6.140810128845953,-6.970983916301852,-4.418305040067941
719,1.1330340530810927,-6.659651076647057,-7.640429679686345,-5.238738986253088
720,-0.04552534274773194,-7.224514808753309,-8.309049648211305,-6.135224717181395
721,-1.3251756848270715,-7.821698782949305,-8.939279414612411,-7.094040764988378
722,-2.680345957061804,-8.438839519250182,-9.500234896110136,-8.100201129743711
723,-4.083691318723268,-9.064861168304013,-9.968853955970301,-9.137401525263678
724,-5.5065581510621024,-9.689836465671258,-10.330513403614475,-10.18800993623514
725,-6.919515743364774,-10.304783797038558,-10.579100909562026,-11.233125417082224
726,-8.292950124191943,-10.90142631341471,-10.716556094109569,-12.25272467224482
727,-9.59771043801437,-11.47193956437854,-10.751929052718944,-13.22590979654215
728,-10.805793320339077,-12.008712923791219,-10.70003472569918,-14.13126310027042
729,-11.89104526767098,-12.504147465228893,-10.579806617233183,-14.947306816989263
730,-12.829859464688537,-12.950509048419214,-10.412470545088674,-15.653057192030728
731,-13.601839623918279,-13.339850623985676,-10.219667963468888,-16.22865441233757
732,-14.19040217568717,-13.664012368328194,-10.021657268885741,-16.656042642601232
733,-14.583287344629554,-13.914702578218272,-9.835711670297252,-16.91966849687382
734,-14.772952090725784,-14.083656545541052,-9.674813898514154,-17.007162149722028
735,-14.756820783161286,-14.16286511888966,-9.54672413479899,-16.90996320546637
736,-14.537375333387944,-14.144859733514695,-9.453469374610547,-16.62385368196094
737,-14.122072653603233,-14.02303656761199,-9.391272631703853,-16.14936298724572
738,-13.523085837895849,-13.791999585236558,-9.350910691692942,-15.492014598491982
739,-12.756874524401015,-13.447900660044063,-9.318460765680957,-14.662390961975577
740,-11.843598956491812,-12.988754926911268,-9.276371747505863,-13.676001636013426
741,-10.806401614357862,-12.414710768180983,-9.20477538444633,-12.552949318699902
742,-9.670587129574168,-11.728256300527764,-9.082938921357846,-11.317398699749246
743,-8.462737654907512,-10.934347489460308,-8.890753743497463,-9.996863450206234
744,-7.209803890599291,-10.040446935874906,-8.61015580364769,-8.621336534685737
745,-5.938213853136336,-9.056466636005357,-8.22638207751338,-7.222297823443288
746,-4.673039335074535,-7.994612560816036,-7.7289831675353105,-5.831640035809182
747,-3.4372566687096384,-6.869133535886113,-7.112533023306657,-4.480558985300443
748,-2.2511316138370487,-5.695981467897106,-6.377001439695658,-3.1984565018300444
749,-1.1317510573839058,-4.492394277302268,-5.527780766119394,-2.011904225248623
750,-0.09271499992096208,-3.2764165921365387,-4.575383009781214,-0.943713640394798
751,0.8560069808754242,-2.0663761934632308,-3.534845750382012,-0.012152611039118223
752,1.708059456771671,-0.88033609937235,-2.4249026909219302,0.7696583946152302
753,2.460538543032572,0.26445688572087467,-1.266987230520772,1.3941456088536233
754,3.113702522193244,1.3521063765381833,-0.08414368183338337,1.8594614142540389
755,3.670581001409348,2.368563349515949,1.100078306865156,2.1694384973809275
756,4.136510594520669,3.3020672285074735,2.262675537973796,2.3333233945417846
757,4.518627315664234,4.143514345002995,3.382127921086061,2.365303995936772
758,4.82534473038648,4.8867392694050675,4.439172160657297,2.2838545517664914
759,5.065845034518354,5.528697100725437,5.41738075423495,2.1109293588891522
760,5.249605553488163,6.069537906121785,6.303532067405611,1.8710421327036535
761,5.38597824341416,6.512568086209234,7.087775011077214,1.590272011337045
762,5.483834158528909,6.864097608319752,7.7636074674474145,1.295239045837023
763,5.551279099818183,7.133176598085887,8.32770055420357,1.0120919817601692
764,5.595441857046512,7.331229475182721,8.779609129480194,0.7655490822777737
765,5.622332198987303,7.4715993350746555,9.121412640929812,0.57802887164631
766,5.636762821041658,7.569019305145872,9.357329343932049,0.46890223497190464
767,5.642327998454196,7.639030914929612,9.4933416565583,0.45389066681215384
768,-2.92803901539809e-10,-8.376886905724462e-11,-1.6262579674431243e-10,-1.5523828683114925e-10
769,-4.524806002194057e-09,-1.354106159055937e-09,-2.9679105605769344e-09,-1.991339502460725e-09
770,-4.8198262873380393e-08,-1.5537310829505524e-08,-3.337926714708614e-08,-2.2931079418889424e-08
771,-3.38647874176507e-07,-1.1528027062975958e-07,-2.4558080867509174e-07,-1.6467171820087624e-07
772,-1.76924391208869e-06,-6.422637367494942e-07,-1.3551179794247759e-06,-8.888002018428209e-07
773,-7.379859972512021e-06,-2.8702327016464183e-06,-5.9964701677764e-06,-3.845244782859802e-06
774,-2.5680927633454363e-05,-1.0750970404477455e-05,-2.2241072708141858e-05,-1.3936740001560812e-05
775,-7.698589650015419e-05,-3.482565324212297e-05,-7.136111650259325e-05,-4.368649589796605e-05
776,-0.0002037505666075425,-9.987190297859605e-05,-0.0002028233384745139,-0.0001212936068162059
777,-0.00048547300261433273,-0.0002582416340334882,-0.0005202232673665031,-0.0003039240333786096
778,-0.0010581976824114386,-0.000610964691119643,-0.0012221892052393481,-0.0006976676960705742
779,-0.002138364247871334,-0.0013384970348437266,-0.0026620798670548285,-0.0014852718313135688
780,-0.004050646421043882,-0.0027424721362593056,-0.005429437855155349,-0.002962199615679976
781,-0.0072593355768577035,-0.005299080621452043,-0.010454611071810033,-0.005580884522056283
782,-0.012402431194368527,-0.00972383160353371,-0.019135729297950637,-0.010002227737828545
783,-0.020326965110320696,-0.017046521661271977,-0.03348454096772674,-0.01715254006001534
784,-0.03212339898430456,-0.028694216127210723,-0.05628479585549926,-0.02828321964040436
785,-0.0491563076387104,-0.04657889177482297,-0.09125417837871301,-0.0450295029840675
786,-0.073088086897403,-0.07318502622913974,-0.14319839122102876,-0.06946358911649964
787,-0.10589200198784124,-0.11165089081290723,-0.2181437802099196,-0.1041363166936267
788,-0.14985075488390331,-0.16583576198446254,-0.3234328550580381,-0.15210058678667562
789,-0.20753699225918473,-0.24036396364426846,-0.46776529617206286,-0.21690904194478705
790,-0.28177295553329607,-0.3406359151506877,-0.6611659849487996,-0.30257846217142265
791,-0.3755675371466799,-0.472796437028291,-0.9148618691364582,-0.41351402663544523
792,-0.4920302687138025,-0.6436516579407053,-1.2410518059680413,-0.5543881868851515
793,-0.6342630890362324,-0.860527992199119,-1.6525583601310816,-0.7299713337354481
794,-0.8052322640312781,-1.1310697505788079,-2.1623579000435553,-0.9449146745657001
795,-1.0076244488052069,-1.4629757791014069,-2.782994636954993,-1.2034894961804674
796,-1.2436923803720568,-1.8636798299177666,-3.5258945331315656,-1.5092909604119946
797,-1.5150969151270641,-2.339983834172849,-4.400605168451776,-1.8649185033422595
798,-1.822753035824817,-2.8976575781595133,-5.413996784028935,-2.2716485326777427
799,-2.1666883533085906,-3.541022234189269,-6.569467175324206,-2.729118405251495
800,-2.545923502129798,-4.272538516185384,-7.8661984144885215,-3.2350433991844874
801,-2.958384560335944,-5.092422708138053,-9.298516230139066,-3.7849903773585565
802,-3.40085773199637,-5.99831516470662,-10.855402926687491,-4.3722325942105895
803,-3.8689958611261206,-6.985025844763791,-12.52021172682884,-4.987709264245387
804,-4.3573847830885155,-8.04437972794964,-14.270624088774003,-5.62011065169522
805,-4.859675279054442,-9.165181466500666,-16.078881759938845,-6.25610446013362
806,-5.368783476236715,-10.333313375919044,-17.912312100556676,-6.880712212816449
807,-5.87715913769265,-11.531974182645454,-19.734148977740308,-7.477835582181994
808,-6.377117508852825,-12.742058282100126,-21.504633149703256,-8.030922815221507
809,-6.861226583947839,-13.94266720316537,-23.182356907116265,-8.523755271177723
810,-7.322737866950372,-15.111737096874961,-24.72579947224241,-8.941324277781169
811,-7.7560449138714,-16.226758869886137,-26.094983935712794,-9.270759488433942
812,-8.157150063679977,-17.265561522688902,-27.253174768983413,-9.5022621625155
813,-8.524115926296925,-18.207124673237175,-28.168528133371762,-9.629990682655283
814,-8.857474973619167,-19.032383479449024,-28.815605820009424,-9.65284183241601
815,-9.160568453237724,-19.724988420891144,-29.176667665839734,-9.575070484902293
816,-9.439785307028412,-20.271983797251874,-29.24266635867691,-9.40669309648635
817,-9.704672908614809,-20.664372285679615,-29.013882075655157,-9.163627095163553
818,-9.967894479996216,-20.89753828381331,-28.500151808433653,-8.867529058439576
819,-10.245013088246077,-20.971509640681948,-27.72066882004826,-8.545309088893024
820,-10.554089319292833,-20.891045237259483,-26.70335063640718,-8.228316316874107
821,-10.915088726161562,-20.665544116229825,-25.483798116653325,-7.951209812615624
822,-11.349105525962777,-20.308779919254746,-24.103891919861248,-7.750549048307473
823,-11.877420199766902,-19.83847183596177,-22.61009425656436,-7.663157135578351
824,-12.520420254626197,-19.275709779075896,-21.051541275796595,-7.72432716810448
825,-13.296425066292931,-18.64425690638219,-19.478023271041568,-7.9659562205554675
826,-14.220466641686984,-17.96975675894163,-17.93795518320495,-8.414701925511464
827,-15.303087374815364,-17.278875109412372,-16.476438608791604,-9.090262284294065
828,-16.549222210933316,-16.59840804797169,-15.133509305959716,-10.003879611261242
829,-17.957235319513668,-15.954387933651551,-13.942652113970384,-11.157163770710214
830,-19.518179767656544,-15.371217703930013,-12.92964937292282,-12.541317831768843
831,-21.215342578125178,-14.870861895012316,-12.111810419546254,-14.13683122628191
832,-23.024126771664946,-14.472119816740891,-11.497609423796208,-15.913682102443653
833,-24.912306942149335,-14.190002953053533,-11.086737582959769,-17.832063188696157
834,-26.840676288275223,-14.03523504293505,-10.87055438221696,-19.843615836113752
835,-28.76408206175793,-14.013889625822438,-10.832902234557361,-21.893127102347222
836,-30.632824201671404,-14.127176130517743,-10.951230466607495,-23.92061684621144
837,-32.39436969816705,-14.37138179988246,-11.197959494475354,-25.86371763866582
838,-33.99531416144999,-14.737972699656877,-11.542005331158029,-27.660231435168868
839,-35.383503535459965,-15.213852630498813,-11.950379161468296,-29.25073446588663
840,-36.51021449063894,-15.781773858541696,-12.389777037010631,-30.581096540147666
841,-37.33228297428481,-16.42088828583877,-12.828080468582987,-31.604783268708573
842,-37.81406768706776,-17.1074222120586,-13.23569892567835,-32.28481970769178
843,-37.92913928801656,-17.815452501876386,-13.586698613605705,-32.59531122053923
844,-37.661597193449495,-18.51775714798891,-13.859676969961273,-32.52244128003184
845,-37.00693359954547,-19.186709225203444,-14.038357836388478,-32.064895195321526
846,-35.972388057581256,-19.795180379238325,-14.111897336672582,-31.233691658779204
847,-34.57676389100918,-20.317418490116555,-14.07490465785931,-30.0514383068141
848,-32.84970802864324,-20.729864206937386,-13.927194969927438,-28.551060731973077
849,-30.83048631683357,-21.011872807773265,-13.673303533136767,-26.774084223651947
850,-28.56631517580007,-21.146311451260026,-13.321800311471158,-24.76857184976395
851,-26.110335870399314,-21.120007382490087,-12.884452639454539,-22.586839852595357
852,-23.519337964402347,-20.924029966082568,-12.375289013911292,-20.283080672032074
853,-20.85135249077019,-20.553798223013338,-11.809619423499466,-17.911024946908537
854,-18.163242109248547,-20.009015343182696,-11.203066553157196,-15.521766765880479
855,-15.508414922951626,-19.293441695556645,-10.570657909901096,-13.161862142869818
856,-12.934780744663144,-18.414527311003333,-9.926021919424429,-10.871790347744657
857,-10.483053904439249,-17.382932815412836,-9.280722216985152,-8.684842899820534
858,-8.185485719596175,-16.211973586612498,-8.643754686509416,-6.626477269359999
859,-6.065083769617664,-14.917025033703023,-8.021222241739832,-4.71414331965497
860,-4.135345782925612,-13.5149271406912,-7.416193514736093,-2.9575619340359895
861,-2.400505367675365,-12.023423891240409,-6.828743716209583,-1.3594087725197372
862,-0.8562570545595387,-10.46066816019282,-6.256168870278207,0.08366659712912886
863,0.5090989898159743,-8.844815550489974,-5.693358158609995,1.379773433837773
864,1.713174896596485,-7.193721937649183,-5.133303149402063,2.54036267880801
865,2.7777749174308557,-5.524749741603471,-4.56771726917179,3.578762122164084
866,3.7270465500180214,-3.854677849338637,-3.9877342453727507,4.508762805189795
867,4.585615687385245,-2.199700432082868,-3.3846506717583837,5.3433458565272876
868,5.3768152123939235,-0.5754915083754369,-2.7506756642828805,6.093623943320363
869,6.12110726449695,1.0026941887034664,-2.079649987026126,6.7680528480355155
870,6.834784874676889,2.5199169485600383,-1.367698125853735,7.371947891418579
871,7.529019703484355,3.9614775535796283,-0.6137793679322858,7.907318508789005
872,8.209300297677242,5.312902469103184,0.17989231426002542,8.373013508724872
873,8.875281146341058,6.560012539801309,1.007585261340332,8.765150441506563
874,9.521038410268677,7.689090320306821,1.859964533950123,9.077786020100307
875,10.135704845462987,8.687150911512676,2.724198346179572,9.303771277937221
876,10.704435408552598,9.542310279774556,3.5842641230497616,9.435725702218537
877,11.209637326114212,10.244234455106973,4.42145336641393,9.467059240598642
878,11.632385102643632,10.784643626203275,5.215064648251037,9.39297013030414
879,11.953932529978465,11.157837668048627,5.943263154183828,9.211349848994361
880,12.15723042730364,11.36120461061143,6.584074120542174,8.923533905632619
881,12.22836021464817,11.39567131414902,7.116467354083728,8.534848012506316
882,12.157799292196808,11.266056375789656,7.521481899660962,8.054912672075114
883,11.941444205903515,10.981289067215782,7.783334517835587,7.497684403706771
884,11.581331442039046,10.554464778085006,7.89045320296026,6.881227722912609
885,11.086012575562638,10.002716625261709,7.836377361112529,6.22722758070581
886,10.470559443541664,9.346893987988606,7.620469382756893,5.560266297652109
887,9.756194883664316,8.611050890452736,7.248388273584293,4.906901484571188
888,8.96956441969583,7.821759408659471,6.732285073963861,4.294591563375419
889,8.141683250451802,7.007274677958233,6.0906921280313,3.7505231805185244
890,7.306610033264364,6.196587785944862,5.348093591281572,3.300399846746298
891,6.499913423895479,5.41841026174841,4.534182024974999,2.9672534646767246
892,5.757008455649496,4.700138624981686,3.6828243200732893,2.7703397861725008
893,5.111447227079913,4.066849326457422,2.830778138132862,2.7241752058424717
894,4.5932517758162374,3.5403733290564015,2.0162162296483546,2.837765653407915
895,4.227376178207314,3.1384956077068713,1.2771291943138063,3.114068928597189
896,-2.7873175175210757e-10,-9.1626864033906e-11,-2.2197080993570067e-11,-1.5568643593694195e-10
897,-5.902832213242147e-09,-1.9275399208753186e-09,-2.8513660387733246e-10,-3.3425934276173355e-09
898,-6.290997250235889e-08,-2.1701076483588108e-08,-3.839359499580579e-09,-3.675743972954406e-08
899,-4.4309247686634987e-07,-1.6131677703165434e-07,-3.209532048042162e-08,-2.669815480028035e-07
900,-2.330440768455478e-06,-8.985681103722306e-07,-1.9977463927077855e-07,-1.4508933666957516e-06
901,-9.802702493651141e-06,-4.012552844588599e-06,-9.889689311299847e-07,-6.31376421076583e-06
902,-3.449102098724457e-05,-1.5011688814619406e-05,-4.077665628762855e-06,-2.2999037330161428e-05
903,-0.00010484396364212024,-4.8548475402015846e-05,-1.4464020502848863e-05,-7.238485388378478e-05
904,-0.00028219751385974174,-0.0001389553221930757,-4.522188717291553e-05,-0.00020159718388909262
905,-0.0006858064820577274,-0.00035852075611440473,-0.00012698163660034942,-0.0005062540184491797
906,-0.0015287405478289578,-0.0008462592036925483,-0.00032502258480765093,-0.0011637416192891406
907,-0.0031662134399663344,-0.0018496389982466934,-0.0007674767015618229,-0.00247920381263693
908,-0.0061574368648483315,-0.0037810625598920984,-0.001688322383703708,-0.004945045392641167
909,-0.011341310341314565,-0.00728996841591954,-0.0034884221513270973,-0.009313748357468534
910,-0.019925092615900707,-0.01335035028999514,-0.006816785677813952,-0.016682733174386177
911,-0.03358375039733515,-0.023362296422613116,-0.012672656822151119,-0.02858884316925377
912,-0.05456606634426182,-0.03926476731308261,-0.022527126522617732,-0.04710867661908141
913,-0.08580182112808572,-0.06365515730840327,-0.03846093808392418,-0.07495933759297771
914,-0.13100240605688754,-0.09990918648187426,-0.06331299413938,-0.11559224231297575
915,-0.19474520831168105,-0.1522924609634789,-0.10083170103372795,-0.17327061992699885
916,-0.282530427563234,-0.22605288798217482,-0.1558185678932653,-0.2531196598447048
917,-0.40079804452968026,-0.3274813863996153,-0.23425046149297055,-0.3611372463909906
918,-0.5568926696448517,-0.46392734481222925,-0.3433639302878506,-0.5041531384817918
919,-0.7589649071703897,-0.6437553093140561,-0.49168265442980974,-0.6897254033290656
920,-1.0157996397790487,-0.876230608258029,-0.6889681150397751,-0.925964953310886
921,-1.3365643890483263,-1.1713241148925495,-0.946074689585639,-1.221282191629456
922,-1.7304748205109737,-1.5394301102741406,-1.2746940174742643,-1.5840540454818637
923,-2.2063795060903653,-1.9909961231865159,-1.6869796611022656,-2.022214931095998
924,-2.772271922022962,-2.536069466297237,-2.195051404302285,-2.5427811791742037
925,-3.4347439021080985,-3.183771608979938,-2.8103881971848796,-3.1513247215499955
926,-4.198400993701281,-3.9417181048528613,-3.5431288326695194,-3.851417894298987
927,-5.065266017080153,-4.815408079786412,-4.401309064063674,-4.644076551414094
928,-6.0342021350088615,-5.807612835459303,-5.390072421277819,-5.527232874515146
929,-7.100390337640854,-6.9177975101203915,-6.510899121255787,-6.495271994836093
930,-8.254897969544713,-8.141612536891008,-7.760902936394144,-7.538667592069171
931,-9.484374577730627,-9.470492464403401,-9.132249267796025,-8.643750852753948
932,-10.770908915061952,-10.891398215114728,-10.611748189454298,-9.79264439744598
933,-12.092076336593834,-12.386734835880558,-12.18067291718741,-10.963387843275642
934,-13.421198927875938,-13.93447018043638,-13.814846202511772,-12.130274401487219
935,-14.727831507890702,-15.508470925822646,-15.48502435826002,-13.264408360449682
936,-15.978475520850608,-17.079061269777593,-17.157591550067416,-14.334481827713025
937,-17.13751047259186,-18.613797217546644,-18.79555690407675,-15.307756400037288
938,-18.16831973867115,-20.07843632366688,-20.359825581883488,-16.151222398823002
939,-19.034574910233307,-21.438069952921712,-21.81069408533281,-16.832895870790832
940,-19.70163095203987,-22.658373427275514,-23.109501398796905,-17.323202542784394
941,-20.137974058663968,-23.706919652821007,-24.220352582904614,-17.596389031510633
942,-20.316656132584356,-24.554494735649634,-25.111821226345853,-17.631895425672585
943,-20.216645175627523,-25.176350320026955,-25.75853255149207,-17.415620301664788
944,-19.82402023231743,-25.553327355575775,-26.142530547203936,-16.941009577011936
945,-19.13294306990187,-25.672789895510295,-26.254340596353703,-16.209904461713883
946,-18.146346354329236,-25.52931524757255,-26.09365367297931,-15.23309114200999
947,-16.87628922853928,-25.12509795305207,-25.669578725462884,-14.030505582489125
948,-15.343945345386905,-24.470039044669203,-25.000435065708984,-12.63106065317682
949,-13.57920492318894,-23.581508038016327,-24.11308450120178,-11.072079151692803
950,-11.619890619302952,-22.483782254162012,-23.041831293862113,-9.398334495606402
951,-9.510606198290835,-21.20718537479842,-21.826944639532574,-7.660720051185052
952,-7.301256200253325,-19.786963556272205,-20.5128814989179,-5.914587271698719
953,-5.045293032756253,-18.26195191549188,-19.146306038913384,-4.217810980373231
954,-2.7977639872501263,-16.67309575547952,-17.774014671909285,-2.6286561559594683
955,-0.6132435954332829,-15.061898733395065,-16.44088179272969,-1.20353347469507
956,1.4562543282224438,-13.468873774626042,-15.187939948297773,0.005260158023560859
957,3.363286281893344,-11.932071722098275,-14.050698894382721,0.9517153154648841
958,5.066812438401087,-10.48575759016573,-13.057791153271943,1.5980974635589305
959,6.533762241731073,-9.15929524649248,-12.230008707543323,1.9166527284245114
960,7.7402526294485,-7.976288941543566,-11.579768625551514,1.8909467979620012
961,8.672396187147047,-6.954015095730155,-11.111017365894407,1.5167665575311988
962,9.326657254178583,-6.10316105453916,-10.819556672408677,0.8025329742139242
963,9.709737061637664,-5.427870240305967,-10.693750201491472,-0.23080416520643232
964,9.837993114229413,-4.92607649704558,-10.715550600661597,-1.5503948941559678
965,9.736422193158283,-4.590095630625119,-10.861772475107843,-3.1126212543288663
966,9.437259571947854,-4.407430101754937,-11.10552797528407,-4.864688400006228
967,8.97826818299517,-4.361733963968312,-11.41773872041024,-6.746606574081909
968,8.400809360203361,-4.433879477806602,-11.768640337907756,-8.69347502476073
969,7.747800342594144,-4.6030642845118175,-12.129203682537703,-10.637961738711372
970,7.061672021218184,-4.847898743535532,-12.472409071607077,-12.512860604141096
971,6.382442629366507,-5.147417412489785,-12.77432538815316,-14.253601441413764
972,5.7460186369991115,-5.481966881796809,-13.014963090086246,-15.800589020548383
973,5.1828230504133215,-5.8339337040974035,-13.178887421108179,-17.101254735155816
974,4.71683443984075,-6.18828944044906,-13.255594055502485,-18.111718255667164
975,4.365098574967461,-6.5329427933757795,-13.239662741031415,-18.797975105525335
976,4.137749528705617,-6.858899641777498,-13.13071387606887,-19.136548883593615
977,4.038548818683485,-7.1602398373609395,-12.933197167466764,-19.11457363645627
978,4.0659195480344845,-7.433925270836474,-12.656040152567252,-18.729302741464064
979,4.214418216305924,-7.67945784012668,-12.312178495909148,-17.98707483838725
980,4.476552064595757,-7.8984089948201115,-11.917981962420207,-16.901802521599006
981,4.8448181067860485,-8.093844100409989,-11.492582535334083,-15.493082156555591
982,5.313815343961618,-8.269664025700006,-11.057106146659152,-13.78404989274498
983,5.882266981139019,-8.429882468731847,-10.633807430208192,-11.799127583913522
984,6.554785871524703,-8.577850989763078,-10.245107317327548,-9.561812206942337
985,7.34322334989201,-8.715436140836102,-9.912535430407994,-7.092663527234934
986,8.267457772430104,-8.842146824363015,-9.65558273107101,-4.407637157644916
987,9.355503349009608,-8.954207286025152,-9.490474928431148,-1.516893673151685
988,10.64285187466932,-9.043573258584594,-9.428884326243178,1.5758106255441688
989,12.170999884560187,-9.096895805324285,-9.47660768506114,4.873078197574712
990,13.985161437582304,-9.09444848025821,-9.632250657035097,8.383135013287326
991,16.131220896290436,-9.009047244411333,-9.885975197506346,12.118412465177418
992,18.65203798078839,-8.805008028201927,-10.218383859137198,16.093497439489486
993,21.583275202950873,-8.43720299179292,-10.599631392416386,20.32254652571241
994,24.94897117383099,-7.850292371656687,-10.988865575907809,24.816304371396704
995,28.75712764717739,-6.97822287527202,-11.334101257828953,29.57890632613807
996,32.99560878991289,-5.744094165815897,-11.572621062500346,34.60467753206076
997,37.6286635377371,-4.060500385095167,-11.631972788639334,39.87515974881235
998,42.59437250789234,-1.830452320855944,-11.431599988079867,45.35659950071228
999,47.80328839891446,1.0510239886322796,-10.885103308485945,50.998114839102016
1000,53.13848437306268,4.694536747414351,-9.903090601394895,56.730724185169656
1001,58.45715224664521,9.213183136606784,-8.396536493090668,62.467372897780734
1002,63.5938063880284,14.71861164107253,-6.280537844004815,68.10403615200026
1003,68.365055284775,21.316349948914123,-3.4783196742457436,73.52191497084794
1004,72.5758058099728,29.100517876831475,0.07468359668135072,78.59067930875119
1005,76.02667025157737,38.148106247190455,4.426873030715313,83.17265037521221
1006,78.52225836661856,48.51305860586002,9.606877100983095,87.12775589742422
1007,79.8799615581424,60.22043894942913,15.620519804719533,90.3190389354099
1008,79.93877936297709,73.26100234928725,22.448586748726534,92.61845604356839
1009,78.56770527979845,87.58650420552178,30.04558545926543,93.91266764762355
1010,75.67318449124816,103.10608535945094,38.339652171628934,94.10850654952567
1011,71.2051836861082,119.68405177303157,47.23369721671156,93.1378131109896
1012,65.16147381849886,137.13932670904833,56.60780934945517,90.96134996173802
1013,57.589817720947856,155.2467894891985,66.32286197759676,87.5715545992627
1014,48.58787021075729,173.74062931101219,76.22518782583008,82.99395187891314
1015,38.30073044418227,192.31973915104172,86.15211920932003,77.287124880218
1016,26.916225225268995,210.65505969418663,95.93813352414227,70.54122563980226
1017,14.658137895102502,228.39866446063937,105.4213007100217,62.8750903760885
1018,1.7777208997801592,245.1942635570512,114.44970274147266,54.43210142357402
1019,-11.456067119562068,260.6887031642041,122.88748536549485,45.37500554808226
1020,-24.767083484663512,274.54395827152547,130.62021004502438,35.87995218097044
1021,-37.88272331040607,286.4490630335657,137.55920027234964,26.13005298834771
1022,-50.544272798469976,296.1314006133182,143.64462168934736,16.308784559687705
1023,-62.51635249594089,303.3667850448232,148.84709932045465,6.593558093380013
1024,-2.593927276752666e-10,2.6646618518207866e-10,2.492176027317087e-10,-2.961267345851399e-10
1025,-4.701419954987582e-09,1.7177376799283566e-10,1.9980912480330332e-09,-5.760003473319924e-09
1026,-5.175449262249221e-08,7.038501491971063e-09,2.6937708195615654e-08,-6.516611348957824e-08
1027,-3.7254388665191455e-07,5.231939904936929e-08,2.140025500642476e-07,-4.840293150702696e-07
1028,-2.0109966544086725e-06,3.0632902824316043e-07,1.2770213147263763e-06,-2.69375944260461e-06
1029,-8.708432988979593e-06,1.4394927460164942e-06,6.076684707785418e-06,-1.2012444058779673e-05
1030,-3.163602969257712e-05,5.649933415334575e-06,2.4082970659762525e-05,-4.485758116086175e-05
1031,-9.955070298813505e-05,1.9119140792640605e-05,8.203435050885735e-05,-0.00014474671398401084
1032,-0.00027796963000888066,5.700853972754772e-05,0.00024588896736867365,-0.00041324617439919336
1033,-0.0007018079717484816,0.00015241177994940934,0.0006607104855298028,-0.0010633510894004106
1034,-0.0016263715036031131,0.00037045245775580636,0.0016156266327410063,-0.0025031143914126044
1035,-0.0035015168572551927,0.0008280485773573614,0.0036401555641412636,-0.005456597861467669
1036,-0.0070730225865950225,0.0017184973648088236,0.007635805759218136,-0.011127540176694012
1037,-0.01351381922805554,0.003338307790442611,0.015043431958971275,-0.021408889773195796
1038,-0.024585851715346448,0.0061119162539685235,0.028042694632151595,-0.03913872270714177
1039,-0.042831276102596204,0.010608225576084103,0.04977568492298808,-0.06840009177298847
1040,-0.07178944702353858,0.017541665502917653,0.08458235214722264,-0.11485874837960759
1041,-0.11623361662755087,0.027749350072503107,0.13823082724631294,-0.18612815506609834
1042,-0.18241819163124756,0.04213507672897904,0.21812093003302838,-0.29214554481256727
1043,-0.2783238001873366,0.06157011094053687,0.33343409396659573,-0.44553617309435356
1044,-0.4138835715970685,0.08674049279296496,0.49519831928465413,-0.6619359592030627
1045,-0.6011703438747914,0.11793118091838131,0.7162334523251218,-0.9602364074033755
1046,-0.8545215095902098,0.154739501865984,1.0109415727691538,-1.3627112672442154
1047,-1.1905763923642125,0.19571412395530283,1.394910536423965,-1.894982923714768
1048,-1.6282010815599195,0.2379214519458307,1.8843065288253753,-2.5857888310756105
1049,-2.1882780192988944,0.2764484358410431,2.4950435198423224,-3.466514636870402
1050,-2.893342518261261,0.3038591153783597,3.241733213496586,-4.57047073145309
1051,-3.767055377350787,0.30963104064406666,4.136437279003189,-5.931902073890755
1052,-4.833509245092667,0.2796063273639347,5.187263423039344,-7.584736518136925
1053,-6.116375730150661,0.19549983322763603,6.396867076081135,-9.561093729127856
1054,-7.637910154696653,0.034512706794855755,7.760939903140906,-11.889594547060714
1055,-9.417840954031279,-0.2308971389307159,9.266783481147876,-14.59352861192001
1056,-11.47218055562936,-0.6330361773696372,10.892079204354873,-17.688955246788314
1057,-13.81200347900243,-1.2087403031622412,12.60397188421372,-21.182827769904232
1058,-16.44224472813398,-1.9988439525459667,14.358582645732813,-25.071243071458532
1059,-19.360576892330606,-3.0473255313952157,16.101055594755998,-29.337925036339616
1060,-22.556427280471475,-4.4001176093232734,17.766221844039457,-33.953050906929185
1061,-26.010196427530396,-6.103589965673971,19.27993463173871,-38.87252308384992
1062,-29.69273585003573,-8.202735850018781,20.561091845801872,-44.03777471964477
1063,-33.56513575788614,-10.739115216308793,21.524319636892816,-49.37617608789507
1064,-37.57886268195666,-13.748631588470444,22.08324559715649,-54.80208106353491
1065,-41.6762732394073,-17.259239976866755,22.15424486923662,-60.218520789908986
1066,-45.79151419905724,-21.288699909593156,21.66050037999305,-65.51951673819825
1067,-49.85180146500109,-25.842498831935757,20.536181755999753,-70.59295015036605
1068,-53.779052584674595,-30.912075209779825,18.730519438842887,-75.32389156964031
1069,-57.49183011225196,-36.47346693789746,16.211533878938795,-79.59826494147957
1070,-60.90753781508998,-42.486498281714894,12.969177369857864,-83.30669752811555
1071,-63.94479901482492,-48.89459788258603,9.017659973110788,-86.34839106058192
1072,-66.52593664828949,-55.62531169987618,4.396762106347051,-88.63484222016507
1073,-68.57946795485509,-62.59153978070167,-0.8280161551551055,-90.09324223233554
1074,-70.04252323027372,-69.69348622404328,-6.566557474022828,-90.66939623473496
1075,-70.86309798139392,-76.82127035977135,-12.706498269724811,-90.33002271364043
1076,-71.0020511836696,-83.8581068372154,-19.116809038016594,-89.06432076706339
1077,-70.43476899119024,-90.68392577788511,-25.652449260633205,-86.88472668977909
1078,-69.15242299348827,-97.17927427461167,-32.159893286473164,-83.82681947246688
1079,-67.16276472217451,-103.22931924389324,-38.483265636214014,-79.94837501600773
1080,-64.49041339992519,-108.72776086698674,-44.47078094157106,-75.3276088192807
1081,-61.17661135830137,-113.58046625151032,-49.9811574130143,-70.06068425051069
1082,-57.27844037102241,-117.70864504773522,-54.88966499009888,-64.25859603839552
1083,-52.86751145725076,-121.05141181398382,-59.0934808006639,-58.04356458857269
1084,-48.02815982019738,-123.56761304511815,-62.51605560863597,-51.545094921674945
1085,-42.85519501790543,-125.23683773138225,-65.11024475990425,-44.89586393117898
1086,-37.45127364424232,-126.05957666979629,-66.86002402321692,-38.227601226647
1087,-31.923977082018073,-126.0565441051598,-67.78069095826636,-31.66712254165008
1088,-26.382689534481948,-125.2672221403465,-67.91754092935014,-25.332661332624973
1089,-20.93538113909163,-123.74773045186502,-67.34309704215165,-19.33062500752176
1090,-15.685407287491016,-121.56815803315239,-66.15305822728368,-13.752878632194822
1091,-10.728438207067235,-118.80951806610737,-64.46120311534371,-8.674632600969034
1092,-6.149631997464505,-115.56049997001053,-62.393544012872134,-4.152983109026159
1093,-2.021159185654177,-111.91419398598556,-60.082062021851385,-0.22612666179563132
1094,1.5998230224974894,-107.96495331119887,-57.65836948210871,3.0867566290440007
1095,4.6726633839366425,-103.80553807394726,-55.2476397747936,5.7849807350410325
1096,7.174112317587764,-99.52465570652635,-52.96311838224884,7.885244001873503
1097,9.098580727809694,-95.20497611400678,-50.901485550428696,9.420002343583088
1098,10.457749400449496,-90.92166009697763,-49.139282928235204,10.435410716968107
1099,11.279545773531297,-86.74139920860826,-47.73054806055987,10.98892940363049
1100,11.606534272557786,-82.72192797345888,-46.70572564028956,11.146698536847106
1101,11.493793868958866,-78.91193813654445,-46.071847647000716,10.980786931438068
1102,11.006380436599734,-75.35130200011744,-45.81390074366689,10.56641976190695
1103,10.216490753078917,-72.07149916294169,-45.897233372547774,9.979284495704071
1104,9.200458698631834,-69.0961388803791,-46.27080152516879,9.29300628092979
1105,8.03572162369069,-66.44147805820097,-46.871014561170924,8.576873320108637
1106,6.797895346624055,-64.11685159704291,-47.62592300574085,7.893880037719716
1107,5.558089587107131,-62.124955272184586,-48.45948916009614,7.299141440634549
1108,4.3805818872167155,-60.46194955339169,-49.29569743613353,6.838716220988502
1109,3.3209476668242184,-59.11738313420069,-50.06229169680818,6.548859185996863
1110,2.4247177122945796,-58.073964960496255,-50.69396814823977,6.4557059282330265
1111,1.7266034868482019,-57.30724087300946,-51.13490053650992,6.575374852217907
1112,1.2502971788950632,-56.78525304426519,-51.340525750122154,6.914454576577236
1113,1.0088199260226496,-56.46827543228999,-51.27856890394427,7.4708292043976074
1114,1.0053606956587904,-56.30872462843761,-50.929334196755626,8.234780925226156
1115,1.2345219748819856,-56.25134212796121,-50.285328695433485,9.190299589922661
1116,1.6838683658843874,-56.23373084200434,-49.35031844183689,10.316522886532532
1117,2.3356615029789363,-56.18730672651728,-48.13793877944316,11.589228836847715
1118,3.168660112498691,-56.03869721139808,-46.669992871902146,12.982304632662578
1119,4.1598675209157285,-55.71158424316265,-44.974574369185646,14.469122036717852
1120,5.286119891264772,-55.12895399504571,-43.08414263799282,16.02375917455538
1121,6.525425767302855,-54.215680413241174,-41.03366338618718,17.622020763373854
1122,7.857989822679654,-52.901338671874036,-38.85890563696002,19.24222290398556
1123,9.266879539512333,-51.12311931039208,-36.59496041088928,20.865723684058814
1124,10.738321149290998,-48.82869638796027,-34.27501997687177,22.477196189833034
1125,12.261638560119978,-45.97889433886859,-31.929431871647722,24.064655258639945
1126,13.828874054231118,-42.549999292486625,-29.58502148927651,25.619262549108097
1127,15.434150547254221,-38.53557124651545,-27.26466210885962,27.134945575180446
1128,17.072850854992126,-33.947633509996884,-24.98706222973505,28.607874662714334
1129,18.740698945107454,-28.817144008639154,-22.76673621950211,30.035847018539148
1130,20.43283101213869,-23.193688101161687,-20.61412453709235,31.417628985441475
1131,22.14294033608746,-17.14437233148284,-18.53583267759739,32.75230608365472
1132,23.862569707472215,-10.751940670086528,-16.53496248462196,34.03868577795524
1133,25.580609921689533,-4.112176801180217,-14.611514623773058,35.27479061241034
1134,27.283044001051007,2.6693049363882486,-12.762846149246739,36.4574701279013
1135,28.95295607740121,9.480743358623892,-10.984171664174008,37.58214966431561
1136,30.570802835307777,16.208225790334556,-9.269099770797474,38.64272353246779
1137,32.114925590150825,22.739813793298623,-7.610197905094551,39.631589818236485
1138,33.562263977809536,28.96961007238944,-5.99957776070764,40.53981493173383
1139,34.88921903788045,34.801579396429496,-4.429490584752101,41.357408443639045
1140,36.07260492217583,40.152948546607135,-2.892917045934744,42.07368318725278
1141,37.09062465077999,44.957031533079146,-1.384131086564103,42.67767219646171
1142,37.92380613272341,49.16535557055693,0.10078775354035245,43.1585728480994
1143,38.55583972638838,52.74899858107364,1.5635225480535249,43.50618941497409
1144,38.97426754742403,55.69908855292191,3.003197697930582,43.711347922292646
1145,39.17098675071604,58.026456625638055,4.416196109297616,43.76626137122876
1146,39.142543097933036,59.76047717832521,5.7961374955892655,43.664828716292156
1147,38.89020604986742,60.947167334842476,7.134032273616242,43.40285704277546
1148,38.41983136466013,61.64665314512253,8.418614860919895,42.97820286417993
1149,37.741530772719486,61.93013844933372,9.63684798856751,42.39083494101502
1150,36.86917982609923,61.87653359360674,10.77457697904747,41.642827059400716
1151,35.81980360224877,61.56891364092096,11.817301071137754,40.73829426307147
1152,-4.292545220710582e-11,-1.9297897784964876e-10,-5.427934888203367e-09,-6.464656064195643e-11
1153,-2.844970053239469e-10,-4.097040852334857e-09,2.6717370191348693e-09,-1.1547150913080221e-09
1154,-2.458329985921016e-09,-4.587852810390477e-08,-6.636211975025833e-08,-1.2861600852191594e-08
1155,-1.0649822993316162e-08,-3.3999693043462564e-07,-4.3744179819430993e-07,-9.402016306014164e-08
1156,-2.379939250017345e-08,-1.8896929326929349e-06,-2.40385324394196e-06,-5.173875550805871e-07
1157,2.197320480650896e-08,-8.427493734282233e-06,-1.06188321087698e-05,-2.2924112066412663e-06
1158,4.276957463399695e-07,-3.1514499499259286e-05,-3.9153906638314415e-05,-8.553089992890526e-06
1159,2.0353085629181504e-06,-0.0001019494418828393,-0.0001249735356061364,-2.7734104462081017e-05
1160,6.352224338382165e-06,-0.0002920750723036158,-0.0003530877180545565,-8.001212495561478e-05
1161,1.4490133663843211e-05,-0.0007547127696662547,-0.0008997563203959425,-0.00020909768879048593
1162,2.2956937539173654e-05,-0.0017849125663620417,-0.00209859565590014,-0.0005019744509512831
1163,1.3538167924099557e-05,-0.003910290532809136,-0.004534936383608008,-0.0011193970907937333
1164,-6.565233354358938e-05,-0.008014464646677353,-0.00917060290317565,-0.0023396995725137545
1165,-0.00033026534723193,-0.015496178169402249,-0.017500625844423193,-0.0046177277895752275
1166,-0.0010022198458547074,-0.028464266026294607,-0.03173962856251878,-0.008659658150658058
1167,-0.0024649753036736074,-0.04996573230618272,-0.05503478381700877,-0.015513368273843258
1168,-0.005331473924751419,-0.08424078848929094,-0.09169823802813752,-0.026673037983546324
1169,-0.010524516534196603,-0.1369946712741784,-0.1474502118859868,-0.04419573789810266
1170,-0.01936909846074913,-0.21567141332604034,-0.2296594433499369,-0.07082667179783046
1171,-0.03369551696053539,-0.3297096950122844,-0.34756350024153077,-0.11012824441739824
1172,-0.055950651881719604,-0.4907559223766379,-0.5124477213010051,-0.16660611145310145
1173,-0.08931271072128662,-0.7128054490891915,-0.7377564189714056,-0.24582295619459738
1174,-0.13780209832551452,-1.0122402351280042,-1.0391091741113474,-0.3544882742338805
1175,-0.20637836645247415,-1.4077310248870951,-1.4341936852023371,-0.500510445658391
1176,-0.30101111428960825,-1.9199749654359195,-1.9425111291252273,-0.6929963904878744
1177,-0.42871181814037645,-2.5712457325115983,-2.5849544600270606,-0.9421845232532206
1178,-0.5975140681563839,-3.384742562446074,-3.3832100099032663,-1.2592986623322295
1179,-0.8163912736418367,-4.383736602069259,-4.358981868243697,-1.656313803141214
1180,-1.095103161403944,-5.59052697072215,-5.5330511653299945,-2.1456288851243643
1181,-1.4439650959039154,-7.025234033403711,-6.924194803747012,-2.7396465128150385
1182,-1.8735374921152652,-8.704472720059547,-8.548000253709235,-3.4502648114997614
1183,-2.3942364843243813,-10.639963350965955,-10.415626513571729,-4.288292075826394
1184,-3.0158715803664484,-12.837150303272312,-12.532570569109355,-5.262800540503991
1185,-3.7471211194772827,-15.293908872280511,-14.89750835283939,-6.380441364066252
1186,-4.594961839580406,-17.99942668746643,-17.501282507647023,-7.644748588996574
1187,-5.564074545990068,-20.93334699716229,-20.326111434914043,-9.055465092301741
1188,-6.656253367543151,-24.06525621956458,-23.345088908563707,-10.607927825197445
1189,-7.869850738282777,-27.354586962325218,-26.522036769236855,-12.292552286377799
1190,-9.199293294636309,-30.75099030493612,-29.81175888324206,-14.094456500272027
1191,-10.634704821454823,-34.19520816492907,-33.16072847359115,-15.99326234147925
1192,-12.161670968522168,-37.620449220253626,-36.508218553086714,-17.963106739884132
1193,-13.761176681367825,-40.954241833597536,-39.78786062918865,-19.972887353049238
1194,-15.409741147593975,-44.12070676370348,-42.929591114974876,-21.986757147891847
1195,-17.07976672014312,-47.04316335127554,-45.86191738574064,-23.964870586828123
1196,-18.740108106305573,-49.64695748615795,-48.51441306437583,-25.864371383669432
1197,-20.356856736112928,-51.86237989125638,-50.8203313386203,-27.64059870185792
1198,-21.8943232410223,-53.627530650588106,-52.71921361697592,-29.248475786203834
1199,-23.316188888684966,-54.89098157223974,-54.159363932421996,-30.64403292686706
1200,-24.586785125764493,-55.61409257170787,-55.100063382169935,-31.78600604311698
1201,-25.67244979993657,-55.772851888509535,-55.51340715746842,-32.63744384824496
1202,-26.54290016134364,-55.359132113684936,-55.38566442667731,-33.167251359512285
1203,-27.172557282056957,-54.38128352662699,-54.71808152798768,-33.35159607124885
1204,-27.541754655671227,-52.86402133404841,-53.52707666086669,-33.175105708743004
1205,-27.637765579636703,-50.8476017989766,-51.84380287040169,-32.6317930527865
1206,-27.455589496322645,-48.38632141268545,-49.713089276488034,-31.725653602185005
1207,-26.998446729289448,-45.54641063057514,-47.191803241691915,-30.47089541134301
1208,-26.277943868466668,-42.403426843223016,-44.34670682099488,-28.891776776580645
1209,-25.313887887817895,-39.039278097866635,-41.25190967504837,-27.022045804393823
1210,-24.13374501845733,-35.5390279427321,-37.98604093526777,-24.903995316484338
1211,-22.771759302840834,-31.987641500929293,-34.62927847361054,-22.58716591156105
1212,-21.267764471346254,-28.466832942023416,-31.26037883272983,-20.126748123318794
1213,-19.665740155023563,-25.052165046575464,-27.9538502764846,-17.581750355330914
1214,-18.012178221293404,-21.810533345226663,-24.777399386486294,-15.013011592803606
1215,-16.354336033570583,-18.798141791300484,-21.789765115611786,-12.481145961826448
1216,-14.738459828269747,-16.05904599932809,-19.039028602919615,-10.044509468063158
1217,-13.20806288893207,-13.624305989570448,-16.561459898694512,-7.757277515421355
1218,-11.802339858786306,-11.511755473527506,-14.380931210197463,-5.6677152289296435
1219,-10.554790664692403,-9.726361276004965,-12.50889570657926,-3.8167116623654564
1220,-9.49211545778535,-8.261116569330456,-10.944902731163378,-2.236634371730998
1221,-8.633426342329674,-7.098386861306643,-9.677593421236564,-0.9505435394528762
1222,-7.989803463002327,-6.211609359078925,-8.686101018607372,0.02821405353873742
1223,-7.564203593479126,-5.5672351212041855,-7.941762593731673,0.696030209937285
1224,-7.351710061589721,-5.126799497740511,-7.410039898774302,1.0586972529000134
1225,-7.340094829885515,-4.84900940577767,-7.052541073510202,1.1307412228013733
1226,-7.510647907968024,-4.6917452439092315,-6.8290380225561345,0.9344751385682594
1227,-7.839217013713756,-4.613889603191668,-6.699380385155573,0.49883201193822757
1228,-8.297392445764679,-4.576913060138197,-6.6252214794260835,-0.14195591045695083
1229,-8.853768950938523,-4.54616776146713,-6.571487531945311,-0.9497628707950039
1230,-9.475217943261375,-4.491860709007222,-6.507542246672869,-1.8839935648297852
1231,-10.128109253825718,-4.3896991580135944,-6.408019370667574,-2.902964622335105
1232,-10.779430992580993,-4.22121903877083,-6.253315300456461,-3.965192001351538
1233,-11.397768203129619,-3.9738227863787703,-6.0297533191510935,-5.0305439501611104
1234,-11.954114698530184,-3.640564742265299,-5.729445311105486,-6.061231545954045
1235,-12.42250640925509,-3.2197300980590997,-5.349891032098052,-7.022621238267893
1236,-12.780477414730978,-2.714257232566919,-4.893363009006394,-7.883865375488767
1237,-13.009350596487682,-2.131053583378467,-4.366132538994756,-8.61835663897733
1238,-13.094383024464262,-1.4802524052981096,-3.7775930553508448,-9.20402016615425
1239,-13.024791602377501,-0.7744525535382213,-3.1393374546924595,-9.623462694975345
1240,-12.793687015870084,-0.027976496754851404,-2.464240405022834,-9.864001227259445
1241,-12.397943602122732,0.7438261429214097,-1.7655916757821544,-9.917594505799713
1242,-11.838029488532163,1.5252104024655004,-1.0563180310395013,-9.780699104426894
1243,-11.117815700145805,2.3005918481749603,-0.3483231112807435,-9.454068411768148
1244,-10.24437564109653,3.0550221671688615,0.34803300241390667,-8.942507774679575
1245,-9.227778388721354,3.7745858728445008,1.024302428902401,-8.254593388697955
1246,-8.080871698250544,4.446723772119348,1.674160708209835,-7.402357175738616
1247,-6.81904463392732,5.060491543533573,2.293463869236473,-6.400935814355261
1248,-5.45995629104147,5.606762960665388,2.8801598325861892,-5.268179946749959
1249,-4.023216571806261,6.078387149471405,3.4340699809102335,-4.024219558749525
1250,-2.530007243560373,6.4703080534036665,3.956560350687075,-2.69098334907749
1251,-1.0026358627025012,6.779652342612813,4.4501276725528935,-1.2916729912662435
1252,0.5359790792998546,7.005789683139467,4.917927335949241,0.1498030485022652
1253,2.06288674689365,7.15036689246679,5.363273995193248,1.6094275006759322
1254,3.5557339628756224,7.21731527638284,5.789144921172556,3.0636915505193643
1255,4.993426852984667,7.2128285085976716,6.197717309129723,4.4902152170282115
1256,6.356797444244595,7.1453068794978964,6.589967826280313,5.86835165018659
1257,7.629243018151527,7.025262676093155,6.965361829272629,7.179753937852767
1258,8.797302833006915,6.865180968915112,7.32165494781893,8.408881984819182
1259,9.851136603172423,6.679330258285243,7.6548269410597145,9.543427459806237
1260,10.784872147374879,6.483518337636909,7.959160693862654,10.574636943321853
1261,11.596795695803856,6.294790335867111,8.227473437675842,11.497517315846796
1262,12.289366955893692,6.131068118923105,8.451497750960122,12.310912914798374
1263,12.869051372385483,6.010732902761595,8.622400086784534,13.017450525557566
1264,13.345973223860822,5.9521558940629085,8.731414680649975,13.623355089821464
1265,13.733404385433168,5.973184863535257,8.770559200647883,14.138145328168072
1266,14.047113892705285,6.090597632628664,8.733391277956253,14.574223666838861
1267,14.304612022626944,6.319536409136876,8.615757375173779,14.946378606998405
1268,14.524328701430754,6.6729396240690875,8.416483841441803,15.271219880432593
1269,14.724769256568191,7.160990283556373,8.13795884017836,15.566567519395473
1270,14.923690838860912,7.790601682919366,7.786558980328124,15.850815570227411
1271,15.137340602506933,8.564962464137166,7.37287979901467,16.142289939056543
1272,15.379792247079834,9.48316325171953,6.911740331693386,16.458618082532997
1273,15.6624109824231,10.53992635576307,6.421942775658819,16.816126207605187
1274,15.993468502268286,11.725458194508748,5.925783190184558,17.229277514972082
1275,16.377919624870373,13.025441140856843,5.4483242355605705,17.710162991867794
1276,16.817341715560698,14.421177441059116,5.016456779341216,18.268054508208092
1277,17.310027887461974,15.889892756558305,4.657792821144488,18.90902862740238
1278,17.85121615252911,17.405200867065943,4.399446122072299,19.635668653340456
1279,18.433429786388135,18.937724363090133,4.266767472478735,20.44685196487054
1280,1.0525900278184252e-10,-1.2263869005507168e-10,9.76836905802272e-11,-9.124754089555078e-12
1281,1.3485819983394235e-09,-1.8201689469559845e-09,8.242685254175017e-10,-2.9696872129370566e-10
1282,1.5541382165253712e-08,-2.13672806445859e-08,9.941829911777384e-09,-2.9215651245818134e-09
1283,1.1568385564413341e-07,-1.5809469234852611e-07,7.531501854908606e-08,-1.902743605390393e-08
1284,6.398044158137122e-07,-8.786667097562118e-07,4.2336137245268437e-07,-9.158879699638828e-08
1285,2.8222813193871412e-06,-3.913396454886316e-06,1.906197851910461e-06,-3.480082113974298e-07
1286,1.0352540155557847e-05,-1.4593184152443329e-05,7.161724652288451e-06,-1.0949956019673232e-06
1287,3.254701217958524e-05,-4.701840300677806e-05,2.3145268158063784e-05,-2.9612884391294063e-06
1288,8.972237084484472e-05,-0.00013400580270935385,6.580754859225214e-05,-7.1163206092708384e-06
1289,0.00022084137850950284,-0.0003441303769917214,0.00016754390827322183,-1.5688153067832894e-05
1290,0.000492651055118473,-0.0008081555976075735,0.0003874475304974336,-3.269907701544264e-05
1291,0.0010086894132673493,-0.0017567322422683727,0.0008234432833057989,-6.608482198939094e-05
1292,0.0019161475081118913,-0.0035704630286586526,0.0016242685125082486,-0.00013156400492719226
1293,0.0034087314622345375,-0.006842476893549467,0.0029982514468212223,-0.0002591920450222206
1294,0.005724196972271869,-0.012452598106023722,0.00521517537955468,-0.0005033411321322946
1295,0.009135752033541965,-0.0216511242959335,0.008597223489005636,-0.0009566363254791594
1296,0.01393685968437395,-0.03614903163571241,0.0134951094095905,-0.0017680969573466774
1297,0.02041914624237934,-0.05821006765496173,0.020245873040007866,-0.0031654362929934635
1298,0.028843242808692438,-0.0907385855425267,0.029109450321703267,-0.005481216210686837
1299,0.0394025104526187,-0.13735523960584017,0.04018191754450827,-0.00918238808506922
1300,0.05217985507541816,-0.20245103733541575,0.053284381412380136,-0.014902667414497918
1301,0.0670983612163453,-0.29120905115108914,0.067827917448147,-0.023477084580619312
1302,0.08386746605423956,-0.4095827367282437,0.08265700814071199,-0.03597775804905308
1303,0.10192776075736122,-0.5642205081446819,0.09587665335200507,-0.053749337739785887
1304,0.12039888987765805,-0.7623281743567679,0.10467166155187851,-0.07844168712083995
1305,0.13803599562111646,-1.0114639674193036,0.10513013224897437,-0.11203639634561176
1306,0.15320041958161898,-1.3192650939512673,0.09208618726786755,-0.1568629159933545
1307,0.16384995150717638,-1.693109720731597,0.05899904558689934,-0.21559974268176565
1308,0.1675528155146532,-2.1397238052415757,-0.002113778275983586,-0.2912563732332064
1309,0.16152788750434016,-2.664747810372548,-0.10067193750975004,-0.3871327115293491
1310,0.14271140298485205,-3.272283685919899,-0.2474408883922391,-0.5067541122702554
1311,0.10784797976789723,-3.964447121848544,-0.454341033881036,-0.6537819626171433
1312,0.05360160400182236,-4.740953472649241,-0.7341489370179739,-0.8319013064417603
1313,-0.02331936982680907,-5.598767562751359,-1.1000880058427451,-1.0446883336337878
1314,-0.12603011369841158,-6.531847436619969,-1.5653135725829987,-1.2954616350007506
1315,-0.2573375790538093,-7.531009867502196,-2.14230601357457,-1.5871221544257044
1316,-0.4196167932513965,-8.583940949559825,-2.842194607428253,-1.9219879026209818
1317,-0.6147027451247026,-9.675368480237314,-3.674043120818436,-2.301630739965693
1318,-0.8438047152427904,-10.787404245007796,-4.644134539707625,-2.726723737427683
1319,-1.1074486838279012,-11.900054189265173,-5.755296277346012,-3.1969085554985144
1320,-1.4054517164736116,-12.991883336913803,-7.00630830434296,-3.710692667206272
1321,-1.7369300604874138,-14.040810978308329,-8.391435231233107,-4.265385829535374
1322,-2.10034000846612,-15.025000968867294,-9.90011974835679,-4.857083767685498
1323,-2.493547512899016,-15.923802832884308,-11.516869318389054,-5.480704546174417
1324,-2.913919447051496,-16.718692641353183,-13.221360557049815,-6.13007976797441
1325,-3.3584268835103908,-17.39415897415882,-14.988776214032676,-6.79809900670253
1326,-3.823749361216077,-17.93847924551873,-16.790377951304265,-7.476902247968616
1327,-4.306369012728322,-18.344335465820095,-18.59430456429403,-8.158111999782452
1328,-4.802644650562937,-18.609226147921536,-20.366570760690365,-8.833094344629579
1329,-5.308858315214529,-18.735642117222287,-22.072227399385227,-9.493236582392328
1330,-5.821230259363579,-18.730987811935517,-23.676631763651518,-10.130228209710566
1331,-6.3359025540874985,-18.60724528706584,-25.146767295422485,-10.73633173403962
1332,-6.848895954006205,-18.380394458761657,-26.452547236811522,-11.304630224048978
1333,-7.356048811045375,-18.06961899809321,-27.568036096330815,-11.829239603931002
1334,-7.852950218753198,-17.69634151314365,-28.47252664558239,-12.305475595810003
1335,-8.33488197108609,-17.283143254500562,-29.15141759675456,-12.729967902461325
1336,-8.796785007982875,-16.85263161724981,-29.59684749034109,-13.100717537265606
1337,-9.233265501852873,-16.426322629809036,-29.808052782196413,-13.417096795766913
1338,-9.638653325581675,-16.023605038158692,-29.791431985274315,-13.679794795917646
1339,-10.00712147275008,-15.66084755963953,-29.56031223941402,-13.890714436786581
1340,-10.332869484323902,-15.350701624490224,-29.13442905815764,-14.052828835501156
1341,-10.610367673000571,-15.101639063089085,-28.539143407166886,-14.170006753165357
1342,-10.834652395397939,-14.917748501583652,-27.804431897950725,-14.246817231339007
1343,-11.001656172745292,-14.798796781343995,-26.963695296573526,-14.288323673691622
1344,-11.108550623833393,-14.740543762755653,-26.052437470514963,-14.299876940766266
1345,-11.154075530207246,-14.73528174415964,-25.10687134449473,-14.286915694172746
1346,-11.138824547782612,-14.772555798988224,-24.162510329299487,-14.25478024968562
1347,-11.065457446024453,-14.840009715826833,-23.252803054563493,-14.20854368810839
1348,-10.938810531226677,-14.924294850265149,-22.407866012700886,-14.152861206215384
1349,-10.765881191862638,-15.011976529624048,-21.65336310333949,-14.091836133200477
1350,-10.555669451353944,-15.090374888323119,-21.009573315195368,-14.02889924497545
1351,-10.318868830380042,-15.148283852248316,-20.49067847123488,-13.966697404159131
1352,-10.067410105909229,-15.176522883715831,-20.104292712289833,-13.906988275686423
1353,-9.813873608414871,-15.168290066419594,-19.851245022498333,-13.85053970666992
1354,-9.570797341868936,-15.119301048623559,-19.72561640625614,-13.797034886051822
1355,-9.349918446560086,-15.027714976134407,-19.715024931413808,-13.744987121367835
1356,-9.161393493959572,-14.89386457234797,-19.801145082611995,-13.691670563415125
1357,-9.013048134870225,-14.719821820126956,-19.96044243652455,-13.63307516807167
1358,-8.909708096415487,-14.508842242206194,-20.165099983635407,-13.563895418640062
1359,-8.85266125099958,-14.26473887242484,-20.384107665257652,-13.477562782372507
1360,-8.839294614153824,-13.991241118128963,-20.584481344696613,-13.36633155192896
1361,-8.862941200065823,-13.69139367067481,-20.73257146819816,-13.221426637696407
1362,-8.912960148780533,-13.367046416675883,-20.79541568764941,-13.03325994124514
1363,-8.975059999666174,-13.01847831780758,-20.742084716412357,-12.791719006613878
1364,-9.031860069356501,-12.644187005963374,-20.54496787036631,-12.486527616990054
1365,-9.0636696136037,-12.240862292297518,-20.18094491548013,-12.10767298574129
1366,-9.049449959432238,-11.803546918154208,-19.63239435541813,-11.64588850167266
1367,-8.967912098157266,-11.325972888208224,-18.8879947128273,-11.093175103145333
1368,-8.798692149761791,-10.801047817582134,-17.943283910083824,-10.443338805931575
1369,-8.523540233651131,-10.221453983865764,-16.800951559738817,-9.69251724695013
1370,-8.127455261095223,-9.58031415648337,-15.470849289047303,-8.83966488658481
1371,-7.599699417929192,-8.871873343141612,-13.969714945273283,-7.886965210250778
1372,-6.934631752327564,-8.092144687905467,-12.320617887521388,-6.840139186597987
1373,-6.132309842372636,-7.239470776375918,-10.552144664521451,-5.708622414410155
1374,-5.198821261958964,-6.314958264490205,-8.69735694721606,-4.505588648637941
1375,-4.146321559665171,-5.322753394987645,-6.79256583933703,-3.247804412814681
1376,-2.9927718341442398,-4.270137833497944,-4.875977326215018,-1.9553077796030096
1377,-1.7613856746847925,-3.1674373422281112,-2.9862713613575522,-0.6509136467285679
1378,-0.47981110327613263,-2.0277490708214914,-1.1611808402511528,0.6404425993475995
1379,0.8209128146890022,-0.8665056858508864,0.5638638934457807,1.89250181733593
1380,2.1075735831198776,0.2990947547076455,2.1569641580148127,3.0785884672495474
1381,3.3461174920039687,1.45075599124464,3.590803010100639,4.172591463706784
1382,4.503031540013432,2.569805283833958,4.843474382265001,5.149975694408596
1383,5.54670832958363,3.637924961119008,5.899061715861039,5.988777706641735
1384,6.448729013946849,4.637850233011164,6.747949793567024,6.670537776005676
1385,7.185004648097009,5.5539939572708885,7.386867094006762,7.181121848693053
1386,7.736724620369438,6.372966079733554,7.8186694894557665,7.511390746000414
1387,8.091071585425311,7.083964576692905,8.05188897520337,7.657680455195924
1388,8.241674948679673,7.6790251345797405,8.100082569671098,7.622066089935363
1389,8.188788807687969,8.153127560189505,7.981025674211832,7.4123927537918295
1390,7.93919449933086,8.50416712657074,7.715800003657305,7.042068417161931
1391,7.505841539570067,8.732807936176945,7.327828124789242,6.529626177497025
1392,6.907252814848355,8.842242205097538,6.841904604174396,5.898075060123168
1393,6.166729838147367,8.837883697646076,6.283268502721484,5.174069098682463
1394,5.311401368891401,8.727025027478664,5.676754516258821,4.386933227635242
1395,4.371163561092498,8.518487214280213,5.046051651926331,3.5675910720494
1396,3.3775618230126763,8.222285939635958,4.413089852155845,2.7474436758551724
1397,2.3626637800579293,7.849332968170746,3.7975669013868325,1.9572493791544006
1398,1.3579693971844748,7.411183899455934,3.2166204448403164,1.2260534554273348
1399,0.39339905714136575,6.919835702332951,2.6846428547296366,0.5802119930053381
1400,-0.5036062675957578,6.3875702264960585,2.213229970294812,0.042548225062132086
1401,-1.3088462033376835,5.8268338115775675,1.8112484697739588,-0.3683284738780974
1402,-2.0019652027412853,5.250138807705166,1.4850012786127742,-0.6385199221507821
1403,-2.5668898486554164,4.6699705331081,1.2384665979596807,-0.7591416909569143
1404,-2.992097252258222,4.098683054173839,1.0735845113869964,-0.726429767281183
1405,-3.2707196728936534,3.5483690604410643,0.9905660095604369,-0.5416596383942465
1406,-3.400496478769786,3.0306928173849936,0.9882024269481791,-0.2108944350708648
1407,-3.383589293296557,2.5566803888264444,1.0641579619431973,0.25541454881909614
1408,4.282874136736359e-11,-8.058852393350195e-11,-2.700873694923877e-10,-5.927664916023672e-11
1409,1.877456439111499e-09,-1.5412240452378317e-09,-3.4249891726678308e-09,-3.486943662845026e-10
1410,1.9773820057934825e-08,-1.7297631938405824e-08,-4.070544784506974e-08,-4.828336345834632e-09
1411,1.4173000817573712e-07,-1.267708637020103e-07,-3.0138910035507456e-07,-3.727004534272322e-08
1412,7.522028836371902e-07,-6.96238598076313e-07,-1.6766917673911434e-06,-2.1801540115157761e-07
1413,3.1687846358635614e-06,-3.064085110644397e-06,-7.470535618022131e-06,-1.0222758096603358e-06
1414,1.1055602226887296e-05,-1.1293829650063565e-05,-2.7848884334153274e-05,-4.011820472609057e-06
1415,3.2929566806139475e-05,-3.598209674917964e-05,-8.963134265128108e-05,-1.3595786613777453e-05
1416,8.56599450168173e-05,-0.00010147540330229889,-0.00025498635928720016,-4.071458661818266e-05
1417,0.00019808903073551286,-0.0002580872779348877,-0.0006531478114774182,-0.00010969969894400812
1418,0.0004130382512609267,-0.0006009300283460004,-0.0015290495095952859,-0.0002697960552096866
1419,0.0007854079407962527,-0.0012967962885442011,-0.003311907967063315,-0.0006128919728778026
1420,0.0013741104839390826,-0.0026201778747242293,-0.006705361881911169,-0.0012988047133502781
1421,0.0022260369303130348,-0.004999053621255799,-0.012799208505358168,-0.0025891043059432773
1422,0.0033508371302946828,-0.009070502662033023,-0.023201066246941234,-0.004889945941701057
1423,0.004685714777396396,-0.01574547613864384,-0.04018452298667044,-0.008803792859225256
1424,0.006049809177419433,-0.026281113782372897,-0.06684822835253403,-0.015189152237489845
1425,0.007088258420499395,-0.04235780620086245,-0.1072779059023657,-0.02522647960421177
1426,0.007206921851099212,-0.0661568056801019,-0.16670041941712938,-0.04048715039662315
1427,0.005499948278317027,-0.10043270628345043,-0.25161601246592147,-0.06300091287831958
1428,0.0006738972260030381,-0.14857373159546505,-0.36989219509784294,-0.09531563827010836
1429,-0.009026091944006673,-0.2146416915550154,-0.5308008847275434,-0.14054163574777925
1430,-0.025880643219224782,-0.30338291050286625,-0.7449799895489794,-0.20237158717363968
1431,-0.05274178598656503,-0.42020153276077477,-1.0243019202568822,-0.28506653459864656
1432,-0.09304961899140875,-0.5710874974207502,-1.3816348506742766,-0.3933986576226863
1433,-0.15080971410072053,-0.76249316444535,-1.8304877210258634,-0.5325429393007997
1434,-0.23052214693895418,-1.0011550570169245,-2.3845368578922845,-0.7079122861455245
1435,-0.3370552036397536,-1.2938603599630476,-3.0570401243692706,-0.9249340441207173
1436,-0.4754598919559312,-1.6471615560810076,-3.8601533077924506,-1.1887699726097973
1437,-0.6507253251635333,-2.067046698678943,-4.804172326402495,-1.5039863500187438
1438,-0.8674798007421725,-2.5585770748931815,-5.896733159818945,-1.8741858209406306
1439,-1.1296476266829103,-3.1255081280882564,-7.142008624101177,-2.3016175794938074
1440,-1.4400769772580144,-3.7699131373375923,-8.539946579188044,-2.7867871937010396
1441,-1.8001588688655452,-4.4918319653660745,-10.085597554643607,-3.328091435922993
1442,-2.209461402923348,-5.28896883967959,-11.76858055619548,-3.921506407501692
1443,-2.6654064615594986,-6.156463358784752,-13.572733724439995,-4.560358581893252
