,TP9,AF7,AF8,TP10
0,-0.32488089836545014,-0.34711009416998273,-0.4295205116576297,-0.592371864762475
1,-0.7110096915527402,-0.7697466737545211,-0.9253653053002445,-1.2682619794910401
2,-1.2528668490741461,-1.3941639122204121,-1.6305273255258017,-2.217467907710405
3,-1.9531901321752407,-2.2305919496745115,-2.5513629130379183,-3.424860527956183
4,-2.7919803629602584,-3.268191950056463,-3.682307922553851,-4.834578201448507
5,-3.735153341265138,-4.475924904276189,-5.002030199529214,-6.366804567706853
6,-4.752209354440819,-5.809414111791101,-6.472524067024895,-7.938037068565179
7,-5.818411788191055,-7.216158836486853,-8.042737571746061,-9.469844892328059
8,-6.9030550391319405,-8.6394559909906,-9.657619531719995,-10.887379857712025
9,-7.969969645970274,-10.03117758497578,-11.271871692598328,-12.137909081143471
10,-8.998869564586107,-11.370450360350555,-12.867289642063827,-13.230936592042003
11,-9.976109949562025,-12.624247166712188,-14.407367982273437,-14.189705294355457
12,-10.888982922368042,-13.766245687597586,-15.858455811837922,-15.035564007591375
13,-11.713303324728194,-14.783974559791494,-17.193534946753427,-15.767987081412343
14,-12.418855413026238,-15.680476996107679,-18.392587792448232,-16.378390497493
15,-12.985197366638538,-16.46709536127717,-19.44245020372173,-16.865405421055097
16,-13.422005839251758,-17.154921066020414,-20.337772304887526,-17.234703854251087
17,-13.765273410548877,-17.75509002814199,-21.081673500114665,-17.480299668993595
18,-14.045641585939439,-18.280927516469163,-21.68482742124668,-17.57835598920374
19,-14.266815234465735,-18.744673861144292,-22.161688192609226,-17.507566756759118
20,-14.426238216393045,-19.154822702262937,-22.523031245087775,-17.270315004128907
21,-14.543725221841624,-19.516235651895645,-22.77402985683787,-16.903720373519814
22,-14.65050785248828,-19.82938574382186,-22.91996129271341,-16.46396007421494
23,-14.758649845159425,-20.087808868217355,-22.968685499811407,-16.000200999025058
24,-14.85124510488513,-20.27972337415449,-22.929170557171275,-15.54458815523627
25,-14.910729835641927,-20.396800905204262,-22.80939232446292,-15.123803844145106
26,-14.94607834789292,-20.43949477416944,-22.61429533451345,-14.769410403817796
27,-14.980982122769678,-20.41340320943028,-22.347979224311953,-14.498784722150655
28,-15.028435421873628,-20.325755281514837,-22.018193091311876,-14.298295064447238
29,-15.08463983367556,-20.18454341842864,-21.635843293950536,-14.131051955971644
30,-15.145705527871465,-19.998339626520963,-21.211956096306068,-13.962237333176843
31,-15.221133085158273,-19.77854388140822,-20.757317408420946,-13.780478300050573
32,-15.328285947417358,-19.53974577230426,-20.282665375880914,-13.592201387102474
33,-15.471467258000205,-19.29494365387066,-19.796565547344514,-13.404245752426998
34,-15.630431441168822,-19.049999169830684,-19.304965372677344,-13.21078728087968
35,-15.781902726231761,-18.80376407982545,-18.81484066779462,-13.005684845682234
36,-15.923850262624942,-18.55205420881459,-18.33494549016352,-12.802265643579819
37,-16.068114951350005,-18.28986099609288,-17.872235662952395,-12.623638128010052
38,-16.20731190150925,-18.01285228893186,-17.428904745305417,-12.477323543891659
39,-16.30561374030374,-17.71724927083442,-17.00136244221925,-12.342188623832483
40,-16.32860039188107,-17.3988065571414,-16.58165442233596,-12.189976111076225
41,-16.265215941331753,-17.05233982462015,-16.160518724662005,-12.011238990383545
42,-16.125307316832806,-16.670565961443785,-15.730378389256842,-11.811874054472172
43,-15.91420376747085,-16.242476246349597,-15.284259174855588,-11.58940176020342
44,-15.617003483098053,-15.754389486686861,-14.81040523880908,-11.320596833310375
45,-15.215583552672182,-15.196737072175825,-14.29147743488056,-10.980930346644785
46,-14.70351532878061,-14.567372086562374,-13.712870008414148,-10.563418630604678
47,-14.088063363700302,-13.867393021531125,-13.07236543986479,-10.075101901672372
48,-13.379464364915355,-13.101405535497616,-12.38138019316546,-9.516425625347036
49,-12.57621385728972,-12.284250662069422,-11.659450525630259,-8.872295984353391
50,-11.66794184890736,-11.442015187692324,-10.928315163487998,-8.131689384288125
51,-10.656053122081664,-10.604879091843355,-10.207612523940078,-7.304333029936678
52,-9.566554461079061,-9.800916488648419,-9.510863849318316,-6.418498740637736
53,-8.431102535276143,-9.053299997125054,-8.84484434919418,-5.49617957828799
54,-7.268332710664107,-8.376483358247187,-8.213824305692519,-4.538483741596402
55,-6.091946019284275,-7.771592731827303,-7.622324421622002,-3.546530127368197
56,-4.9295744677067885,-7.2299415531329725,-7.0722993464174175,-2.5434408104117363
57,-3.8311131599803248,-6.7429918690366435,-6.558435486492697,-1.5755306428033964
58,-2.8470121443132164,-6.305434098202291,-6.0696623816417645,-0.6862072937024357
59,-1.998183210557392,-5.913417308842328,-5.594882298560955,0.10483185771956156
60,-1.274557621225997,-5.564983853043174,-5.1267160195125525,0.786003610526816
61,-0.665565880288131,-5.263408294171388,-4.664415322317708,1.331525174134867
62,-0.17991404824215718,-5.019600453376228,-4.214200854637766,1.706411509524125
63,0.16729988942936294,-4.847482526263747,-3.7854022752337357,1.8877921471623396
64,0.3732592465814435,-4.7576220212933675,-3.3873897668645476,1.8783570871131485
65,0.4555159261445204,-4.7522377799760855,-3.0293046278461597,1.7110276915536724
66,0.43331062451486446,-4.820963282957906,-2.7202980443099127,1.4273753422537663
67,0.30487738391636854,-4.94511039750656,-2.4692373520726436,1.0494357650568584
68,0.05760388335938352,-5.106247814533183,-2.2834051536093334,0.5849367848325207
69,-0.30587959871681264,-5.287718502292539,-2.165725440716321,0.04613142458868169
70,-0.7594940326281102,-5.474789905462205,-2.1124659130955123,-0.5381414471646293
71,-1.2780579482016843,-5.65819333731732,-2.1134615786085944,-1.1435891695825342
72,-1.8567198684846737,-5.83794050198895,-2.153541804774105,-1.7826453749252171
73,-2.499933100817004,-6.02348605072602,-2.2143630960842238,-2.485701494689198
74,-3.2014320725122207,-6.228079272299984,-2.2796950625922294,-3.2606333819142206
75,-3.9364577659222753,-6.464404889957322,-2.3391856175434635,-4.080617667163349
76,-4.68343055075628,-6.743972721811858,-2.3867948257118337,-4.908864902234575
77,-5.443179634745258,-7.074916537888219,-2.420900724462957,-5.723561874264116
78,-6.226692060240021,-7.457190765247524,-2.4441324931039246,-6.510950214280054
79,-7.030494388483337,-7.878773915428546,-2.460467847601884,-7.25265055426037
80,-7.826851515967425,-8.316948857235348,-2.4737852524608672,-7.919947445621983
81,-8.582016892919128,-8.74718914175792,-2.4875475302697985,-8.485601513448994
82,-9.281752851399622,-9.151632651979003,-2.5049911994248175,-8.954066353279048
83,-9.93418674576672,-9.517482375619888,-2.5288436302761244,-9.362256299952575
84,-10.547323456638766,-9.832057603977344,-2.5587248691458115,-9.738417061716053
85,-11.115176976749424,-10.081865838460422,-2.5883210753455237,-10.081180364933665
86,-11.622873352549789,-10.254003324724744,-2.6075149770841195,-10.379999386951871
87,-12.052874741878554,-10.336504505582038,-2.60775659798379,-10.62740681594593
88,-12.383640193571672,-10.316873298272466,-2.5820443843246332,-10.808193867386022
89,-12.581032595923887,-10.183147713495396,-2.521763096893789,-10.877550249075384
90,-12.600909732009542,-9.927915285434995,-2.4172454387929467,-10.766076288008344
91,-12.404763325057871,-9.554846398339619,-2.258928435186687,-10.427935637584307
92,-11.979979220090883,-9.084143761676014,-2.036543406563051,-9.866565933266818
93,-11.350839922166777,-8.549139993839429,-1.7407314925280815,-9.116238969148503
94,-10.563860275501643,-7.988239873562879,-1.3667164944059922,-8.21765038778105
95,-9.67368365315202,-7.439291625771727,-0.9149394905384607,-7.213415989477662
96,-8.739237366816406,-6.935560014997596,-0.38878977938109394,-6.154202105582045
97,-7.824911500140796,-6.500870524419026,0.20730210725735052,-5.1016343073607695
98,-6.998119781779543,-6.145070312525898,0.8664348058651067,-4.124253370359633
99,-6.30551833230288,-5.861397255767257,1.5763291523815703,-3.2656796457169865
100,-5.7517829509283604,-5.629808864638198,2.320306109061117,-2.520961244218135
101,-5.301902359098451,-5.425698601159127,3.0804824174692964,-1.8573133909050557
102,-4.9082056915592895,-5.224755558741781,3.8398397396976773,-1.245399115480388
103,-4.542103562724248,-5.00607135974562,4.584066190154924,-0.6722172936505962
104,-4.195101352482538,-4.757324537511612,5.303571039464903,-0.1295789062268166
105,-3.85567093541876,-4.475548571637294,5.991580714381411,0.3994909976670765
106,-3.4973526771997823,-4.162648924381044,6.639764298010627,0.9384053544124464
107,-3.095517259527305,-3.822436758219903,7.23961949701454,1.5005685267398614
108,-2.649387394504098,-3.460416070909776,7.7845851665061225,2.0782178447053004
109,-2.1787898731464264,-3.0826027383270063,8.267816374658661,2.655731626900581
110,-1.69933696296597,-2.6945905912922665,8.682032681856708,3.227256430357422
111,-1.2062122790525982,-2.3014640433105598,9.022151697622853,3.803785073443923
112,-0.6903066869002701,-1.9058990977947055,9.285318428156817,4.396830310606137
113,-0.160384313209578,-1.5095355612347046,9.468251651966396,4.989347169569349
114,0.35845524395138056,-1.1182335011813032,9.566840162205667,5.539414879123593
115,0.846259275245652,-0.7416311878190571,9.579186046182613,6.014789562565368
116,1.304247310003535,-0.3878615503366044,9.508861856125161,6.41250935467477
117,1.7377816680096825,-0.05976839369683662,9.364818401491016,6.734802418457985
118,2.1176853352032445,0.22760615702782605,9.168247710546868,6.9662445110829365
119,2.4288331144758692,0.51166827653509,8.903372869420776,7.068581308427279
120,2.675154588410893,0.8117069782573905,8.574034782849882,7.0426672128994765
121,2.875334358933019,1.1330857768793554,8.198000072587043,6.912543996605286
122,3.0391110051810872,1.4704928522303082,7.800223149743002,6.703479299609097
123,3.160838177225435,1.8102636627333193,7.4070898729418815,6.436784826457124
124,3.234076591459877,2.1348057322399647,7.042422691743346,6.140631898376601
125,3.2685227883396712,2.4292270236356863,6.725300928953261,5.854061164492289
126,3.2861740493240297,2.68275116368054,6.4701525742265025,5.615414487503199
127,3.302223983047886,2.885649789530504,6.285218697509939,5.443011553199355
128,-0.3089540205425106,-0.3856039710262505,-0.1934878892675734,-0.21939454606943237
129,-0.7123351357288751,-0.8780847440990507,-0.4625002921300725,-0.5400221607084306
130,-1.3136803395381653,-1.5988841658753044,-0.878017061091396,-1.0468485580778477
131,-2.103398505870888,-2.549687144013832,-1.4664527052919294,-1.7481437928734276
132,-3.0122620289017643,-3.7074023308110062,-2.2439233961353424,-2.5996309651723646
133,-3.9433802818871855,-5.030909710879923,-3.208489486087676,-3.5310708831631534
134,-4.80485759534567,-6.4686865516783305,-4.335426398414281,-4.467913120290866
135,-5.529080220966667,-7.9676987535975154,-5.581405131896833,-5.3377484277428895
136,-6.076500492801701,-9.484319092302597,-6.8964915888399325,-6.072959721248269
137,-6.440106419686442,-10.997670170650688,-8.233557326958577,-6.628562928395675
138,-6.6700190362017056,-12.520395249195365,-9.557408789205065,-7.0132071891674075
139,-6.862447741502367,-14.050226260988381,-10.826151191111698,-7.288614660685709
140,-7.146055331625771,-15.584314955698968,-12.007244520270241,-7.5506463013732485
141,-7.647714959718585,-17.124014794784927,-13.077207295710933,-7.901603460827711
142,-8.4799364787853,-18.677105745743052,-14.014413983449277,-8.445839984483486
143,-9.74608536965797,-20.255232806623347,-14.799951908945035,-9.292101193431025
144,-11.532093702037093,-21.869309582791562,-15.42439255643452,-10.539238930803256
145,-13.875798042179282,-23.525588317304184,-15.885089757588954,-12.235962622025895
146,-16.746403305364883,-25.22603210046554,-16.176521886151782,-14.352255018722138
147,-20.06136085095527,-26.972620247001633,-16.28641223004558,-16.802965265660767
148,-23.73891478973065,-28.767877841097253,-16.201969450495014,-19.508413754509075
149,-27.723718045024306,-30.610664269783737,-15.917352525600977,-22.418277483686435
150,-31.955589592500754,-32.49348979077177,-15.434542674737221,-25.48217845174542
151,-36.34956072582444,-34.40136830709893,-14.759720781430241,-28.637930159820915
152,-40.80232562855026,-36.31047827538154,-13.898623234154398,-31.820300227880324
153,-45.214662180810365,-38.19056265796149,-12.85761059732371,-34.97393192821594
154,-49.519029592031195,-40.00937292779479,-11.654228588144777,-38.06295440853281
155,-53.66754508245942,-41.736236198590056,-10.326228235432641,-41.05384543680654
156,-57.59839297406846,-43.34483166793997,-8.92543811907065,-43.890538942860374
157,-61.226517695237824,-44.811186135485926,-7.504748460151587,-46.48695950872098
158,-64.46647596917981,-46.11044312379889,-6.114367479038882,-48.753622150685175
159,-67.25882041553922,-47.2183322684213,-4.804326419256506,-50.62920817103168
160,-69.57062128868282,-48.1138241638819,-3.6201663420268284,-52.08037770101407
161,-71.37963043141252,-48.77970502786909,-2.590195356404031,-53.088487840331055
162,-72.66573848126302,-49.2033421461508,-1.7175648525640286,-53.639490007404405
163,-73.41941347160336,-49.3800149501039,-0.9950149973350263,-53.73665720219204
164,-73.64845872708376,-49.312995436760275,-0.4250286226471793,-53.417224934110294
165,-73.36669161458418,-49.007451860077936,-0.01414226792872587,-52.73175965666262
166,-72.57638449920695,-48.46728429345979,0.23880686777156024,-51.71058996857883
167,-71.27123357028152,-47.698059076253884,0.3416795895716516,-50.358027308715606
168,-69.4564537501415,-46.71240795451337,0.30820929304664807,-48.676041484490256
169,-67.1598517136049,-45.53140087897946,0.1595736310633038,-46.68541865166078
170,-64.42928880878078,-44.180034700876725,-0.06813114157597801,-44.42686458376888
171,-61.312760356380906,-42.684459014274225,-0.3150302505817274,-41.93689340725758
172,-57.8514372934358,-41.070592722083326,-0.5102421975548072,-39.22727027687602
173,-54.09622598474983,-39.36215785184894,-0.6026136607632985,-36.306653477225204
174,-50.11135424552345,-37.57608075974485,-0.582643605146993,-33.2088767485336
175,-45.96537119393546,-35.717612634265784,-0.481207895307434,-29.99020192510404
176,-41.70396123204789,-33.77835585463452,-0.35547848379186864,-26.6922698304814
177,-37.32505367599181,-31.730028763820002,-0.2772428009737349,-23.309578928331078
178,-32.79479799068662,-29.535413120852905,-0.3206385999227032,-19.809853233473838
179,-28.081351294347513,-27.18744812093742,-0.5653282580888689,-16.176960714109544
180,-23.201464001742973,-24.73370959292327,-1.0624421750077093,-12.443183369394331
181,-18.26811192390297,-22.273588157829497,-1.7521386499806215,-8.707849401974443
182,-13.435775107584544,-19.913475664803798,-2.478937241575683,-5.082676241358004
183,-8.76524493379833,-17.69645003996832,-3.085890421977566,-1.586300010921295
184,-4.1861032880427285,-15.586924190976282,-3.5355506720219667,1.8754005586923426
185,0.43683560675672406,-13.506374294408305,-4.018269794118022,5.451946091450237
186,5.239039216984047,-11.36221243985331,-4.861436293057556,9.295313300224368
187,10.329898723704272,-9.050863115235584,-6.320938289597872,13.530120943040862
188,15.753487030459157,-6.4849921849788865,-8.483093528727343,18.19948625126136
189,21.421739657385565,-3.6480248920517884,-11.249973390701658,23.191528790317133
190,27.116368441317874,-0.6085629321541605,-14.37667242905506,28.25934745337087
191,32.56658187562448,2.4897227479455992,-17.573844367589505,33.12429083442761
192,37.529338692768114,5.4308246768911115,-20.567967676124077,37.554534865344
193,41.82812170308883,7.9760843220662885,-23.114021481938725,41.382302279588245
194,45.34148395783446,9.954652994052443,-25.024103237848394,44.48533252657587
195,48.006670965509244,11.30590173047151,-26.173957104248082,46.798704726971096
196,49.87900375676326,12.093480184445204,-26.48529845250314,48.383669022045694
197,51.15360951176673,12.49738307487623,-25.929271302153793,49.43811092009091
198,52.13527560682426,12.72183252309442,-24.589792807792133,50.24571575490523
199,53.17176246070236,12.884422080978572,-22.657600961922704,51.11914236883214
200,54.522658278224355,13.005828539534013,-20.255826668488503,52.28673210063436
201,56.26911892080596,13.09442319999221,-17.280719714541558,53.808570952639506
202,58.31634833702731,13.203134217495696,-13.39681420394377,55.58184668308296
203,60.434992669447524,13.399888465469923,-8.237871445074667,57.368874809413036
204,62.338083856502735,13.741480689169792,-1.6156890316073471,58.865637312306
205,63.77654024718633,14.321145857185192,6.555096688222985,59.808757991034135
206,64.60132300367243,15.291606961168787,16.30677418191533,60.045217231017304
207,64.73114260463787,16.76291322562335,27.462163846258598,59.492314812497746
208,64.11411562583322,18.71448218706948,39.69145845234475,58.08887599203974
209,62.79517051158454,21.052843574598995,52.70713292231433,55.866123759679546
210,60.89734303573541,23.699399300186386,66.2956366520075,52.9372973819598
211,58.49915572832317,26.58002176978208,80.31640256303254,49.38009337911291
212,55.60886830370938,29.60572136549474,94.69596042468707,45.21403051725347
213,52.18598303159052,32.73487678044073,109.34798309360883,40.42248695767366
214,48.13920921323656,36.039004767027315,124.10989536471482,34.948965897925035
215,43.34203667188179,39.690711155441406,138.79469325526563,28.706697704091827
216,37.66530726082938,43.890104495626815,153.29126593710777,21.610488216253028
217,31.04718933216856,48.820396127334966,167.52708249454972,13.654600094369284
218,23.543345457569075,54.60579389473754,181.3391434044592,4.961480783477587
219,15.294673048024396,61.28445600649083,194.46447351947444,-4.272968102080952
220,6.468621787785938,68.85593887577697,206.65678509313486,-13.853297285853333
221,-2.7995926786989584,77.33649101884785,217.77497891378144,-23.633803998533214
222,-12.420957673498439,86.78521027653095,227.76321545102658,-33.529704792760604
223,-22.3100648193515,97.30755362849123,236.68691188128687,-43.473792183101146
224,-32.343911011478184,109.07851967974509,244.8194744516041,-53.360857662140944
225,-42.39930806720999,122.3329175551359,252.47650823023517,-63.08326939296643
226,-52.44526014787748,137.20891103235277,259.7664210460441,-72.63814297624907
227,-62.49368074583624,153.57433484557336,266.6258866266792,-82.07747490873993
228,-72.42970258572362,171.04869302282316,272.9533005328128,-91.31576266536115
229,-82.00660740826734,189.146075258523,278.63652380771657,-100.12064043455513
230,-90.95853196019887,207.34997587871865,283.5715071557535,-108.24534069315095
231,-99.05716229944198,225.16604290672518,287.70722136526786,-115.48808897758958
232,-106.16491057352994,242.23895028925588,291.0470179703127,-121.73147840194707
233,-112.27163696154815,258.4210240045406,293.5969237088511,-126.98366293520317
234,-117.47190139453497,273.69287339449477,295.39951108515794,-131.37173444665447
235,-121.88566470322826,288.0663536180467,296.6341364078713,-135.05538745301178
236,-125.56753258824268,301.60331827207597,297.5589740163065,-138.1165015611033
237,-128.5055667292561,314.40260207283774,298.32206934511186,-140.5469916396953
238,-130.67837248798875,326.5009838758661,298.86496139391005,-142.30967130163418
239,-132.0633737213829,337.81056863446884,298.9764393855861,-143.3606001591673
240,-132.64060110929236,348.1457813514045,298.4069135056417,-143.66544027873056
241,-132.4310201507855,357.30689568126314,296.9467452954663,-143.24446418242078
242,-131.4960959039521,365.0923538461669,294.4927840517485,-142.153258842796
243,-129.88410293450448,371.27908008883634,291.05562472828666,-140.40972109847172
244,-127.6041363581868,375.6990876393726,286.66004115319623,-137.98395941311765
245,-124.66707782245628,378.29703426629845,281.2992955395533,-134.86988213041252
246,-121.4747814105891,379.7227200829511,275.69941693090516,-131.48317880391082
247,-117.5322003290896,379.00519130153475,268.6885550019964,-127.3384634904881
248,-112.70050660086739,375.79246859439,259.860529772394,-122.30026976230863
249,-107.07351045138063,370.19005476781535,249.3539286242413,-116.47570924271245
250,-100.89504032265442,362.64576266274946,237.6613363987955,-110.1289195697691
251,-94.51943158893746,353.87438619713987,225.46589380693325,-103.62373714297858
252,-88.34804031922226,344.72581189787115,213.4969865620003,-97.35869200437243
253,-82.75521918343767,336.0173298617177,202.45508976430443,-91.70332509194208
254,-78.04526633681178,328.42910389618146,192.98230353088135,-86.95841608416525
255,-74.42936204000344,322.44923109508034,185.58034347283606,-83.33428748497482
256,-1.0646092642780693,3.7664845874354143,1.8302465342755925,-1.10789047513483
257,-2.229415123235457,8.014504699058516,3.8237018723613017,-2.3134864238450614
258,-3.8221029721972655,13.942225110038015,6.591301284682717,-3.981609443181628
259,-5.806687183397032,21.503439984758327,10.104923367972829,-6.080943036342797
260,-8.089139257339491,30.511982440033027,14.260100512748723,-8.522251496196054
261,-10.528496433730842,40.65020215264842,18.894073698148343,-11.17735507830441
262,-12.96532191994701,51.50108576305423,23.804627197291964,-13.902926159536594
263,-15.247438119226075,62.60103220141513,28.761264293350628,-16.559719242579366
264,-17.252129079213123,73.52056955423531,33.52950466290796,-19.031019222178475
265,-18.911303426975117,83.97001290044682,37.92346925185789,-21.245584918420224
266,-20.251621183909474,93.92708690127304,41.877141184990094,-23.21718141933108
267,-21.296055846115955,103.22765927818585,45.251316343246394,-24.94300327793626
268,-22.086624008959294,111.69995041497339,47.90277790198727,-26.42453855211919
269,-22.659450532837848,119.1682415851679,49.70115696156018,-27.646384239589686
270,-23.03317927303422,125.46733930749332,50.545058829991255,-28.58564721984575
271,-23.220531240032358,130.46720329574762,50.36730546832521,-29.238081207655966
272,-23.240303357333346,134.08986159946278,49.14474645445345,-29.624989495759046
273,-23.111248509332306,136.30776331292032,46.90386637264329,-29.76922026758369
274,-22.835503161188146,137.13386739487296,43.698651260290845,-29.678792794465597
275,-22.39107020138485,136.61262765784107,39.58321532626262,-29.352401998886176
276,-21.750805904396945,134.80547576738502,34.5987314512756,-28.793694480559125
277,-20.908067092105515,131.77813976947684,28.769670867209328,-28.024520841710967
278,-19.881024435983033,127.60020995049706,22.107430358735318,-27.075615273037936
279,-18.69386719415061,122.34427076843158,14.628576276109053,-25.965070330862545
280,-17.359723467503922,116.08687626035874,6.3833512914776165,-24.68370355679618
281,-15.889928668717163,108.90949171903218,-2.5282945768219562,-23.208190785246526
282,-14.309341602713722,100.89132093169712,-11.964497723442673,-21.52959711470882
283,-12.651364368826805,92.1079637138903,-21.757899528636518,-19.656601008669096
284,-10.937309403975862,82.63228008533962,-31.723863854502564,-17.596978402588153
285,-9.166856109721214,72.53143212950778,-41.6736873275692,-15.347686116467592
286,-7.336730869446686,61.869617296697285,-51.439216888521635,-12.917150064795289
287,-5.462038242140184,50.7089189477315,-60.89013211641305,-10.34671652246215
288,-3.5759069013572358,39.10704569257782,-69.93915111182822,-7.694654400391146
289,-1.7096815114610295,27.124071431980454,-78.54493912535871,-5.006105136319774
290,0.11737952127935586,14.82839104855454,-86.7130823567488,-2.302359418592521
291,1.8873047265215686,2.2921663385051767,-94.47604604945292,0.40038472486943455
292,3.575157115275578,-10.414435246489584,-101.86060335294853,3.074925952112594
293,5.151369284336058,-23.220298565722327,-108.87162624390237,5.688439282603368
294,6.599352892171816,-36.04477791861442,-115.49506015672237,8.221845172969184
295,7.929777090433471,-48.79319417889012,-121.71520460550262,10.6767878327607
296,9.170415361762396,-61.367020177770996,-127.51382125709637,13.05477221427323
297,10.342897661091229,-73.6807675594276,-132.84818390663543,15.335039336987169
298,11.44656062675509,-85.6664519804952,-137.65411844242794,17.46648943075982
299,12.473221413997837,-97.26999853962096,-141.87706401886413,19.39687798417699
300,13.423668100867504,-108.45195961215674,-145.4933263981412,21.103472023797814
301,14.29685315339087,-119.19232606722338,-148.50658739285214,22.577909274001463
302,15.073461988937781,-129.48980759479772,-150.93493653807036,23.804238943494703
303,15.71104139653574,-139.35049424196654,-152.79778906854847,24.761083379173296
304,16.166179514383103,-148.7728735778225,-154.10872451506802,25.443899074152288
305,16.41850129786588,-157.7383162382535,-154.87439863841564,25.872694359353222
306,16.470327594443987,-166.2107598490413,-155.0964598859252,26.077355519022877
307,16.33222152195635,-174.14261597819953,-154.77682069744318,26.08107261052993
308,16.00923815622116,-181.4800879208596,-153.92460570996968,25.891401850984906
309,15.510193149938017,-188.168074188275,-152.56285491332505,25.51581095571295
310,14.86389029227249,-194.16041887497076,-150.7257433911735,24.97733448172157
311,14.115360890773081,-199.42983731488363,-148.44568657619993,24.311891084809613
312,13.306506179634667,-203.96757412326815,-145.75789907846055,23.554988341316882
313,12.465493124998245,-207.77680436735434,-142.72618473674538,22.73193433591953
314,11.61568424075313,-210.86490339491064,-139.45818745035763,21.8691836227011
315,10.792030661370225,-213.239498461362,-136.08317468995097,21.012708146979197
316,10.048470785161372,-214.90767692446457,-132.70480984423793,20.228498948208824
317,9.429647928339115,-215.87608667183764,-129.37009400690525,19.565104388015676
318,8.943104416059228,-216.15402742151525,-126.06683588506995,19.02552638950967
319,8.574184669377317,-215.75517239467158,-122.74124748372769,18.59341436911696
320,8.312360207209885,-214.69963456838934,-119.31873200457305,18.26150459324383
321,8.159441906050004,-213.01661096784613,-115.7218655187157,18.029117225328513
322,8.107195723915884,-210.74457159268252,-111.88841421639361,17.884340852466106
323,8.117683695719368,-207.92899594883238,-107.78274396655873,17.791474346178482
324,8.140753260870177,-204.6187558186723,-103.39733755392106,17.70326338402973
325,8.145540785013756,-200.8627906571798,-98.74800761933479,17.596890386174564
326,8.13022538127155,-196.70801018687584,-93.87856603598448,17.491446257706645
327,8.102540595618517,-192.19779781147588,-88.87256127812843,17.41080855370842
328,8.06435580942909,-187.37246878774553,-83.84571756425969,17.341791065836222
329,8.008819442781656,-182.2746132022182,-78.9183580866069,17.239546179134635
330,7.929482277999732,-176.95399220104468,-74.18410214361552,17.059418682623082
331,7.836470236278414,-171.46944936407763,-69.69671431792074,16.777259522540344
332,7.745653311203817,-165.88696374440514,-65.47466494318252,16.372501336408558
333,7.652093008368889,-160.2698976716032,-61.500727738093204,15.802414775765213
334,7.5292729321529155,-154.66488389236662,-57.72850325001185,15.019037731498972
335,7.360884037777572,-149.09686025559674,-54.105138560026965,14.01484221635192
336,7.154726989716494,-143.5786980381792,-50.58704476340256,12.83626701020626
337,6.922097578792317,-138.11919040659097,-47.136892223524605,11.546531852055924
338,6.661653231598183,-132.72280118283288,-43.722480134352146,10.19397994616935
339,6.35882570122541,-127.38957422298327,-40.32421974799243,8.814491246610665
340,6.000276125556478,-122.11240334409236,-36.94260913442345,7.442541617509875
341,5.587267625094479,-116.87458879253265,-33.59330475703298,6.113637727283606
342,5.136236650084752,-111.6552529397988,-30.310547232568506,4.8531740272957995
343,4.666514240577273,-106.44115391667403,-27.1685005578789,3.662312226047348
344,4.185472552049286,-101.23973600125481,-24.252725354800887,2.523942028274109
345,3.695771317984385,-96.07966750844568,-21.605451707761095,1.433385609864479
346,3.2081979963832508,-90.99934235802388,-19.21291428244811,0.40646058613101466
347,2.7322820812680235,-86.03624978250026,-17.012554960287556,-0.548662164297063
348,2.250713071103175,-81.21999813065007,-14.905579691082778,-1.449378217234496
349,1.715972685069377,-76.56984429537525,-12.779891436315147,-2.329770584354407
350,1.083673119694228,-72.09768355774384,-10.535584031849025,-3.2127753752388704
351,0.33504938689246994,-67.81049116960344,-8.10506541786507,-4.098654085631538
352,-0.5286582604149045,-63.706041655211905,-5.462667966938357,-4.980657445139728
353,-1.4963816630497817,-59.766319899427586,-2.6280712160560347,-5.855587717483393
354,-2.5461517066999377,-55.9621398202105,0.33137292938920115,-6.718056469785592
355,-3.6331120021557775,-52.26645561131292,3.3061335912839738,-7.543226455742118
356,-4.683348312069041,-48.66016930272471,6.168488357275009,-8.285302320824828
357,-5.611580684019409,-45.13520995444593,8.810089120054975,-8.89823904544337
358,-6.363738490078979,-41.69839247171853,11.172260951671294,-9.359451747272535
359,-6.9456759970738675,-38.36913965214856,13.258470770908101,-9.685467198657177
360,-7.4022217992934,-35.17227861546805,15.134476541684668,-9.91741017124152
361,-7.766635946001189,-32.12369373071607,16.893748041279228,-10.083467023064134
362,-8.04156794848795,-29.219201724898117,18.601019037048754,-10.180201629584774
363,-8.221503762023303,-26.4392126108107,20.28797736182317,-10.195660790101854
364,-8.304077221303135,-23.756224653807624,21.975852700279976,-10.134350831420374
365,-8.281447646319386,-21.139068781721402,23.668331342033365,-10.00994327026575
366,-8.13540526480417,-18.556481439544985,25.342890917721945,-9.82903989427312
367,-7.8430432023091425,-15.980466194592486,26.965720750448426,-9.583756014946369
368,-7.397949552697996,-13.391368685141941,28.51711041791224,-9.270691731610192
369,-6.828975114417135,-10.782358853673557,30.006405593335685,-8.917582721521782
370,-6.1962087302245905,-8.163299275266521,31.47465179250012,-8.575349403072824
371,-5.5732366593733,-5.560108228871032,32.98037554109224,-8.291055601642755
372,-5.025543832225096,-3.0058546788687184,34.56205192242213,-8.091690782648273
373,-4.593401013721117,-0.530534995515542,36.2086229949954,-7.9811094317832705
374,-4.299329143023311,1.7637845067486013,37.80541178355878,-7.954153894837901
375,-4.111821600961624,3.992930396651242,39.34922804340855,-7.965391249246833
376,-3.9789337272349994,6.1963621773626105,40.79878307318508,-7.962079704216947
377,-3.8457235698989303,8.36593017249464,42.106491027973554,-7.897842819481763
378,-3.6799927295038475,10.46399908742778,43.23770598599114,-7.75815931681027
379,-3.4803647343876603,12.430792602546175,44.173853594586035,-7.566022000558705
380,-3.2625563525580943,14.197524005810138,44.9083019008994,-7.357441889658503
381,-3.0426167772065305,15.704406123529003,45.450148366505196,-7.153109162624678
382,-2.8354899141076317,16.910823021561182,45.830509168770284,-6.95991228250934
383,-2.6595919829504795,17.79884610508783,46.09426373535417,-6.790661288597816
384,0.0002948334205627734,-1.4849498848582514,-1.3134371350246092,-0.07305257057648507
385,-0.08775356434571452,-3.1567968079242315,-2.7867755902240967,-0.23989180518939032
386,-0.27415978673469565,-5.5188762836140635,-4.860911097228316,-0.5142042935368516
387,-0.5933290847554319,-8.573091110852344,-7.551330237331755,-0.9036146602225565
388,-1.0572487418874557,-12.25813522157551,-10.826077614147126,-1.3925728660852885
389,-1.6584899801066897,-16.45270867494123,-14.604143966831828,-1.9544918224968293
390,-2.3841039656729692,-20.99115359278784,-18.760118643933264,-2.570911151935281
391,-3.217009588837262,-25.687348455853055,-23.137083669144555,-3.2321070573408037
392,-4.125681851042729,-30.3670623133004,-27.57089094112156,-3.9210636148135127
393,-5.068063070171608,-34.91066109057107,-31.92361138717803,-4.615685118276024
394,-6.0084034908327695,-39.30566580564914,-36.14428740451789,-5.307963747452045
395,-6.924887206465622,-43.48337470387104,-40.159693951019364,-6.002524710097846
396,-7.806107201418887,-47.38493517989731,-43.91195082216757,-6.693477901350476
397,-8.640795448048253,-50.96955436120673,-47.35576690361564,-7.357932492993892
398,-9.408026687263101,-54.20763368390252,-50.47594830181672,-7.966374500097461
399,-10.091670376429814,-57.075593471469425,-53.28672694988143,-8.496336645720092
400,-10.697193829272752,-59.55952038977046,-55.807971515613616,-8.943393362822261
401,-11.24242533338841,-61.661831238363526,-58.04265997143241,-9.313260130825345
402,-11.73935345065424,-63.40095518314141,-59.97162628971438,-9.613104154220716
403,-12.183799880896647,-64.80052521135154,-61.56100212105633,-9.85402600278741
404,-12.568421372249373,-65.8809367532705,-62.77662133235667,-10.056428698523296
405,-12.902394665913478,-66.65705383034515,-63.59493060644673,-10.253091687087544
406,-13.210004882536333,-67.13702007889455,-64.0033712305277,-10.480105932350241
407,-13.514492353050814,-67.32208050158134,-64.0039463515783,-10.756109706251365
408,-13.820499592586076,-67.20858635949041,-63.624607064516226,-11.065715819937374
409,-14.108430843618597,-66.79201265557849,-62.923228417650506,-11.370208344661828
410,-14.342163028588438,-66.07419979970274,-61.97720666867759,-11.623328195234459
411,-14.480666777878753,-65.07161839607339,-60.86297578728904,-11.777939676379845
412,-14.489614055747843,-63.81438071571923,-59.62907943489092,-11.79805679072498
413,-14.348558367840436,-62.33708122339322,-58.285970519138644,-11.665760012191743
414,-14.061653436954323,-60.6755355493178,-56.81884589540292,-11.393222549088337
415,-13.673225941027905,-58.87153612802512,-55.19981436410938,-11.037274917715333
416,-13.263134500605336,-56.97110722438323,-53.40285988427076,-10.688462909285082
417,-12.91088286733679,-55.014471282116844,-51.42567461870976,-10.432976270835923
418,-12.665196269905847,-53.02840029947381,-49.295980976952784,-10.320484638218751
419,-12.557296015274702,-51.02612528039398,-47.0586571548518,-10.376104548232178
420,-12.632441966960366,-49.01611225632611,-44.76202808775822,-10.628833605106642
421,-12.94511152522276,-47.00956332524342,-42.452379962662846,-11.112874329999235
422,-13.517253163959259,-45.02103910022081,-40.17209739837179,-11.839258749448902
423,-14.323244169109195,-43.0657899009301,-37.95590549105924,-12.771049240265665
424,-15.316789464427494,-41.15781196750881,-35.82781575222617,-13.844236965589877
425,-16.450891925547126,-39.31397522315312,-33.80547262035485,-15.010482160789511
426,-17.67874760442494,-37.555634155276785,-31.907948432401533,-16.246824396980394
427,-18.941560534236377,-35.899361791145346,-30.156756779870598,-17.52835765400737
428,-20.156477867664286,-34.34568709202471,-28.573352585575275,-18.80659401937701
429,-21.227507923862238,-32.878821697083055,-27.168639985689424,-20.01731814802031
430,-22.066540934869494,-31.47589947218033,-25.925750512255362,-21.1050758181799
431,-22.59999609565915,-30.11353463332454,-24.806045078893078,-22.03491725812854
432,-22.764789695569746,-28.769880397043412,-23.770871773729727,-22.774542202570203
433,-22.51626917543488,-27.425401256626433,-22.789047449578668,-23.289653452179216
434,-21.84596671368444,-26.066170607696034,-21.831724578239925,-23.564426835321186
435,-20.791682958520774,-24.688646634698383,-20.86721118973747,-23.61903043963555
436,-19.423551375563914,-23.29729150556758,-19.863801680576472,-23.506243204162754
437,-17.811557971334732,-21.89716152491639,-18.79555309537125,-23.27353369924455
438,-16.009540018987497,-20.492088740123673,-17.64615812788685,-22.9366673724957
439,-14.057795869593045,-19.088038165105488,-16.413868961040205,-22.487791092443754
440,-11.992695935497776,-17.693346310676084,-15.116394950590447,-21.916604433727596
441,-9.854942076051843,-16.315789383549447,-13.78307680445059,-21.221828190488317
442,-7.692744641133183,-14.959098424289369,-12.433843422592522,-20.394629115378997
443,-5.56118229772908,-13.62160565093201,-11.072572685552645,-19.410729618156914
444,-3.50963023604402,-12.301257666491232,-9.695550080845083,-18.246907897317836
445,-1.5808674308396977,-11.001808610035546,-8.295521433643058,-16.9018663097096
446,0.17374555323120724,-9.73272611605928,-6.8740860228796565,-15.408851156638242
447,1.6952780061273742,-8.50476584170881,-5.465341592443888,-13.8190272609118
448,2.9363099099035415,-7.327371158418005,-4.130788066501413,-12.173316518370623
449,3.8818441997545814,-6.208956117259775,-2.9189223106795685,-10.496076344950822
450,4.545842672025023,-5.155452559328088,-1.841839722828017,-8.812984993210987
451,4.948476176914477,-4.166951474206783,-0.8910521478516165,-7.164878378079363
452,5.107658640687313,-3.2361233786706642,-0.06309158771793846,-5.597456288412903
453,5.0481612698219935,-2.351072778584923,0.6427325426582446,-4.136254604442501
454,4.812758721966348,-1.5002677072370885,1.2514066783731062,-2.7718724895809768
455,4.454562660702415,-0.6738599547362177,1.8084749014443686,-1.4880003950039857
456,4.0144854371156455,0.1365377854278917,2.345240146234926,-0.29885279547434485
457,3.5163729504104895,0.9370569515933429,2.866481495867879,0.7590894731610406
458,2.9830656170916123,1.730815654339026,3.3615075993584917,1.6627990724472672
459,2.4376539141509745,2.516210034243649,3.8196264147444956,2.4164051043818593
460,1.8911398938415909,3.285154065258284,4.244836831251708,3.0286445566395765
461,1.340905111448035,4.023885531030291,4.64984197125454,3.492201024420131
462,0.7784959990936243,4.716507338809501,5.033406595831635,3.795021101494464
463,0.20745606982368406,5.349081585936855,5.3842199556747765,3.944205679661947
464,-0.34990359526833925,5.911926320272124,5.708793920697774,3.96955562497473
465,-0.8692495688805277,6.401240894405594,6.036384755299332,3.8995118165916063
466,-1.3402973406196068,6.820846228076912,6.398331086828562,3.7404992012106137
467,-1.7681229687048872,7.180247531050961,6.814975512237675,3.4801998299550396
468,-2.1510195082374186,7.492325870059414,7.303611383896132,3.114947352818581
469,-2.4629304754394785,7.77537163370511,7.89138991087173,2.6731898042878792
470,-2.664239335877893,8.052779396341041,8.598883014797881,2.19919744177075
471,-2.7271162960595476,8.346111667420036,9.405567488470075,1.725245864958546
472,-2.6542815917446156,8.668815801264516,10.25498830232801,1.2700889391955366
473,-2.466237698982444,9.027432971565336,11.101118893565245,0.8640636588901217
474,-2.18241449592845,9.424965935222335,11.932864098016005,0.5539317737526266
475,-1.8202243620136058,9.86222643196438,12.746540358846755,0.37381381426349486
476,-1.4007920212779432,10.341922291891983,13.513215048693194,0.3282903256195432
477,-0.9542291165646491,10.87180192772751,14.182159097421977,0.3962913642765032
478,-0.5172706777051095,11.460872206953141,14.709167436899389,0.5485387911802851
479,-0.11696491238110908,12.112874498312195,15.082442330634512,0.760928963059409
480,0.2457094321266653,12.821204994566807,15.3200647407507,1.0129359122424433
481,0.579123505754788,13.568583007022752,15.449605976991785,1.2825268256791513
482,0.8754411064067359,14.332934509889641,15.501045411553722,1.5464210924734139
483,1.1198456479480063,15.093584081073013,15.506430534289464,1.7925237141133583
484,1.3096030098945504,15.830737629128775,15.493191717792099,2.0285216799694
485,1.4511215852712196,16.520277662420852,15.476058740093237,2.2726300440815494
486,1.5373778364717683,17.13359181820423,15.45689982866878,2.5266120058119115
487,1.5372963849468166,17.645233936548067,15.437642910439777,2.7629261289780427
488,1.4207938806218303,18.041733636776968,15.433121474986091,2.9528059801733764
489,1.1899534796650493,18.32461704461279,15.46355006272377,3.0917815028964903
490,0.8791667835132868,18.50633556173002,15.53466083509114,3.1902682807
491,0.5276801735427803,18.603631227283692,15.62949353090862,3.2519163730580614
492,0.16094652445926416,18.631455245710153,15.719115511739226,3.2735844809221417
493,-0.20291596114905308,18.597249754241897,15.783631714212303,3.2630054950541982
494,-0.5388290676258694,18.503791951813866,15.813070599943345,3.250434740838232
495,-0.8089672775581664,18.362534908474398,15.792027173321122,3.286863562503667
496,-0.9801390668283969,18.19935121506797,15.701921560320596,3.413870619400556
497,-1.0521137523506752,18.048302743955247,15.53383279895354,3.6296010611129503
498,-1.0539294921770175,17.94135018077453,15.298126301190315,3.899394741791825
499,-1.0049848356177407,17.896326835497906,15.026075597495572,4.190807631150083
500,-0.8954312154997706,17.911786108399383,14.760831895884847,4.491405048334846
501,-0.7060457565290882,17.97433534525466,14.547155485335136,4.798453680278565
502,-0.5206320682828617,18.062161744067698,14.422537715804525,5.016577908564918
503,-0.17185988037231686,18.174550391833076,14.382830201739749,5.265896455899914
504,0.42656189199892686,18.302092908832968,14.413913530152428,5.623462229301071
505,1.2944698247316793,18.42943884212736,14.492650525988559,6.131575718057895
506,2.391097346522118,18.541267443682944,14.590966258448365,6.787692565921787
507,3.6325450663553784,18.626984618124023,14.680841684629733,7.554844175084084
508,4.919224428762932,18.68418465082728,14.73890027943045,8.38594090516384
509,6.158192981990957,18.719806871702684,14.75114372806257,9.230049246205182
510,7.269687394600603,18.747323011212554,14.717352353035015,10.027274625717846
511,8.181603881662118,18.778663516572426,14.651171074040516,10.710905022373476
512,-0.072208108291138,-0.7244302960184458,-0.45156144452818303,-0.02312825693936635
513,-0.07232419301469736,-1.6234482650933844,-1.0142949861636215,0.084842598963294
514,-0.041242898475142245,-2.916106184419144,-1.8440083269344236,0.2678028746669712
515,0.03089589812826435,-4.604488731235703,-2.957092939752183,0.5349669609552169
516,0.17466129077972495,-6.64881747218338,-4.345308555519614,0.9021548455959996
517,0.427675902723727,-8.970986123983064,-5.977478793980405,1.3709928245669976
518,0.8035623325443892,-11.466411901307504,-7.80648684463457,1.9098462141627142
519,1.28520830372712,-14.02121533362043,-9.775469450951967,2.4619053526110366
520,1.8419309384251439,-16.533241334527595,-11.823403837622818,2.973271654627476
521,2.4450563783648085,-18.93679405273539,-13.9000065185758,3.405364698268376
522,3.0655211020027213,-21.23312066035725,-15.989447572102106,3.730080161801539
523,3.6598254355346467,-23.411185927406464,-18.059913283219228,3.9197185792554783
524,4.175467113244344,-25.465072601632805,-20.08300297242648,3.9572466594958
525,4.581786772581819,-27.387401802671302,-22.033473639423825,3.8562843784451117
526,4.883961994296153,-29.17031869224115,-23.886751861879578,3.6696700007474115
527,5.093767882593331,-30.805412018515597,-25.619266841401767,3.4579678399243026
528,5.204985671168675,-32.281036361408624,-27.21255727440327,3.255002226965318
529,5.205851045896852,-33.58357682716186,-28.654059049254208,3.0705515794962315
530,5.09657408685488,-34.70209315166191,-29.934592174053837,2.904091121876898
531,4.88445821132984,-35.63304202365633,-31.04989097344852,2.7508314789311585
532,4.561507253584,-36.38280045245582,-32.00352806186551,2.5844996853464868
533,4.095543944008529,-36.96908775690954,-32.80792229639515,2.3461097668915722
534,3.4501534013371833,-37.41938839159508,-33.48338479627994,1.9727904555862974
535,2.6174536087304925,-37.76371087915169,-34.05276472799402,1.4308084766011122
536,1.6276046719513884,-38.02768062278181,-34.53747076545351,0.7265330958449338
537,0.5203419123399453,-38.22814600654478,-34.95805068658536,-0.11690716829900927
538,-0.6785318432000522,-38.37204269676027,-35.33040770103941,-1.0826898630995365
539,-1.9530389680514948,-38.456725079866196,-35.658068023360556,-2.1486422493357336
540,-3.280212574650762,-38.470247563353695,-35.931068982085065,-3.276685875038205
541,-4.625399377940716,-38.39631449629128,-36.13232612653342,-4.423757663248727
542,-5.963888745619931,-38.22095881422068,-36.2449303284276,-5.561730412741445
543,-7.299431485935607,-37.93809183786909,-36.25348303948295,-6.691055929319091
544,-8.657113205009988,-37.55398316306284,-36.13957704857241,-7.8321078056163635
545,-10.054066703866585,-37.086719114146376,-35.8825886513678,-8.990849578227298
546,-11.480667379647938,-36.558502051684826,-35.46740503523023,-10.140992389159262
547,-12.91366559687058,-35.98662401337701,-34.89070924709286,-11.247769537360355
548,-14.330834684976889,-35.382687740954175,-34.162851800042695,-12.295125718315612
549,-15.715228362565773,-34.752822613008775,-33.30388461485869,-13.28758469060749
550,-17.050684234062114,-34.09270736287079,-32.33441080161684,-14.22454026274769
551,-18.314860148633667,-33.388630950643304,-31.272458547943923,-15.0852311352436
552,-19.48492940871955,-32.62653787393502,-30.14218338095253,-15.851945331050738
553,-20.55106908399886,-31.802200499659115,-28.978387117252048,-16.532129816676193
554,-21.519076855320705,-30.925565118725288,-27.818028424220152,-17.147957068781366
555,-22.39228252440695,-30.016146962465086,-26.69156327570948,-17.706784139258286
556,-23.161736958166113,-29.095463389326284,-25.618722605360457,-18.1946461682128
557,-23.815094108141242,-28.1828852413851,-24.603922995502234,-18.593908819607375
558,-24.347998045860205,-27.294360356019226,-23.634511147994846,-18.89299626718749
559,-24.76596967868734,-26.440236954481854,-22.685947403307388,-19.089134902118047
560,-25.071210409737066,-25.622183422038173,-21.732545507235244,-19.182058817285053
561,-25.25301452238728,-24.830870651645107,-20.757306090501288,-19.1620908392643
562,-25.292131090957447,-24.0481345080907,-19.753278684134614,-19.01180894528154
563,-25.179893344039844,-23.253730521555493,-18.719687014724858,-18.730373154386083
564,-24.92743201361322,-22.42927070982691,-17.66227404685566,-18.34918964210426
565,-24.54939326410889,-21.559432608765523,-16.594477193563463,-17.906121639228562
566,-24.049306546611042,-20.634452178958426,-15.535045508691388,-17.417485265739135
567,-23.420588357390876,-19.654248284820905,-14.50709222277815,-16.881204112902918
568,-22.663096037509117,-18.626736797668364,-13.532342041925759,-16.298543405161496
569,-21.796568782065307,-17.55853348437146,-12.620687029968796,-15.685003462464318
570,-20.858459338349935,-16.45073651869654,-11.776733004661146,-15.05595615868035
571,-19.88841521735859,-15.302191745413886,-11.015394206332958,-14.414414379076423
572,-18.909567592806585,-14.114707650826725,-10.36089881179396,-13.752786855492612
573,-17.93768702134401,-12.895869807975197,-9.832741607512013,-13.069128991076532
574,-17.00104286737464,-11.658803490489293,-9.43237312128091,-12.38791855523024
575,-16.13487364935239,-10.420949359331402,-9.13929075016627,-11.75380369999327
576,-15.358077393048454,-9.200565912153222,-8.913970821303252,-11.20376330871599
577,-14.658880295723355,-8.013997537027052,-8.703666359572324,-10.749895409180013
578,-14.009582669114584,-6.8743412796059244,-8.452681722442316,-10.394744357576382
579,-13.390689974773146,-5.790093230198871,-8.116687335738478,-10.151155799954408
580,-12.799634970670052,-4.764931269756733,-7.674719396826749,-10.03325529472514
581,-12.235548067000595,-3.796379914610891,-7.132220078235987,-10.033801760883321
582,-11.677468632101192,-2.8762292569203387,-6.513615792829246,-10.116364864117278
583,-11.10417988776604,-1.9935648829534023,-5.8506044036327625,-10.245021417160663
584,-10.53408215183722,-1.1396189770375373,-5.176679059064244,-10.413153544224752
585,-10.02256731748736,-0.3136690331511633,-4.524183579854674,-10.632955839827556
586,-9.62336223315944,0.47634445126913383,-3.91637670505658,-10.907591865958974
587,-9.359019570610613,1.217050960541836,-3.354211434834775,-11.214737453234612
588,-9.226735043737705,1.8939953305545034,-2.813866389248435,-11.519958923485655
589,-9.218245708908062,2.4958486450062334,-2.2659385738539934,-11.79806807233232
590,-9.318271581152185,3.0155344227818204,-1.69360343317327,-12.032353632488627
591,-9.487407118153667,3.45124807262038,-1.0976364913159609,-12.199762510717857
592,-9.666048933971268,3.8087879652328676,-0.4931578450245745,-12.271261561545236
593,-9.799741716345338,4.100820376289111,0.09951982092935213,-12.229522877720825
594,-9.855051484971098,4.343209128297235,0.6603849832521527,-12.077165622385536
595,-9.819102101776286,4.552242213530618,1.1719238412662643,-11.827870321427758
596,-9.683732110777195,4.742469032012268,1.6277241215927918,-11.487866286852094
597,-9.435471820300142,4.925507323896704,2.042113712150887,-11.051636640193797
598,-9.06952641687257,5.108404463855311,2.443893079248772,-10.520212071912454
599,-8.612640193053323,5.291133622745914,2.8607228876159403,-9.919443252879846
600,-8.120395977699621,5.468668256665919,3.311892499022235,-9.29817507656611
601,-7.633838251423934,5.636385735881623,3.81133773682454,-8.699400793143315
602,-7.154436297970615,5.795563436056909,4.366549596341425,-8.138852934416606
603,-6.660113398115629,5.957318759627518,4.962667534043481,-7.609591879275638
604,-6.132436906982327,6.142302091922621,5.555932596432162,-7.102697542140873
605,-5.576682005376825,6.373287519886578,6.087783994073856,-6.623677530544095
606,-5.010845465754887,6.664432839372331,6.508151367569939,-6.1760869659091595
607,-4.448029145617853,7.018509901313798,6.7924897963617425,-5.745556739188329
608,-3.891861651047654,7.430608346834691,6.939357155278429,-5.308847085324155
609,-3.342694200076091,7.89051974714685,6.963542408344447,-4.850187697724013
610,-2.8133247430022794,8.382455858117162,6.893701589704155,-4.375233523025778
611,-2.3259746611521774,8.884884323003723,6.76793504142068,-3.9050673872150146
612,-1.8875084476830721,9.374241209763188,6.626258570243743,-3.4529252562356505
613,-1.472227322062027,9.829367018891501,6.503203093884089,-3.013129574814169
614,-1.044832325045854,10.23616521220641,6.419826800016808,-2.574421706535154
615,-0.5916639483024558,10.593728136696795,6.375626284341776,-2.1336904158447196
616,-0.11475456556392255,10.915754763635453,6.355314418037963,-1.6880542541258023
617,0.3855533593193619,11.226515155672848,6.347008874823821,-1.2206765135531858
618,0.9131989828403239,11.554443210489223,6.343867625948551,-0.7009380082485589
619,1.458912923703924,11.922179849600424,6.333170921151902,-0.11219529136089955
620,1.9875439035095213,12.336310386071474,6.3007192373123555,0.5188035569672853
621,2.4542867518573104,12.785320914642185,6.240610479634881,1.1333152638543758
622,2.8344462817382943,13.24813031674364,6.153947226382545,1.6810939803042286
623,3.133600211502944,13.704680148321513,6.050662694803619,2.145973125015549
624,3.3656530709091075,14.13751059325377,5.950870113916422,2.5280214660334193
625,3.536078386668159,14.528641390877835,5.877706519152996,2.819039623160347
626,3.6490781931029663,14.861747573758386,5.851422771912536,3.0108846909244327
627,3.7227236631250737,15.127578828628568,5.885614403592009,3.1159619743305655
628,3.790031198757509,15.32785487545518,5.986350481255838,3.1711170263556716
629,3.879329206905834,15.475222754173613,6.155061909633281,3.2180654126472192
630,3.9688339928250818,15.570602194381367,6.374202185875343,3.2548387117322855
631,4.102405561295661,15.659402913642639,6.660143453548421,3.3528754312918503
632,4.3141104850942895,15.769410453752398,7.009273635851246,3.559058172242698
633,4.6303934148220955,15.912798171290428,7.4001444940191075,3.8954535567067525
634,5.048756581191909,16.090466514413617,7.790818714970159,4.347634018236589
635,5.534756958291336,16.293865114042,8.13320809349984,4.865978917683954
636,6.038144594517257,16.507847607651737,8.40415716855999,5.388352281420856
637,6.514572876589335,16.716858114634046,8.611688602187797,5.871119578894083
638,6.933235343703863,16.907024392096588,8.77362173933478,6.292933906058989
639,7.2696770433157685,17.06475478516029,8.90210492242054,6.634445119069001
640,-0.074476181055153,-0.1982701694020771,-0.30055141595158946,-0.17778899250665683
641,-0.3062824699202786,-0.5644843650132696,-0.7263950831528372,-0.39569781947441873
642,-0.6558356230376953,-1.1332339957530775,-1.3961569477332683,-0.6842231243000094
643,-1.1257449160047548,-1.9263065630028795,-2.3361680035075607,-1.037297506796331
644,-1.698520571596374,-2.9468078945309415,-3.539421519219533,-1.4314882292497688
645,-2.3360974993652666,-4.175474855451778,-4.9680895685497495,-1.8342236898431121
646,-2.990031530489494,-5.571935638645891,-6.56286825650351,-2.2182844301031683
647,-3.617010624229609,-7.081675404407413,-8.252316135287026,-2.5705726944251626
648,-4.185852540564732,-8.648436904386886,-9.956579301440481,-2.8887006902181955
649,-4.676592001416437,-10.229331819258864,-11.597112980284715,-3.1755980932307413
650,-5.092489904611118,-11.805373442367328,-13.126539387157845,-3.4491279258643024
651,-5.4741195031152,-13.353654244829945,-14.512205015532793,-3.7449830650177596
652,-5.886723274181121,-14.848678144490263,-15.753062553975722,-4.096288081110188
653,-6.389533958412047,-16.265639525351194,-16.87282840365022,-4.5212265655149615
654,-7.022202601834748,-17.586354548255088,-17.90982191282394,-5.033814866509112
655,-7.817209307079848,-18.80021323417047,-18.909631677277854,-5.664383347220336
656,-8.802593374241379,-19.8985279149355,-19.91945398274979,-6.460415409258362
657,-9.991463103229886,-20.87277377589028,-20.96882553386754,-7.460650224217634
658,-11.373926242188865,-21.718740000027637,-22.05800038565613,-8.678879300857641
659,-12.912572450349254,-22.4388953045126,-23.169710650899777,-10.106459490371384
660,-14.555775289362204,-23.04342470473181,-24.276086221014825,-11.723475233818009
661,-16.25978681640136,-23.551649473685792,-25.332787006070905,-13.507124454910612
662,-17.99690729682625,-23.991138568644104,-26.28216040481613,-15.424694112023039
663,-19.745275660466092,-24.391337919309258,-27.063694280179465,-17.420759643138453
664,-21.472403128408715,-24.774897921354874,-27.62407431879831,-19.41196435983133
665,-23.139619089644867,-25.15156986177715,-27.93120558325547,-21.309154465516045
666,-24.721040716407686,-25.51614142826528,-27.989660022400283,-23.052536574681337
667,-26.20210774895082,-25.850588011364675,-27.848067151501365,-24.614152444607637
668,-27.55752375226479,-26.129717317353098,-27.58354519142474,-25.97294453183658
669,-28.742162436288016,-26.325840572603028,-27.28079103604646,-27.095371676757903
670,-29.704464216538465,-26.410559717670793,-27.01949611707955,-27.948478346190008
671,-30.405634861130583,-26.361176392160882,-26.85311142688288,-28.528463417308483
672,-30.83148112277712,-26.169366440439585,-26.790967259024594,-28.857024549426594
673,-30.98454721459281,-25.84409585240188,-26.79758683042597,-28.953509437896447
674,-30.870201556923522,-25.407468660750727,-26.807837839024955,-28.82170731041298
675,-30.494139612701105,-24.885773012700586,-26.749644027042184,-28.46378826206545
676,-29.875515294221156,-24.306016005604697,-26.558529153363295,-27.896086882136434
677,-29.059459786540312,-23.69660728053438,-26.18980916035615,-27.14798817983817
678,-28.09829582649523,-23.082067748624752,-25.632917360203688,-26.248301101057873
679,-27.02922525540818,-22.477653809611336,-24.913239557635258,-25.21267132000698
680,-25.87728090062451,-21.887909115771212,-24.08159975152672,-24.055146117202472
681,-24.667228487740747,-21.305422608640473,-23.20459553665247,-22.810293506300006
682,-23.431469388754653,-20.713780411275916,-22.351470714096276,-21.53246889100786
683,-22.194618492358842,-20.096185398577333,-21.576465815761185,-20.263253524526892
684,-20.954415937031612,-19.4423441446938,-20.898738197894755,-19.009730719505512
685,-19.690503176648832,-18.749430441787485,-20.295730051026993,-17.767687127897688
686,-18.387942430683278,-18.020838673150234,-19.724698022859886,-16.5477125681787
687,-17.054952744816653,-17.265461572599605,-19.147210830700914,-15.371948353923203
688,-15.714500675280927,-16.49855928345501,-18.547105797416865,-14.249227737953222
689,-14.383364915942852,-15.741912788368607,-17.93239106898034,-13.170047316776746
690,-13.069139558365231,-15.021074977016925,-17.316861941499244,-12.13400291746084
691,-11.788549174526388,-14.361781420954308,-16.709994450900467,-11.16352905578003
692,-10.5792299331861,-13.785473734248804,-16.119985728770207,-10.292941630276276
693,-9.486745835094588,-13.305348726494064,-15.554989625168352,-9.55218298464878
694,-8.538589645000124,-12.923427028415766,-15.019812317363309,-8.957626906443805
695,-7.729837879619883,-12.630515900651075,-14.51356065153399,-8.509205649919437
696,-7.045083400537864,-12.409925261650638,-14.032213745485217,-8.201009091430798
697,-6.480598102322338,-12.241158588270832,-13.570485672633058,-8.035859399283874
698,-6.037166142671496,-12.104383955722472,-13.1247224613186,-8.009617412234682
699,-5.703286351905071,-11.982812280022365,-12.699103373384071,-8.09556092042295
700,-5.448736998600904,-11.861763949572943,-12.304406244975489,-8.258576163600518
701,-5.250297469845808,-11.731727896230717,-11.949491402463046,-8.481363613048568
702,-5.114254746713105,-11.5933979596085,-11.631687150092466,-8.774135979800368
703,-5.063353269039647,-11.455177333823404,-11.337128673965497,-9.154454024551276
704,-5.111461637728625,-11.323658971176318,-11.051309642409482,-9.627591212353316
705,-5.247514468722239,-11.197757385821518,-10.755922856539923,-10.176134466678016
706,-5.452221870582352,-11.070147181482374,-10.420429869105906,-10.767421401404322
707,-5.721647962016115,-10.932858629327967,-10.01558708427306,-11.371641336637477
708,-6.062398397120777,-10.781857546739255,-9.52750860227552,-11.962309721204285
709,-6.4699340216997925,-10.615522516200173,-8.95386133739852,-12.507716462087494
710,-6.915515013877614,-10.431264546906942,-8.299056217710746,-12.965429094408288
711,-7.35919983812058,-10.225235440327307,-7.5762935391940545,-13.296368736596918
712,-7.770052609633425,-9.99341340647746,-6.810172144801688,-13.488418042873757
713,-8.128088265610728,-9.730363652391947,-6.0349578591146775,-13.550779899692792
714,-8.405246900814202,-9.427796500299477,-5.287437956606882,-13.483517852245662
715,-8.559886162610054,-9.077206571921296,-4.596267089914499,-13.267552165303309
716,-8.559272040378339,-8.673860644256116,-3.975348477540963,-12.893881500971771
717,-8.401377998071567,-8.218628350851192,-3.4303747089982917,-12.38528227957488
718,-8.115471919267353,-7.718059250248777,-2.9707075358995705,-11.781115340879529
719,-7.733510928999133,-7.183715564540979,-2.609798989527038,-11.110372057128766
720,-7.2704169955595175,-6.631422036165402,-2.357870807177892,-10.378110090547132
721,-6.738681074630759,-6.080591836449369,-2.2152174985570685,-9.584139783314772
722,-6.164901640253224,-5.552133997949615,-2.175808639622213,-8.752507521666917
723,-5.577778753353549,-5.064350155683404,-2.2356349555591457,-7.918458195144087
724,-4.980027098492668,-4.628409699818172,-2.382071072279958,-7.087624740669418
725,-4.345681442362246,-4.24636739807645,-2.5807675870458633,-6.228596611903941
726,-3.638899153468395,-3.9129818326206953,-2.784932527157801,-5.291664787640637
727,-2.8378657491416424,-3.6180765908517603,-2.956396787999116,-4.236867936040259
728,-1.9524249787283923,-3.348715916405381,-3.0774605770374515,-3.061626397312618
729,-1.013583805652909,-3.0920037672327814,-3.1485992490099153,-1.7882157065006727
730,-0.05534314911270016,-2.8377981315491656,-3.177949917965141,-0.44172780462025873
731,0.8874328091426419,-2.5819430005095665,-3.168548414005405,0.9418649036676974
732,1.7672099211458172,-2.3261430233098266,-3.1176711657391425,2.304154582267074
733,2.5176060003089584,-2.0742079685474653,-3.02146689974281,3.570755000682343
734,3.076334682872416,-1.8299760472355726,-2.87345519573384,4.674300252373824
735,3.412197069386504,-1.5967099886456964,-2.6691519301847455,5.567485404842576
736,3.522539206228503,-1.376935207234501,-2.4106279182767505,6.222581468183558
737,3.4095780548814725,-1.173415253658256,-2.095696175342389,6.625042768543913
738,3.0686008817360575,-0.9897759458048485,-1.7134583406191861,6.763383218468882
739,2.503451249643381,-0.8275422891150301,-1.2651795771798509,6.643641978329374
740,1.7423261748475187,-0.6842601041539846,-0.7850972998571262,6.299106902248154
741,0.8362563232974789,-0.5569506072923088,-0.3306330600531819,5.770600175829704
742,-0.15609590859712189,-0.44493969778837644,0.04985663548854691,5.091815679702289
743,-1.1906220256170768,-0.34927242106887496,0.3335710886144382,4.282177189502921
744,-2.238991726009249,-0.2708655870343498,0.5184163368386888,3.353843659834394
745,-3.2636582104399965,-0.2089711894645724,0.6215765435752161,2.3430224287218175
746,-4.209128522202853,-0.16045866464828099,0.6772229687009962,1.321178410252235
747,-5.029929865306467,-0.12042563960892921,0.7214536280017037,0.3553052232943614
748,-5.714036626908312,-0.08170898920169994,0.7738396311135769,-0.5235799845644912
749,-6.273269976170457,-0.033480945478792615,0.8359523807345016,-1.304800146015322
750,-6.720823753799358,0.038622600482132854,0.904779311374841,-1.9756409131530068
751,-7.058790364312219,0.15184874534173476,0.9763955914013553,-2.514723538661786
752,-7.289290028585157,0.32337406107328387,1.0518101780168432,-2.904988738194078
753,-7.427861140839376,0.5665594753706567,1.1524581625544694,-3.154707041037829
754,-7.49935269014075,0.8878456895163321,1.3071554479980623,-3.2977167427806484
755,-7.517593366444969,1.2818298449210814,1.5258093000549457,-3.3612150003243904
756,-7.468077119803989,1.7290649954317632,1.8082085891372979,-3.3424199244065758
757,-7.325077225122242,2.2024719304349,2.1589978365505718,-3.2278550219577937
758,-7.1208745265693265,2.648457141012558,2.5496085407865468,-3.051415509317989
759,-6.763367206665428,3.1000055403649522,2.972255528608293,-2.740085104336705
760,-6.2065757403614965,3.5682080476630014,3.3968907334388354,-2.2551238938308904
761,-5.444280260096118,4.047923046942144,3.7942809079681776,-1.5886789391736702
762,-4.517460181582543,4.525368839097966,4.142942824767382,-0.7759900677634884
763,-3.506842227847822,4.984189011777187,4.42469574264966,0.1081243263371031
764,-2.505528566036837,5.408870700185306,4.629378167505139,0.9773152665496273
765,-1.5894326777006764,5.786315215898678,4.7630955569264275,1.7669739854618476
766,-0.8101232266742374,6.106384730214183,4.847597310122983,2.4379699035520943
767,-0.20596023952589573,6.361669600274643,4.908975304190945,2.957995284931263
768,-0.40975174303824463,-0.40932951740482126,-0.037501685471883206,-0.4329292917527738
769,-0.8489206048550209,-0.8821026037971054,-0.3230229570446001,-0.8803263280360143
770,-1.4466541534704833,-1.567143765291283,-0.8194817889364423,-1.4876591488141613
771,-2.1912635499226365,-2.4708026310070874,-1.5525154492225943,-2.2469061759147877
772,-3.046079705121616,-3.5766975680874045,-2.5297366762467264,-3.1149523496814124
773,-3.966897428761879,-4.849346257670396,-3.7364730189015503,-4.0266577208861944
774,-4.915715239861776,-6.239305314507644,-5.13817955743175,-4.92628695929877
775,-5.864873621430113,-7.688873882711255,-6.686273878233046,-5.777763162611379
776,-6.7911028521874055,-9.140951464235759,-8.334082028902806,-6.5536979931829045
777,-7.671044976162545,-10.551829901240252,-10.062875803989046,-7.233919153840525
778,-8.504186622182534,-11.90614378935003,-11.881931104022254,-7.828834248648695
779,-9.303265820325114,-13.173633875033126,-13.789640197161281,-8.364146862263082
780,-10.092842183769967,-14.333593887087664,-15.77016387500993,-8.870838495571725
781,-10.88484111301174,-15.379072863754583,-17.792033178114945,-9.36093194630033
782,-11.66988178223886,-16.312281909049695,-19.809764743338793,-9.82889031175034
783,-12.438349473198002,-17.139792367304615,-21.763760031708895,-10.270694397396454
784,-13.204956865129232,-17.87340562859439,-23.57221645510826,-10.703496836720642
785,-14.001811444175736,-18.533075890088288,-25.13515547769203,-11.156778470630705
786,-14.853319809481855,-19.14557087007602,-26.36062661163562,-11.645628385989268
787,-15.76040838477169,-19.741039360589212,-27.19570939161315,-12.157056713590624
788,-16.712528553763764,-20.347348057412876,-27.637565699149818,-12.668572118986663
789,-17.696152974361194,-20.97950630313019,-27.72208962620669,-13.170351320371783
790,-18.681705134222234,-21.633927793638186,-27.51206029816239,-13.662633352366818
791,-19.620797071271685,-22.292395324793144,-27.086246061370943,-14.134497726010508
792,-20.45900763325295,-22.928759217105775,-26.52575434841196,-14.550913526686141
793,-21.15697061280011,-23.516211960847325,-25.905825910176347,-14.881681722946134
794,-21.708158358154865,-24.03491732499535,-25.28262566086196,-15.128672179520427
795,-22.13004557843002,-24.473641120366157,-24.688830680859123,-15.310168762536481
796,-22.437556838097876,-24.823925777340186,-24.141966982632226,-15.435986984588505
797,-22.6367207743006,-25.07774345530699,-23.630934702848172,-15.508667382393103
798,-22.74624505379333,-25.234623040811318,-23.115611867819766,-15.551452838726782
799,-22.810869415552016,-25.306667321827817,-22.56293159856897,-15.62003250114276
800,-22.87966078077945,-25.31494044240339,-21.974656415415698,-15.770476691861457
801,-22.97455777873073,-25.281476015204603,-21.38611166569888,-16.019040081980666
802,-23.07813225303531,-25.215474275015527,-20.830484871946968,-16.334688083956372
803,-23.131207697825435,-25.100076852683674,-20.30486292196749,-16.653719608971898
804,-23.059847034404854,-24.904746260356845,-19.77259632124602,-16.90560240507356
805,-22.81682639303285,-24.61672135854573,-19.18977655350461,-17.040863195851575
806,-22.383386503518956,-24.24184667847694,-18.534496825335047,-17.02115794942696
807,-21.755135193580045,-23.77289699086184,-17.818056986880713,-16.800377914911003
808,-20.92722590244995,-23.18803619664067,-17.075055825191146,-16.32860154230635
809,-19.90292595804018,-22.48266214139533,-16.339171329503735,-15.586185253984386
810,-18.722154023447654,-21.681472843176042,-15.625941401414057,-14.617450922288103
811,-17.445136956624495,-20.813062991191305,-14.95211066896619,-13.499388225284719
812,-16.103091982789216,-19.883093132506257,-14.353153424680984,-12.284762910889425
813,-14.700243496627479,-18.88816489360723,-13.837686423085678,-11.00820494248979
814,-13.283597191465102,-17.838649926635544,-13.380660304669927,-9.752259326937745
815,-11.907133415803425,-16.735494009011518,-13.037202157021348,-8.599971946907806
816,-10.49114510233577,-15.595225420456428,-13.013605348536842,-7.485036979942815
817,-8.801869040810475,-14.557223887975418,-13.532034679929069,-6.173761580202296
818,-6.5486789292393945,-13.8392366465068,-14.605794815673907,-4.361203580354874
819,-3.4698916672935622,-13.555259935262685,-16.038161509514488,-1.754918953902799
820,0.5830259857325459,-13.689365798883752,-17.598202535890593,1.8321073170396223
821,5.565418671884108,-14.188593301677376,-19.044136669930676,6.394069824762597
822,11.292515514112988,-14.952441958501772,-20.031763070277407,11.767673013678394
823,17.547756328646106,-15.821371459795076,-20.072324434535332,17.727899865731633
824,24.08452225393922,-16.654599544897152,-18.64337013854772,23.99262841233256
825,30.607200398647645,-17.320801091873207,-15.405560291325644,30.214063168009094
826,36.80643033042502,-17.61812256068766,-10.264664477007102,36.030364735233455
827,42.41726881999003,-17.25819965378889,-3.283011264561001,41.1273238617559
828,47.229087493126485,-15.951543223867034,5.399486762877935,45.24865842478442
829,51.08742383640816,-13.530050026852837,15.582207005496583,48.205817605306265
830,53.97026507802243,-9.942120652714076,26.996196494236663,49.96745965336899
831,56.002362279509235,-5.16209030890226,39.38856268460764,50.67932769732618
832,57.31594900509976,0.8798836803617429,52.64345464867158,50.5099365900211
833,57.903003041657676,8.278477698834202,66.72275415100823,49.488201211236614
834,57.631195932041315,17.056761552344536,81.46796372469689,47.52316944209869
835,56.39872534752026,27.137747348402407,96.51306990316863,44.55987737529083
836,54.243439479831885,38.36533598446509,111.4669376551334,40.67422017856152
837,51.322287051442764,50.615846655890536,126.18781787520724,36.05937439147248
838,47.85648735902655,63.92866086066058,140.76739770251265,30.980915115843807
839,44.05903730301111,78.40257868502026,155.28211811314208,25.688547460549213
840,40.01743415664669,94.02144795023185,169.67576748224553,20.30273716003926
841,35.65693432682808,110.70743578908139,183.85816218736488,14.791222431115875
842,30.800353805807074,128.41093472341998,197.86140717902998,9.024558068342944
843,25.219330026422377,147.05296947916233,211.85483239352314,2.8216368349335985
844,18.685888723583528,166.50742047056437,225.94065548319895,-4.01452915348258
845,11.080162095313849,186.65868088607562,239.98372883689265,-11.605390814517346
846,2.488251770456357,207.41873559883737,253.67709671293386,-19.894701460841404
847,-6.8493866903091725,228.64799745365588,266.69662524864236,-28.692137938736053
848,-16.638882045102534,250.07874848703318,278.81352628023666,-37.76106045059796
849,-26.543648107434187,271.37679066148837,289.98536985690794,-46.81970553939793
850,-36.232956672307736,292.24192937187576,300.38972151705747,-55.60433687261352
851,-45.46018648693701,312.4859836793433,310.3162620988355,-63.95069138420242
852,-54.05611557558654,331.98828859570904,320.01060566791784,-71.76587201624167
853,-61.94705712160722,350.5191679605531,329.6083787944881,-79.01910132516649
854,-69.18173842528093,367.73734084113374,339.1472047002178,-85.75486498473599
855,-75.88558217898424,383.34657483083026,348.6133497932172,-92.06220751265938
856,-82.20985360009732,397.1803926756273,358.00597503738254,-98.04300215856004
857,-88.26523237126817,409.1668421359244,367.3762659914429,-103.76316285252909
858,-94.05610259943296,419.25458329440266,376.7781642365704,-109.20491588245457
859,-99.4725627248618,427.38637200784837,386.1748094335913,-114.25648499907732
860,-104.34057399727665,433.5091323297771,395.4200691472795,-118.75317523172184
861,-108.50124308322413,437.5879525604362,404.3179353807671,-122.5552317802433
862,-111.8775496033534,439.6058835323964,412.7113733073595,-125.60759917637753
863,-114.51262301364456,439.5765271770429,420.4789470637963,-127.97700599980438
864,-116.51314347813577,437.57008281466705,427.4453205205618,-129.7998172994409
865,-117.93420697234532,433.6871829127457,433.3635538866412,-131.15578236806488
866,-118.76990123433713,427.99783299183116,437.9480849920407,-132.04363591643963
867,-119.01114069011348,420.54522593778034,440.94329687780805,-132.43007238299361
868,-118.67238939128964,411.3909742004955,442.2046474623628,-132.28419100797558
869,-117.80241480278895,400.6136050316388,441.6811316127399,-131.61065156226812
870,-116.46231360999502,388.2931250079139,439.3414623259177,-130.43987683796104
871,-114.67789624694905,374.5086286679463,435.14953510729794,-128.78579171196807
872,-112.43429134552467,359.3312038316166,429.0570334932762,-126.63536661281192
873,-109.7074842512476,342.8441810856985,420.99952777026954,-123.9646086761079
874,-106.48237616854223,325.1836903576881,410.9065242706651,-120.75204412009212
875,-102.75441032797804,306.5218079099334,398.7196828264134,-116.98700864330492
876,-98.53195695759918,286.9922347182886,384.42285002906294,-112.67910788719674
877,-93.84679826034503,266.68947389703254,368.05500633167617,-107.86757120442535
878,-88.75966525319011,245.73001154004405,349.71069801700105,-102.6172098194414
879,-83.34273456925051,224.2500307459454,329.52958958258984,-96.99494028691797
880,-77.66031259639632,202.38320331595966,307.67222878414657,-91.06089870389341
881,-71.76931131868949,180.2698207597642,284.2968459701802,-84.88413421958518
882,-65.72659352680682,158.06085926374257,259.5565823918749,-78.54993856266391
883,-59.579919312993724,135.90590741934466,233.61974314521447,-72.14031316203649
884,-53.35682024363608,113.93737686259207,206.67234401900072,-65.7074651229115
885,-47.07686225541261,92.25549779242414,178.90544666776637,-59.28128615362265
886,-40.98991704699832,71.67412667883369,151.81155295366915,-53.1509355606237
887,-34.752904796268915,50.96624805172289,123.4037641219428,-46.948912443745186
888,-28.284232160805605,29.778258037216517,93.14018668602185,-40.56382744333785
889,-21.677516257689387,8.361809626672503,61.49978893537269,-34.05886022423027
890,-15.143635505725769,-12.65787336647834,29.601850317277766,-27.620363858817647
891,-8.956685096178257,-32.48786847379797,-1.1422968386453336,-21.503280269329114
892,-3.3924196934691073,-50.337241576800295,-29.308462053046732,-15.969643365069473
893,1.331693534884829,-65.53741606532658,-53.664611200116994,-11.23109504947125
894,5.082890046824399,-77.6272601393667,-73.32066921622335,-7.4244882005302815
895,7.807702604293148,-86.41343787684211,-87.82260152802989,-4.617603837419025
896,-0.34238594564684344,0.026809682960306558,-0.49809524465832555,-0.5730212186074961
897,-0.816098723820003,-0.012926804177767703,-1.6212177965120078,-1.2192121898900656
898,-1.488378595635301,-0.12584721502898844,-3.480237457868668,-2.118222306599559
899,-2.3631243386264797,-0.37457956790176516,-6.17759684656681,-3.258380278106381
900,-3.41357934710081,-0.844324716957727,-9.762634913594766,-4.579691242409364
901,-4.581728858547005,-1.6285776464589405,-14.224523305053376,-5.984630257046943
902,-5.792278736052085,-2.815897717695613,-19.478430907321094,-7.364098563513144
903,-6.965095085200598,-4.484493205434278,-25.38109444269515,-8.610917790192225
904,-8.018253784930025,-6.691673986753821,-31.77695989185525,-9.617318629796795
905,-8.867660256816565,-9.46202652104462,-38.535648684310786,-10.278851452590443
906,-9.45076105091473,-12.791288439596316,-45.57931875086622,-10.534235522685725
907,-9.724387279974994,-16.659700663051893,-52.79269549119365,-10.351935052415172
908,-9.67588269778075,-21.036330012816066,-60.069671661513,-9.734704961582622
909,-9.300033721643699,-25.873289600647905,-67.32544975205201,-8.697201935165365
910,-8.587763402863414,-31.108485287398665,-74.49153779600215,-7.263905594407713
911,-7.5454412267758295,-36.679787802018716,-81.49177641314205,-5.488516140073174
912,-6.212953527167821,-42.53486242684812,-88.21743706777956,-3.462034160403456
913,-4.659339546466119,-48.627684441149405,-94.55105688647706,-1.2775028909532218
914,-2.9543540905192427,-54.90990412347521,-100.41956670992941,1.0112227393503217
915,-1.1377756116220543,-61.32582954269736,-105.80841084152091,3.3935585117540037
916,0.7757179584996956,-67.80693662427711,-110.74136664660206,5.870564011129091
917,2.776224611210163,-74.27209904101869,-115.26238474573034,8.43077526853838
918,4.8487786384246,-80.64514729526371,-119.42011471289771,11.054644250043044
919,6.979093018174195,-86.87394811589832,-123.25380756733844,13.727896000741152
920,9.16182459922056,-92.92956894096507,-126.77409867704897,16.44028142134346
921,11.383620395708164,-98.80172976422932,-129.9402218255636,19.15636541299116
922,13.600610467485788,-104.50079882461168,-132.67240756392675,21.79505646053924
923,15.744756857604896,-110.04348810643528,-134.8818010734886,24.254356401662836
924,17.757985147674713,-115.43081538002228,-136.47906548622512,26.458839080764463
925,19.612205419264228,-120.6426662456211,-137.39250287946945,28.377346694084068
926,21.291989732828807,-125.64167224664668,-137.60301233022767,30.00212635653948
927,22.774560866874268,-130.3762739770006,-137.16116344084296,31.334151984986846
928,24.031026841826918,-134.78512128037488,-136.1784228009837,32.38363314512877
929,25.048164398029957,-138.80447660924827,-134.81324567057288,33.182841302786855
930,25.84362801753433,-142.3746504782492,-133.23761118568387,33.788717939400094
931,26.442119692772984,-145.4481804373107,-131.57328488158902,34.24393824941292
932,26.839174835518417,-147.9975063648182,-129.8595093260564,34.54209957630684
933,27.002871739126352,-150.01482498347625,-128.08188488710232,34.64618889294687
934,26.90575139113108,-151.50899916943524,-126.21290361059697,34.532408247386826
935,26.543612706040783,-152.49561219146668,-124.22573750904408,34.19964767477756
936,25.931823737332202,-152.98259466880992,-122.09074605478197,33.649267152669324
937,25.088635964357852,-152.9717133035579,-119.77596193692457,32.8751263433993
938,24.026148245848105,-152.46560333615838,-117.25919222264942,31.86697159073558
939,22.762324986108602,-151.46314647438598,-114.54573477488873,30.62593477246549
940,21.331864396143065,-149.96324470911648,-111.68460946871193,29.176992308543113
941,19.784007906300225,-147.9796552156187,-108.7693758291453,27.56237935368598
942,18.164049349832037,-145.5466552371869,-105.90228828802356,25.81748887752768
943,16.496989571913414,-142.71692372730752,-103.14102755795359,23.94819270579312
944,14.797246110851447,-139.5558725209735,-100.48413595850212,21.940639609923725
945,13.077205423326792,-136.1304500501005,-97.90138962961797,19.781345434975314
946,11.344279725463588,-132.50024951455626,-95.36259039736072,17.463835937631803
947,9.58998528167555,-128.71886692218283,-92.84136515175996,14.979886736740104
948,7.779305742343856,-124.83527413031726,-90.3065682944425,12.309643894406907
949,5.874522081518116,-120.88746776396957,-87.7338786707601,9.448238675273776
950,3.867958627446911,-116.8965776648418,-85.12233459757591,6.434690730292353
951,1.7874967520070066,-112.86515368321207,-82.47725669178045,3.3438678474903187
952,-0.3233036656609039,-108.78399341982661,-79.80277889758733,0.25980885431538037
953,-2.4329590677401596,-104.64541763697697,-77.12163525114345,-2.750602344399065
954,-4.526361391619168,-100.44881148893884,-74.46535263914339,-5.646425570067312
955,-6.584537930770273,-96.20182342541622,-71.83843886970145,-8.39669719735065
956,-8.567271326746793,-91.92524077529899,-69.21473372563189,-10.958875088968142
957,-10.43092609765572,-87.64761686835742,-66.56237118764314,-13.29681681266768
958,-12.158743290018561,-83.39043588375412,-63.8566881542313,-15.414899919645093
959,-13.756444107436488,-79.16371908821218,-61.082316968696446,-17.34317212390151
960,-15.223591072137227,-74.96992084621435,-58.23351261487164,-19.09205219954265
961,-16.53937654913064,-70.8068071077328,-55.31114120637912,-20.633944875518928
962,-17.67666110678375,-66.66957829217564,-52.32214767438711,-21.935076894922585
963,-18.617283340877716,-62.55168815575052,-49.284934109202624,-22.990803843625596
964,-19.35143080836968,-58.445081163470554,-46.22871910163489,-23.817801266418385
965,-19.865193209658628,-54.34583033905642,-43.18146138313753,-24.42587201923482
966,-20.139276429277857,-50.262844552521884,-40.15780002670053,-24.813267803413446
967,-20.175176569165444,-46.21878239213671,-37.15525938652764,-24.994725118896632
968,-20.006336746875597,-42.24412349897789,-34.16890157595207,-25.011178642255746
969,-19.677612096120004,-38.37041972618114,-31.20695804916777,-24.90576366223663
970,-19.217904447679523,-34.624126605164655,-28.285132523968464,-24.691496327845314
971,-18.631954287165332,-31.023665575828844,-25.419105543489,-24.34087101820393
972,-17.921888505391994,-27.578101119147863,-22.625764455359754,-23.822573185834344
973,-17.111525329288654,-24.28088464744163,-19.910957134551357,-23.139573598612753
974,-16.247165485265363,-21.1103912892522,-17.250439736725262,-22.3233010091342
975,-15.37569034657256,-18.042276623115338,-14.591432877668641,-21.402244119341702
976,-14.537519397658173,-15.055459723970426,-11.86491521367732,-20.39831003549015
977,-13.77802132693453,-12.13279869785054,-9.007026228160536,-19.354427566035024
978,-13.151069148698609,-9.260183444434746,-5.987567086848141,-18.34140054023899
979,-12.710461453188532,-6.422143486669382,-2.8262043377393087,-17.430709354686797
980,-12.486632954257487,-3.6035478142773782,0.40876005780785873,-16.656539195318327
981,-12.472376155022173,-0.7944724872863415,3.6137991899505186,-16.011830666649455
982,-12.631164600885464,2.008438541627054,6.665517002745231,-15.480148739733892
983,-12.920072590568338,4.799568502720279,9.452108740746022,-15.05393811294039
984,-13.308952080678814,7.558177998465725,11.917384445941371,-14.73297458830491
985,-13.774886129951028,10.247501570161186,14.075539238154722,-14.513570003554106
986,-14.288942534453797,12.82726987133545,15.988173576785229,-14.379102362781154
987,-14.812125487942325,15.271593343297592,17.734534324137616,-14.30253488056957
988,-15.309060120932811,17.576377028752677,19.395838194569027,-14.266141286510106
989,-15.764874591543835,19.753398481502646,21.047183362457652,-14.273365282411774
990,-16.17976199730109,21.819834866052226,22.75245660493922,-14.3320934129463
991,-16.551081611499686,23.791341150498564,24.56609128723978,-14.441156282355827
992,-16.864964374965624,25.686264821991447,26.510573086538216,-14.584138568212277
993,-17.101093338251356,27.533076907093854,28.530682714320967,-14.734068063197848
994,-17.236564976888364,29.369516152604625,30.507031565996588,-14.87014577006308
995,-17.24707178188021,31.231954031568247,32.32752938922231,-14.978085120344048
996,-17.10749074128535,33.13855418792727,33.93667877981752,-15.039463759596831
997,-16.79557686534369,35.083483721088506,35.34751575517894,-15.027973286803755
998,-16.30750509062851,37.04833328286645,36.62852223663445,-14.922058096896459
999,-15.670100894420083,39.0098949548029,37.876145457495284,-14.72204255239843
1000,-14.933311848480384,40.941597854301754,39.188780506512444,-14.44971483956865
1001,-14.14407725001573,42.82274725307258,40.64692575706371,-14.133525026154231
1002,-13.326917384521456,44.64730299909188,42.30363739387935,-13.792577143459626
1003,-12.498457237547218,46.41844831434122,44.18339093916368,-13.44468723854007
1004,-11.68819192256777,48.13790372836406,46.276161176324045,-13.125681414621447
1005,-10.932558458173016,49.805377934934,48.52685477424869,-12.878569952294889
1006,-10.249096071010134,51.42518345839661,50.833805136846564,-12.718847424289038
1007,-9.623961854879822,53.01058686825826,53.06928043564715,-12.61810994310072
1008,-9.028514027881489,54.582794664500206,55.12166807645684,-12.53206883386812
1009,-8.44152070125986,56.161655179085955,56.927454746296725,-12.43930466095026
1010,-7.861453638109531,57.75333069730249,58.48480243342741,-12.343042470029253
1011,-7.301664175129782,59.34903072983041,59.84320291609278,-12.239637273802998
1012,-6.775049177250643,60.935261771366754,61.067635619393045,-12.102690898856673
1013,-6.293867568567419,62.50286184431768,62.21721096012468,-11.912044497268704
1014,-5.863940465809196,64.00339857300588,63.3344317601469,-11.678138366702816
1015,-5.5829317470101945,65.48358362985581,64.45231134351737,-11.482930141697642
1016,-5.495177105873809,66.94458002142387,65.56663358765717,-11.372639255681198
1017,-5.597889258782322,68.36180819762392,66.64984917493705,-11.360048985449124
1018,-5.862039384375851,69.69862873914221,67.66039369048048,-11.44289703583168
1019,-6.251782244293686,70.91199001410948,68.55070040926665,-11.615459772895525
1020,-6.725383981926409,71.96101955453175,69.27846756124062,-11.862938739182884
1021,-7.224366675097745,72.81728766394586,69.82127348592822,-12.146796113923973
1022,-7.682891603428773,73.46848982136272,70.18739105352937,-12.414956718887705
1023,-8.05234835830891,73.91757176487337,70.41003774774607,-12.63333068476378
1024,-0.17457198194848061,-1.0135926727627953,-1.422536614422158,-0.22603251173367078
1025,-0.5331613870975711,-2.294128371063217,-2.91006608965305,-0.5371343389265515
1026,-1.0656384188718986,-4.159562886922835,-4.950265487560925,-0.9797924236889479
1027,-1.7713469025585484,-6.623279837352759,-7.535446220509844,-1.5403357969170766
1028,-2.6146483549825428,-9.64450243065206,-10.61948813027099,-2.178131488066017
1029,-3.5377719549706366,-13.132564944844933,-14.113296649402844,-2.845541960852537
1030,-4.487181943917739,-16.957129065283866,-17.89049298985369,-3.511234772975718
1031,-5.423639723721222,-20.966086626485485,-21.809879811725317,-4.163848748433618
1032,-6.31163324353526,-25.01138677001761,-25.74902173380444,-4.79340204152859
1033,-7.110176914726838,-28.98312241528888,-29.6398240987864,-5.369837885395354
1034,-7.791661408386592,-32.85368268112402,-33.51071697410066,-5.860937362933943
1035,-8.357417573723872,-36.56543443566803,-37.33638548515426,-6.2510521731150135
1036,-8.826456023788843,-40.070418126258,-41.09173419549547,-6.540688146376014
1037,-9.207491647328633,-43.33320773475107,-44.74873640224115,-6.724424197149257
1038,-9.493951133426089,-46.33374599168533,-48.263403624229205,-6.785889509889256
1039,-9.685831824368949,-49.06402142650038,-51.57976339736142,-6.719818868606693
1040,-9.801872480280991,-51.519164530588334,-54.64886891660962,-6.552408855115118
1041,-9.871720849559042,-53.694146753613914,-57.43388616897888,-6.324783638012311
1042,-9.92200444915247,-55.588507211248704,-59.89537645859929,-6.071508946461709
1043,-9.96895463562974,-57.20825476638592,-61.980597300594354,-5.818064730597432
1044,-10.03024811092682,-58.56042096903582,-63.63816675056101,-5.588665831626079
1045,-10.128410829509496,-59.648538090939226,-64.8415207429202,-5.410334499206129
1046,-10.278439955091988,-60.4756522761252,-65.60387296285154,-5.298930511715772
1047,-10.472898691809553,-61.04416613052671,-65.98732835617764,-5.240530576869006
1048,-10.678498521760627,-61.35063038264932,-66.0945603155693,-5.1926347034922316
1049,-10.863059890092428,-61.38732012521958,-66.04205707134335,-5.120441058290927
1050,-11.022795691872243,-61.14868808804281,-65.93234238470536,-5.033927607625795
1051,-11.178698524627405,-60.63483805275235,-65.82896322924107,-4.976130750630315
1052,-11.34930135540879,-59.85388862541698,-65.73847943428477,-4.9791071776019855
1053,-11.537765748621666,-58.8252476460253,-65.61291767399756,-5.049041785694776
1054,-11.747957170105918,-57.57804063486946,-65.37470393171371,-5.191950255178189
1055,-11.993408949484126,-56.14600583182556,-64.94632339943568,-5.428283548485137
1056,-12.286305939100053,-54.564651352358965,-64.26328877278189,-5.775639867660766
1057,-12.624567235167607,-52.87009993493443,-63.27519256317927,-6.220041073866426
1058,-12.98907840115888,-51.09483862814191,-61.960349434080726,-6.712906215614962
1059,-13.347768565056484,-49.26122267193271,-60.34506035464701,-7.20432611790461
1060,-13.673461389768326,-47.38107592574007,-58.50016324604537,-7.671393401986367
1061,-13.964583181108761,-45.460274887486825,-56.520986930130704,-8.118927190111517
1062,-14.236281391146521,-43.500586737492675,-54.50794543562102,-8.558201408904672
1063,-14.49908909582133,-41.49951604837118,-52.551468594010494,-8.991153784030653
1064,-14.751805939665067,-39.454194058764,-50.70792939542422,-9.416213325601857
1065,-14.993847337514032,-37.37085050170143,-48.976681900765435,-9.840586123473246
1066,-15.234770430020903,-35.26813109166999,-47.31546880027981,-10.282699802015863
1067,-15.476847663801797,-33.16953207087527,-45.677917513721795,-10.746843849284259
1068,-15.702456657238246,-31.096224337976036,-44.03445843070253,-11.206343167269301
1069,-15.883657610223274,-29.065290556184443,-42.3742833664122,-11.62394965336064
1070,-15.998210476005353,-27.089926938750164,-40.69565493129014,-11.974304755552595
1071,-16.036835955337576,-25.178605439919636,-38.99333992132589,-12.248305740141467
1072,-16.00014751963637,-23.334580369008552,-37.25332492355792,-12.443274599978484
1073,-15.891035257242002,-21.55742911555509,-35.46244422634282,-12.55549878194228
1074,-15.699718659141116,-19.844971800411457,-33.63008950776856,-12.578590608607751
1075,-15.41005591566266,-18.193863662182945,-31.79463424052258,-12.515707638887905
1076,-15.025098225166685,-16.601285843115114,-30.003960718121597,-12.395531103941806
1077,-14.567262783617899,-15.067113279485259,-28.295990489305204,-12.255333756170835
1078,-14.049439861731557,-13.594064316704323,-26.68733287054764,-12.112252968090058
1079,-13.458420042635483,-12.188977857085742,-25.168659671854602,-11.95752421269278
1080,-12.784037854222085,-10.864330254121247,-23.71195284511125,-11.780711528377571
1081,-12.048144734729288,-9.636227797519318,-22.28214068894626,-11.591911579774163
1082,-11.293534863707483,-8.520853314772545,-20.854893045253377,-11.41290890765052
1083,-10.556632980800147,-7.53031186368084,-19.42869620388301,-11.253806573729545
1084,-9.850628626457336,-6.6687920869412345,-18.006351391303227,-11.097463083334544
1085,-9.179567710173295,-5.934034735827273,-16.57494960329919,-10.921805088630862
1086,-8.559171108696896,-5.32010738945885,-15.118886667308137,-10.727267893228964
1087,-8.0124466840408,-4.812364929098531,-13.646260220340311,-10.524171128654292
1088,-7.548460099669111,-4.38318811463573,-12.200127033013825,-10.311540987287465
1089,-7.146946279402864,-3.9979810461513132,-10.84402906015481,-10.07324095107234
1090,-6.773620949314282,-3.622126507725734,-9.628944464892212,-9.794687484789526
1091,-6.4113632448815565,-3.224836256886859,-8.56589612803186,-9.482957295116647
1092,-6.063033063041921,-2.7844320083955987,-7.625664389212288,-9.157901102671085
1093,-5.723855014125129,-2.2910366543478196,-6.762764349809112,-8.822488923754232
1094,-5.374977592939208,-1.7445690254736095,-5.935866900140016,-8.462920398156543
1095,-5.006375585008903,-1.1533057843198964,-5.11603505895768,-8.079381512245227
1096,-4.629376032162848,-0.5298414612731505,-4.2893782385805785,-7.69564765424918
1097,-4.265585410103902,0.11673364215604246,-3.4516921066933937,-7.341609251365061
1098,-3.9210321031642534,0.7817002504460006,-2.605432887002525,-7.0270128495543736
1099,-3.5823597601735675,1.4595875357281978,-1.7586247074679098,-6.733132779309426
1100,-3.23602875234709,2.1436777488753003,-0.9142013394373164,-6.438137216341277
1101,-2.881811982288106,2.8292608850708256,-0.06452081062965037,-6.144067511570663
1102,-2.5358202361138686,3.513489175781553,0.7965301332787642,-5.875267772468691
1103,-2.2118568609167024,4.192598332451556,1.671330077184901,-5.6446815272048845
1104,-1.9095200831191312,4.860233858878231,2.5709907574874946,-5.437160124484871
1105,-1.6255571365856516,5.507004138693396,3.5090835512938807,-5.235237523922519
1106,-1.3675681362929801,6.124203858929937,4.480331024351131,-5.041445875430722
1107,-1.1584194253779905,6.707383742935889,5.453840972129564,-4.8763126225963225
1108,-1.0184404829450093,7.253304505785487,6.388808711512961,-4.758332049434351
1109,-0.9463923041600594,7.758354617721801,7.254871305968607,-4.688484650058099
1110,-0.9166773683541802,8.221343863623245,8.034974877061707,-4.653425747470072
1111,-0.8973247129763617,8.643848152619492,8.714956544220438,-4.635831111955094
1112,-0.8743817335538765,9.027907909233564,9.278386097807772,-4.624397727991493
1113,-0.851656825205713,9.373613534701525,9.717464737310367,-4.614059705988224
1114,-0.8383372324022607,9.675125255721298,10.050881839170058,-4.597191883396663
1115,-0.8389724000217454,9.919063547659523,10.31680418127819,-4.554737191342626
1116,-0.8581406457130331,10.090131831326216,10.546057427760374,-4.472766651509068
1117,-0.9145158863352474,10.174851122842531,10.747496816060092,-4.370255777858659
1118,-1.0321980958153016,10.162890529857437,10.911004534503645,-4.2834033758726004
1119,-1.2119045543558753,10.057985879838947,11.023086646113562,-4.2293670068878475
1120,-1.4177403611134678,9.88988101402661,11.08210930165562,-4.194395755685045
1121,-1.6016870366446954,9.703668944407063,11.102296796474802,-4.157432034862325
1122,-1.7316112802085262,9.534514454835199,11.10914413651207,-4.115321810941587
1123,-1.7944517420893757,9.398250077935062,11.128025796108574,-4.075898733045917
1124,-1.781930476731167,9.298006005113573,11.170855298877683,-4.041314922394661
1125,-1.6802530604878942,9.230516155436746,11.233304607922744,-3.998328582581282
1126,-1.491318301468038,9.188305461289206,11.304770890292678,-3.9343262407578132
1127,-1.2553854473390995,9.158871168463596,11.382578391788885,-3.861838559474434
1128,-1.0329099322406996,9.125701288438021,11.482526395097373,-3.813931766025315
1129,-0.8668334061761648,9.073718914882235,11.631808443730742,-3.819089056546385
1130,-0.7710351326449675,8.99502102944573,11.847876833550023,-3.881355647306983
1131,-0.7458582316618905,8.894317935392817,12.125491500102079,-3.9917202010733925
1132,-0.7875622786934856,8.791711506665603,12.44644626316119,-4.148836166525995
1133,-0.8853856959967672,8.717462736302203,12.803901331071867,-4.346683102408073
1134,-1.007644784967317,8.700996343728328,13.206984944863352,-4.543216292383528
1135,-1.098800209542108,8.762304343203782,13.665651046172131,-4.667281098724786
1136,-1.109551073958445,8.907248804666137,14.1807103833303,-4.671677265812512
1137,-1.0231020464929048,9.126877981007855,14.745707367583007,-4.5647983744499
1138,-0.8458084223072297,9.406311956354523,15.357318071233749,-4.384701039059174
1139,-0.5788589722622084,9.737333542235337,16.01696158199433,-4.15435730958793
1140,-0.21040599022449138,10.118263036803592,16.725034765277194,-3.8744389225569336
1141,0.2674542146163542,10.545144962268898,17.478949381258907,-3.546122423406728
1142,0.8351879615628034,11.002879810021366,18.25572699422977,-3.205721782493492
1143,1.4385933926814536,11.494545843762438,19.055119491536686,-2.8678679812682137
1144,2.032540680089133,12.007778100249514,19.850481370063637,-2.5375178787890267
1145,2.586822874665029,12.522647482866706,20.60196552235648,-2.205267233101689
1146,3.0727339733302808,13.01664893142986,21.26865992120785,-1.8694089588278882
1147,3.4627386712377564,13.466553441559505,21.821760518495296,-1.5463326001670281
1148,3.739914877225897,13.850954148230109,22.251803140108745,-1.2592493769692246
1149,3.906484228409376,14.154600946657638,22.566069771594954,-1.017923559432231
1150,3.983637794243482,14.373026297441925,22.782219458795772,-0.8200223640052715
1151,3.9996778593484827,14.513178927806596,22.921871030438087,-0.6692417464810261
1152,-0.28688370016662734,-0.7521899015750902,-0.7228395611812094,-0.22361425094622728
1153,-0.6888772595621881,-1.6350746282221436,-1.5264456525086723,-0.5832227435877528
1154,-1.2535531094439245,-2.8926428123422028,-2.670038703179977,-1.1319371966628364
1155,-1.9806888825992481,-4.525962041364897,-4.168640082705384,-1.8809024676239403
1156,-2.8474696237825037,-6.502110572457746,-6.014130336783437,-2.8029321766462543
1157,-3.817188913090518,-8.75837976275943,-8.171335413387855,-3.845232935751402
1158,-4.8599573198524775,-11.211312649090791,-10.582967637821364,-4.956566053426478
1159,-5.958658920299255,-13.770636038616011,-13.178829703407358,-6.098531393825331
1160,-7.100105568368648,-16.35680192335016,-15.885979767981292,-7.238883107825325
1161,-8.267776531465898,-18.919850301830753,-18.644257789797322,-8.341668291388418
1162,-9.45669093939806,-21.46248573587797,-21.42966224003095,-9.3855301936575
1163,-10.670794062786733,-23.954825536960563,-24.174168757674863,-10.372495400771383
1164,-11.916785690351501,-26.364067746750592,-26.80004300294225,-11.325418618738114
1165,-13.17748955585338,-28.654631197647266,-29.23050789260097,-12.256522843416361
1166,-14.400930113445876,-30.78576784808504,-31.402642141701854,-13.148924934441236
1167,-15.52760662135626,-32.71723645716514,-33.279015885537646,-13.971796570638542
1168,-16.522280859141443,-34.42010637471906,-34.85042057714304,-14.70458888252732
1169,-17.375128959193557,-35.87945025924892,-36.13373933528775,-15.335220308482024
1170,-18.08495608124806,-37.09084907478874,-37.16271755000797,-15.846262753261051
1171,-18.645356273504113,-38.05906889384008,-37.97182160007426,-16.211873910909752
1172,-19.054162671772396,-38.798905370046704,-38.591716411677986,-16.41940624280976
1173,-19.330044951559124,-39.3332738722333,-39.05830303632723,-16.492871435296973
1174,-19.51044003794114,-39.68814475120238,-39.41052953868357,-16.48874106266945
1175,-19.628440922289165,-39.88765607766457,-39.67367589682367,-16.46149093383346
1176,-19.69662000444638,-39.94932293948806,-39.850586085533756,-16.432053329714293
1177,-19.71987537717334,-39.88126691516952,-39.92776193153723,-16.40245732057208
1178,-19.70839392699662,-39.68480158055057,-39.88644425301697,-16.38383427742084
1179,-19.67130391747795,-39.358059295980226,-39.711157713839256,-16.39242949313819
1180,-19.602189896031756,-38.893210171499405,-39.39316752443666,-16.419624396539152
1181,-19.48208061361187,-38.27408930781818,-38.92945693752576,-16.425313534831286
1182,-19.297699359796628,-37.48397941968565,-38.32039530990404,-16.370825161076297
1183,-19.052066648385985,-36.51721100523871,-37.56637433084371,-16.242432160536637
1184,-18.76042608799242,-35.382055081300635,-36.66293554580917,-16.046888994287812
1185,-18.43226960847415,-34.09430475706165,-35.60874938321915,-15.79262389159748
1186,-18.064885092178237,-32.67685149672281,-34.42514398164906,-15.483430503632642
1187,-17.649439723458133,-31.167147690578282,-33.16010511403136,-15.12684897925742
1188,-17.18140457347936,-29.618203508312444,-31.870937324557296,-14.736534013291712
1189,-16.67035687948123,-28.09012481936667,-30.599705368438926,-14.326125064439658
1190,-16.11961131489595,-26.63662138173118,-29.35932059391864,-13.886840862505226
1191,-15.502518807328455,-25.292022235533963,-28.14219252388631,-13.370374597057362
1192,-14.778339959642148,-24.0659610571905,-26.939845604159732,-12.72009049828327
1193,-13.93075383258886,-22.9476928390018,-25.746347135473663,-11.92778505672986
1194,-12.985153530872175,-21.914909269625163,-24.551111171345475,-11.044625720156699
1195,-11.98932619280281,-20.940157730770142,-23.34016520080002,-10.135909947439837
1196,-10.98479058930595,-19.994526782889196,-22.10009892411743,-9.248770694941019
1197,-9.98648312391876,-19.052179090346648,-20.823983654221177,-8.413698531172402
1198,-8.991236517987367,-18.096065990446775,-19.52912214625749,-7.657710424390373
1199,-8.007280236099612,-17.120029998717705,-18.27094569531682,-7.012489527573493
1200,-7.053770427836026,-16.127866528790882,-17.128291042683866,-6.497490195145894
1201,-6.1318107160659,-15.132490275832449,-16.172910380238044,-6.096240711357931
1202,-5.213149286448853,-14.153586962873119,-15.444807252902,-5.751179448199269
1203,-4.263250438743354,-13.212362854003299,-14.93351260368677,-5.389204079198352
1204,-3.2722500643868577,-12.322981528363558,-14.577111897891688,-4.958300323009582
1205,-2.2618915254525507,-11.48646142121766,-14.287621805581665,-4.435826570468622
1206,-1.2611929774344688,-10.692930018393968,-13.981285508256086,-3.8104897161373814
1207,-0.28331680855642705,-9.928937406812022,-13.599542347562556,-3.0681587974134787
1208,0.6556534055716494,-9.183304161784275,-13.115376656198396,-2.2121951745864634
1209,1.518974578651003,-8.447608213172439,-12.532617020967301,-1.2822118372673115
1210,2.2750530478984263,-7.713083956697774,-11.879354826922969,-0.32592978637321224
1211,2.9254788783802934,-6.967552459174804,-11.193915458106716,0.6301800705706887
1212,3.5032181148929635,-6.19628855596585,-10.516030338710564,1.5795730550540856
1213,4.0422503675804355,-5.389484171915569,-9.879324098749123,2.515033853485346
1214,4.55114976298493,-4.548740577281316,-9.300256282145178,3.4168608783384893
1215,5.0220067673475075,-3.686385536815467,-8.767229040607235,4.262184714010862
1216,5.460572765877109,-2.8203802135820717,-8.237482610327996,5.043103440932003
1217,5.890919512236262,-1.970483518069135,-7.65628065182329,5.775663413162275
1218,6.32318594546294,-1.1568091864315506,-6.985462761150677,6.476970577661858
1219,6.733719933778645,-0.39953085428593893,-6.21406227248604,7.138506511628553
1220,7.078793351955521,0.2819148319649035,-5.357854331554454,7.729135582403276
1221,7.325828462568066,0.8733593409898066,-4.4605921917118865,8.222981237270753
1222,7.472836978854467,1.3684558799738533,-3.5859692748407563,8.615608866634602
1223,7.535494621733384,1.766642257468018,-2.796474345808507,8.904607419095276
1224,7.524553691798028,2.0747290388271815,-2.131624763919606,9.072741351932994
1225,7.442994996173776,2.3117175614594183,-1.5957654233878695,9.100775287432871
1226,7.31023642964027,2.5080248160193506,-1.1683543822919042,8.999079668083931
1227,7.1685809761748125,2.6992995298606846,-0.8252744948807035,8.815739272996574
1228,7.054857945738536,2.918691120983033,-0.5498928707239775,8.60207352379638
1229,6.979225748227764,3.189248505346775,-0.3298721935995458,8.382819745359802
1230,6.923713316981586,3.5221663622277686,-0.15106573964854475,8.158325761904786
1231,6.858044408347969,3.9191795929955804,-0.002834747487137121,7.9263736208153
1232,6.755434418728717,4.371142426399616,0.11920330121989248,7.690853477787046
1233,6.598166977461056,4.856006120084364,0.21889047444974766,7.450533111955553
1234,6.370243236857912,5.342132528378452,0.3018020993369576,7.184403256626925
1235,6.04693581997586,5.79500267571962,0.37349120097936594,6.848443542442082
1236,5.6101642867932995,6.183100490897877,0.4411335124361381,6.403670408164136
1237,5.066132925475406,6.481619492114241,0.5188332059790124,5.839643763787236
1238,4.439452579378516,6.676091590931233,0.6272636839252728,5.161960975190333
1239,3.751237563546745,6.766590629062018,0.7923107241693224,4.369853788310612
1240,3.003602824283947,6.766788064069913,1.0417003062570855,3.45353612509213
1241,2.1935092738091546,6.694354726471328,1.395660485389627,2.4180378223251955
1242,1.3321387710755712,6.562350480872779,1.8532818049879247,1.300015112895386
1243,0.4460256084601749,6.379841270036173,2.381756634508099,0.16008361649475997
1244,-0.44128614688492895,6.155044676866777,2.927941472303011,-0.9431308183908147
1245,-1.3222701060221826,5.894371500228531,3.441381945490287,-1.975915330616561
1246,-2.195428758906331,5.60067915212662,3.8904253794936743,-2.9211925849176112
1247,-3.0465285708244743,5.2756851248304235,4.264082202214077,-3.7602678112169583
1248,-3.834055122635046,4.925600305405781,4.562448640695634,-4.463548695672681
1249,-4.511877386846644,4.56366182471901,4.788138631641961,-5.00271093460235
1250,-5.067023289887473,4.2073401438949585,4.9462033660615115,-5.3711696817974355
1251,-5.51910403275409,3.8701407568076234,5.051144692232955,-5.579613775352047
1252,-5.886136346713195,3.553203413913316,5.126528006086616,-5.63819621294115
1253,-6.162660725916062,3.247099919416176,5.194961453678232,-5.549558610717994
1254,-6.338811962118464,2.9391476773337093,5.264071684387486,-5.326978728632002
1255,-6.422950042511632,2.6168922760175,5.320836088914549,-5.00786055544805
1256,-6.439406335649368,2.2684026395492727,5.339618251443911,-4.637664790962898
1257,-6.4103423376020015,1.886327466755396,5.2938664645288185,-4.250619693058996
1258,-6.347231336822971,1.4758652413439537,5.172813860076505,-3.864487445072011
1259,-6.260257616486843,1.0536738194835393,4.997063065752979,-3.4953021321157225
1260,-6.160313662410461,0.6407064662035012,4.8139232131155625,-3.169604089674714
1261,-6.053997534630086,0.26126945538766183,4.66479304036641,-2.9124887143591156
1262,-5.933503343271014,-0.05786136372815349,4.554409589427492,-2.723566907338398
1263,-5.769746612275841,-0.29296040239309873,4.455756740353927,-2.567339002043859
1264,-5.5369585420314325,-0.43134364391684227,4.340128129345299,-2.4048778201886165
1265,-5.244485761310862,-0.47912032732544857,4.201703761027615,-2.2291956894556026
1266,-4.927094834600474,-0.4589735063651202,4.056192945844045,-2.0573345628150554
1267,-4.605561554565708,-0.3979623582453045,3.927645195810316,-1.8966926255226264
1268,-4.27576674266845,-0.3173355414665983,3.8413215232898055,-1.7282010320644337
1269,-3.9366649802648346,-0.22741306629518848,3.8222317059964257,-1.5310733262925191
1270,-3.6437568739874058,-0.14823741772712404,3.8827244965757943,-1.366302904519517
1271,-3.4022953118376704,-0.05500840017203203,4.050977068716685,-1.1860133761280462
1272,-3.210318643879873,0.06453976332497971,4.338899825640569,-0.9558631887754971
1273,-3.0500500205391927,0.21422601478190903,4.738455387962872,-0.6537070177526171
1274,-2.9017652234313274,0.3916484205825676,5.215980207415612,-0.2834139328534848
1275,-2.755198679015284,0.5897158678759568,5.714133841015212,0.12492505066957299
1276,-2.609525825833928,0.7977876786454593,6.166009767550736,0.5324583332036598
1277,-2.466477262166396,1.0026741382077191,6.51834365203984,0.913297618675011
1278,-2.326289674740465,1.1890840799316,6.752013853470911,1.2564359073454232
1279,-2.1920792763237897,1.341761216569654,6.882093830578538,1.5495762163442204
1280,-0.09385685384721495,-0.3341098525530232,-0.20859217479565806,-0.07447540278686524
1281,-0.3589925463762452,-0.8070431449847446,-0.5749924204525658,-0.2710573369057083
1282,-0.7735468947991233,-1.5215966325520984,-1.1630844735959773,-0.6009226023410861
1283,-1.3508988382194045,-2.493717073670539,-2.023742080144544,-1.08536578021962
1284,-2.0729439630443918,-3.716383850293908,-3.187850794502308,-1.719047413257083
1285,-2.8981675562407343,-5.159014874071213,-4.657193603862444,-2.4784542607889364
1286,-3.781852263102291,-6.771690713364601,-6.403343486404648,-3.3361079087580094
1287,-4.687221997045249,-8.494903115259124,-8.363990423488739,-4.2637558739360575
1288,-5.58329244449922,-10.269845518453367,-10.44361445350891,-5.22283069895559
1289,-6.438052831189996,-12.04877988395507,-12.535353133597638,-6.162893057109592
1290,-7.230639947778854,-13.810622991737414,-14.55898846543779,-7.041452663297424
1291,-7.966004678114118,-15.521065285121445,-16.456024216703554,-7.841473971108608
1292,-8.667124412948883,-17.14946713428224,-18.2083014971409,-8.564771022263168
1293,-9.348220413913735,-18.671105087482392,-19.82500338810552,-9.216996536107803
1294,-10.000262244220771,-20.06658733112428,-21.322896435158967,-9.795272202263856
1295,-10.616147209354603,-21.3212760771525,-22.718811782291024,-10.306002919511478
1296,-11.216616003412927,-22.42636942250447,-24.034020964285244,-10.788245705990576
1297,-11.834931063884321,-23.38220512520789,-25.290683996062416,-11.292666658723604
1298,-12.486155709524223,-24.200287744169735,-26.49278326768507,-11.848826209563029
1299,-13.155062481065224,-24.899200117929936,-27.61477944177255,-12.451393320653967
1300,-13.816809341612203,-25.497489545186326,-28.621229824987882,-13.078639549109129
1301,-14.45768627559284,-26.00919942673451,-29.493172752336676,-13.715893249806346
1302,-15.070086708222803,-26.442727158779466,-30.228334385801617,-14.350575201397145
1303,-15.637262097450892,-26.799978958389413,-30.829944110235523,-14.957590150593658
1304,-16.128843865686417,-27.07661791100176,-31.301817350193428,-15.492240450014831
1305,-16.519198811180598,-27.266442049472563,-31.648057100946282,-15.912466723557692
1306,-16.808530959040795,-27.367049862694866,-31.871187290830548,-16.20759266804525
1307,-17.018395067314014,-27.381240964210022,-31.96780535968594,-16.39455048658867
1308,-17.165809132076543,-27.316092600366744,-31.92795896767473,-16.494551142504736
1309,-17.25093932523259,-27.18302848878956,-31.741009847497363,-16.519141465402477
1310,-17.269121381450713,-26.997646872913876,-31.40416888729037,-16.482124082227546
1311,-17.223953986421122,-26.77903607000567,-30.93181502926485,-16.41355979662114
1312,-17.123788149177514,-26.547003406928265,-30.358873235919827,-16.34726352225904
1313,-16.959193941931463,-26.31545754231532,-29.73039859690331,-16.286630430699567
1314,-16.70137815574166,-26.08801712899467,-29.08939561363708,-16.198931223813265
1315,-16.328737823006666,-25.86031391764972,-28.469231556344234,-16.050985903637415
1316,-15.845687584919949,-25.626332713710386,-27.8867778884982,-15.839655048057491
1317,-15.287086571132436,-25.38471513336869,-27.334788868548042,-15.596461713892419
1318,-14.700575298895282,-25.13890975694326,-26.78488531676576,-15.35554386352845
1319,-14.123970095631314,-24.891408724131477,-26.204374894723404,-15.129923113587445
1320,-13.577832598867056,-24.638834656721897,-25.569265582390432,-14.926947031911498
1321,-13.073641272163124,-24.37070002626751,-24.870026856663802,-14.762346805195094
1322,-12.624334673857238,-24.07115141268682,-24.11593276065376,-14.654642974551056
1323,-12.23653080246867,-23.72259806698022,-23.33376518923971,-14.601849318695056
1324,-11.90241454364805,-23.309282646027476,-22.556383486544973,-14.574032937004707
1325,-11.601687993687852,-22.820279234898052,-21.811832298191757,-14.532470285778205
1326,-11.315555955132178,-22.252903288718734,-21.11808889501435,-14.451238529051444
1327,-11.044071419337087,-21.613994099438347,-20.47866787170004,-14.32834692107571
1328,-10.800444058965134,-20.9161098647881,-19.881338454496415,-14.172415942871693
1329,-10.595013691468216,-20.17375354908641,-19.29718428371623,-13.98946504952239
1330,-10.426296907713915,-19.402702903596754,-18.68267205493497,-13.786175284523834
1331,-10.289648437461945,-18.618975147187726,-17.992062051902614,-13.577975459824138
1332,-10.190302657770639,-17.836102154557047,-17.19305038537017,-13.389802855833086
1333,-10.136326799161335,-17.062138400916844,-16.274949077398492,-13.236471609271469
1334,-10.118166390120834,-16.296798170416135,-15.246460350066977,-13.100937810554404
1335,-10.1004056029555,-15.53165584792536,-14.132336992515238,-12.937065570513987
1336,-10.04907672179147,-14.757091738775314,-12.97446837111124,-12.70542536455689
1337,-9.95845078558961,-13.96683008231634,-11.834401262107743,-12.400353426029902
1338,-9.84383877093659,-13.155638731605217,-10.787002200722767,-12.038289504639437
1339,-9.718890931497391,-12.321566907297921,-9.899105331017688,-11.635303099869526
1340,-9.583974549093965,-11.47346562925964,-9.205345585522839,-11.19195796282018
1341,-9.442432065747282,-10.63078216455215,-8.700523520945366,-10.704520162958657
1342,-9.31929495692658,-9.81490911333085,-8.35220142863547,-10.188900251443586
1343,-9.248612558256434,-9.041760638838563,-8.11512614982103,-9.681607748565105
1344,-9.24328297225383,-8.319890336362898,-7.939016674406382,-9.213617904377193
1345,-9.289748680935947,-7.65199508352878,-7.773530083986121,-8.784508756939486
1346,-9.371445862164764,-7.037674630764795,-7.576834320310002,-8.376519249283637
1347,-9.482042743181925,-6.4751733769556274,-7.324082187603708,-7.980107171888832
1348,-9.615834223826571,-5.959825225136654,-7.006637153850522,-7.589068820933106
1349,-9.749670714977135,-5.482523786106706,-6.623948631242483,-7.182084639026982
1350,-9.840689150754216,-5.030171136317892,-6.176255585211625,-6.72265268115688
1351,-9.843800427008526,-4.588031990476243,-5.666853645660291,-6.181280891336098
1352,-9.731524885810105,-4.143159162973726,-5.1073348457282295,-5.554798723918707
1353,-9.501411608031757,-3.6858173228435436,-4.518835147479718,-4.864998428288756
1354,-9.155216918698224,-3.2090408012096043,-3.929355296403609,-4.1347288356367216
1355,-8.684078710652303,-2.7087383997565495,-3.3665897629064996,-3.3772602957772926
1356,-8.079584629700207,-2.1816448427629487,-2.8559105320666722,-2.614034843254755
1357,-7.3470836702825055,-1.620362734925959,-2.422021696449565,-1.881930346221958
1358,-6.51107066706312,-1.015937891482567,-2.085195033474799,-1.2184275918741123
1359,-5.599499210349396,-0.3672039643501563,-1.8550354509632307,-0.6328734776649909
1360,-4.625823466718691,0.31725891231606096,-1.7234990019301701,-0.09401700986429884
1361,-3.5871418032925253,1.0229111956260066,-1.658763521508999,0.4410852161724055
1362,-2.476102259724129,1.7319120150350795,-1.6077962822356682,0.9897408002593893
1363,-1.2991790986918599,2.4253545240120915,-1.509323233892063,1.5395472934991377
1364,-0.07555038231069319,3.085860465320045,-1.3105174109827304,2.079342703981386
1365,1.1719327214541417,3.6984429903274694,-0.9836321463443702,2.614979954290306
1366,2.4165713054899483,4.248295527667398,-0.5325120393560259,3.1500898723471207
1367,3.6232610976106634,4.719804752217527,0.015903166697055313,3.6711257932521835
1368,4.744614071622839,5.098890622805567,0.6246183788106856,4.150626284741204
1369,5.735759055937042,5.377636349498017,1.257760286262517,4.5654381158700845
1370,6.580171575681974,5.557454496897707,1.8827405718727226,4.91904318113378
1371,7.294530196114139,5.647493340174243,2.4666712367067594,5.241134508459382
1372,7.901241291324251,5.660593767904124,2.978393374279081,5.559689920916012
1373,8.404655948122082,5.609069672830139,3.3891254353123466,5.877840934509606
1374,8.800239428310757,5.503761111068347,3.6732414155884348,6.181722685760759
1375,9.096545237017116,5.355987304410686,3.81351142436092,6.457013112928898
1376,9.32191458580942,5.178560078485098,3.809401019651327,6.692802848588806
1377,9.499676986506374,4.985634825159751,3.6843296101612877,6.871625867911143
1378,9.620257037324727,4.788488313602735,3.4782488679944206,6.963140824994878
1379,9.647419564698305,4.589070413712183,3.232916542644129,6.9426966275656605
1380,9.553656211019181,4.37976728850052,2.9850890602616063,6.815545879016046
1381,9.34257218464614,4.149079966144206,2.7682788515256025,6.621992547679773
1382,9.034086125714602,3.8867753687516653,2.6160197617104264,6.41138576106179
1383,8.647797645428886,3.58643005969845,2.5557273101143463,6.215545670766945
1384,8.200492088113664,3.247730419857341,2.5931653473621084,6.052333109977565
1385,7.714218128644248,2.877742943186275,2.703111999076917,5.93583151952264
1386,7.223905065733609,2.4865392846636456,2.8418249723605893,5.878332897007781
1387,6.758543652551643,2.0813903967351637,2.975038338425751,5.87330526825016
1388,6.323047175028567,1.667138623573604,3.096337482433132,5.881131358400602
1389,5.9118920531886445,1.2513090835561207,3.223052807002329,5.848992737837564
1390,5.535179245416033,0.8478645053337516,3.3792281656684144,5.743621774424232
1391,5.2218043789411235,0.4747656110116054,3.5846843206800587,5.56447458380435
1392,4.989634951883428,0.14559704412396574,3.8512734973787004,5.324020073811415
1393,4.8181849373074535,-0.13724760452064683,4.178469262269336,5.029733201240783
1394,4.654973628008782,-0.3805264523493862,4.550682072701874,4.687939383319856
1395,4.45114172785542,-0.5906134669201419,4.9438265070149034,4.317955929556052
1396,4.189671127888135,-0.7651570659412196,5.339189772712499,3.959985648755294
1397,3.8805561223903693,-0.89517375259781,5.72822389065598,3.6505355615437494
1398,3.548116508140635,-0.9720617702023592,6.093661218990065,3.399511695144927
1399,3.1687261658179535,-1.001990777140718,6.454573877343635,3.1569922377571764
1400,2.746795086796444,-0.9944339534944845,6.814577075145675,2.903451559305582
1401,2.3124730239341105,-0.9611016912767137,7.175553331044683,2.644610570853371
1402,1.901830410692116,-0.9150462691289633,7.542073543797939,2.3882557368484285
1403,1.5392258912879508,-0.8680864913392045,7.913672922077416,2.1348880521329656
1404,1.237309169987833,-0.8266664539722562,8.27581180024006,1.88479132132699
1405,1.009173868821567,-0.7923193312252746,8.601767334473426,1.6518181343005933
1406,0.8639955136245511,-0.7665146187747557,8.865457184991522,1.458670691437089
1407,0.7911399709170993,-0.752760741856887,9.052394230197063,1.3163639407470211
1408,-0.2636222275916461,-0.607358513008124,-0.4215697356181728,-0.3703271451250739
1409,-0.7220768591084386,-1.3565767545120857,-1.0709948632985797,-0.8602552927814564
1410,-1.434023651436111,-2.4300822279268637,-2.038693750418253,-1.5536169552542256
1411,-2.4304222499940322,-3.8358625904020016,-3.316717238068956,-2.4482517826343644
1412,-3.6997369819350685,-5.556216445635753,-4.8527685195159,-3.5065248727886993
1413,-5.190938910019816,-7.547323081010933,-6.567027433998319,-4.667870495425983
1414,-6.835656782937754,-9.742520326334889,-8.381819073611778,-5.876847072276437
1415,-8.56264068824074,-12.05933315770597,-10.237224706101633,-7.092308634878684
1416,-10.299321646727478,-14.413311527990592,-12.090673293607473,-8.281665349139548
1417,-11.969561951194923,-16.737173319447493,-13.921079520667481,-9.421383618036815
1418,-13.520215863108405,-19.00468256382069,-15.742720402756543,-10.51557359659679
1419,-14.929596576298435,-21.16668091276675,-17.548667692879203,-11.58015394199296
1420,-16.215597298936004,-23.175890145501388,-19.31820698692302,-12.634867952034611
1421,-17.404028612082392,-24.992917018788383,-21.01858810901675,-13.67378474696083
1422,-18.502516037980467,-26.5891946209197,-22.61170659693444,-14.655709386310845
1423,-19.506981734995975,-27.9454606157408,-24.05360237414832,-15.531275244617207
1424,-20.416400543109134,-29.052591481124892,-25.296067744381556,-16.268771973777998
1425,-21.22704693562671,-29.915346461740242,-26.3007135636568,-16.850406370241416
1426,-21.915340878878332,-30.548356214424572,-27.0564362354511,-17.255956402241065
1427,-22.43150106615593,-30.963555771033622,-27.58081920733134,-17.451634543218603
1428,-22.7270390401484,-31.16668546181379,-27.906528893328257,-17.414815879941298
1429,-22.784159296342573,-31.165279365709946,-28.06993652486951,-17.16415714390873
1430,-22.613202687846716,-30.97126373181443,-28.105281639773082,-16.748993521946673
1431,-22.230861574510605,-30.596796169347787,-28.037643739328736,-16.216139080601273
1432,-21.650694891507694,-30.054803920160865,-27.881698998964374,-15.59225411165357
1433,-20.897053119103134,-29.36175720392243,-27.648447836429987,-14.899874241478539
1434,-20.016751400179267,-28.53825329826676,-27.34031360217588,-14.17325360360154
1435,-19.069576991251406,-27.608724591688375,-26.94649108672699,-13.454417820581865
1436,-18.09478972641534,-26.598994481230356,-26.453525861451176,-12.772108643918045
1437,-17.096878321627972,-25.53279683434677,-25.853530105074558,-12.12334906259434
1438,-16.07280372971161,-24.430861715241424,-25.148070771997194,-11.497015745261686
1439,-15.037057943971043,-23.31218780798089,-24.353532493889418,-10.905174881357832
1440,-14.021479330954852,-22.194112273889797,-23.498991146371914,-10.373453646630216
1441,-13.052592319370312,-21.09159943692904,-22.616964721782608,-9.910387180530671
1442,-12.139826632328726,-20.017374487089704,-21.735942064768988,-9.500914105186425
1443,-11.285129223666493,-18.985174830247175,-20.876264697797225,-9.12808697936866
1444,-10.496126131681619,-18.014534406807847,-20.055439370709664,-8.792502698575026
1445,-9.792985982746561,-17.12695217290671,-19.301193680642275,-8.509137151237205
1446,-9.189913623801065,-16.334043942478644,-18.64539610903796,-8.278202074262495
1447,-8.679077906089372,-15.633757341009522,-18.09850416503599,-8.073784040283307
1448,-8.236897462342757,-15.017425540321566,-17.635878058273754,-7.865840426931191
1449,-7.841746158720641,-14.473647385597452,-17.20670483203196,-7.640537627054445
1450,-7.491060100845824,-13.988494254206952,-16.75620839444023,-7.40429911926732
1451,-7.192781397060625,-13.549970687329541,-16.246014523803833,-7.166554115318721
1452,-6.944577971521751,-13.15337049983844,-15.662556436582634,-6.925325907138814
1453,-6.72649618651394,-12.798754265576873,-15.009536195047758,-6.672409477726333
1454,-6.519208091151079,-12.48188103014566,-14.296805606133969,-6.413403646623495
1455,-6.322179347490824,-12.193505905841754,-13.535836100494603,-6.179183971217299
1456,-6.145620440370982,-11.927643272963286,-12.739370773873743,-5.997884160838901
1457,-5.99498581170581,-11.68546919132266,-11.931527464958787,-5.87410943155681
1458,-5.859903713870834,-11.471152003599187,-11.155634556309064,-5.8031526817581405
1459,-5.727779998276947,-11.284674412411938,-10.460953010000521,-5.786969701477143
1460,-5.605617863253243,-11.11882283328439,-9.882749724572855,-5.840202660337271
1461,-5.513175319897277,-10.960671417690723,-9.433488498972194,-5.978599085738903
1462,-5.458941578655764,-10.79551573037011,-9.101666238106883,-6.198578495122829
1463,-5.429668726423662,-10.611386155819773,-8.85427617566418,-6.470982514800251
1464,-5.410709916446591,-10.400358555639386,-8.6456358619164,-6.759661448596813
1465,-5.404263824777292,-10.156794629405086,-8.433437806416404,-7.038438364004199
1466,-5.421285093283821,-9.875510620330118,-8.19334822972189,-7.28857315219549
1467,-5.461219509660009,-9.551587894752675,-7.919117442084436,-7.489173045455519
1468,-5.504712619819327,-9.18175663696221,-7.6154263299428315,-7.608663648161025
1469,-5.536897547479994,-8.768032643309873,-7.297038043213391,-7.623115324195611
1470,-5.5681227039520484,-8.320865029566749,-6.988572462732216,-7.546075854056614
1471,-5.623873744542405,-7.858667355482908,-6.719262627006695,-7.426626137204412
1472,-5.715746317459535,-7.401193115272867,-6.515943352495057,-7.316134406190453
1473,-5.8275373089608635,-6.96015763539005,-6.395952176819831,-7.243138201617359
1474,-5.9338837442570735,-6.538890376819023,-6.361362206106394,-7.226554140840095
1475,-6.021713208875551,-6.138071249221078,-6.40074267102501,-7.286015882140713
1476,-6.088667557237608,-5.757250215427011,-6.49595217773824,-7.423565190545633
1477,-6.121786217594378,-5.396251180280242,-6.62458314318757,-7.604809492394118
1478,-6.094443354173179,-5.05763347294355,-6.760830244609143,-7.761903805406137
1479,-5.988589858012403,-4.745619310980218,-6.879158435417861,-7.82579862088316
1480,-5.8095130827198505,-4.464650058819968,-6.960904981245194,-7.755929825400345
1481,-5.585342304149124,-4.218341261805375,-6.999590489445857,-7.542217899564925
