,TP9,AF7,AF8,TP10
0,-1.0607211938388327e-13,-3.683947527632293e-14,-3.6897948177438385e-14,-2.7591885118724898e-14
1,-2.4592114687601e-12,-7.95079873651176e-13,-7.910448638341614e-13,-5.709742651587919e-13
2,-2.947079927157824e-11,-9.54166390523902e-12,-9.446259705996503e-12,-6.8169362815480055e-12
3,-2.3485374813646654e-10,-7.677882333031174e-11,-7.562676262685306e-11,-5.458669367786753e-11
4,-1.402638131426348e-09,-4.6562169924272873e-10,-4.5638234948177435e-10,-3.2934660771360217e-10
5,-6.717129212874631e-09,-2.2756748951545056e-09,-2.220091817595219e-09,-1.6010479865062996e-09
6,-2.695204408450305e-08,-9.361096722648817e-09,-9.092691972829516e-09,-6.550452094163421e-09
7,-9.347890284651328e-08,-3.341569485903926e-08,-3.2328389253357816e-08,-2.3259704629470582e-08
8,-2.8690568261330725e-07,-1.0589018752983919e-07,-1.0207736383349462e-07,-7.334287236153726e-08
9,-7.936725151035151e-07,-3.031655622872301e-07,-2.9131566019662914e-07,-2.0904556704034158e-07
10,-2.0082906897765648e-06,-7.952333838578069e-07,-7.619881368711944e-07,-5.462393340792988e-07
11,-4.7047295518292895e-06,-1.9329673410569134e-06,-1.8475318353947812e-06,-1.3235865177248483e-06
12,-1.0306278842386336e-05,-4.394654406629383e-06,-4.1911552880454605e-06,-3.0021662829566603e-06
13,-2.1288511243996136e-05,-9.418337951306027e-06,-8.964739303172752e-06,-6.424338744007143e-06
14,-4.175413001703558e-05,-1.915209630770933e-05,-1.8198451896380082e-05,-1.3055289641368396e-05
15,-7.822088024689329e-05,-3.715892573338581e-05,-3.525551035330497e-05,-2.533516560726403e-05
16,-0.0001406637840518167,-6.911568253006832e-05,-6.548933949159958e-05,-4.717353356422191e-05
17,-0.0002438503253627549,-0.00012374589144808443,-0.00011712108141651607,-8.462058018090888e-05
18,-0.00040900156631788076,-0.0002140236017977817,-0.00020237352695966354,-0.000146750480658864
19,-0.0006658032996154599,-0.0003586795070404169,-0.0003388927220753815,-0.0002467911852124965
20,-0.0010547790891661593,-0.0005840310961263404,-0.0005514805752474845,-0.00040353102303280813
21,-0.001630021456130972,-0.000926145776634836,-0.0008741507544544279,-0.0006430256545996834
22,-0.0024622588043089876,-0.0014333300492880689,-0.0013525062079980431,-0.0010006188526524439
23,-0.003642214475973018,-0.002168919500879774,-0.0020464201738086595,-0.0015232774470551086
24,-0.005284191340139554,-0.0032143243951866774,-0.003032984166891854,-0.0022722248861321696
25,-0.007529791520881271,-0.004672264908060879,-0.004409666955978286,-0.003325839860694904
26,-0.010551657505081831,-0.0066701096049134895,-0.006297608910529687,-0.004782767133060545
27,-0.014557099374438115,-0.009363211678122128,-0.008844957363379083,-0.006765168087717741
28,-0.019791454806259025,-0.01293812082738496,-0.01223013186337817,-0.009422019620890329
29,-0.026541015180181655,-0.017615535499448307,-0.01666489441149377,-0.012932352850980242
30,-0.035135343755217846,-0.023652851421115423,-0.02239708989241032,-0.017508308715341325
31,-0.045948811298727334,-0.03134615872898669,-0.02971291665970425,-0.02339787664229178
32,-0.05940118134172114,-0.041031542104372355,-0.03893858709998621,-0.03088717582152868
33,-0.07595709170226496,-0.053085546526821265,-0.05044124321914045,-0.040302136663762096
34,-0.09612430102385117,-0.06792468568164356,-0.06462900282607763,-0.052009443223574606
35,-0.12045059842682525,-0.08600389054404302,-0.08195002746103267,-0.06641660589390937
36,-0.14951931026632054,-0.10781382178794134,-0.10289052335688129,-0.08397104763874133
37,-0.18394337947189876,-0.13387700073468625,-0.12797161081935912,-0.10515810629650987
38,-0.2243580388039837,-0.16474274861847676,-0.1577450247551578,-0.13049787973510485
39,-0.2714121481081629,-0.20098096183294073,-0.19278763889521064,-0.16054086931760062
40,-0.325758315510298,-0.24317479018741464,-0.23369483774900393,-0.19586240946953945
41,-0.3880419715082211,-0.2919123245625098,-0.281072792658326,-0.23705590614368505
42,-0.4588896110362343,-0.3477774381617814,-0.3355297306558942,-0.2847249435221357
43,-0.5388964597686247,-0.41133996025332675,-0.39766631632653027,-0.3394743551452763
44,-0.6286138552080112,-0.4831453913890707,-0.46806529666039604,-0.40190039153666535
45,-0.7285366586432379,-0.5637043932251301,-0.5472805861259017,-0.4725801500358681
46,-0.8390910293393125,-0.6534823031006968,-0.6358259930395356,-0.5520604627514223
47,-0.9606228962992764,-0.7528889326049678,-0.7341638079849708,-0.6408464642131464
48,-1.093387455143317,-0.8622689099519963,-0.8426934898344633,-0.7393900805086558
49,-1.2375399981665134,-0.981892817950779,-0.9617406942790787,-0.8480786957016748
50,-1.3931283550502234,-1.1119493629499873,-1.0915468932674366,-0.9672242586312586
51,-1.5600871810790933,-1.2525387859704085,-1.2322598311533357,-1.0970530934862608
52,-1.7382342805737578,-1.403667696251467,-1.3839250546168962,-1.2376966707676957
53,-1.927269097468167,-1.565245470821951,-1.5464787386942147,-1.3891835815422093
54,-2.1267734446259783,-1.7370823228217638,-1.7197420108423642,-1.551432937600924
55,-2.3362144807560763,-1.9188890976060113,-1.9034169493469835,-1.7242493937903571
56,-2.5549498808153914,-2.110278810630507,-2.097084402137562,-1.9073199570411672
57,-2.7822350847414645,-2.3107698961880154,-2.3002037378912585,-2.1002127102790293
58,-3.0172324523497416,-2.519791092593421,-2.5121146039221114,-2.3023775393654393
59,-3.259022101191959,-2.736687848639668,-2.732040725551353,-2.513148908486513
60,-3.506614160711288,-2.960730099153465,-2.9590957402403486,-2.731750685057847
61,-3.758962141372822,-3.191121225195609,-3.1922910175585972,-2.957302970360633
62,-4.014977092452289,-3.4270079876355,-3.4305453738856047,-3.1888308479003995
63,-4.273542207342013,-3.6674912020829504,-3.6726965494570085,-3.425274918997396
64,-4.533527530722297,-3.911636908926946,-3.9175142758353707,-3.665503455427874
65,-4.79380442749651,-4.158487784794585,-4.163714725004723,-3.9083259629807947
66,-5.05325948839141,-4.4070745412139205,-4.409976097941134,-4.1525079183682
67,-5.310807570710494,-4.6564270625619395,-4.654955081548487,-4.396786415648634
68,-5.56540370384313,-4.9055850482200425,-4.897303879049578,-4.639886437632416
69,-5.81605362655174,-5.153607942751059,-5.135687500970436,-4.880537452908484
70,-6.061822765384808,-5.399583962161993,-5.368800992315964,-5.11749003028815
71,-6.3018435092732705,-5.64263805305509,-5.595386266832954,-5.349532159595266
72,-6.5353206829280825,-5.881938653691455,-5.814248221664413,-5.575504970733304
73,-6.761535169621711,-6.116703160609031,-6.02426981531787,-5.794317551637589
74,-6.97984568097365,-6.346202040338881,-6.224425808626654,-6.004960579832845
75,-7.189688716232475,-6.56976156187117,-6.413794892025918,-6.206518501585861
76,-7.3905767951224455,-6.786765160827955,-6.591569952569933,-6.398180016770559
77,-7.582095085640071,-6.996653479893794,-6.757066270092582,-6.5792466562316525
78,-7.763896580502677,-7.198923161130064,-6.909727473013107,-6.749139271308418
79,-7.935696002730862,-7.3931244936505065,-7.049129129632933,-6.907402291896614
80,-8.09726264170205,-7.578858044160633,-7.174979899360055,-7.053705649565319
81,-8.24841233569913,-7.755770417562441,-7.2871202190459865,-7.187844305311499
82,-8.388998825456515,-7.923549309816645,-7.385518551364421,-7.309735366935821
83,-8.518904705705488,-8.081918025282251,-7.470265273687034,-7.419412828063319
84,-8.63803219871881,-8.230629635705895,-7.541564335981628,-7.51702000870902
85,-8.746293965989212,-8.369460957943089,-7.599722863644494,-7.602799825099201
86,-8.843604162166859,-8.49820652254175,-7.645138924706894,-7.677083063207932
87,-8.92986992001858,-8.616672695828154,-7.6782877194402985,-7.7402748750965475
88,-9.004983437329269,-8.724672104563862,-7.699706483059402,-7.792839758562145
89,-9.068814817246164,-8.822018495167596,-7.709978418143287,-7.835285317746009
90,-9.121205793371315,-8.90852213959684,-7.709715991847768,-7.868145134225527
91,-9.16196445049521,-8.983985878017494,-7.69954394339209,-7.891961103815537
92,-9.190861031472991,-9.048201865162584,-7.680082349273378,-7.9072656130611865
93,-9.207624900319527,-9.100949063620783,-7.651930087033007,-7.914563940578885
94,-9.211942710891496,-9.141991504016676,-7.615649023301236,-7.914317271510623
95,-9.203457809226999,-9.171077309915843,-7.571749228743907,-7.906926708082056
96,-9.181770875488303,-9.18793846500442,-7.520675492230713,-7.892718645453231
97,-9.146441788431002,-9.192291282252372,-7.462795370158476,-7.871931859769125
98,-9.096992671561035,-9.183837519857006,-7.398388965778891,-7.844706624805244
99,-9.032912056047573,-9.16226607713701,-7.327640589182493,-7.8110761353244476
100,-8.953660071699522,-9.12725519543604,-7.2506324029891305,-7.770960469897212
101,-8.858674554802974,-9.078475084592709,-7.1673401135621475,-7.724163274384102
102,-8.747377941521556,-9.015590894603356,-7.077630724456283,-7.670371290625096
103,-8.619184799227014,-8.938265954571866,-6.9812623294798675,-7.60915679437519
104,-8.473509836912832,-8.846165206598664,-6.877885888627947,-7.53998294353579
105,-8.309776230871313,-8.738958770460927,-6.767048902298157,-7.46221197369315
106,-8.12742410373582,-8.61632558520015,-6.648200878247298,-7.375116114346109
107,-7.925919003872339,-8.477957085370479,-6.520700471765901,-7.277891037432198
108,-7.704760247445387,-8.32356088194483,-6.383824172089837,-7.169671591253349
109,-7.463489006275029,-8.152864429929059,-6.236776406198569,-7.0495495190165265
110,-7.201696049405205,-7.965618675823392,-6.078700933552359,-6.916592813223229
111,-6.919029073348797,-7.761601687501075,-5.908693410424314,-6.769866316250746
112,-6.615199583341781,-7.540622276282029,-5.72581500860591,-6.608453144733608
113,-6.2899893137693805,-7.302523625567954,-5.529106978757552,-6.431476491699426
114,-5.9432561985904355,-7.0471869421597955,-5.317606052051802,-6.238121346591381
115,-5.574939920730105,-6.774535145261318,-5.090360573796935,-6.027655669863527
116,-5.185067081969328,-6.484536604300833,-4.846447258558901,-5.799450566057433
117,-4.773756041090924,-6.177208930327891,-4.584988447443667,-5.552999017167694
118,-4.341221467615025,-5.85262281722713,-4.305169734606546,-5.287932766386401
119,-3.8877786515001764,-5.510905918796475,-4.0062578120911185,-5.004036980391499
120,-3.413847596248884,-5.152246736391245,-3.6876183605377966,-4.701262365335353
121,-2.919956904801042,-4.776898479907191,-3.3487337892564826,-4.3797344664687685
122,-2.4067474455224955,-4.385182852930754,-2.9892206040123983,-4.039759942556815
123,-1.874975760790908,-3.9774937014511016,-2.6088461561818352,-3.6818296723855544
124,-1.3255171545902282,-3.5543004550584683,-2.2075445043110085,-3.3066186200639085
125,-0.7593683696334341,-3.116151280407838,-1.7854311001343914,-2.9149824567215727
126,-0.17764974023451824,-2.66367585917575,-1.342815997229308,-2.5079510067427435
127,0.41839331432608656,-2.197587696981671,-0.8802152729614109,-2.086718654980139
128,-1.2588732356260612e-13,-4.331852506853585e-14,-3.9765325082621195e-14,-3.4247162519388013e-14
129,-2.8453914162509105e-12,-9.005423510509486e-13,-8.603843904355688e-13,-7.212417516784202e-13
130,-3.370477139928912e-11,-1.0786132957256197e-11,-1.0353447992155816e-11,-8.723207836199201e-12
131,-2.655299119296711e-10,-8.633439007538282e-11,-8.348072918675873e-11,-7.06124393428342e-11
132,-1.5698158402394189e-09,-5.207013998242325e-10,-5.071986861392165e-10,-4.3024348925255654e-10
133,-7.451230378172455e-09,-2.5304376286618097e-09,-2.4830546177982743e-09,-2.109627104055124e-09
134,-2.9671399486858123e-08,-1.0350263605633002e-08,-1.0230358994073362e-08,-8.694345883594852e-09
135,-1.0226125710330419e-07,-3.6744248686822e-08,-3.6574890066421915e-08,-3.105535236626076e-08
136,-3.122576972418167e-07,-1.1583397663176005e-07,-1.1607947630056552e-07,-9.83711054159789e-08
137,-8.603596317449112e-07,-3.3003735575081874e-07,-3.3285588229535194e-07,-2.8129993074664903e-07
138,-2.1705485136040716e-06,-8.619093671383094e-07,-8.744997642585415e-07,-7.36575807267525e-07
139,-5.0741541056735575e-06,-2.086713864284758e-06,-2.129053040002292e-06,-1.7866132244150746e-06
140,-1.1100312912840112e-05,-4.727375693525839e-06,-4.848235095775086e-06,-4.0527059367728215e-06
141,-2.291054720764073e-05,-1.0099604170810674e-05,-1.0406882230970475e-05,-8.665723499940254e-06
142,-4.4919431244216614e-05,-2.0480806374194665e-05,-2.119489597830834e-05,-1.7583333991165092e-05
143,-8.414512880726524e-05,-3.964116133978511e-05,-4.1183222250127145e-05,-3.4047093399006426e-05
144,-0.00015133221752236208,-7.357809160117872e-05,-7.67086529048048e-05,-6.321558791147314e-05
145,-0.000262384115188415,-0.0001314955787606283,-0.00013752283619464426,-0.0001130105850936283
146,-0.00044013328873604695,-0.00022706669072187222,-0.0002381482456666821,-0.00019521134590452127
147,-0.0007164642262349418,-0.0003800109113788339,-0.00039957765101473157,-0.0003268275402579386
148,-0.0011347871795877825,-0.0006180072611771219,-0.0006513437641366175,-0.0005317734575969026
149,-0.0017528406232724344,-0.0009789499574737492,-0.0010339723462213905,-0.0008428554837236501
150,-0.0026457782606586133,-0.0015135359757405022,-0.0016018155228371524,-0.001304071400695971
151,-0.0039094735121296305,-0.0022881540901434137,-0.002426242915021269,-0.0019732044162827146
152,-0.005663952077504917,-0.003388023743562539,-0.0035991471524531487,-0.002924677549413565
153,-0.008056842696784604,-0.004920510501536582,-0.0052366981982559496,-0.004252615807312343
154,-0.011266718903031023,-0.007018524021005224,-0.007483258574067334,-0.0060740452836803936
155,-0.015506191524005881,-0.009843885553287359,-0.010515349977960995,-0.008532140722711785
156,-0.021024603891046136,-0.013590536090661567,-0.014545541921756154,-0.011799417073893988
157,-0.0281101797776745,-0.018487444337519216,-0.01982611586879782,-0.01608074691191249
158,-0.03709147829526667,-0.024801066567462036,-0.026652344889486018,-0.021616075044014423
159,-0.048338020291655286,-0.032837208736748724,-0.035365219960922935,-0.028682694800184035
160,-0.062259966954748065,-0.04294214534202426,-0.04635345050216325,-0.037596947918005795
161,-0.07930675278497748,-0.0555028595446407,-0.060054569192405184,-0.048715212006464274
162,-0.09996460108048971,-0.0709462848769336,-0.07695498001567894,-0.06243404661290756
163,-0.12475287958012246,-0.0897374499890929,-0.09758880404030873,-0.07918938112148885
164,-0.15421928584462194,-0.11237645377823184,-0.12253539965130263,-0.0994546451316162
165,-0.18893388523827256,-0.13939422809067106,-0.15241546250759563,-0.12373776445923496
166,-0.22948205793380366,-0.17134707811653135,-0.1878856448011857,-0.15257697309454574
167,-0.27645644412976644,-0.20881002562674097,-0.2296316725701912,-0.18653542269920273
168,-0.3304480075708384,-0.25236901630866765,-0.2783599827213472,-0.2261946056516604
169,-0.39203636551031223,-0.3026120885807029,-0.3347879466995231,-0.27214664416544315
170,-0.46177955761768236,-0.3601196363533892,-0.3996327939135205,-0.3249855353839471
171,-0.5402034463642624,-0.4254539312264476,-0.47359939353412284,-0.38529747928797414
172,-0.6277909566217004,-0.4991480995805676,-0.557367096568959,-0.45365045140394233
173,-0.7249713722474055,-0.5816947760128954,-0.6515758796946391,-0.5305832143668056
174,-0.8321099121626987,-0.6735346757135245,-0.7568120667987052,-0.6165939901458761
175,-0.9494978079339722,-0.7750453439142398,-0.8735939323046287,-0.7121290370864239
176,-1.077343099397339,-0.8865303497963772,-1.0023575110508058,-0.8175713919238895
177,-1.215762354764065,-1.0082091947059613,-1.1434429519032598,-0.933230045861651
178,-1.3647735072641618,-1.1402081998481686,-1.2970817557647751,-1.0593298251676888
179,-1.5242899821163467,-1.2825526266831535,-1.4633852328178905,-1.1960022403031156
180,-1.6941162658967415,-1.435160264103136,-1.6423344986015354,-1.3432775533953796
181,-1.873945045709427,-1.5978366904524315,-1.8337723040684666,-1.5010782922575414
182,-2.063356018416071,-1.7702723860982592,-2.0373969616115213,-1.6692144107516813
183,-2.261816440986072,-1.9520418343237438,-2.2527585879916994,-1.847380260939142
184,-2.46868346216667,-2.1426047057180058,-2.4792578372262852,-2.035153503132832
185,-2.683208243526767,-2.3413091750346986,-2.716147243082724,-2.2319960367081952
186,-2.9045418448719564,-2.547397370813663,-2.962535233281754,-2.4372569883813546
187,-3.131742815418051,-2.760012908106258,-3.2173928172971076,-2.650177746660791
188,-3.363786398324838,-2.9782104046609175,-3.479562888187132,-2.869898982396089
189,-3.599575222751644,-3.200966832212273,-3.747772017593936,-3.095469546970107
190,-3.837951325280435,-3.4271945084236384,-4.020644563229851,-3.3258570930673708
191,-4.077709312392816,-3.655755492921186,-4.296718851121796,-3.5599602196299704
192,-4.317610448859222,-3.8854771140621196,-4.574465141837629,-3.796621904221131
193,-4.556397434570178,-4.115168322837087,-4.852305042052463,-4.034643954184507
194,-4.792809615600663,-4.343636547709394,-5.128631981229997,-4.2728021841951875
195,-5.02559836512095,-4.569704710121768,-5.401832338904167,-4.509862013236375
196,-5.253542366951358,-4.792228055485892,-5.670306781961117,-4.744594169485452
197,-5.475462539614369,-5.010110459040205,-5.932491354239277,-4.975790197335311
198,-5.690236351791826,-5.22231988001674,-6.186877853360316,-5.202277476548761
199,-5.896811300859796,-5.427902660739512,-6.432033032498663,-5.422933488537246
200,-6.094217353989789,-5.6259963988712895,-6.6666161781329025,-5.636699097667023
201,-6.28157818515323,-5.815841159978773,-6.889394638830641,-5.842590654613059
202,-6.458121079847146,-5.996788842550309,-7.099256914700965,-6.039710772089246
203,-6.6231854206828,-6.168310556985669,-7.295222961968446,-6.2272576685845475
204,-6.776229709057281,-6.330001932127737,-7.476451421607742,-6.404533020769844
205,-6.916837118747551,-6.481586315762669,-7.642243544330507,-6.57094830780844
206,-7.044719614260778,-6.622915887293557,-7.792043655424009,-6.726029668875315
207,-7.159720698141024,-6.753970749647543,-7.925436080784709,-6.869421327008096
208,-7.261816875416761,-6.874856111672766,-8.04213853855087,-7.000887656576787
209,-7.35111793860584,-6.985797710273529,-8.141992087397092,-7.120313987205834
210,-7.427866182334624,-7.087135652034269,-8.224947810995712,-7.227706243443477
211,-7.49243465247546,-7.179316876144016,-8.291050506374217,-7.323189516921012
212,-7.545324521180184,-7.2628864534832385,-8.340419729735624,-7.407005656795034
213,-7.587161657255744,-7.338477940627945,-8.373228634460448,-7.479509946058679
214,-7.618692432447191,-7.406803002552402,-8.389681110096564,-7.541166907442139
215,-7.64077877029054,-7.468640504702737,-8.38998779578646,-7.5925452550679005
216,-7.654392407613721,-7.524825255005409,-8.374341594486987,-7.634311979003157
217,-7.66060830211018,-7.57623655076167,-8.342893353402536,-7.667225521704069
218,-7.660597085363895,-7.6237866560255165,-8.295728399468816,-7.692127980414105
219,-7.655616431840792,-7.668409303902715,-8.232844625068688,-7.7099362500770035
220,-7.6470011930594355,-7.711048287228322,-8.154132807470601,-7.721632009237929
221,-7.636152134521514,-7.7526461721952185,-8.05935981530317,-7.728250448382021
222,-7.624523112752208,-7.794133144455776,-7.948155306795688,-7.730867647417042
223,-7.6136065421902,-7.83641597746556,-7.820002458139897,-7.730586527258124
224,-7.604917027312498,-7.88036709951454,-7.674233177296334,-7.7285213298721
225,-7.5999730743427465,-7.9268137297500765,-7.51002816050631,-7.725780621263506
226,-7.600276848716993,-7.976527054903109,-7.326422037765774,-7.72344886175122
227,-7.607292008176085,-8.030211427357704,-7.122313732071541,-7.722566645987024
228,-7.622419715341777,-8.088493581250136,-6.89648202823218,-7.724109779533849
229,-7.646973015718697,-8.151911885675878,-6.647606213622257,-7.728967427082863
230,-7.682149854505848,-8.220905681713635,-6.3742915188662845,-7.737919636867197
231,-7.729005095232402,-8.295804781436805,-6.075098954644081,-7.751614613640971
232,-7.788421991577052,-8.37681924073084,-5.7485790152472465,-7.7705461757607655
233,-7.861083647083738,-8.464029551761216,-5.393308603766107,-7.795031887484393
234,-7.947445072031685,-8.557377433459823,-5.007930431250764,-7.825192402772474
235,-8.047706508713732,-8.656657427555077,-4.5911940559771685,-7.860932589055402
236,-8.161788742364823,-8.761509531702396,-4.141997661767355,-7.901925016348569
237,-8.289311141958725,-8.871413118614257,-3.6594296283630783,-7.947596396928019
238,-8.42957318060313,-8.985682399441139,-3.1428089237397323,-7.997117542209455
239,-8.581540167520611,-9.103463690046139,-2.591723348906422,-8.049397365819132
240,-8.743833881598936,-9.223734729632703,-2.006064690396555,-8.103081405095947
241,-8.914728730126187,-9.345306282181097,-1.3860598838401437,-8.156555258109101
242,-9.092153966395824,-9.466826222421904,-0.7322973626105004,-8.20795324107288
243,-9.273702387996314,-9.586786270038361,-0.045747856872400294,-8.255172463765849
244,-9.456645806135056,-9.703531489148974,0.6722209817454295,-8.29589240074492
245,-9.63795742834726,-9.815272615872852,1.4198366287777182,-8.327599906811901
246,-9.814341136196356,-9.920101216199079,2.1949207689501833,-8.34761948980754
247,-9.982267470553781,-10.01600761102323,2.9948956232329498,-8.353148516216569
248,-10.138015964720386,-10.100901436880175,3.8167975780113177,-8.341296889395087
249,-10.277723295238989,-10.17263464159288,4.657298016643929,-8.30913061076546
250,-10.397436556985554,-10.229026645887078,5.512731098395469,-8.253718515330004
251,-10.493170818068233,-10.26789133711579,6.379128079701892,-8.172181368351941
252,-10.560969975873617,-10.287065501609192,7.2522576314005445,-8.061742423576714
253,-10.596969822336655,-10.284438249620342,8.127671476021188,-7.919778477786908
254,-10.59746213747287,-10.257980942918351,9.000754554191309,-7.743870413891465
255,-10.558958567902087,-10.205777101058018,9.866778831022332,-7.531852206432263
256,-2.0684820003093026e-13,-1.0237340150759972e-13,-1.0401869690666425e-15,-1.1618132073012637e-13
257,-4.676079665137606e-12,-2.2437973824888044e-12,8.10790407956071e-13,-2.552539945581674e-12
258,-5.409857377850111e-11,-2.5897426038997905e-11,9.174050513198776e-12,-2.950978165480789e-11
259,-4.1658653026123124e-10,-1.9946240186997608e-10,6.604359414389881e-11,-2.2759251680110368e-10
260,-2.4084828326982834e-09,-1.1555038837300323e-09,3.527236611113262e-10,-1.3201942538782052e-09
261,-1.1189056586702585e-08,-5.389125391391688e-09,1.500055572756316e-09,-6.165445278846352e-09
262,-4.365576286847538e-08,-2.115128139732697e-08,5.305493510577544e-09,-2.4232346196419912e-08
263,-1.4760330061429133e-07,-7.208650549493611e-08,1.6078159918067937e-08,-8.27120158187365e-08
264,-4.427554684918912e-07,-2.1840458378870567e-07,4.263508071063822e-08,-2.509987420547819e-07
265,-1.2000203849606317e-06,-5.990390963375879e-07,1.0035812084754228e-07,-6.895750511745558e-07
266,-2.981993567079199e-06,-1.5090249959179963e-06,2.1142809242672683e-07,-1.7399323782937444e-06
267,-6.87478279188216e-06,-3.532118164872349e-06,3.990704808390434e-07,-4.078870414683606e-06
268,-1.4847956523331738e-05,-7.755222546422813e-06,6.680109093312862e-07,-8.96794695098632e-06
269,-3.0285044933872726e-05,-1.609806237850195e-05,9.579452255572835e-07,-1.8636407623096063e-05
270,-5.8730786536554896e-05,-3.1798162307537944e-05,1.0492404994396324e-06,-3.684288631843673e-05
271,-0.00010890259540770535,-6.009686971610951e-05,3.898350124212011e-07,-6.966673848076969e-05
272,-0.00019401212948686253,-0.00010917607460088988,-2.2011130579139916e-06,-0.00012658326330079433
273,-0.00033343818848086343,-0.00019139663886000077,-9.014417684838197e-06,-0.0002218775818194563
274,-0.0005547844126330433,-0.00032488760724183363,-2.419992015576379e-05,-0.000376449003434729
275,-0.0008963444238864372,-0.0005355294995891758,-5.4892679186709195e-05,-0.0006200509505985602
276,-0.0014099832742210255,-0.0008593651271596251,-0.00011285702747269791,-0.0009940007246815386
277,-0.002164427598769674,-0.001345457523284297,-0.00021682604734964662,-0.0015543785703871456
278,-0.0032489380837462593,-0.002059197161202539,-0.0003957560044882009,-0.002375716786724174
279,-0.004777317172327643,-0.0030860403776149002,-0.0006932617649166454,-0.0035551573699496367
280,-0.006892182782654608,-0.004535638757681114,-0.0011735490028756213,-0.0052170313810276404
281,-0.009769415711829805,-0.0065462961664718294,-0.001929210299143262,-0.007517785649081936
282,-0.013622665029130171,-0.009289667077983284,-0.0030913026709640805,-0.010651153519757062
283,-0.018707773017342475,-0.01297558766350874,-0.004842170752680029,-0.014853437301288507
284,-0.025326960181361508,-0.017856910418959704,-0.0074315193224376835,-0.020408742162159058
285,-0.03383259271047519,-0.02423419450473622,-0.011196267211900176,-0.027653975877477095
286,-0.04463034085985847,-0.032460087992643896,-0.01658472741334262,-0.03698340740851814
287,-0.05818152837909953,-0.042943225440929024,-0.024185650511847352,-0.048852561201144194
288,-0.075004471677349,-0.05615145525969984,-0.03476263512659097,-0.06378121458438242
289,-0.09567461391813231,-0.0726142067863533,-0.0492943443931065,-0.08235526383212022
290,-0.12082327425366618,-0.09292380741712693,-0.06902086643279884,-0.10522723110443523
291,-0.15113485597248533,-0.11773556601354879,-0.09549641478983371,-0.1331151999969255
292,-0.18734238901390246,-0.1477664505166683,-0.13064837891780828,-0.1667999917719142
293,-0.2302213213008771,-0.18379220556250764,-0.1768425039539682,-0.20712042714114173
294,-0.280581518545091,-0.22664278008789324,-0.2369537047857772,-0.2549665590399235
295,-0.33925748216175844,-0.2771959654640536,-0.31444170633023305,-0.3112708092319346
296,-0.40709684801470863,-0.33636918137986443,-0.41343035770622594,-0.37699699459176966
297,-0.484947283051741,-0.4051093890163183,-0.5387891034030764,-0.4531272860394228
298,-0.5736419505813324,-0.4843811582053819,-0.6962147232887274,-0.5406472026348236
299,-0.6739837660676948,-0.5751529661564997,-0.8923110913451534,-0.6405288034190509
300,-0.7867287119952839,-0.6783818586214649,-1.1346643679933353,-0.7537122982880132
301,-0.9125685208237762,-0.7949966585233755,-1.4319107511971054,-0.8810863546199932
302,-1.0521130678501398,-0.9258799604495055,-1.7937936855095984,-1.0234674268157724
303,-1.2058728398340464,-1.0718492002993902,-2.2312072830453284,-1.181578479862713
304,-1.3742418598272605,-1.233637136084685,-2.756222661194706,-1.3560275143163718
305,-1.557481453404493,-1.4118721167332657,-3.3820939610167096,-1.5472863278231261
306,-1.7557052363618437,-1.6070585491723905,-4.123240986290813,-1.7556699668703584
307,-1.9688656892298244,-1.8195579984974426,-4.995205700605213,-1.9813173314604229
308,-2.196742660319697,-2.0495713703986524,-6.014580238429284,-2.2241733946660944
309,-2.438934107457407,-2.297122628188828,-7.198904620892846,-2.4839734885063094
310,-2.6948493501619706,-2.562044488028464,-8.566533008239022,-2.760230087370277
311,-2.963705059898624,-2.8439665149197766,-10.13646805435355,-3.0522224904860207
312,-3.244524167236777,-3.1423060087681733,-11.928163736012943,-3.3589897659087575
313,-3.5361378122803573,-3.4562620247164393,-13.961297888619681,-3.679327270516891
314,-3.837190409566058,-3.7848128158520655,-16.255516566505737,-4.011787004016786
315,-4.146147841610731,-4.126716920437173,-18.830153232743722,-4.3546819906455925
316,-4.461308737225467,-4.480518041504719,-21.703926643147437,-4.706094811025546
317,-4.780818732392963,-4.84455378579347,-24.89462209405342,-5.063890329583158
318,-5.102687553797277,-5.2169682436045735,-28.418761426728352,-5.425732581411328
319,-5.424808708967179,-5.595728303509611,-32.29126779785096,-5.789105697904922
320,-5.744981513473403,-5.978643508317065,-36.525131713147545,-6.151338664596103
321,-6.060935135778671,-6.363389173763832,-41.13108516103723,-6.509633619194316
322,-6.370354295339697,-6.747532411466673,-46.11729086024741,-6.861097314926128
323,-6.6709062106904655,-7.128560625061702,-51.48905363952069,-7.202775296067078
324,-6.960268362861704,-7.503911985305451,-57.24856079331371,-7.531688261363284
325,-7.236156616919338,-7.871007338071045,-63.39465790428431,-7.844870029163399
326,-7.496353231750488,-8.227282960171319,-69.92266609569286,-8.139406467721068
327,-7.738734286344175,-8.570223552889713,-76.82424598351908,-8.412474717243203
328,-7.961296060253372,-8.897394852641403,-84.08731275227244,-8.661382008432884
329,-8.162179926828754,-9.206475242452521,-91.69600579722933,-8.883603376569722
330,-8.339695349784513,-9.495285766550737,-99.63071527975339,-9.076817581003828
331,-8.492340615675541,-9.761817982442883,-107.86816675517464,-9.238940567017968
332,-8.61882098536753,-10.004259129148686,-116.38156378076187,-9.368155849354325
333,-8.71806400462951,-10.221014145205384,-125.14078712301102,-9.46294125274569
334,-8.789231775428195,-10.410724133920551,-134.112647888556,-9.522091512569668
335,-8.831730053106094,-10.572280944313212,-143.26119063186576,-9.544736316060114
336,-8.8452140980957,-10.704837612421468,-152.54804127563784,-9.530353449097108
337,-8.829591271970054,-10.807814487383189,-161.93279354526427,-9.47877680324421
338,-8.785020424508726,-10.88090094821271,-171.3734265933774,-9.390199090343371
339,-8.711908169484575,-10.924052698919299,-180.82674559752795,-9.265169205734688
340,-8.610902190849925,-10.93748471011125,-190.24883637322057,-9.104584274344178
341,-8.482881757093551,-10.921659953230805,-199.59552447249314,-8.90967650492871
342,-8.328945649317184,-10.877274147950443,-208.82282884957206,-8.681995065231863
343,-8.150397728051368,-10.805236813040665,-217.88739998352608,-8.423383273308913
344,-7.948730375464061,-10.706648975308443,-226.7469323667453,-8.135951476520733
345,-7.7256060542784795,-10.582777949207378,-235.3605415108039,-7.822046058488869
346,-7.482837223574704,-10.435029650716066,-243.68909610018966,-7.484215074626908
347,-7.222364846099331,-10.264918952415167,-251.69549664955537,-7.125171067910158
348,-6.946235713335658,-10.074038621763437,-259.34489299733235,-6.747751657743676
349,-6.656578805091909,-9.864027410817103,-266.60483419736045,-6.354878525800781
350,-6.355580891390649,-9.63653788254287,-273.4453458421242,-5.949515443402363
351,-6.0454615773930644,-9.39320456598851,-279.83893154820186,-5.534625995441512
352,-5.7284479880188925,-9.135613029527015,-285.7604972281827,-5.113131656215971
353,-5.406749288519705,-8.865270447921718,-291.18719882445885,-4.687870863121108
354,-5.082531240904775,-8.583578214967096,-296.09821633970137,-4.261559715407509
355,-4.75789100386184,-8.29180711905328,-300.4744592083378,-3.8367548976899837
356,-4.434832395378487,-7.99107555455942,-304.29821024771826,-3.415819392326617
357,-4.115241852035156,-7.682331188172378,-307.55271753699594,-3.0008915020178044
358,-3.800865336013693,-7.366336436993143,-310.2217455241612,-2.5938576549331094
359,-3.493286459133706,-7.043658045794838,-312.2890983863209,-2.1963294102906743
360,-3.193906111372424,-6.714660975353995,-313.73813009837914,-1.8096250234487798
361,-2.9039238977951665,-6.379506733834625,-314.5512567407852,-1.4347558669457727
362,-2.624321700883805,-6.03815620029658,-314.70948724768675,-1.0724179380929555
363,-2.355849693092848,-5.690376905128085,-314.19198902406436,-0.7229886150696612
364,-2.0990151253630636,-5.335754648204891,-312.97570461940694,-0.38652875225011246
365,-1.854074209736542,-4.973709253496961,-311.03503492612924,-0.06279013191296968
366,-1.6210273968169666,-4.603514180280658,-308.341603178786,0.24877178623648868
367,-1.399618320543813,-4.224319637592705,-304.8641123862188,0.5489799538734345
368,-1.1893366429138839,-3.8351787814856584,-300.5683067692028,0.8389128763345031
369,-0.9894249797006707,-3.43507651526673,-295.4170453509127,1.119877103340601
370,-0.7988900252585843,-3.022960362310789,-289.37049311897243,1.393375442917195
371,-0.6165179210581925,-2.5977728401504407,-282.3864322186114,1.6610713518805698
372,-0.4408938300884988,-2.158484734104821,-274.4206925272651,1.9247500322657485
373,-0.27042558960367186,-1.7041286492784549,-265.4276977880965,2.1862768347809993
374,-0.10337122031644908,-1.2338322117162321,-255.36112033260721,2.4475536358849954
375,0.062130026089595995,-0.7468502930084291,-244.1746343902591,2.710473912368263
376,0.2280234942299889,-0.242595647650968,-231.8227551529012,2.9768772843148987
377,0.3963023307192624,0.2793326212931493,-218.26174821561548,3.24850433201718
378,0.5689686549732992,0.8191233157054741,-203.45059182736873,3.5269525129654022
379,0.7479933543608634,1.376730615543947,-187.35197261830376,3.8136340098501593
380,0.935275222424869,1.95185521583542,-169.93329417693946,4.109736328369855
381,1.1326002030562243,2.54392950740651,-151.16767706730076,4.416186433777839
382,1.341601530709756,3.1521071098761437,-131.0349286252186,4.733619167331068
383,1.5637215659576529,3.7752569883859515,-109.52246116121272,5.062350618529156
384,-1.445615316708962e-13,-3.465257709301285e-14,3.8155687099104094e-13,-3.342459311677961e-14
385,-3.2673841822064025e-12,-7.476414880167212e-13,8.512044199637529e-12,-7.328400683324517e-13
386,-3.7439399407478034e-11,-8.97743929721484e-12,1.0116811920870876e-10,-8.638678881234444e-12
387,-2.8545831606989226e-10,-7.226008939862282e-11,8.023039860856282e-10,-6.793590932271629e-11
388,-1.6336263117465354e-09,-4.383162597212417e-10,4.792507921424435e-09,-4.014742096780702e-10
389,-7.509376839158375e-09,-2.142674275721952e-09,2.306504212712063e-08,-1.90701800309429e-09
390,-2.897602316408655e-08,-8.816350365809408e-09,9.342610147424485e-08,-7.606522433476697e-09
391,-9.683832433772815e-08,-3.1483218109192104e-08,3.2843175612305303e-07,-2.6278022130548658e-08
392,-2.8697806640674815e-07,-9.982002101559611e-08,1.0252199633086608e-06,-8.047366670038584e-08
393,-7.681197883561062e-07,-2.859867754582205e-07,2.8924273349821147e-06,-2.2245103044808621e-07
394,-1.884477444276668e-06,-7.508051392090352e-07,7.479608962850191e-06,-5.631778894545186e-07
395,-4.289003167838774e-06,-1.8267019575566163e-06,1.7930993878522535e-05,-1.3214547406924519e-06
396,-9.146007687406818e-06,-4.157171393008808e-06,4.022518049841901e-05,-2.9022889748028976e-06
397,-1.842448620348902e-05,-8.918061263413447e-06,8.510132930419555e-05,-6.015920073624693e-06
398,-3.5305281702351246e-05,-1.8151116776746563e-05,0.00017090539594612187,-1.185129588291272e-05
399,-6.472599499919339e-05,-3.524419898738509e-05,0.00032761141922844266,-2.2320241395511615e-05
400,-0.00011408711221625642,-6.559473527763952e-05,0.000602277465321006,-4.039085762375015e-05
401,-0.0001941410019158581,-0.00011749266112357397,0.0010661789783289182,-7.053054684846318e-05
402,-0.00032008204866518984,-0.000203255954014707,0.0018238207424606419,-0.00011928009423079638
403,-0.0005128510322418374,-0.00034064562943896573,0.0030239608984151682,-0.00019598000489222248
404,-0.0008006597889458894,-0.0005545777758461683,0.0048726868893815,-0.0003136683739161553
405,-0.0012207332051510811,-0.0008791380775427509,0.007648466308168967,-0.0004901656182934821
406,-0.001821254843396909,-0.0013598897302652842,0.011718959776780748,-0.0007493552376286411
407,-0.002663490229620418,-0.0020564492667010372,0.017559234337078553,-0.0011226613853856531
408,-0.003824048336506312,-0.003045287260957378,0.025770861833839653,-0.0016507135880267742
409,-0.0053972274803740505,-0.004422692925360009,0.03710123580894647,-0.002385176765054624
410,-0.007497377264168853,-0.00630782404759026,0.052462301339664105,-0.003390711239438752
411,-0.01026119406758482,-0.008845747367549938,0.07294777385003792,-0.004747013283966844
412,-0.013849854736429091,-0.012210360202921218,0.09984783353040011,-0.006550872656444203
413,-0.018450882442849332,-0.01660707273165292,0.13466022895281674,-0.008918170383215988
414,-0.024279631107302982,-0.022275122610590566,0.17909671270261707,-0.011985728683947252
415,-0.03158027124901685,-0.029489390231509115,0.2350837674646398,-0.015912916338954135
416,-0.04062616155198433,-0.03856158441044806,0.3047566650537588,-0.020882907873785637
417,-0.0517194974566,-0.04984067498765448,0.3904460331733424,-0.027103494411914286
418,-0.0651901410093669,-0.06371246075561197,0.49465628283433405,-0.03480734842158041
419,-0.08139355492146418,-0.0805981781418705,0.6200354688573483,-0.0442516540444905
420,-0.10070778782930488,-0.1009520777007618,0.7693364103069082,-0.05571702909515708
421,-0.1235294863002562,-0.1252579210214096,0.9453691790090567,-0.06950568368950319
422,-0.15026894103102068,-0.15402437924884801,1.150945363133839,-0.08593878304944912
423,-0.18134420850501556,-0.1877793450163242,1.3888148189152456,-0.10535300736830118
424,-0.21717438352312599,-0.22706320111948688,1.661595926192681,-0.12809632860327488
425,-0.2581721309477008,-0.2724211206674986,1.9717006517928868,-0.15452305152432844
426,-0.3047356153054286,-0.3243945037413403,2.321255988337511,-0.18498819315253462
427,-0.35723999337170936,-0.38351168390283225,2.712023565026894,-0.219841299806718
428,-0.4160286564945613,-0.45027806346515475,3.1453194123953225,-0.2594198234030527
429,-0.48140442544265155,-0.5251658585912551,3.6219359972541993,-0.30404219762399964
430,-0.5536209105238001,-0.6086036534529505,4.142068720763351,-0.35400076946108594
431,-0.6328742534806553,-0.7009659763730113,4.705249087209639,-0.40955475199511504
432,-0.7192954653347489,-0.8025631196977399,5.3102867008663335,-0.470923369855605
433,-0.8129435661724156,-0.9136314288396873,5.955222132482152,-0.5382793695442912
434,-0.9137997192118165,-1.034324284352833,6.637292516747752,-0.6117430628464047
435,-1.0217625328577276,-1.164703994058155,7.35291150081805,-0.6913770631779357
436,-1.1366446814704705,-1.3047348002595383,8.09766486692318,-0.7771818623275977
437,-1.2581709689490548,-1.4542771902266944,8.866322806483893,-0.8690923791025634
438,-1.3859779296472066,-1.6130836767178072,9.652869437859133,-0.9669755923249431
439,-1.5196150292584099,-1.7807961898033342,10.45054974528213,-1.0706293488543461
440,-1.6585474947704153,-1.956945192159212,11.251933684210892,-1.1797824131787855
441,-1.8021607680671061,-2.1409505979446886,12.048996760539557,-1.2940957989408366
442,-1.9497665428972428,-2.332124541071416,12.833215960526035,-1.4131653948828733
443,-2.100610310318885,-2.529676002853013,13.595679497397944,-1.5365258685013448
444,-2.2538803038809276,-2.7327172724359965,14.327208461343622,-1.6636558006846212
445,-2.408717703231873,-2.9402721767430853,15.018488122930028,-1.7939839743677712
446,-2.5642279241274886,-3.1512859805383853,15.660206355578316,-1.9268967104715855
447,-2.719492794598884,-3.36463682223788,16.2431964186491,-2.0617461159020363
448,-2.873583392058876,-3.579148517816055,16.758581185279606,-2.1978590820599697
449,-3.0255732951523777,-3.793604534200066,17.197915812795298,-2.3345468491081793
450,-3.1745519880689326,-4.006762905540376,17.553325840751086,-2.4711149321490997
451,-3.3196381447611705,-4.217371841388955,17.817637762871332,-2.606873191417183
452,-3.459992516909743,-4.424185755819362,17.98449925279762,-2.7411458203843333
453,-3.5948301531616855,-4.625981431598248,18.04848642608278,-2.8732810238922344
454,-3.723431688422268,-4.821574024323369,18.005195786919806,-3.002660163363909
455,-3.845153460731647,-5.009832608525528,17.851318830581093,-3.1287061578081494
456,-3.9594362391311195,-5.1896949714628615,17.584697642933566,-3.250890947417149
457,-4.065812378227247,-5.360181370856204,17.204360246953733,-3.368741850495432
458,-4.163911252853546,-5.520406990002578,16.710534882333572,-3.481846673429321
459,-4.253462867930383,-5.6695928471725505,16.104642857009374,-3.5898574663922025
460,-4.33429958273479,-5.807074945324564,15.389270067669903,-3.692492853323116
461,-4.406355933648981,-5.932311482150611,14.568117739225936,-3.7895389021838284
462,-4.469666583442949,-6.044887978381405,13.645933370679442,-3.8808485393610828
463,-4.524362466745598,-6.144520223144514,12.628423287502157,-3.9663395491633437
464,-4.570665239213014,-6.231054977985703,11.522148580149853,-4.045991234601028
465,-4.608880170914979,-6.304468424926478,10.334406547356968,-4.119839848115039
466,-4.639387651898013,-6.36486238763376,9.073100055019879,-4.187972929866183
467,-4.662633499394057,-6.412458397420044,7.7465974614655,-4.250522716000681
468,-4.679118271685401,-6.4475897164038996,6.363585943409607,-4.307658799468407
469,-4.689385803386785,-6.470691467839647,4.9329211807479085,-4.359580241087726
470,-4.694011181222979,-6.482289057588532,3.463476420456437,-4.406507338295386
471,-4.693588378793662,-6.482985100330049,1.9639939395332653,-4.448673263139714
472,-4.688717763981587,-6.473445088969425,0.4429418645828637,-4.486315779410564
473,-4.679993684259221,-6.454382065546339,-1.0916208168797503,-4.519669241306076
474,-4.667992323820545,-6.426540566729158,-2.6321683980407955,-4.548957062809204
475,-4.65326001279598,-6.390680126773476,-4.1718193246819775,-4.574384828236743
476,-4.636302153385284,-6.3475586258309615,-5.704431655274783,-4.5961341906531015
477,-4.617572911160983,-6.2979157719946794,-7.224681289415985,-4.614357676621669
478,-4.597465802611592,-6.242457001796123,-8.728121501711973,-4.6291744839189795
479,-4.576305292681764,-6.181838076390807,-10.211222702327277,-4.640667324404527
480,-4.554339499032406,-6.1166506397452505,-11.67139174859738,-4.648880328486712
481,-4.531734083395285,-6.0474089911015705,-13.106970545999234,-4.65381799200427
482,-4.508567395163699,-5.974538307128517,-14.517214092915667,-4.655445112420086
483,-4.484826918631177,-5.89836452969281,-15.902248533659304,-4.653687630581667
484,-4.460407063307262,-5.819106113261816,-17.263010180015492,-4.648434268422365
485,-4.435108326557115,-5.736867801679062,-18.60116683540852,-4.639538833134456
486,-4.408637849311643,-5.651636577485367,-19.919023100467577,-4.626823045520726
487,-4.380611378504121,-5.5632798980973055,-21.21941164768421,-4.6100797450498225
488,-4.350556643749904,-5.47154630198414,-22.50557272015934,-4.589076326825279
489,-4.3179181499192625,-5.376068434490604,-23.78102433018956,-4.563558276025303
490,-4.282063380803738,-5.276368507162686,-25.04942580369141,-4.533252682742707
491,-4.242290401141425,-5.171866166456317,-26.314437433410745,-4.497871643499716
492,-4.197836834031193,-5.061888707779385,-27.57957906588521,-4.457115483607628
493,-4.147890177567206,-4.945683529328568,-28.84809045380741,-4.410675765260787
494,-4.091599407854765,-4.822432677697425,-30.122796157487432,-4.358238077862444
495,-4.028087795103041,-4.691269294479108,-31.40597767830197,-4.299484637550786
496,-3.9564668351617325,-4.551295730940115,-32.69925535603799,-4.234096750252242
497,-3.8758511709408596,-4.401603057295562,-34.00348236445108,-4.161757215057847
498,-3.785374347224341,-4.2412916552528195,-35.31865289949461,-4.082152760841201
499,-3.6842052093509334,-4.069492548432209,-36.643826377616755,-3.9949766177706043
500,-3.571564722246829,-3.885389096132979,-37.97706915299431,-3.899931326130482
501,-3.446742952768479,-3.6882386527359086,-39.31541492889967,-3.7967318775482446
502,-3.3091159268905606,-3.477393778753084,-40.65484468635676,-3.685109268670057
503,-3.1581620456891946,-3.2523225809352616,-41.99028658995505,-3.5648145253101235
504,-2.993477721994787,-3.012627758549759,-43.31563596344664,-3.435623227234398
505,-2.81479188451175,-2.758063941399704,-44.6237950638347,-3.2973405314275284
506,-2.621978989420687,-2.4885529226549767,-45.90673202918345,-3.149806656511285
507,-2.415070182112059,-2.2041964162155665,-47.15555803907802,-2.992902754617609
508,-2.1942622646544034,-1.9052860040409112,-48.36062141373491,-2.826557061184578
509,-1.959924148468239,-1.5923099833291476,-49.51161709370467,-2.650751179525214
510,-1.712600506649885,-1.2659568760185138,-50.59770969157613,-2.4655263272240884
511,-1.4530123862353916,-0.9271154229139379,-51.60766809381391,-2.270989346924669
512,-1.1736126358641786e-13,-3.889895508849844e-14,-1.7233879062307145e-14,-2.5854089474239675e-14
513,-2.596934197412673e-12,-8.031881616875516e-13,-3.0759403981821023e-13,-5.484842541207906e-13
514,-2.931469185707301e-11,-9.631913821995724e-12,-3.693903700383544e-12,-6.643266760841891e-12
515,-2.2006316887987223e-10,-7.705381123423947e-11,-3.0113028863034074e-11,-5.37811169295935e-11
516,-1.2390912360328842e-09,-4.6457871801903597e-10,-1.8569015009345792e-10,-3.2702633234304967e-10
517,-5.600885821863474e-09,-2.257242448847497e-09,-9.249226297187781e-10,-1.597331904193672e-09
518,-2.1244372355763292e-08,-9.231816706775262e-09,-3.883555063795248e-09,-6.547172593580916e-09
519,-6.978575746566985e-08,-3.2771817464461036e-08,-1.416260289317254e-08,-2.3226503226974678e-08
520,-2.0331322936813537e-07,-1.0330693927267752e-07,-4.586523244076262e-08,-7.29847606932464e-08
521,-5.352356723639599e-07,-2.943283028073427e-07,-1.3418748823334432e-07,-2.0682965925341877e-07
522,-1.2924508191614164e-06,-7.685747426016126e-07,-3.5957245162188903e-07,-5.362521094363257e-07
523,-2.8978722761907226e-06,-1.8604211910734675e-06,-8.924281679183678e-07,-1.2870209890075781e-06
524,-6.094053296699989e-06,-4.213571791265163e-06,-2.0706748208224436e-06,-2.887103897348528e-06
525,-1.2120118978457047e-05,-8.998437513755433e-06,-4.526814275703933e-06,-6.10246452771646e-06
526,-2.2955295899000946e-05,-1.8238511031191536e-05,-9.386063790764301e-06,-1.2236747949619765e-05
527,-4.164289294624244e-05,-3.527904430760757e-05,-1.8561976818862617e-05,-2.3412517252734313e-05
528,-7.270861290635635e-05,-6.54338128898333e-05,-3.5180360969334676e-05,-4.295250058421216e-05
529,-0.0001226865760184487,-0.00011684621701051222,-6.416558130252515e-05,-7.587904665125973e-05
530,-0.00020076540191131672,-0.00020159900662470448,-0.0001130248856615533,-0.00012954853637046017
531,-0.00031956509335377887,-0.00033710219847954566,-0.00019286568133835592,-0.000214434820125442
532,-0.0004960533197594662,-0.0005477810389724194,-0.0003196773847657304,-0.0003450719248531793
533,-0.0007526071443217052,-0.000867075041551663,-0.0005159034547843907,-0.0005411615126253133
534,-0.0011182234693120064,-0.0013397452307312553,-0.0008123206625744801,-0.0008288451895753363
535,-0.0016298786417084361,-0.002024469995225992,-0.001250231951386501,-0.0012421361436737793
536,-0.0023340348205690047,-0.002996690838975093,-0.0018839670049393962,-0.0018244991324520917
537,-0.0032882878360842574,-0.004351648482497568,-0.0027836716267135705,-0.0026305629256247577
538,-0.0045631483008411865,-0.006207528049644372,-0.00403835405504966,-0.0037279452556037624
539,-0.006243944542703376,-0.008708610450601605,-0.005759144213260169,-0.005199167373759536
540,-0.008432832301792986,-0.012028306593901339,-0.008082711345818864,-0.007143633559789446
541,-0.011250891787047738,-0.016371932801247123,-0.011174777092633627,-0.009679650338865545
542,-0.014840287356583022,-0.02197907082982687,-0.015233655170584424,-0.0129464605173237
543,-0.019366458628713196,-0.029125345276379715,-0.02049374559965417,-0.01710626810016791
544,-0.02502030426848226,-0.03812344587376382,-0.02722891072924511,-0.02234623125400841
545,-0.03202031120062531,-0.04932322325801464,-0.03575566186633953,-0.028880401244769857
546,-0.04061457288802583,-0.06311069501647057,-0.0464360885666097,-0.03695158525792791
547,-0.05108263105917052,-0.07990581482048643,-0.05968046695972012,-0.04683310983140523
548,-0.06373706649906782,-0.10015888146982661,-0.07594948809340925,-0.05883045904601984
549,-0.07892475694334679,-0.12434549660670083,-0.09575605144450351,-0.07328275750664857
550,-0.09702771439431813,-0.15296001917187418,-0.11966657178592638,-0.09056406252093967
551,-0.11846341083459225,-0.1865075104564963,-0.14830174900549728,-0.11108442287886769
552,-0.143684500734319,-0.22549421458435417,-0.18233674995951568,-0.13529065351175093
553,-0.17317785120991178,-0.2704166738596901,-0.22250074899455624,-0.16366676643356162
554,-0.20746279635570353,-0.32174963480036545,-0.269575769646615,-0.19673398921175914
555,-0.24708854112766182,-0.3799329568224772,-0.32439476475181855,-0.23505029333215371
556,-0.2926306520172407,-0.4453577893185237,-0.38783886652139377,-0.2792093468258132
557,-0.34468658629515414,-0.5183523321308643,-0.46083373295284435,-0.329838799074086
558,-0.4038702284796565,-0.5991675370820262,-0.5443449132770496,-0.3875978014945867
559,-0.4708054215577431,-0.6879631423476897,-0.6393721540196176,-0.45317366654791863
560,-0.5461185010299937,-0.784794455316842,-0.7469425696926965,-0.5272775698900242
561,-0.6304298617209467,-0.8896003117256415,-0.8681026090298294,-0.6106392071699577
562,-0.7243446101840785,-1.0021926381589847,-1.0039087597472456,-0.7040003284833058
563,-0.8284423791904159,-1.1222480307707448,-1.155416952529458,-0.8081070902502091
564,-0.9432664050278551,-1.2493017350049238,-1.3236706484785103,-0.9237011865362296
565,-1.069311992916093,-1.3827443694088246,-1.5096876235183163,-1.0515097495984431
566,-1.2070145203961848,-1.5218216819934351,-1.7144454977993526,-1.1922340424795426
567,-1.356737152593182,-1.6656375611613783,-1.9388660973165752,-1.3465370042588414
568,-1.5187584662067524,-1.813160446564389,-2.18379877777761,-1.5150297502776104
569,-1.693260200335105,-1.9632332003473651,-2.450002886017209,-1.6982571741910915
570,-1.8803153710685205,-2.1145864084098944,-2.738129580473506,-1.896682844723733
571,-2.079877002369136,-2.2658549871892038,-3.048703277733566,-2.1106734359763015
572,-2.2917677371824787,-2.415597876865936,-3.382103035091779,-2.3404829743520534
573,-2.5156705991407393,-2.562320509733842,-3.738544217576052,-2.5862372258307085
574,-2.7511211758732323,-2.704499655640682,-4.11806083018086,-2.8479185825842186
575,-2.997501489217616,-2.8406101676191717,-4.520488920453695,-3.1253518359959753
576,-3.2540358050183205,-2.9691530825414176,-4.945451471676334,-3.4181912423251135
577,-3.5197886153463513,-3.08868447596551,-5.392345211477427,-3.725909296052363
578,-3.7936649987549256,-3.197844429044025,-5.860329753889421,-4.047787623132696
579,-4.074413529777366,-3.2953854397775637,-6.348319473996422,-4.382910391100222
580,-4.3606318677382845,-3.3801996019721976,-6.854978483106869,-4.730160604771742
581,-4.650775107764067,-3.45134388354149,-7.3787190288860875,-5.088219615158724
582,-4.943166924506885,-3.5080628614232756,-7.917703589558653,-5.455570115527253
583,-5.236013482604186,-3.5498083130774734,-8.469850865021913,-5.8305028331504625
584,-5.52742002855436,-3.576255123573516,-9.032845791801826,-6.2111270493742055
585,-5.815410017904057,-3.5873130414714574,-9.604153624921071,-6.595384995733054
586,-6.097946570844378,-3.5831339043844346,-10.181038039965532,-6.981070081931327
587,-6.3729559898918735,-3.5641140541630647,-10.760583115236166,-7.365848814786717
588,-6.638353016656275,-3.5308917695623676,-11.339718959384067,-7.747286168256869
589,-6.89206745215523,-3.484339658234154,-11.915250657017518,-8.122874066210468
590,-7.13207171811848,-3.4255520669373403,-12.483890116179179,-8.49006254462897
591,-7.356408896564714,-3.355827685891678,-13.042290320023438,-8.846293071493058
592,-7.563220752866062,-3.276647637156102,-13.587081413057263,-9.189033423755934
593,-7.750775224663663,-3.1896494448519905,-14.114907992293855,-9.515813454408839
594,-7.917492846368058,-3.09659738423768,-14.622466927652454,-9.824261031278073
595,-8.061971577387439,-2.999349794615934,-15.106545005577443,-10.11213739499781
596,-8.183009512188006,-2.899824015683967,-15.564055676352556,-10.377371168173799
597,-8.279624971948364,-2.7999596664491504,-15.992074189655145,-10.618090252042078
598,-8.3510735107194,-2.7016810288536877,-16.3878704246963,-10.832650871197146
599,-8.396861413151642,-2.606859323820464,-16.748938760450837,-11.019663070786542
600,-8.41675531525882,-2.517275675025594,-17.073024387100368,-11.17801203287242
601,-8.410787643352393,-2.4345855452556786,-17.35814553052892,-11.306874657811667
602,-8.379257637989879,-2.360285402109761,-17.60261114575195,-11.405730950419464
603,-8.322727808198245,-2.29568232489423,-17.805033730401252,-11.474369856945026
604,-8.242015745025196,-2.241867204057993,-17.964337013408606,-11.51288931488614
605,-8.138181311334602,-2.1996921099768816,-18.079758384166794,-11.521690400683564
606,-8.012509315381521,-2.169752321116519,-18.15084604086832,-11.501465587619347
607,-7.866487867668728,-2.1523734045719056,-18.177450950526882,-11.45318125504897
608,-7.701782712370227,-2.147603636838925,-18.159713824501065,-11.378054717691407
609,-7.520207914549127,-2.1552119416900686,-18.098047419412215,-11.277526167367473
610,-7.3236933706905205,-2.174691407577886,-17.99311457164149,-11.153226036621456
611,-7.1142496907164325,-2.2052683315234276,-17.84580246184949,-11.006938401441365
612,-6.893931072475401,-2.2459166224354834,-17.657193682265977,-10.840561136262737
613,-6.664796852464762,-2.2953772866905857,-17.428534742290893,-10.65606361622225
614,-6.428872467115835,-2.3521826149357854,-17.161202696049564,-10.455442827102724
615,-6.188110595460751,-2.414684593647705,-16.85667060815213,-10.240678790820285
616,-5.944353274812826,-2.481086979966626,-16.516472590600884,-10.013690242318358
617,-5.6992957849759724,-2.5494804054132025,-16.142169144539107,-9.77629150149875
618,-5.454453082604369,-2.617879814661724,-15.735313525698333,-9.53015147098146
619,-5.211129535320289,-2.6842635006193327,-15.297419822709449,-9.27675565718436
620,-4.970392655273053,-2.7466129673467896,-14.829933393959541,-9.017372059087931
621,-4.733051464701295,-2.8029528382322604,-14.334204252742978,-8.75302169721027
622,-4.499640042899857,-2.8513900283818536,-13.811463923622064,-8.484454466312837
623,-4.270406706358395,-2.890151417224607,-13.262806216880026,-8.212130891117509
624,-4.045309163728796,-2.9176192893904087,-12.689172284508196,-7.936210247091413
625,-3.824015867102215,-2.9323638582858047,-12.09134023216702,-7.65654538065634
626,-3.605913653561318,-2.933172246483754,-11.46991946886291,-7.372684427721416
627,-3.390121639033936,-2.9190733688098165,-10.825349881547776,-7.0838794890912045
628,-3.175511193129379,-2.889358246352578,-10.157905827305031,-6.789102179032268
629,-2.96073169198041,-2.8435953708236394,-9.467704843007256,-6.487065822087615
630,-2.744241619263184,-2.781640836832654,-8.754720883002811,-6.17625393606867
631,-2.524344466561631,-2.7036430626643773,-8.018801811071693,-5.854954508875829
632,-2.299228775893059,-2.6100420258867905,-7.259690794978429,-5.5212994560646695
633,-2.0670115720076967,-2.501563046357789,-6.477051181634591,-5.173308537293836
634,-1.8257843521618975,-2.37920525369859,-5.6704943691432375,-4.808936915059863
635,-1.5736607382278993,-2.244224976874708,-4.839610139596302,-4.426125460196571
636,-1.3088248516098284,-2.098114388086927,-3.983998874011581,-4.022852846901733
637,-1.0295794463612598,-1.942575819816728,-3.103305038648397,-3.5971884366367566
638,-0.734392830513037,-1.7794922509213502,-2.1972513104139253,-3.1473449259056796
639,-0.4219436198487817,-1.6108945237447392,-1.265672698325065,-2.671729728130856
640,-9.670068313196834e-14,-2.865839158907555e-14,-3.0931803744504845e-14,-2.8671103030586955e-14
641,-2.086528058691064e-12,-5.837776055229e-13,-6.579442058097643e-13,-6.197681056071977e-13
642,-2.332859908115545e-11,-6.918199757522248e-12,-7.989848630045823e-12,-7.446530872786968e-12
643,-1.7362892600016674e-10,-5.5130879129928003e-11,-6.488447461516008e-11,-5.99546205893546e-11
644,-9.700264005830586e-10,-3.314118438672485e-10,-3.968716984201091e-10,-3.6391483398639223e-10
645,-4.355062161706731e-09,-1.606858302540055e-09,-1.9551874815786036e-09,-1.7808226679412421e-09
646,-1.6430629029330446e-08,-6.562756231949051e-09,-8.103755299920653e-09,-7.337686860301713e-09
647,-5.378326267509222e-08,-2.3279050833096697e-08,-2.9138954832061788e-08,-2.6247272000651015e-08
648,-1.5649485236935244e-07,-7.336390504515147e-08,-9.299876277964087e-08,-8.337899710718232e-08
649,-4.1256335441724163e-07,-2.0905512057736032e-07,-2.6814336552686455e-07,-2.393799853175803e-07
650,-1.0006188018354863e-06,-5.462008298414115e-07,-7.083229822678784e-07,-6.298155647331112e-07
651,-2.260646598674586e-06,-1.3233040609975516e-06,-1.73378988100761e-06,-1.5357342998471873e-06
652,-4.8059667680891e-06,-3.000653505998026e-06,-3.969270433401408e-06,-3.502731159172526e-06
653,-9.693819248441393e-06,-6.417706012552904e-06,-8.56530057973789e-06,-7.530444101909533e-06
654,-1.8676228508446857e-05,-1.3030986979191438e-05,-1.7535781293165086e-05,-1.5358849126273327e-05
655,-3.455688888124642e-05,-2.5258430368744864e-05,-3.4250129338997275e-05,-2.9880972769503246e-05
656,-6.168308612228664e-05,-4.695888097395931e-05,-6.412238560776849e-05,-5.571296808368335e-05
657,-0.00010660360389338008,-8.407705967535377e-05,-0.00011554125822242738,-9.995127716997854e-05
658,-0.0001789236675918389,-0.00014548435973488053,-0.00020108350323181818,-0.00017314245200408985
659,-0.0002923859260254065,-0.00024404421683883902,-0.0003390475784972458,-0.00029048406210120605
660,-0.00046620219009828665,-0.00039792741296380943,-0.0005553346464138909,-0.0004732652439071506
661,-0.0007266543192019569,-0.0006321975862011627,-0.000885689540280944,-0.0007505433892556635
662,-0.001108974610386136,-0.0009806805823399324,-0.0013782953904043244,-0.0011610399788863617
663,-0.0016595066819859556,-0.0014881233395583333,-0.002096692757777821,-0.001755224491172605
664,-0.0024381375096057313,-0.002212639036270926,-0.0031229682496494086,-0.0025975414959880576
665,-0.003520980301363896,-0.0032284255582721287,-0.004561129934171939,-0.003768723224807059
666,-0.005003276586286714,-0.004628734234858335,-0.006540558940113917,-0.005368118696547713
667,-0.00700247444137476,-0.006529055484160979,-0.009219400113269324,-0.007515961331704947
668,-0.009661428277431015,-0.00907047766359877,-0.012787731278734983,-0.010355490229955246
669,-0.013151654033098403,-0.012423165155201659,-0.017470332276803297,-0.014054836130787613
670,-0.01767656200714956,-0.016789891606644885,-0.023528863115848654,-0.018808581641472994
671,-0.023474578032490437,-0.022409554371821776,-0.031263256687850405,-0.02483890664022336
672,-0.03082205255888721,-0.0295605866514395,-0.04101213654459048,-0.03239623381496458
673,-0.040035846901599746,-0.038564174779034656,-0.05315208482092121,-0.041759295989000536
674,-0.0514754770042089,-0.04978717975699778,-0.06809560960700249,-0.05323455607273981
675,-0.06554468828047576,-0.06364465482757535,-0.08628769448637959,-0.06715492198741341
676,-0.08269233128592156,-0.08060184495370445,-0.10820085465250986,-0.0838777125371649
677,-0.10341240797201498,-0.1011755500409247,-0.13432867263912246,-0.10378184576031656
678,-0.12824316279985343,-0.1259347320548561,-0.16517784053842208,-0.1272642385648591
679,-0.15776510251432316,-0.15550024738721968,-0.20125879263625793,-0.15473542522131242
680,-0.19259784315981374,-0.1905435903769425,-0.24307507044990823,-0.1866144222785793
681,-0.23339570301332171,-0.2317845422182393,-0.2911116188641289,-0.22332288835006991
682,-0.2808419853626874,-0.279987631907451,-0.345822265047653,-0.26527864857050276
683,-0.335641925041171,-0.335957332593676,-0.4076166788139508,-0.3128886748357157
684,-0.39851430664534665,-0.40053193775295715,-0.47684715199735556,-0.36654163359973596
685,-0.47018179950560196,-0.4745760868771059,-0.5537955634952213,-0.4266001323320145
686,-0.5513600937233165,-0.5589719395435803,-0.6386609145081642,-0.4933928130178085
687,-0.6427459618286455,-0.6546090293013517,-0.7315478242486678,-0.5672064556233574
688,-0.7450044106468375,-0.7623728640545064,-0.832456369469897,-0.6482782656163294
689,-0.8587551265055295,-0.883132376632978,-0.9412736315028898,-0.7367885268926107
690,-0.9845584526717845,-1.0177263669067906,-1.0577672823988145,-0.8328538043741559
691,-1.122901169640159,-1.1669491138805395,-1.1815814979730839,-0.9365208787798732
692,-1.274182375449482,-1.3315353713664497,-1.3122354311592765,-1.0477615894172994
693,-1.4386997834902922,-1.512144992727238,-1.449124415626087,-1.166468749198943
694,-1.6166367682339908,-1.7093474575055396,-1.591523998990272,-1.2924532794693555
695,-1.8080504940488449,-1.9236065943355,-1.7385968293909344,-1.4254426907717925
696,-2.012861458062403,-2.155265809368623,-1.8894023411031282,-1.5650810096531826
697,-2.2308447644419687,-2.404534136786696,-2.0429091067732843,-1.7109302214230069
698,-2.4616234243043515,-2.671473427350207,-2.1980096482289087,-1.8624732650363416
699,-2.7046639428088133,-2.9559869821728704,-2.3535374269945066,-2.0191185797336475
700,-2.959274413245721,-3.2578099221383074,-2.5082856717880517,-2.1802061646783013
701,-3.2246052879386617,-3.5765015589460987,-2.661027645282971,-2.3450150736638804
702,-3.499652938769262,-3.911440002252331,-2.8105379079023556,-2.5127722281835063
703,-3.783266057650637,-4.2618191994743695,-2.9556141035998635,-2.682662394963067
704,-4.07415488102534,-4.626648561414753,-3.095098772302798,-2.853839139636767
705,-4.37090315425573,-5.0047552788954945,-3.2279006863516457,-3.0254365376887415
706,-4.671982683491407,-5.3947893841496555,-3.3530152138744986,-3.196581398073085
707,-4.975770256142197,-5.795231556935248,-3.4695432302324365,-3.366405734855467
708,-5.280566648275503,-6.204403620414948,-3.576708128800745,-3.5340592083875833
709,-5.584617379755232,-6.6204816170215794,-3.673870523466099,-3.6987212503277385
710,-5.8861348272669956,-7.0415113010748245,-3.7605402861233763,-3.8596125865047495
711,-6.183321262978799,-7.465425834119336,-3.836385621713584,-4.016005878350069
712,-6.474392353863229,-7.8900654221001405,-3.9012389493275794,-4.1672352175098855
713,-6.757600634914854,-8.313198591799598,-3.9550994288326744,-4.312704229347909
714,-7.0312584596422525,-8.732544768530587,-3.998132046508415,-4.451892569287164
715,-7.293759933985369,-9.145797788827602,-4.030663248440665,-4.584360631035392
716,-7.543601355562521,-9.550649961478006,-4.053173185123239,-4.709752327148188
717,-7.779399708889534,-9.944816278098443,-4.0662847031944915,-4.827795849273872
718,-7.999908808507505,-10.326058370713461,-4.070749289030725,-4.938302366683446
719,-8.204032734880249,-10.692207818291303,-4.067430232802025,-5.04116267595742
720,-8.390836271080309,-11.041188416552831,-4.057283339565998,-5.136341870415402
721,-8.559552119918555,-11.371037045024973,-4.04133556521249,-5.2238721533339065
722,-8.709584759289644,-11.679922791561898,-4.020661998875863,-5.303843972447818
723,-8.840510875908212,-11.966164026631786,-3.9963616491613427,-5.376395702943378
724,-8.952076401916498,-12.228243156761957,-3.969532518578881,-5.441702150494037
725,-9.044190262544182,-12.46481882784535,-3.9412464683746786,-5.499962183389886
726,-9.11691502358545,-12.674735393752641,-3.912524384010681,-5.551385832188683
727,-9.17045470254492,-12.857029513101821,-3.8843121495214175,-5.596181215524778
728,-9.205140074702285,-13.010933786361058,-3.857457926723767,-5.634541660951666
729,-9.22141186308354,-13.13587739595109,-3.8326912128576485,-5.666633389427752
730,-9.219802247718608,-13.231483762914227,-3.8106041180435954,-5.692584121031435
731,-9.20091516333966,-13.297565284266561,-3.7916352625743652,-5.71247293777809
732,-9.165405875076068,-13.334115264586606,-3.7760566443792287,-5.726321707430857
733,-9.113960328506062,-13.341297202969207,-3.763963770101795,-5.734088330754336
734,-9.047274763863388,-13.319431641458902,-3.7552692803895282,-5.735662024938763
735,-8.966036064897882,-13.268980822768743,-3.7497002326174607,-5.730860799452895
736,-8.870903281864742,-13.190531442815905,-3.7467991338491395,-5.719431219186666
737,-8.762490726764154,-13.084775816728559,-3.7459287448729928,-5.701050485453367
738,-8.641352988977985,-12.952491804914107,-3.7462806040810785,-5.675330800388958
739,-8.507972162741574,-12.794521868008209,-3.746887149100877,-5.641825916679728
740,-8.362747516393474,-12.611751635628352,-3.7466372456256947,-5.600039714440815
741,-8.205987769011902,-12.405088383533228,-3.7442948678461607,-5.549436592331901
742,-8.037906074775373,-12.175439816881285,-3.738520614186353,-5.4894534122353775
743,-7.858617750950626,-11.923693553763522,-3.7278956865494215,-5.419512697311941
744,-7.668140723348504,-11.65069769315279,-3.710947911819908,-5.339036752918185
745,-7.466398604653442,-11.357242835053901,-3.686179341803141,-5.247462359308302
746,-7.253226267249145,-11.044045898222084,-3.652094932971982,-5.144255674521661
747,-7.028377723930799,-10.711736052674498,-3.6072317811915933,-5.028926985373371
748,-6.791536088014274,-10.360843050746357,-3.5501883698021994,-4.901044953755183
749,-6.542325349490358,-9.991788202096567,-3.4796532827423294,-4.760250024012838
750,-6.280323676494872,-9.604878195359808,-3.394432838304958,-4.606266684239745
751,-6.005077931744546,-9.200301922632239,-3.2934771139214543,-4.438914308914734
752,-5.71611908182185,-8.778130413267538,-3.175903858074453,-4.258116351182769
753,-5.412978173198049,-8.33831993119124,-3.0410198217515076,-4.063907698809008
754,-5.095202552341941,-7.880718235801241,-2.8883390881532804,-3.8564400568753476
755,-4.762372017575249,-7.405073951249142,-2.7175980347510484,-3.635985271019145
756,-4.414114606678159,-6.91104893328601,-2.5287666250771323,-3.402936555835915
757,-4.050121745673217,-6.398233467757528,-2.322055797433609,-3.157807642461618
758,-3.6701625097371524,-5.866164081150259,-2.0979207924366454,-2.9012299059328948
759,-3.2740967758014237,-5.314343692261257,-1.8570603392375835,-2.6339475754843975
760,-2.861887077070965,-4.742263786036558,-1.6004116995291855,-2.3568111684696307
761,-2.4336090014061442,-4.1494282468321035,-1.3291416471642514,-2.070769320291901
762,-1.9894600073711797,-3.5353784496787504,-1.04463353752841,-1.7768592080488936
763,-1.5297665630128188,-2.8997191754051874,-0.7484706929890164,-1.4761957842237239
764,-1.054989542505955,-2.2421448894353273,-0.4424163972552412,-1.169960048651091
765,-0.5657278442179999,-1.562465905390937,-0.1283908510465764,-0.8593865923584453
766,-0.06272022015929499,-0.860633943857368,0.19155450692723675,-0.5457506461747792
767,0.4531546689655882,-0.13676659425931031,0.5152648667394446,-0.230354860864801
768,-8.340494994234682e-14,-4.940842375369023e-14,-4.5180774814688984e-14,-4.5610829828012024e-14
769,-1.7707281046104472e-12,-1.0413697212419103e-12,-9.794137534190787e-13,-9.87437780534749e-13
770,-1.974885416297603e-11,-1.2406279218029316e-11,-1.1688815048235805e-11,-1.1709637379523902e-11
771,-1.4683028616090343e-10,-9.911799163905746e-11,-9.338407927248257e-11,-9.295862082949552e-11
772,-8.207722030526489e-10,-5.972087205118922e-10,-5.618952293152795e-10,-5.561003047114377e-10
773,-3.6941389853365845e-09,-2.9021137074496034e-09,-2.7232972985966292e-09,-2.681169777058057e-09
774,-1.400296247606553e-08,-1.1880239826538439e-08,-1.1104840222256017e-08,-1.0882415440748637e-08
775,-4.6165853305746476e-08,-4.2243149966235564e-08,-3.928617685937278e-08,-3.834231359746096e-08
776,-1.356374036865326e-07,-1.3347264937983143e-07,-1.2337168135723523e-07,-1.1997798016046028e-07
777,-3.619418770624627e-07,-3.81384566892234e-07,-3.5005553649363397e-07,-3.3936335864783694e-07
778,-8.905142530520857e-07,-9.993536839473686e-07,-9.101864479255986e-07,-8.79958832647409e-07
779,-2.0446263510691906e-06,-2.428592330888341e-06,-2.193655198847584e-06,-2.1155934732937324e-06
780,-4.4232886039874735e-06,-5.524445708981091e-06,-4.947060537893236e-06,-4.760336200299469e-06
781,-9.086413711331358e-06,-1.1853946729723923e-05,-1.0521559247915423e-05,-1.010326706132104e-05
782,-1.783436530447308e-05,-2.4148135364201862e-05,-2.1244049409110604e-05,-2.0358702514215827e-05
783,-3.36148435238421e-05,-4.695998639299347e-05,-4.094975093860598e-05,-3.916657235410385e-05
784,-6.109533224640648e-05,-8.758420304113445e-05,-7.571765400289103e-05,-7.228031998712278e-05
785,-0.00010744337988818425,-0.00015729762311956642,-0.0001348515091195932,-0.00012848036430316578
786,-0.00018335903171785308,-0.00027297764845802413,-0.00023214737914589414,-0.00022074934407129295
787,-0.00030440300145802155,-0.0004591502365815178,-0.00038748372028300754,-0.00036774068692765704
788,-0.0004926600226679376,-0.0007505081344664725,-0.0006287611440994796,-0.0005955642670965281
789,-0.0007787688299356998,-0.0011949240514705698,-0.0009942063128450223,-0.0009399019835153986
790,-0.0012043381818983745,-0.001856962569679569,-0.001535037989499672,-0.0014484521521980522
791,-0.0018247522807655926,-0.0028218693365428577,-0.0023184735459939477,-0.0021836850239605548
792,-0.002712349184582334,-0.004199987373626604,-0.0034310319509968964,-0.0032258730715108434
793,-0.0039599330270699545,-0.006131519360753375,-0.004982065386150583,-0.004676339680155596
794,-0.005684556083267325,-0.008791522948022084,-0.0071074273533952605,-0.006660849414861383
795,-0.008031481223373486,-0.012394995103850235,-0.009973161755947394,-0.00933304311854359
796,-0.011178210477423997,-0.017201872898177654,-0.013779076352902733,-0.01287780276826766
797,-0.015338442719365667,-0.023521753601442343,-0.018762046581948744,-0.017514415316391852
798,-0.02076580427992322,-0.0317181180949481,-0.02519888329757793,-0.02349939265501906
799,-0.027757181913003033,-0.042211829675600034,-0.03340859157878576,-0.031128797243875857
800,-0.0366554790322293,-0.055483676459524664,-0.04375384825416794,-0.0407399205673429
801,-0.047851614218645366,-0.07207573047297214,-0.05664153368373458,-0.05271216497100891
802,-0.061785586029597876,-0.09259131053027324,-0.0725221687749853,-0.0674669888565123
803,-0.07894644014440864,-0.11769335912775977,-0.09188813097014491,-0.08546679067497635
804,-0.09987099362190138,-0.14810107545660614,-0.11527055243614384,-0.10721262833863418
805,-0.1251411960122181,-0.18458468654156945,-0.14323483900892667,-0.13324069697722918
806,-0.15538003752279844,-0.22795828542387214,-0.17637478841140397,-0.16411751860331708
807,-0.191245949499276,-0.2790707179296975,-0.21530532950067463,-0.2004338312855368
808,-0.23342568121528554,-0.3387945563783763,-0.2606539492985048,-0.24279720184745027
809,-0.2826256784288745,-0.4080132578836527,-0.3130509197549956,-0.29182342384039994
810,-0.3395620323522187,-0.4876066648598934,-0.3731184800266014,-0.348126800460003
811,-0.4049491114564686,-0.5784350640679621,-0.44145917100096826,-0.41230944902339556
812,-0.47948703163014494,-0.6813220761193229,-0.5186435554390753,-0.4849497984208741
813,-0.5638481613244691,-0.7970366979503385,-0.6051975881142981,-0.5665904824624667
814,-0.6586628961957808,-0.9262748646359049,-0.701589924549539,-0.6577258592116966
815,-0.7645049712102443,-1.0696409324463665,-0.8082194734314238,-0.758789408330046
816,-0.8818766060946321,-1.2276295108850033,-0.9254035058041054,-0.8701412744099619
817,-1.011193801397043,-1.4006080864549424,-1.053366633287703,-0.9920562337084454
818,-1.1527721164647298,-1.5888008842787191,-1.1922309577079457,-1.1247123642749748
819,-1.3068132668326806,-1.7922744049650998,-1.3420076758575648,-1.268180695088559
820,-1.4733928765939182,-2.010925053195954,-1.5025903961240863,-1.422416098589976
821,-1.6524497112467222,-2.2444692416861574,-1.6737503891590317,-1.5872496732277512
822,-1.8437766984098958,-2.4924363101170837,-1.8551339535835893,-1.7623828388106144
823,-2.047014017968557,-2.7541645443670375,-2.0462620310359827,-1.947383338197922
824,-2.261644510141306,-3.0288005181684516,-2.246532153885355,-2.1416833049011332
825,-2.486991610247364,-3.31530190877806,-2.455222754959827,-2.344579518340721
826,-2.722219973236115,-3.612443862124402,-2.671499813004647,-2.555235927678116
827,-2.966338899972441,-3.9188289031224217,-2.8944257516761605,-2.772688482199898
828,-3.2182086215834462,-4.2329003054355265,-3.122970455081512,-2.995852262014102
829,-3.476549438781908,-4.552958753969206,-3.3560242105773948,-3.2235308581135302
830,-3.739953651118058,-4.8771820548132565,-3.5924123410813515,-3.4544279064007
831,-4.0069001478808515,-5.203647573141144,-3.8309112457661225,-3.6871606367456367
832,-4.275771469317687,-5.530357011531737,-4.070265530801433,-3.9202752562364527
833,-4.544873085556171,-5.855263080958793,-4.309205881707929,-4.152263946166358
834,-4.812454582825384,-6.176297565789051,-4.546467306647012,-4.381583215687248
835,-5.076732394083275,-6.491400243837933,-4.780807366161566,-4.606673322186062
836,-5.335913665668315,-6.79854809392059,-5.011023999904621,-4.8259784400559775
837,-5.588220814582486,-7.095784207204378,-5.2359725649666276,-5.037967236374336
838,-5.831916303668424,-7.381245815520741,-5.454581713576436,-5.241153494743024
839,-6.065327145178335,-7.653190859820312,-5.665867760056701,-5.434116417783379
840,-6.286868637681121,-7.910022545031729,-5.868947217612315,-5.6155202349738795
841,-6.495066847233331,-8.150311363276353,-6.063047224256452,-5.784132745995145
842,-6.688579361221305,-8.372814114961463,-6.247513623140939,-5.938842440665566
843,-6.866213871921433,-8.576489515700287,-6.421816514735796,-6.078673854906039
844,-7.026944186020698,-8.760510045008788,-6.585553155464405,-6.202800847790972
845,-7.169923305251735,-8.92426976879683,-6.738448138135524,-6.31055751728717
846,-7.294493280824164,-9.067387950110511,-6.880350852270806,-6.401446511253095
847,-7.4001916091178135,-9.1897083495518,-7.011230285558749,-6.475144535017976
848,-7.4867540066068585,-9.291294206364123,-7.131167289473447,-6.531504906597774
849,-7.5541134766146305,-9.37241898134589,-7.240344490887093,-6.570557064441855
850,-7.602395657677763,-9.433553031562433,-7.339034085669665,-6.59250298956781
851,-7.63191052144051,-9.475346472352122,-7.427583798358097,-6.597710562991253
852,-7.64314056546897,-9.498608562543424,-7.50640133276578,-6.586703939383467
853,-7.636725721502031,-9.504284022426308,-7.575937670937155,-6.560151077715397
854,-7.613445270811791,-9.493426759323102,-7.6366696014695075,-6.5188486280498745
855,-7.574197124006799,-9.467171531231708,-7.689081872565643,-6.463704429396068
856,-7.519974881358631,-9.426704123826097,-7.733649370181547,-6.395717925459448
857,-7.451843140241879,-9.373230649179654,-7.770819717492708,-6.315958852108811
858,-7.3709115573508015,-9.307946595253496,-7.8009966790489855,-6.225544591449822
859,-7.278308203997303,-9.232006263050472,-7.824524732027475,-6.1256166216657615
860,-7.17515277226205,-9.146493223228441,-7.841675138668407,-6.017316518493316
861,-7.062530197556096,-9.052392406018852,-7.852633819135638,-5.9017619826780106
862,-6.941465258945208,-8.950564407899801,-7.857491283602637,-5.780023377427628
863,-6.812898702300953,-8.841722556278144,-7.856234837309162,-5.653101260280344
864,-6.677665403174122,-8.726413220339108,-7.848743223695605,-5.52190538457284
865,-6.536475046796481,-8.604999793347385,-7.834783819566852,-5.387235626620679
866,-6.389895752689237,-8.477650700354745,-7.814012443653208,-5.249765265765337
867,-6.23834101211822,-8.344331706974156,-7.785975787010725,-5.110027005750918
868,-6.082060239396463,-8.204802721235874,-7.750116421508487,-4.968402077839455
869,-5.921133164292414,-8.058619193255,-7.705780292219433,-4.825112709278994
870,-5.755468214228924,-7.905138128277272,-7.652226551837924,-4.680218176097673
871,-5.584804953331467,-7.74352863941386,-7.588639551186428,-4.533614587881734
872,-5.4087205624613865,-7.57278687878511,-7.514142760240992,-4.385038475629426
873,-5.226640261815863,-7.391755101555392,-7.427814359579973,-4.234074173586238
874,-5.0378514970685595,-7.199144538035228,-7.328704213284984,-4.0801649039348895
875,-4.841521632885183,-6.993561676083879,-7.215851911478851,-3.9226273911992773
876,-4.636718825433302,-6.773537490721995,-7.088305554075503,-3.76066975312514
877,-4.422435679549894,-6.537559101212637,-6.945140936955733,-3.5934123385112438
878,-4.197615237721458,-6.28410328872165,-6.7854807975134195,-3.41991111182847
879,-3.96117879804224,-6.0116712706308855,-6.608513778043064,-3.2391831212443343
880,-3.7120550178488907,-5.718824101049163,-6.413512772378324,-3.0502335325206382
881,-3.449209729688014,-5.404218051274224,-6.199852333125323,-2.852083667671773
882,-3.171675877373848,-5.066639319003292,-5.967024833353675,-2.643799455560542
883,-2.878582972591199,-4.70503742097959,-5.714655097335447,-2.4245196828111535
884,-2.5691854769919322,-4.318556640440257,-5.442513239526889,-2.1934834282762
885,-2.242889531000488,-3.9065649280799573,-5.150525479188577,-1.9500560731997425
886,-1.899277478348796,-3.4686796930659196,-4.838782729595303,-1.693753302195304
887,-1.5381296742022028,-3.004789968622184,-4.507546795479252,-1.4242625468491714
888,-1.1594431138276793,-2.5150744943744248,-4.157254049955377,-1.1414613734427337
889,-0.7634464770784817,-2.000015324350977,-3.7885165024305643,-0.845432377898313
890,-0.3506112503858955,-1.4604066443957557,-3.402120211552005,-0.5364742232219937
891,0.07834133875494909,-0.8973585646662552,-2.999021041637018,-0.21510853580747347
892,0.522437760959315,-0.31229574055181486,-2.5803378066272877,0.1179175348878568
893,0.9804541009871055,0.2930492327577146,-2.1473428916426833,0.4616331956323976
894,1.4509224683840491,0.9166476123740198,-1.7014504877452117,0.8148503340515113
895,1.9321418341786396,1.5561913516147337,-1.2442026195248461,1.1761741984822027
896,-2.855548174167047e-14,-4.411414223458903e-14,-5.1249213477130685e-14,-3.836248502805886e-14
897,-5.420473797375952e-13,-9.530949068125759e-13,-1.1204529416333232e-12,-8.331343229855803e-13
898,-5.600407159750737e-12,-1.1253261311784925e-11,-1.3189041368045836e-11,-9.894603978968519e-12
899,-3.823480477912489e-11,-8.898002840436254e-11,-1.0390210745953618e-10,-7.871305018902969e-11
900,-1.9418098455056906e-10,-5.302247681192082e-10,-6.167457212050288e-10,-4.718955447608496e-10
901,-7.869702630502723e-10,-2.547132547089188e-09,-2.950979901547503e-09,-2.2806241257278362e-09
902,-2.673378864165878e-09,-1.0305005267685172e-08,-1.189081395745154e-08,-9.282182506241052e-09
903,-7.91783190508762e-09,-3.6208890805198044e-08,-4.1613721134723434e-08,-3.281015471534635e-08
904,-2.11645404329469e-08,-1.1305606285723987e-07,-1.2942328509182412e-07,-1.0305768894644978e-07
905,-5.26651266591959e-08,-3.1927108154436063e-07,-3.641181241810928e-07,-2.927858744216514e-07
906,-1.2516400483155293e-07,-8.269853171597571e-07,-9.39797549213054e-07,-7.629644644664717e-07
907,-2.8902614936410743e-07,-1.987142660985457e-06,-2.250739598679413e-06,-1.8444060209685753e-06
908,-6.531658876845014e-07,-4.470880121619852e-06,-5.0485211619942575e-06,-4.174760137716749e-06
909,-1.4433402384207374e-06,-9.491768451790283e-06,-1.0688369405653954e-05,-8.915913581054449e-06
910,-3.1038932006352323e-06,-1.9138603576178077e-05,-2.1497285118725553e-05,-1.808232978276842e-05
911,-6.463702662263037e-06,-3.685273160936854e-05,-4.130111399583109e-05,-3.501547767059255e-05
912,-1.2991480799507712e-05,-6.808675352211389e-05,-7.615077752603726e-05,-6.50425208889773e-05
913,-2.5169257769918894e-05,-0.00012118230146640748,-0.00013528865616296943,-0.00011635817044667206
914,-4.701535429225034e-05,-0.00020850290367331554,-0.00023239407803482675,-0.00020116645806319346
915,-8.478898035683896e-05,-0.000347853390482849,-0.0003871415828577197,-0.0003371137489120063
916,-0.00014790744896736406,-0.0005642096409625183,-0.000627096861712033,-0.0005490353913695514
917,-0.00025010363443384894,-0.0008917717177238154,-0.0009899629902946625,-0.000871026061438454
918,-0.00041084556659040124,-0.0013763397769078957,-0.0015261739741460928,-0.0013488284183861181
919,-0.0006570318295135645,-0.002077995966495379,-0.0023018141336965613,-0.0020425167021126656
920,-0.0010249657452543466,-0.003074057432523802,-0.003401821112251377,-0.0030294321428836132
921,-0.0015625983813626703,-0.004462246305254639,-0.004933408124177526,-0.004407306475757852
922,-0.002332015624250624,-0.00636400302744838,-0.007029618481279559,-0.00629748954750731
923,-0.0034121284328237547,-0.008927850574929234,-0.009852903597397437,-0.00884817813443782
924,-0.004901508539116962,-0.012332699978559057,-0.013598595831009103,-0.012237526807404546
925,-0.006921295017792122,-0.01679097302405692,-0.018498130971071745,-0.01667650905315819
926,-0.009618081172397312,-0.02255140694483765,-0.024821863134197254,-0.022411388810589458
927,-0.01316667705625041,-0.029901399084251764,-0.03288130840131389,-0.029725659832587212
928,-0.017772631625894833,-0.03916874749140034,-0.043030653521769525,-0.03894131333475851
929,-0.023674390871090384,-0.05072264665392307,-0.055667372991733806,-0.050419303485292805
930,-0.03114496498960615,-0.06497380628702747,-0.07123181197092661,-0.06455909541274008
931,-0.040492979349256275,-0.08237357530623071,-0.09020561368461215,-0.08179720129118039
932,-0.052062991001310344,-0.10341197261932417,-0.11310889767379886,-0.10260463618108473
933,-0.06623496501801107,-0.12861455078502618,-0.14049612869825542,-0.12748325587612036
934,-0.08342282273881096,-0.15853804731238352,-0.17295065418124464,-0.15696097299068026
935,-0.1040719966336736,-0.19376481064564988,-0.21107792950235324,-0.1915858836442318
936,-0.12865595320426673,-0.23489602276073834,-0.25549749372082653,-0.2319193739057663
937,-0.15767167524944076,-0.2825437767178814,-0.306833801873065,-0.2785283111209677
938,-0.19163412686520773,-0.33732210428934944,-0.3657060622307525,-0.3319764588399352
939,-0.23106975752996786,-0.3998370846640962,-0.43271726625973356,-0.3928152838780225
940,-0.27650913426082,-0.4706761989642682,-0.5084426340017171,-0.4615743488138601
941,-0.32847882185196103,-0.5503971256829753,-0.5934177268656561,-0.53875150188408
942,-0.3874926594379445,-0.6395161980703383,-0.6881265021971903,-0.6248030879218507
943,-0.4540426059690347,-0.7384967650209205,-0.792989598548109,-0.7201344081126396
944,-0.5285893466492336,-0.8477377114141984,-0.9083531466080459,-0.8250906526126873
945,-0.6115528661482627,-0.9675624016128506,-1.0344783978979417,-0.9399485185426021
946,-0.7033032019119216,-1.0982083106341332,-1.1715324514912488,-1.064908706948218
947,-0.8041515919432297,-1.2398176012945001,-1.31958033849097,-1.2000894668027482
948,-0.9143422260733506,-1.3924288925013666,-1.4785786953385593,-1.345521323136381
949,-1.0340447982481946,-1.555970444121019,-1.648371221143523,-1.5011430913244357
950,-1.1633480401447909,-1.7302549579388513,-1.8286860722108988,-1.6667992420331301
951,-1.3022543941007827,-1.9149761627433683,-2.0191353000853374,-1.8422386429968394
952,-1.4506759566753427,-2.109707315240604,-2.219216389110604,-2.027114666365564
953,-1.608431794078315,-2.3139017082005697,-2.428315897169323,-2.220986615403375
954,-1.775246698179705,-2.5268952339272905,-2.6457151503938454,-2.4233223932386356
955,-1.9507514178407654,-2.7479110059024072,-2.870597890693634,-2.633502310305296
956,-2.1344843659250716,-2.9760659954245834,-3.1020597253555793,-2.850823906903893
957,-2.325894768617503,-3.2103795944373936,-3.3391191820904313,-3.0745076534508886
958,-2.5243471916181366,-3.449783971691029,-3.5807301319549176,-3.3037033836297884
959,-2.7291273482513083,-3.6931360480602557,-3.825795307662381,-3.537497314607959
960,-2.9394490682005947,-3.939230879300841,-4.073180616825809,-3.774919513191964
961,-3.154462282937423,-4.1868162017046675,-4.321729929397378,-4.01495167639308
962,-3.3732618653136757,-4.434607868792443,-4.570280006533262,-4.256535108237141
963,-3.594897146462485,-4.681305885976426,-4.81767523468098,-4.498578790484422
964,-3.8183819231577827,-4.925610735478038,-5.06278183401066,-4.739967461871091
965,-4.042704763031246,-5.16623967597932,-5.3045012243187095,-4.979569637236697
966,-4.2668394133698655,-5.401942700650131,-5.541782253907173,-5.216245513299723
967,-4.489755121456106,-5.631517843300463,-5.773632027115687,-5.448854720947601
968,-4.7104266804119455,-5.8538255352806186,-5.999125103335958,-5.676263894059114
969,-4.927844024068214,-6.067801735057447,-6.217410883426873,-5.8973540317183115
970,-5.14102120722744,-6.272469577651168,-6.427719047248663,-6.111027634140383
971,-5.349004623513523,-6.466949321713188,-6.629362957199587,-6.316215592892512
972,-5.550880331527414,-6.650466407244492,-6.821740995747114,-6.511883813431354
973,-5.745780381013401,-6.8223574759995795,-7.0043358585412925,-6.697039543110936
974,-5.93288805392469,-6.982074248637265,-7.176711877325819,-6.870737371257953
975,-6.11144196032701,-7.129185196766439,-7.338510497103989,-7.032084860353253
976,-6.2807389555969655,-7.263374993263102,-7.489444078526651,-7.180247759531704
977,-6.440135872918125,-7.384441769663871,-7.629288238009404,-7.314454744280147
978,-6.589050093154979,-7.492292254137596,-7.757872973551224,-7.434001620148941
979,-6.7269590021717125,-7.586934906598606,-7.875072852669736,-7.538254924257805
980,-6.853398412779315,-7.66847120809491,-7.980796559522616,-7.62665485707457
981,-6.967960053848424,-7.737085298884823,-8.074976110589903,-7.698717478955594
982,-7.070288251808306,-7.793032192882832,-8.157556051918577,-7.754036111644745
983,-7.1600759489105625,-7.836624824775553,-8.228482945808928,-7.792281894466206
984,-7.237060217483381,-7.868220209550111,-8.287695441166404,-7.813203458163852
985,-7.301017439241111,-7.888205012013111,-8.33511520005922,-7.816625695814942
986,-7.351758323010557,-7.896980835786975,-8.370638924095925,-7.802447629346875
987,-7.389122932724457,-7.894949547031427,-8.39413168909131,-7.770639391162389
988,-7.412975890261866,-7.882498947635046,-8.405421756327476,-7.721238362454239
989,-7.4232019050045395,-7.859989105839976,-8.404296984867143,-7.65434453221536
990,-7.419701764344769,-7.827739639287456,-8.390502923244732,-7.570115163014599
991,-7.4023888975071195,-7.786018226483897,-8.363742611885824,-7.468758870614787
992,-7.37118659979686,-7.735030597968397,-8.323678081214153,-7.3505292437639556
993,-7.326025976792169,-7.674912228408695,-8.2699334859498,-7.215718147310495
994,-7.266844639182468,-7.605721915988154,-8.202099774797581,-7.064648865546811
995,-7.193586150054795,-7.527437396434175,-8.119740757598567,-6.897669252817931
996,-7.1062001985451015,-7.43995309666754,-8.022400399882494,-6.715145064471795
997,-7.004643447992164,-7.3430800882275395,-7.9096111481971345,-6.517453642791828
998,-6.888880984130356,-7.236548254349795,-7.780903068956738,-6.304978129348226
999,-6.7588882704148405,-7.120010637922721,-7.635813568983102,-6.078102367055174
1000,-6.614653504079864,-6.99304989165672,-7.47389745737233,-5.8372066420973105
1001,-6.456180258536854,-6.855186707809509,-7.294737105651268,-5.582664397955413
1002,-6.283490295528542,-6.705890063822919,-7.097952466172591,-5.314840031400632
1003,-6.096626434093574,-6.544589083241667,-6.883210717099248,-5.034087854120679
1004,-5.895655372515091,-6.370686279147053,-6.650235315896389,-4.740752274311834
1005,-5.680670373234785,-6.18357192069699,-6.398814261680318,-4.435169220919963
1006,-5.451793738037578,-5.982639242659889,-6.128807389669172,-4.117668800109067
1007,-5.209179020315111,-5.767300203324268,-5.840152547807313,-3.7885791399392517
1008,-4.953012941636667,-5.537001487990278,-5.53287053576148,-3.448231346233382
1009,-4.683517000163417,-5.291240453465033,-5.207068719242872,-3.096965461398357
1010,-4.400948777860396,-5.029580713609963,-4.862943267365365,-2.7351372897661608
1011,-4.105602971433646,-4.751667076989393,-4.500779996947125,-2.3631259289436617
1012,-3.797812188039966,-4.4572395648719345,-4.120953844817631,-1.9813418275594663
1013,-3.4779475607274026,-4.146146260826826,-3.7239270269002267,-1.5902351761416091
1014,-3.1464192498532872,-3.81835477120898,-3.3102459808008713,-1.1903044297218983
1015,-2.8036769048798464,-3.473962107910362,-2.880537226699581,-0.7821047578997966
1016,-2.450210165428408,-3.1132028396347904,-2.435502319559348,-0.36625622011207737
1017,-2.086549280881427,-2.736455394320072,-1.9759121042988714,0.05654852967343772
1018,-1.7132659240150945,-2.3442464319283283,-1.5026005250865446,0.48553719406379187
1019,-1.3309742662283437,-1.9372532425366928,-1.016458280939695,0.9198516100730001
1020,-0.9403323701441059,-1.516304158561041,-0.5184266630951037,1.358542506963143
1021,-0.542043939969362,-1.082377001328103,-0.00949195587488421,1.8005653769124714
1022,-0.1368604513147863,-0.6365956105964579,0.5093191674782259,2.2447775687700156
1023,0.2744163394367358,-0.18022453074956105,1.0369427691985855,2.689936691457651
1024,9.4117758301362e-15,-4.817095862979593e-14,-1.479777825654566e-12,-8.262202303287268e-14
1025,2.118405475546501e-13,-1.0931943964094434e-12,-3.2268940027802953e-11,-1.9418163149067254e-12
1026,2.8029502447892287e-12,-1.2933033943945415e-11,-3.8418379185497273e-10,-2.2548269205538632e-11
1027,2.4654923325960565e-11,-1.0209910602619014e-10,-3.0637734433993476e-09,-1.7399676765379613e-10
1028,1.6143938665475829e-10,-6.0614859233983e-10,-1.8411343200717608e-08,-1.0075062675007305e-09
1029,8.397162943196003e-10,-2.895278872951966e-09,-8.917399915422119e-08,-4.684829315851945e-09
1030,3.6206100092586723e-09,-1.1624137990351333e-08,-3.636191062564838e-07,-1.8280614195620637e-08
1031,1.3344853974601533e-08,-4.0457889770546446e-08,-1.2871876981815975e-06,-6.175414402655634e-08
1032,4.3057215414480874e-08,-1.2491847328115684e-07,-4.047113481702983e-06,-1.8485942107690931e-07
1033,1.239711665254067e-07,-3.483262893221848e-07,-1.150338562471459e-05,-4.993125574203735e-07
1034,3.2365721236833527e-07,-8.897174020862271e-07,-2.9975803956421516e-05,-1.2345453782805262e-06
1035,7.766444210523644e-07,-2.105858504721698e-06,-7.242864854224369e-05,-2.8268470436076083e-06
1036,1.732798442343845e-06,-4.662707490346747e-06,-0.00016379337287561737,-6.052086199138779e-06
1037,3.630299149581294e-06,-9.734461142734e-06,-0.00034938125471426737,-1.2211040833598446e-05
1038,7.201825790392536e-06,-1.9290272290456326e-05,-0.0007075424523399668,-2.3373354590747357e-05
1039,1.3624576202114176e-05,-3.6489423175736514e-05,-0.0013679022978336807,-4.268125614847692e-05
1040,2.472683427946418e-05,-6.620489200537998e-05,-0.0025366254586145364,-7.47076452077129e-05
1041,4.326579778026892e-05,-0.00011569262038683995,-0.0045302003557157805,-0.00012585538038548076
1042,7.329314147525578e-05,-0.00019541927668702237,-0.007819179704173309,-0.00020477612880017188
1043,0.00012062612451972944,-0.00032005495780020054,-0.01308314320726329,-0.00032277852997143216
1044,0.00019344267042222606,-0.0005096292768629097,-0.02127785698673482,-0.0004941872710295318
1045,0.00030301841862691596,-0.000790839979409969,-0.03371519071429165,-0.0007366075295699367
1046,0.00046462196959766916,-0.0011984930415215984,-0.05215582524095344,-0.0010710436309594722
1047,0.0006985812027540826,-0.0017770426079492974,-0.07891415646235174,-0.0015218171348169575
1048,0.0010315284834092626,-0.002582188625884644,-0.1169740982229607,-0.002116228288028234
1049,0.0014978256776425557,-0.0036824801346715843,-0.170113737494595,-0.0028839061911087936
1050,0.0021411611256963877,-0.0051608634094288935,-0.24303603282257769,-0.0038557974304881774
1051,0.003016300196110308,-0.007116107052974521,-0.3415020090253639,-0.0050627506051764675
1052,0.004190959050290515,-0.009664031182932029,-0.4724622253147182,-0.006533665308907568
1053,0.0057477582480213426,-0.012938465502502628,-0.6441817174126498,-0.008293188752591264
1054,0.007786199400590682,-0.017091861614444377,-0.8663531711450051,-0.010358961161006755
1055,0.010424594935547779,-0.02229548866839258,-1.1501928051528423,-0.012738431958664314
1056,0.013801869011902036,-0.02873914843653186,-1.5085133475911259,-0.01542529193674189
1057,0.018079137622970674,-0.03663035619328659,-1.9557686026478762,-0.01839559118601197
1058,0.02344096878522743,-0.04619294722395972,-2.508064426137835,-0.02160363749548562
1059,0.03009622007964748,-0.05766508518423471,-3.1831314655991396,-0.02497779391273069
1060,0.03827835111234505,-0.07129666752464152,-4.000255761046127,-0.028416315941928637
1061,0.04824511296220241,-0.08734614427057764,-4.980164231332456,-0.03178338714776027
1062,0.06027752554586603,-0.10607678892217925,-6.144863163785049,-0.03490552555469303
1063,0.07467806707834491,-0.12775248324976674,-7.517429050301912,-0.03756854114559029
1064,0.09176801726333171,-0.15263310031040048,-9.121752434532558,-0.039515226135729546
1065,0.11188391712019449,-0.18096959101549387,-10.982236810522679,-0.040443953945780015
1066,0.13537313289082792,-0.2129988979378261,-13.123455998589392,-0.04000834962138871
1067,0.16258853860156,-0.24893883471081912,-15.569774772957995,-0.037818173843076626
1068,0.19388236080132448,-0.28898307941251106,-18.34493878182306,-0.033441534925639296
1069,0.22959925884370913,-0.33329643498781353,-21.47164094003566,-0.026408508906330903
1070,0.2700687438106538,-0.3820105085276919,-24.971072447390544,-0.016216207865790262
1071,0.315597067745428,-0.4352199538648417,-28.862467356718874,-0.0023352922467609104
1072,0.3664587412579193,-0.4929794085604917,-33.16265015765086,0.015782124315311834
1073,0.42288786079862156,-0.5553012373802733,-37.885596133761815,0.03869327744616488
1074,0.485069445983547,-0.6221541705354805,-43.042014281066464,0.06695440896865126
1075,0.5531310013422828,-0.6934628973095044,-48.63896234140516,0.10110947001779794
1076,0.6271345249502239,-0.7691086454013842,-54.67950301064273,0.14167810175245182
1077,0.7070691880376501,-0.8489307447160703,-61.16240964229386,0.18914315838658266
1078,0.7928449045661531,-0.9327291427596717,-68.08192880291061,0.24393806285259123
1079,0.8842869978963976,-1.0202678085532615,-75.42760587319765,0.30643430235725333
1080,0.9811321532259946,-1.1112789342407072,-83.1841785601309,0.37692937884071454
1081,1.083025819861494,-1.205467819350927,-91.33154172566631,0.45563552767024296
1082,1.189521197236531,-1.3025183028059546,-99.84478538435411,0.5426695068466683
1083,1.3000799037020232,-1.4020985928567415,-108.69430611349236,0.6380437388796129
1084,1.4140743883871254,-1.5038673355755483,-117.84599049312467,0.7416590588406523
1085,1.5307921048086626,-1.6074797585136449,-127.26146758579998,0.8532992857003625
1086,1.6494414214221476,-1.7125937276026928,-136.89842591266964,0.972627790881636
1087,1.7691592001030485,-1.818875562083845,-146.71098891688902,1.099186189211168
1088,1.8890199298436785,-1.9260054637485484,-156.65014156004568,1.2323952245086436
1089,2.0080462609610037,-2.033682432473169,-166.6641995043552,1.3715578664689796
1090,2.1252207459819163,-2.1416285592138293,-176.69931132381467,1.5158645789429426
1091,2.2394985582056544,-2.2495926095013323,-186.69998339133681,1.6644006639571103
1092,2.349820928818871,-2.357352834180997,-196.60961653391473,1.8161555326025562
1093,2.455129019375535,-2.464718968779241,-206.37104325822844,1.970033704972842
1094,2.554377929299044,-2.571533407530901,-215.9270543437506,2.124867298217891
1095,2.6465505284088007,-2.6776715618654574,-225.22090389127865,2.2794297258524456
1096,2.730670802659501,-2.7830414351768074,-234.19678250544902,2.4324503037795093
1097,2.8058164074609273,-2.8875824652336406,-242.80024917404498,2.5826294397942995
1098,2.871130137114351,-2.9912637020025588,-250.9786135684101,2.728654074015638
1099,2.925830040869299,-3.094081401496315,-258.68126190120694,2.869213037811387
1100,2.9692179454719634,-3.1960561252565207,-265.8599211033451,3.0030120080990574
1101,3.000686180261391,-3.2972294401664897,-272.468857875434,3.128787751895025
1102,3.0197223431611806,-3.3976603145937534,-278.46501107748185,3.245321381910518
1103,3.0259119934805097,-3.497421304690173,-283.8080578851315,3.351450376920729
1104,3.018939209268136,-3.5965946194829685,-288.46041609959957,3.4460791594893645
1105,2.998585001811034,-3.695268145734995,-292.3871868888825,3.5281880672066523
1106,2.9647236362713896,-3.7935315040702604,-295.55604399846123,3.5968406005552054
1107,2.9173169638038403,-3.8914721972185307,-297.937077043345,3.651188879390624
1108,2.8564069251048445,-3.98917190009902,-299.50259782862827,3.690477289254099
1109,2.7821064364869024,-4.08670293047453,-300.226919699534,3.7140443467293425
1110,2.6945889155034997,-4.184124928640233,-300.0861206605232,3.7213228582695788
1111,2.594076742234194,-4.281481765550371,-299.05780140349515,3.711838487940431
1112,2.4808289831738635,-4.378798691301049,-297.1208494358684,3.685206885157273
1113,2.355128726204984,-4.4760797302117625,-294.2552202007168,3.6411295528264005
1114,2.217270386686008,-4.573305324973005,-290.44174544508513,3.579388658727175
1115,2.0675473459325704,-4.670430230400736,-285.6619781423645,3.499841008213405
1116,1.9062402743260323,-4.767381657082653,-279.8980820436362,3.4024114043806066
1117,1.733606472355807,-4.864057666337898,-273.1327724636983,3.2870856230141654
1118,1.5498705348353827,-4.960325820101438,-265.3493132497514,3.153903224390193
1119,1.355216607319588,-5.056022092227779,-256.5315730893863,3.00295041300068
1120,1.1497824605150508,-5.150950050946144,-246.66414244748756,2.834353140287544
1121,0.9336555594306651,-5.244880325493795,-235.73251053770827,2.648270625337007
1122,0.7068712505003042,-5.337550373065339,-223.72329989066472,2.4448894450795633
1123,0.46941313342137836,-5.4286645649523,-210.62455433199543,2.2244183197467904
1124,0.22121562659272662,-5.5178946129527375,-196.42607457805585,1.9870836920376143
1125,-0.037831322577386396,-5.6048803586603615,-181.11979423793903,1.7331261705143581
1126,-0.30787548700668144,-5.689230948941314,-164.70018781299237,1.4627978800255703
1127,-0.5890937258466221,-5.7705264205958855,-147.16470133611912,1.1763607352303718
1128,-0.8816816714562105,-5.848319715681463,-128.51419561145994,0.8740856282967687
1129,-1.1858419833211955,-5.92213914603766,-108.75339161035333,0.5562524991898695
1130,-1.5017714489589697,-5.991491321025505,-87.89130745320581,0.22315123717513136
1131,-1.8296472380946158,-6.055864546251991,-65.94167655241736,-0.12491665436083034
1132,-2.1696126343635527,-6.114732693073633,-42.92333689484992,-0.48763571065677075
1133,-2.5217625784118427,-6.167559529052762,-18.860582083113123,-0.864673566130596
1134,-2.8861293577193297,-6.213803488501623,6.216534392706636,-1.2556775188106837
1135,-3.2626687722495276,-6.2529228501353264,32.27194914756195,-1.6602706973557442
1136,-3.6512470918829076,-6.284381276100542,59.263399471385235,-2.0780479293750624
1137,-4.051629102415789,-6.307653653741088,87.14229949592632,-2.508571407835875
1138,-4.463467512623916,-6.322232168905287,115.85368560871494,-2.9513662492873802
1139,-4.886293966379278,-6.3276325278724155,145.3362333562062,-3.4059160342158754
1140,-5.319511871932981,-6.323400234511466,175.5223466666597,-3.8716584167298764
1141,-5.762391226088413,-6.309116820464886,206.33831884211853,-4.347980888416424
1142,-6.214065574873478,-6.284405919298346,237.70456344896382,-4.834216779813829
1143,-6.673531215111542,-6.2489390709500645,269.5359120055856,-5.329641582440533
1144,-7.139648703434014,-6.202441140684825,301.7419742476072,-5.8334696743786285
1145,-7.611146701075744,-6.144695237304747,334.2275557656022,-6.3448515325153005
1146,-8.0866281444599,-6.075547018749723,366.89312697280826,-6.862871514067346
1147,-8.564578693248897,-5.9949082795443225,399.6353366820678,-7.38654628830622
1148,-9.043377369270749,-5.902759723852367,432.3475630588237,-7.914823995870423
1149,-9.521309261555448,-5.799152840128114,464.92049437300915,-8.446584207210515
1150,-9.996580134751282,-5.684210808324744,497.2427317955808,-8.980638743202753
1151,-10.467332740745059,-5.558128388023641,529.2014064700428,-9.515733409574924
1152,3.217047138312907e-14,-4.76816478348291e-14,1.2489601923889396e-13,-5.715008021539442e-14
1153,8.424885079297951e-13,-1.038006315903329e-12,2.3060373932267186e-12,-1.2457401281784395e-12
1154,1.0044109827706595e-11,-1.2330030153380329e-11,2.7920843830379935e-11,-1.467601392725759e-11
1155,7.901284476679638e-11,-9.807422291171059e-11,2.2207831448607244e-10,-1.1572803940925025e-10
1156,4.639804404557022e-10,-5.875994160365355e-10,1.3314003789962095e-09,-6.876988266904843e-10
1157,2.174333500816026e-09,-2.8362688167660004e-09,6.427818357972746e-09,-3.294285791690198e-09
1158,8.487402737050448e-09,-1.1520708810091148e-08,2.6108853121672844e-08,-1.3289135579065957e-08
1159,2.8440543269824267e-08,-4.0607720627070004e-08,9.200489852113957e-08,-4.655371421691247e-08
1160,8.367389400932115e-08,-1.2707619755566697e-07,2.877896462049869e-07,-1.448968479318713e-07
1161,2.1994580343475205e-07,-3.5935805986153215e-07,8.133345629928667e-07,-4.0782181556889367e-07
1162,5.23762902554285e-07,-9.313312931255383e-07,2.106217098627861e-06,-1.0525953116395551e-06
1163,1.1425188660910866e-06,-2.2374127013854413e-06,5.0550774064096265e-06,-2.5196714629300805e-06
1164,2.3031483782892295e-06,-5.029559121220177e-06,1.1350479749803336e-05,-5.646179519540381e-06
1165,4.319572468431435e-06,-1.0662355712899596e-05,2.4029737973760043e-05,-1.1935879300969596e-05
1166,7.573262537697754e-06,-2.1457326969054836e-05,4.828105623847156e-05,-2.3959152692263376e-05
1167,1.2444339514905144e-05,-4.122160437434109e-05,9.257769556818122e-05,-4.592065084950951e-05
1168,1.9163189175569106e-05,-7.595860499541804e-05,0.00017021312537791438,-8.443460413183349e-05
1169,2.7545251679923953e-05,-0.00013480896001104474,0.00030130202087846317,-0.00014954802978067668
1170,3.656520029477735e-05,-0.0002312582032983233,0.0005152986777022196,-0.0002560497228413809
1171,4.372194089871161e-05,-0.00038464340037566545,0.0008540636701099084,-0.0004250976811279369
1172,4.414345573963682e-05,-0.0006219837816067068,0.0013754816188002773,-0.0006861893341960575
1173,2.9381117337565888e-05,-0.0009801504746419273,0.002157598592004408,-0.0010794876345956634
1174,-1.4152745225930232e-05,-0.0015083776859601008,0.0033032082328610587,-0.0016585019264945462
1175,-0.00010714215588006124,-0.002271102402403037,0.004944772968777209,-0.0024931059070948574
1176,-0.00027974566552594596,-0.003351102293877521,0.007249522758349931,-0.003672856468455614
1177,-0.0005744053799534626,-0.004852882602242639,0.010424531182199574,-0.0053105574091156516
1178,-0.0010490774265116082,-0.006906243164208574,0.014721529887743683,-0.007545991698845748
1179,-0.0017808522747299962,-0.009669937224177767,0.02044119002843126,-0.010549726011381289
1180,-0.0028699091811471003,-0.0133353152983754,0.02793657588499607,-0.014526872513386952
1181,-0.004443723845945054,-0.018129831010758782,0.037615463470452914,-0.019720676341335227
1182,-0.006661423207183812,-0.02432027243963501,0.0499412173741504,-0.026415783717812287
1183,-0.009718157259648537,-0.03221557290193086,0.0654319335759548,-0.03494103608497485
1184,-0.013849335941000173,-0.0421690499444307,0.08465758508696068,-0.045671630673317636
1185,-0.019334560509585815,-0.054579921147038385,0.10823495098676543,-0.05903048813312399
1186,-0.02650106448146982,-0.06989395055315714,0.13682016707529399,-0.07548867362260468
1187,-0.03572647014426417,-0.08860309033818714,0.17109880659353516,-0.09556472928314688
1188,-0.04744066389927377,-0.11124399873911886,0.2117734803712523,-0.1198227933609742
1189,-0.062126597990800746,-0.13839533712948174,0.25954903476052904,-0.14886940416881828
1190,-0.08031983809352554,-0.17067377605732278,0.3151155197451511,-0.18334891521337707
1191,-0.10260669600870996,-0.20872867147541505,0.3791291951309299,-0.22393748051905457
1192,-0.12962081435615344,-0.25323540748136175,0.45219193589603124,-0.2713356056333105
1193,-0.16203810530093443,-0.3048874396689232,0.5348294846938546,-0.32625929901135475
1194,-0.20056998729372189,-0.36438711255055367,0.6274690763083766,-0.3894298993197392
1195,-0.24595491142401105,-0.43243536423356815,0.730417022066033,-0.4615626954473528
1196,-0.2989482208983435,-0.5097204703622509,0.8438368887353648,-0.5433544964076309
1197,-0.36031044179485333,-0.5969060160114178,0.9677289338810382,-0.6354703466174253
1198,-0.4307941589137832,-0.6946183174895632,1.1019114662207028,-0.7385296170734039
1199,-0.5111296854094962,-0.8034335446825122,1.2460047843122828,-0.8530917336365594
1200,-0.6020097870157244,-0.9238648175151238,1.3994183096625035,-0.9796418290004133
1201,-0.7040737691105895,-1.056349566314865,1.5613414717196359,-1.118576624088889
1202,-0.8178912757422722,-1.2012374544731557,1.7307388235329422,-1.270190856859651
1203,-0.9439461823104164,-1.3587791621761212,1.9063497702402867,-1.4346645811802763
1204,-1.0826209862736014,-1.5291163217309869,2.0866931806967433,-1.6120516551709545
1205,-1.2341821116316622,-1.7122728780553398,2.270077028799505,-1.8022697269353178
1206,-1.3987665419509303,-1.9081481224401131,2.4546130791051364,-2.0050920059129274
1207,-1.5763701827793963,-2.1165116142690947,2.638236495226704,-2.2201410804092356
1208,-1.7668383273981656,-2.3370001647987224,2.8187301134749294,-2.4468850066860655
1209,-1.9698585604491003,-2.569117010465606,2.9937529925941613,-2.6846358531018497
1210,-2.184956382998141,-2.812233251833074,3.1608727275922295,-2.9325508352116634
1211,-2.411493781408855,-3.065591579752675,3.317600905732218,-3.1896361257225325
1212,-2.6486708927918072,-3.3283122542893886,3.4614309896114643,-3.454753368137102
1213,-2.8955308438654335,-3.599401246201152,3.5898778391463826,-3.72662886624306
1214,-3.150967760087203,-3.8777603970230112,3.700518033722393,-4.003865364703786
1215,-3.4137378602046344,-4.162199403734533,3.7910301292610082,-4.284956280144246
1216,-3.6824734702377993,-4.451449389063338,3.8592339830088473,-4.568302188415399
1217,-3.955699712624666,-4.744177779947862,3.9031283008705953,-4.85222932312196
1218,-4.231853553069098,-5.039004185542916,3.9209256065781144,-5.1350097938576305
1219,-4.509304821611979,-5.334516943133,3.9110838965427326,-5.414883190678152
1220,-4.786378767466259,-5.629289985893226,3.872334325970482,-5.690079204879876
1221,-5.06137966086878,-5.921899680829459,3.8037043674101323,-5.95884086584414
1222,-5.3326149210805776,-6.210941288418706,3.704535988923318,-6.219447970262715
1223,-5.598419228989849,-6.495044707207366,3.574498512031486,-6.4702402641998695
1224,-5.857178076504739,-6.772889186439351,3.4135959261657174,-6.709639930900692
1225,-6.107350213597609,-7.043216717015156,3.222168553318435,-6.936172938706785
1226,-6.3474884775125355,-7.30484384489565,3.000889071023195,-7.14848881444428
1227,-6.576258526825707,-7.556671690494012,2.7507530110587632,-7.345378428533201
1228,-6.792455054842289,-7.797694001572275,2.473063953166999,-7.525789408850362
1229,-6.995015120829374,-8.027003114524213,2.1694137259245863,-7.6888388407198045
1230,-7.183028311943847,-8.243793748478588,1.841658009555631,-7.833822959606955
1231,-7.355743531122273,-8.447364607164353,1.4918878073505917,-7.960223600139106
1232,-7.5125722940870885,-8.637117813709164,1.122397313328254,-8.067711228710396
1233,-7.653088509268036,-8.812556252290829,0.7356487541159212,-8.156144455735898
1234,-7.7770248050439506,-8.973278936680924,0.3342348231799606,-8.225565996080924
1235,-7.884265556466596,-9.118974568149097,-0.07916064389096253,-8.276195120719827
1236,-7.974836845821172,-9.249413482978685,-0.501803082844144,-8.308416717620672
1237,-8.048893665547693,-9.364438222150788,-0.9309480198572556,-8.322767153490988
1238,-8.10670473610591,-9.463952981902297,-1.3638816086188064,-8.319917198600981
1239,-8.148635363636641,-9.547912223341564,-1.7979602014389324,-8.300652342683561
1240,-8.175128801478014,-9.616308731796602,-2.230648282486107,-8.265850889240175
1241,-8.186686604901347,-9.669161421969127,-2.6595541118728225,-8.216460266970698
1242,-8.183848479531129,-9.706503183390858,-3.0824624588867446,-8.153472039245221
1243,-8.167172121090852,-9.728369052460726,-3.497363841529559,-8.07789612458316
1244,-8.13721352819553,-9.734784983024088,-3.9024797380252503,-7.990734762349486
1245,-8.09450824212953,-9.725757467752983,-4.296283294236481,-7.89295676796986
1246,-8.039553929420986,-9.70126423835423,-4.677515118938409,-7.785472620827087
1247,-7.972794676280341,-9.661246244805682,-5.045193836232173,-7.669110915783116
1248,-7.894607310483488,-9.60560108335841,-5.398621150317764,-7.544596686315344
1249,-7.805290007965191,-9.534178010864602,-5.737381271271292,-7.41253207406404
1250,-7.705053380074577,-9.446774649928347,-6.061334650028168,-7.273379776794927
1251,-7.594014174805612,-9.343135456141272,-6.370606074835936,-7.12744965514998
1252,-7.47219166289121,-9.222951985829777,-6.665567288266792,-6.974888818978721
1253,-7.33950671889208,-9.085864970736436,-6.946814391556787,-6.815675447532097
1254,-7.195783549669499,-8.931468175182394,-7.215140409529473,-6.6496165255281685
1255,-7.040753969080087,-8.759313981697982,-7.471503492493348,-6.476349600383533
1256,-6.874064069319385,-8.56892062297933,-7.71699132894083,-6.2953485862162815
1257,-6.695283096812686,-8.359780951413024,-7.952782432245565,-6.10593355915941
1258,-6.503914304492426,-8.131372612397895,-8.180105043421637,-5.9072844077526065
1259,-6.299407523138701,-7.883169464403767,-8.400194458086178,-5.698458123399633
1260,-6.0811731724150855,-7.614654067304704,-8.614249636930898,-5.478409440737567
1261,-5.848597417289994,-7.325331041217479,-8.823389993504625,-5.24601446781519
1262,-5.601058167486283,-7.014741081109505,-9.028613269545868,-5.000096882640975
1263,-5.337941616109643,-6.682475398087739,-9.23075540561363,-4.739456217216627
1264,-5.058659018221352,-6.32819034683007,-9.430453292929611,-4.462897703752708
1265,-4.762663420239196,-5.951621990364584,-9.628111251303547,-4.1692631213377105
1266,-4.449466065895542,-5.552600348624969,-9.823872018327258,-3.85746205568072
1267,-4.118652223156059,-5.131063076176759,-10.0175929577493,-3.5265029702275767
1268,-3.769896198097719,-4.687068317453917,-10.208828101487903,-3.1755234842863134
1269,-3.4029753254050017,-4.220806494954447,-10.396816531931842,-2.8038192628742595
1270,-3.0177827500770613,-3.732610797242424,-10.580477491115614,-2.4108709436696567
1271,-2.614338840422851,-3.2229661493378616,-10.75841247345732,-1.9963685583370352
1272,-2.192801097859529,-2.6925164681050218,-10.928914421589829,-1.5602329479976607
1273,-1.753472454020032,-2.1420700294358865,-11.08998400314969,-1.1026337249228217
1274,-1.2968078700104706,-1.5726028021244074,-11.239352803030277,-0.6240033936321517
1275,-0.8234191762236741,-0.9852596349718029,-11.374513123434195,-0.12504731328812568
1276,-0.33407811377382846,-0.3813532183525148,-11.49275394598235,0.39325074177710556
1277,0.17028243983691088,0.2376392214397624,-11.591202479066446,0.9296275869144132
1278,0.6885690580152489,0.8700814980359977,-11.666870592436698,1.4825442781954847
1279,1.2195301439214785,1.5141862745562835,-11.716705332462556,2.050194406404379
1280,3.587332192591798e-14,-4.903004850131339e-14,-7.711405371695646e-14,-3.834968258141278e-14
1281,8.824820939558362e-13,-1.0698008830417254e-12,-1.73475890846222e-12,-8.354396448383184e-13
1282,1.0235552632332987e-11,-1.2721121638067353e-11,-2.0719492558739202e-11,-9.959692192450562e-12
1283,7.838077103160243e-11,-1.0127598385952374e-10,-1.6531816528632513e-10,-7.934019311027016e-11
1284,4.4780779676538905e-10,-6.074639178204272e-10,-9.92608044549717e-10,-4.757319110195845e-10
1285,2.039847584995389e-09,-2.9363719436909728e-09,-4.797207334189532e-09,-2.2969275118066503e-09
1286,7.72891020549483e-09,-1.1949149297573278e-08,-1.9493855863736833e-08,-9.3301336353071e-09
1287,2.5088917361967414e-08,-4.221350146088551e-08,-6.868533967121164e-08,-3.28866740441686e-08
1288,7.130471007225027e-08,-1.3246218091139435e-07,-2.1470949613410656e-07,-1.0293518660004932e-07
1289,1.8036574943094925e-07,-3.7578214317688355e-07,-6.061501666290527e-07,-2.9125420828094244e-07
1290,4.1113453113022287e-07,-9.774048913059665e-07,-1.567459237770269e-06,-7.556107963811734e-07
1291,8.521855813564207e-07,-2.3573995773705648e-06,-3.755658464269709e-06,-1.8180893396158082e-06
1292,1.6154426541750611e-06,-5.321778786042701e-06,-8.416961881978788e-06,-4.095424653732397e-06
1293,2.8058096775188836e-06,-1.1331996704203885e-05,-1.7783722540385174e-05,-8.704134596925787e-06
1294,4.448559552566572e-06,-2.2908866288609106e-05,-3.565833820709535e-05,-1.7567829887181056e-05
1295,6.350717849073951e-06,-4.421176189354058e-05,-6.823458774904497e-05,-3.385761153271218e-05
1296,7.867700174109793e-06,-8.183680536691765e-05,-0.00012520735062691578,-6.259821694542027e-05
1297,7.542765575088509e-06,-0.00014587782460443997,-0.00022121805880505853,-0.00011147187217926362
1298,2.585136888818673e-06,-0.00025129063812179785,-0.0003776751532316984,-0.00019184813508303227
1299,-1.1846539347606812e-05,-0.0004195942825441096,-0.0006249762734312718,-0.00032006109745452607
1300,-4.3585017760336344e-05,-0.0006809320393988686,-0.0010051423043731015,-0.0005189451635443237
1301,-0.00010464243816393368,-0.0010765006797480092,-0.0015748534860687484,-0.0008196275449880299
1302,-0.00021265855241271844,-0.001661338636657426,-0.0024088555325742734,-0.0012635601907467085
1303,-0.00039260967052987575,-0.0025074434785276483,-0.003603680178562214,-0.0019047569229769018
1304,-0.0006787638645670155,-0.003707166931717758,-0.005281600822699508,-0.0028121840727294606
1305,-0.0011168514200516934,-0.005376812785348429,-0.007594720922354854,-0.004072236004453581
1306,-0.0017664022205811528,-0.007660340407933265,-0.010729071345919926,-0.005791211700990478
1307,-0.002703184596270624,-0.010733055472647381,-0.014908573724314084,-0.008097696083934024
1308,-0.004021664103620995,-0.014805150986020102,-0.020398710602778383,-0.011144740839632373
1309,-0.005837386723942087,-0.020124946951956928,-0.027509730497398934,-0.015111734861035779
1310,-0.00828918006787955,-0.02698166698032345,-0.03659920746662884,-0.020205854401226898
1311,-0.011541059242070717,-0.03570758570234504,-0.04807377124733155,-0.026662987795643488
1312,-0.015783721735553355,-0.046679382601278165,-0.062389826172105756,-0.034748039002049654
1313,-0.021235518415420648,-0.06031854616472502,-0.08005308577345949,-0.0447545278182064
1314,-0.028142795624370866,-0.07709068719526674,-0.10161676587807474,-0.0570034218188
1315,-0.036779516330117515,-0.09750364148106112,-0.1276783025499545,-0.07184115497151622
1316,-0.047446085898337854,-0.12210426936616019,-0.15887449254471547,-0.08963680960224915
1317,-0.06046732970958417,-0.15147389236483147,-0.19587499263580496,-0.11077846090669555
1318,-0.07618959474338546,-0.18622234390681086,-0.23937415945062193,-0.13566870562633163
1319,-0.09497697463120097,-0.22698065145808072,-0.29008126206448137,-0.1647194180125294
1320,-0.11720668680369484,-0.2743924093529891,-0.34870915394512575,-0.19834579614229317
1321,-0.14326366048439718,-0.3291039443026403,-0.41596154706355076,-0.23695977955137337
1322,-0.17353442457018217,-0.39175341725659873,-0.4925190870699458,-0.2809629347236995
1323,-0.20840041392992759,-0.46295904463810694,-0.5790244822814782,-0.33073891810214656
1324,-0.24823084032008094,-0.5433066575632756,-0.6760669887399502,-0.38664563700812155
1325,-0.29337529891663083,-0.633336848237176,-0.7841665967296555,-0.44900723737326126
1326,-0.3441563023338264,-0.7335319772154986,-0.903758298983736,-0.5181060538236504
1327,-0.4008619498542274,-0.8443033327589997,-1.0351768456462604,-0.5941746628313206
1328,-0.4637389493824302,-0.965978743444659,-1.178642404488573,-0.6773881837858763
1329,-0.5329862124717272,-1.0987909471245947,-1.3342475458693561,-0.767856976285569
1330,-0.608749238045854,-1.2428670130744828,-1.5019459598739497,-0.8656198848701354
1331,-0.6911154878367636,-1.3982190998220434,-1.681543287824093,-0.9706381847413839
1332,-0.7801109360586826,-1.5647368089989653,-1.8726904122327228,-1.082790383388836
1333,-0.8756979477141107,-1.7421813661382675,-2.0748794990676385,-1.2018680328456268
1334,-0.9777746048114803,-1.9301818233601644,-2.28744302510446,-1.327572704739273
1335,-1.0861755586933517,-2.128233437244891,-2.5095559528388254,-1.4595142744805436
1336,-1.2006744409960395,-2.3356983289265307,-2.7402411379184017,-1.5972106509891095
1337,-1.3209878170846077,-2.5518084837357122,-2.9783779716930896,-1.7400890735636294
1338,-1.4467806158625958,-2.775671095854224,-3.2227141768305105,-1.8874890773594626
1339,-1.577672920459112,-3.0062762107801175,-3.4718805896649765,-2.038667203202799
1340,-1.7132479573007577,-3.242506566336015,-3.7244086816750497,-2.1928034962102987
1341,-1.8530610782758092,-3.4831494828826806,-3.978750496706411,-2.3490098012779774
1342,-1.9966494937088646,-3.7269106066698208,-4.233300612531387,-2.5063398226352427
1343,-2.143542484050076,-3.972429268109769,-4.486419677031791,-2.663800870287708
1344,-2.2932717966583875,-4.218295180285175,-4.736459022357273,-2.820367169486925
1345,-2.4453819216931385,-4.463066173088844,-4.981785826158225,-2.974994561749608
1346,-2.5994399385024973,-4.705286635701606,-5.220808268375931,-3.126636378932863
1347,-2.755044631212328,-4.943506325057313,-5.452000125664804,-3.2742602270781194
1348,-2.9118345892682878,-5.176299190694661,-5.67392425347981,-3.4168653758217435
1349,-3.0694950349053416,-5.402281866899259,-5.88525442790257,-3.553500413759083
1350,-3.227763154088928,-5.620131491040844,-6.084795054672177,-3.683280801772733
1351,-3.3864317493453187,-5.828602522084491,-6.271498300482544,-3.805405936370086
1352,-3.5453510807986626,-6.026542254836142,-6.444478259910279,-3.9191753246831156
1353,-3.7044288141563566,-6.212904752896635,-6.603021838598069,-4.024003472861348
1354,-3.863628049678291,-6.386762955784968,-6.746596107654649,-4.119433100719834
1355,-4.022963462620558,-6.547318752427483,-6.874851963721176,-4.205146317908256
1356,-4.1824956415519035,-6.69391085333079,-6.987624011913406,-4.280973430364351
1357,-4.342323764594397,-6.826020336372631,-7.084926673081184,-4.346899089793605
1358,-4.502576803352607,-6.943273785360203,-7.166946600825991,-4.40306555234153
1359,-4.663403488491336,-7.045443985429348,-7.234031575846998,-4.449772874067982
1360,-4.824961308250036,-7.132448184124732,-7.286676123832686,-4.487475938554031
1361,-4.987404840585526,-7.204343970782701,-7.325504176651355,-4.516778284009423
1362,-5.150873740343103,-7.261322868861513,-7.351249163366778,-4.538422771529499
1363,-5.3154807143670375,-7.303701775420253,-7.36473197597393,-4.553279210588023
1364,-5.481299819562018,-7.331912418402476,-7.366837303155042,-4.562329130433586
1365,-5.64835541172184,-7.346489035174292,-7.358488862418251,-4.566647954905897
1366,-5.816612056864508,-7.348054504418842,-7.340624085591052,-4.5673849016097385
1367,-5.985965692463057,-7.337305187606297,-7.314168824040001,-4.565740982881708
1368,-6.156236294034493,-7.3149947555407095,-7.280012637815475,-4.56294553425404
1369,-6.3271622637998375,-7.281917289736438,-7.238985217231913,-4.560231735034869
1370,-6.4983967134162635,-7.238889957501595,-7.191834456650883,-4.55881161423094
1371,-6.669505763117084,-7.186735563603522,-7.139206659271434,-4.559851052570879
1372,-6.839968926131593,-7.126265280340483,-7.081629299711129,-4.564445297295371
1373,-7.009181591273558,-7.058261851894527,-7.019496709526846,-4.573595500374623
1374,-7.176459559506049,-6.98346355820419,-6.953058981260714,-4.588186772895344
1375,-7.341045533705774,-6.902549208545634,-6.882414310990417,-4.608968218852629
1376,-7.502117406508447,-6.816124415879561,-6.80750491976064,-4.636535371138351
1377,-7.658798140789974,-6.7247093802017295,-6.728116612822071,-4.671315402104797
1378,-7.810166992676847,-6.628728383076699,-6.643881954484198,-4.713555421947625
1379,-7.9552717894116105,-6.528501166735576,-6.554286957719151,-4.763314111773057
1380,-8.093141945116786,-6.424236340109662,-6.458681113416493,-4.8204568662435605
1381,-8.222801877451502,-6.316026921492129,-6.356290516147586,-4.884654544919104
1382,-8.343284478001978,-6.203848093692624,-6.246233782955594,-4.9553858537068995
1383,-8.453644289301868,-6.087557213065984,-6.127540410254767,-5.031943300142682
1384,-8.552970051596233,-5.966896079111147,-5.999171172313511,-5.113442590512199
1385,-8.640396302489917,-5.841495436875335,-5.860040133617054,-5.198835265011299
1386,-8.715113741849837,-5.710881650567591,-5.709037826952096,-5.286924301068766
1387,-8.776378111899547,-5.574485453974378,-5.545055139301324,-5.376382356281227
1388,-8.823517387212895,-5.431652651849712,-5.3670074482340455,-5.465772272560743
1389,-8.855937119895403,-5.281656616777141,-5.173858561779846,-5.553569423198253
1390,-8.87312384010602,-5.123712398413234,-4.96464403385365,-5.638185455381048
1391,-8.874646469645407,-4.956992236862312,-4.738493454011509,-5.717992962673942
1392,-8.8601557650256,-4.780642249544197,-4.494651343336752,-5.791350615101918
1393,-8.829381864586962,-4.59380004164042,-4.232496326163124,-5.856628278395489
1394,-8.782130070110892,-4.395612974356129,-3.951558288698861,-5.912231667969225
1395,-8.718275045253991,-4.185256813084927,-3.651533279059878,-5.956626106295564
1396,-8.637753659362646,-3.961954469313693,-3.332295947541338,-5.988358983297433
1397,-8.540556744365263,-3.7249945458792704,-2.9939093701552673,-6.006080556901103
1398,-8.42672006326013,-3.4737493950369163,-2.6366321417759813,-6.008562773652712
1399,-8.296314810274968,-3.2076924027026426,-2.2609226671420086,-5.994715836069512
1400,-8.149437974465206,-2.9264142201135215,-1.8674406181536103,-5.9636022930345005
1401,-7.986202900119566,-2.629637675893837,-1.4570455642454823,-5.914448481002054
1402,-7.806730368962487,-2.3172311169645643,-1.0307928190974174,-5.846653196078987
1403,-7.611140511117816,-1.9892199456997361,-0.5899265816382403,-5.759793529229397
1404,-7.399545824616648,-1.6457961429959527,-0.1358704822862733,-5.653627847994386
