,TP9,AF7,AF8,TP10
0,-7.98719024372764e-14,-4.3237730779208446e-14,-3.5436776760105295e-14,-4.79964101886899e-14
1,-1.7941086664381656e-12,-9.414642551680588e-13,-7.682685499991711e-13,-1.0620335212785573e-12
2,-2.0859252677668674e-11,-1.1160453287756192e-11,-9.25821868652312e-12,-1.2382965854405801e-11
3,-1.6171212197544465e-10,-8.862235672931032e-11,-7.464718413427714e-11,-9.645501961764112e-11
4,-9.429298805366041e-10,-5.303252659068293e-10,-4.5254412734536996e-10,-5.657682424175106e-10
5,-4.4256225782939964e-09,-2.558165631374401e-09,-2.2060044068962546e-09,-2.674378517674632e-09
6,-1.7473800383720597e-08,-1.0391020083461323e-08,-9.031911862322134e-09,-1.0646831896385792e-08
7,-5.988025555794716e-08,-3.66503324551433e-08,-3.203054231474913e-08,-3.682611065852253e-08
8,-1.8231050657956573e-07,-1.1484610752705028e-07,-1.0068768047305739e-07,-1.132701834726735e-07
9,-5.02158702459708e-07,-3.25417133559691e-07,-2.8563258759745433e-07,-3.154221368430287e-07
10,-1.2694642143047022e-06,-8.455327412296347e-07,-7.417967129060995e-07,-8.065865709428178e-07
11,-2.979839171102858e-06,-2.0375260814168144e-06,-1.784340823148771e-06,-1.9158103472522505e-06
12,-6.556544671537207e-06,-4.596161112059179e-06,-4.013944373153721e-06,-4.266175173654703e-06
13,-1.3628864203266448e-05,-9.78049992223361e-06,-8.51245914142264e-06,-8.975070694214588e-06
14,-2.6938037309781253e-05,-1.9761353980217743e-05,-1.7134129411901414e-05,-1.79521767262122e-05
15,-5.090444981891132e-05,-3.8119509007646835e-05,-3.292112049729465e-05,-3.432398113551826e-05
16,-9.238977620498267e-05,-7.053243287463267e-05,-6.0674500268304845e-05,-6.301500299381909e-05
17,-0.00016168469825457001,-0.00012568739407335398,-0.00010771263531827813,-0.00011151484413576685
18,-0.0002737462283452041,-0.0002164563443282874,-0.000184847821632072,-0.00019085627105551402
19,-0.0004496983467621525,-0.00036136223822392827,-0.0003076086146271412,-0.00031682248674387955
20,-0.000718595742780471,-0.0005863575727368004,-0.0004977296430193306,-0.0005113916399475513
21,-0.001119433411962204,-0.000926923958068269,-0.0007849227168650874,-0.0008044137983952606
22,-0.0017033655401223584,-0.0014304868341075579,-0.001208932925997852,-0.0012355007099180153
23,-0.002536076632017557,-0.0021591225862261296,-0.0018218714138000236,-0.0018560925104319826
24,-0.0037002275833615504,-0.0031925170190832213,-0.002690802908472804,-0.0027316490429259085
25,-0.005297880850636072,-0.004631115265174159,-0.0039005512625182237,-0.003943897603785945
26,-0.007452793566571222,-0.006599384648090913,-0.005556670622282139,-0.005593054691668303
27,-0.010312456774051584,-0.00924909471362668,-0.007788513936734432,-0.007799927582646831
28,-0.014049754034130602,-0.012762503476739257,-0.010752314915132129,-0.01070779305220654
29,-0.018864114266872865,-0.017355326730378467,-0.014634184923248006,-0.014483945915616936
30,-0.0249820421669327,-0.023279358744553023,-0.019652913382508866,-0.01932080970938062
31,-0.03265692484645723,-0.030824608445987934,-0.026062449749693437,-0.02543650607187151
32,-0.042168035030118074,-0.04032081565627367,-0.034153937863700676,-0.03307478831687148
33,-0.05381867829187785,-0.0521382174553044,-0.04425717009921192,-0.04250425826511166
34,-0.0679334632651222,-0.06668744531931481,-0.056741330070734695,-0.05401680335675146
35,-0.08485470801457888,-0.08441844926448122,-0.07201489919010738,-0.06792521297855775
36,-0.10493803123371469,-0.10581836553224325,-0.09052461462791506,-0.08455995818789838
37,-0.12854721198108568,-0.13140826892977028,-0.11275338434901926,-0.10426514679932246
38,-0.15604843466029375,-0.16173877916161586,-0.1392170887702621,-0.12739369513457402
39,-0.18780406532072555,-0.19738452155352268,-0.1704602277892966,-0.15430178748801995
40,-0.22416612969997607,-0.23893747550767439,-0.20705040570312105,-0.18534272330240412
41,-0.2654696815644728,-0.2869992777365985,-0.24957168380839115,-0.22086027894756713
42,-0.3120262609330409,-0.34217258061339384,-0.2986168698908499,-0.26118173466523836
43,-0.3641176450916833,-0.40505159764199444,-0.35477885374130413,-0.3066107366115833
44,-0.4219900906415324,-0.47621199693091787,-0.4186411364637531,-0.3574201780707749
45,-0.48584925221450365,-0.5562003285918202,-0.4907677367859375,-0.4138452920948301
46,-0.555855943335884,-0.6455231922838587,-0.571692688053465,-0.47607714954362157
47,-0.6321228779288608,-0.7446363659905518,-0.6619093635398414,-0.5442567515038498
48,-0.7147124981313814,-0.8539341260771067,-0.7618598839484277,-0.6184698933670497
49,-0.8036359566330278,-0.9737389914959372,-0.8719248687496589,-0.6987429597204887
50,-0.8988532810180353,-1.104292121674627,-0.9924137919495292,-0.7850397852005636
51,-1.000274705156529,-1.2457445883277065,-1.1235561930983389,-0.8772596874056535
52,-1.1077631101721843,-1.3981497265509535,-1.265493976275938,-0.9752367449564225
53,-1.2211374766273184,-1.5614567505938894,-1.418275004218061,-1.0787403581281845
54,-1.3401772119602537,-1.7355057952752748,-1.581848162735832,-1.1874770925905154
55,-1.4646271844229415,-1.9200245157945786,-1.7560600333810839,-1.3010937701337548
56,-1.5942032681652991,-2.114626347441387,-1.9406532712925257,-1.419181735240729
57,-1.7285981848231171,-2.318810493199273,-2.13526674173263,-1.5412821942304766
58,-1.8674874158024055,-2.531963672295527,-2.339437424388804,-1.6668924955006463
59,-2.010534956854909,-2.7533636271913733,-2.5526040504119756,-1.7954731959083283
60,-2.1573986925669772,-2.9821843511617137,-2.774112394678759,-1.9264557400689943
61,-2.307735182748586,-3.21750296427898,-3.0032221060823505,-2.0592505665828322
62,-2.4612036748219683,-3.4583081330530296,-3.2391149228671217,-2.1932554479629056
63,-2.6174691853116423,-3.7035098988936834,-3.480904089069068,-2.3278638692049647
64,-2.7762045283362777,-3.951950753584627,-3.727644762780049,-2.4624732532290072
65,-2.9370912083180065,-4.202417776623987,-3.9783451877852225,-2.5964928494650814
66,-3.0998191365595313,-4.453655630024738,-4.231978387469079,-2.7293511142168003
67,-3.2640851754343245,-4.704380191287462,-4.4874941338477985,-2.860502427636923
68,-3.4295905582033406,-4.953292594950058,-4.7438309450332685,-2.989433011664271
69,-3.5960372754237824,-5.19909344745953,-4.9999278710277215,-3.1156659355227814
70,-3.7631235591068024,-5.4404969790635755,-5.254735839979461,-3.2387651197542104
71,-3.9305386318791276,-5.676244899840785,-5.50722835426518,-3.358338275610147
72,-4.097956919246716,-5.905119734635849,-5.756411347277619,-3.4740387433347646
73,-4.265031947686826,-6.125957423211854,-6.001332036801735,-3.585566219805417
74,-4.431390168954686,-6.3376589869830635,-6.241086638540263,-3.6926663925598295
75,-4.59662496114271,-6.539201081822137,-6.474826832884333,-3.795129522851924
76,-4.760291059360434,-6.729645277214293,-6.7017649086382045,-3.892788044517258
77,-4.921899663324635,-6.908145925046797,-6.921177538379531,-3.9855132676282063
78,-5.080914455779592,-7.073956506187791,-7.13240817082044,-4.0732112957652715
79,-5.236748744805469,-7.226434369349611,-7.3348680553504435,-4.155818282852111
80,-5.388763915198425,-7.365043804167002,-7.528035942367643,-4.233295169560444
81,-5.53626933990588,-7.489357418550621,-7.711456529560865,-4.305622049994614
82,-5.678523862886546,-7.599055818778419,-7.884737748538342,-4.372792326475439
83,-5.814738920852608,-7.693925619025278,-8.047547007677549,-4.434806813576259
84,-5.944083324409767,-7.773855834668464,-8.199606525389843,-4.491667951988552
85,-6.065689670504175,-7.838832740322812,-8.340687902787211,-4.543374288239288
86,-6.17866230922881,-7.888933298764358,-8.470606095697441,-4.5899153677554
87,-6.282086740348968,-7.924317290337608,-8.589212952862841,-4.631267176383005
88,-6.375040269726751,-7.945218293772138,-8.69639048982936,-4.6673882494323715
89,-6.456603714385253,-7.9519336882297145,-8.792044066443214,-4.69821654794323
90,-6.525873908343368,-7.944813862528025,-8.876095630103682,-4.723667179549946
91,-6.581976730546519,-7.924250830507424,-8.948477177213812,-4.743631016580033
92,-6.624080352109802,-7.8906664611086725,-9.009124572060525,-4.757974237474033
93,-6.651408383483507,-7.8445005376497035,-9.057971846285916,-4.766538790032139
94,-6.663252593731976,-7.78619886284657,-9.094946083997124,-4.769143747246115
95,-6.658984874409801,-7.716201624240892,-9.11996297829516,-4.765587499523028
96,-6.638068129871879,-7.634932228912163,-9.13292312542113,-4.755650701956438
97,-6.600065794411812,-7.54278680682548,-9.133709103488,-4.739099872963608
98,-6.544649704282725,-7.440124569162671,-9.122183364325878,-4.715691522039492
99,-6.471606088994483,-7.327259191877182,-9.098186949549266,-4.685176670404159
100,-6.380839490520823,-7.2044513759501525,-9.06153902565269,-4.6473056195702105
101,-6.2723744700654205,-7.071902714910779,-9.012037217806151,-4.601832819726526
102,-6.1463550184165,-6.9297509776446145,-8.949458708135648,-4.548521692459462
103,-6.003041646031056,-6.778066890859828,-8.87356205179814,-4.487149270565749
104,-5.842806191031147,-6.616852481284299,-8.784089653358075,-4.417510531109716
105,-5.6661244453660435,-6.446041013140444,-8.680770837195318,-4.33942231571909
106,-5.473566759590595,-6.265498532051166,-8.56332543931339,-4.252726753455577
107,-5.26578684321697,-6.075027002591948,-8.431467844318616,-4.157294125353879
108,-5.0435090287495,-5.874369003522609,-8.284911390713438,-4.053025134746487
109,-4.807514311824158,-5.663213922598539,-8.123373069966895,-3.939852572633825
110,-4.558625516060802,-5.4412055720508885,-7.946578449773145,-3.817742391539339
111,-4.2976919582658235,-5.207951126572693,-7.75426675885791,-3.686694223562046
112,-4.025574006768441,-4.963031268119487,-7.546196078754646,-3.5467413979491313
113,-3.7431279325286217,-4.706011406097015,-7.322148596103646,-3.3979505299064305
114,-3.4511914490988884,-4.436453827532807,-7.081935876159752,-3.2404207651725376
115,-3.1505703236770586,-4.15393061949416,-6.82540412336664,-3.0742827738686724
116,-2.842026417693196,-3.8580371951543526,-6.552439397316086,-2.899697592173944
117,-2.5262674822047155,-3.54840624534628,-6.26297275169812,-2.716855411424982
118,-2.203938991639183,-3.2247219290358973,-5.956985259843146,-2.5259744113331766
119,-1.8756182501510332,-2.886734108814685,-5.63451288339843,-2.3272997272466585
120,-1.541810949243763,-2.534272431239917,-5.2956511311435985,-2.121102630905704
121,-1.202950294685376,-2.1672600467055108,-4.94055944377204,-1.9076799901678019
122,-0.8593987565494352,-1.7857267596381337,-4.569465228658572,-1.6873540560252165
123,-0.5114524299543505,-1.3898213973921378,-4.182667457280069,-1.4604726053365997
124,-0.15934792727017033,-0.9798231855496967,-3.7805397281305955,-1.2274094456036022
125,0.1967283433065769,-0.5561519187820922,-3.363532690691824,-0.9885652645222113
126,0.5566287214294068,-0.11937672041633982,-2.9321757222081044,-0.7443687827147377
127,0.9202309289611986,0.32977680917242963,-2.4870777494860796,-0.49527814389317804
128,-6.118931905688025e-14,-4.798411364559013e-14,-1.9943022306382203e-14,-4.0739258405976656e-14
129,-1.3126715140099717e-12,-1.0387451643384891e-12,-3.758526090821133e-13,-8.494740881404587e-13
130,-1.5129819019457856e-11,-1.2344028483510208e-11,-4.41611834806251e-12,-9.9061927927998e-12
131,-1.1654763813306298e-10,-9.821400638782532e-11,-3.492170472350281e-11,-7.732061831187748e-11
132,-6.75707304689249e-10,-5.885230405938841e-10,-2.0865860985437223e-10,-4.547385658524649e-10
133,-3.1556132739378726e-09,-2.8407303154164e-09,-1.0075684118683092e-09,-2.1561224719607488e-09
134,-1.2407829716075269e-08,-1.1537525900698461e-08,-4.108665184461662e-09,-8.613295377640756e-09
135,-4.238496921464256e-08,-4.065923727273074e-08,-1.4592761831066975e-08,-2.99070747606782e-08
136,-1.2877007070943432e-07,-1.2720813348874726e-07,-4.6187270327508335e-08,-9.237910621968335e-08
137,-3.543134046394194e-07,-3.596469988175245e-07,-1.3257513622225258e-07,-2.584392434271848e-07
138,-8.957163088561944e-07,-9.318861504848938e-07,-3.498798410558443e-07,-6.641815195378912e-07
139,-2.1046534878371878e-06,-2.238387607545879e-06,-8.583227047326996e-07,-1.5860210339032036e-06
140,-4.639788584248498e-06,-5.031259996907125e-06,-1.974751352014214e-06,-3.5518494784658403e-06
141,-9.67108933455055e-06,-1.0665653613535806e-05,-4.292125133645241e-06,-7.516914747884176e-06
142,-1.9181976555887694e-05,-2.1464788347916397e-05,-8.866830366315432e-06,-1.512935768780891e-05
143,-3.639839958718224e-05,-4.1239964794902934e-05,-1.749946883411199e-05,-2.9114574202767646e-05
144,-6.637637133914477e-05,-7.60033365548254e-05,-3.313901582885853e-05,-5.381072549230717e-05
145,-0.0001167803812380189,-0.00013491154047480904,-6.0443455789249934e-05,-9.588917120066456e-05
146,-0.00019888402879436097,-0.00023147608186097727,-0.00010653167814292142,-0.00016529274844882125
147,-0.00032882086094170477,-0.00038507138712954794,-0.00018196111617497818,-0.0002764211600171086
148,-0.0005291075656257327,-0.0006227635645966182,-0.00030196297186382446,-0.00044958593371128604
149,-0.0008304533504139844,-0.0009814722298075588,-0.00048796161164221845,-0.0007127473661894616
150,-0.0012738586535136877,-0.0015104645059419624,-0.0007693966725996617,-0.0011035327152042116
151,-0.0019129935714723304,-0.002274164916693531,-0.0011858555554178955,-0.001671519063650032
152,-0.0028168319527597753,-0.003355247899823958,-0.0017895104295869134,-0.002480746408248783
153,-0.004072501541787649,-0.004857961741838707,-0.0026478379447200987,-0.0036124075108607706
154,-0.005788294517594876,-0.00691161459935886,-0.003846582012937104,-0.005167641943525566
155,-0.008096766978693127,-0.009674135705585974,-0.005492900958730865,-0.0072703436995017875
156,-0.011157841133707387,-0.013335608649466743,-0.007718620839435787,-0.010069875875922707
157,-0.015161810928399355,-0.01812165953113701,-0.010683497766234127,-0.013743573328698805
158,-0.020332141325951358,-0.024296571556726914,-0.014578374634462052,-0.018498905786250144
159,-0.02692794415437211,-0.032165989859939105,-0.019628102861746446,-0.024575170410153994
160,-0.035246009905698504,-0.042079076514406843,-0.02609408855590824,-0.032244584677566426
161,-0.04562227547782117,-0.05442997615599682,-0.03427631591360949,-0.04181265791653035
162,-0.058432612725745174,-0.06965845752858449,-0.044514699356713934,-0.053617732758467214
163,-0.07409283175606464,-0.08824960560871166,-0.05718962052311531,-0.0680296058450399
164,-0.0930578058917397,-0.11073245263611294,-0.07272151709203248,-0.08544715980112465
165,-0.11581964172554143,-0.1376774541607319,-0.0915694076297789,-0.10629496505386486
166,-0.14290483711161167,-0.1696927378202145,-0.11422825999727068,-0.1310188396913213
167,-0.17487039168858812,-0.2074190776368128,-0.1412251398740301,-0.1600803872564409
168,-0.21229885796976639,-0.2515235747788287,-0.17311410984366563,-0.1939505651481324
169,-0.25579234563187986,-0.30269205653577225,-0.21046988720226786,-0.23310236912965043
170,-0.3059655169244177,-0.3616202382147198,-0.2538803089180955,-0.2780027513418052
171,-0.36343763670430995,-0.4290037271904082,-0.3039376935422672,-0.32910391926285054
172,-0.428823766101465,-0.5055269837166034,-0.36122923079891284,-0.3868341903895681
173,-0.502725213868027,-0.5918513884643952,-0.42632656849658335,-0.45158860122921896
174,-0.5857193836660912,-0.6886026010846703,-0.49977480177661526,-0.5237194887227005
175,-0.6783491784586299,-0.7963574262856667,-0.5820811001420134,-0.6035272767476224
176,-0.7811121442651622,-0.915630432822591,-0.6737032319540132,-0.6912517092492196
177,-0.894449554252952,-1.046860595299744,-0.7750382631150633,-0.7870637743577785
178,-1.0187356498831261,-1.1903982477636545,-0.8864117156910745,-0.8910585603480864
179,-1.1542672680864237,-1.346492650819861,-1.0080674727549572,-1.003249274504943
180,-1.301254091701673,-1.515280479668578,-1.1401587075536879,-1.1235626401014482
181,-1.4598097641659868,-1.6967755383921483,-1.2827400983201878,-1.2518358651157713
182,-1.6299441081948542,-1.8908599955582606,-1.4357615650619702,-1.3878153494172378
183,-1.8115566814897437,-2.097277417438805,-1.5990637320969487,-1.5311572654249799
184,-2.0044318900489606,-2.31562784783932,-1.77237528080936,-1.6814301112603667
185,-2.208235861289438,-2.5453651479324657,-1.9553123120816365,-1.8381192958753154
186,-2.422515254925814,-2.7857967661535805,-2.147379788305162,-2.000633773353255
187,-2.646698159558278,-3.03608605803858,-2.3479750721255583,-2.1683146994559865
188,-2.8800971875142407,-3.2952572200774504,-2.556393524605176,-2.3404460385100556
189,-3.121914840190236,-3.5622028417443317,-2.7718360708423644,-2.516267003922243
190,-3.3712511716828306,-3.8356940176584144,-2.9934185878702855,-2.694986172033919
191,-3.6271137308016046,-4.1143928993800385,-3.220182919473338,-2.87579706768762
192,-3.8884297116753035,-4.396867505845301,-3.4511092770012053,-3.057894981736358
193,-4.154060192212854,-4.681608555067723,-3.685129745892504,-3.240494746614278
194,-4.422816288796951,-4.967048029461614,-3.921142585944075,-3.4228491666922376
195,-4.693477005881526,-5.251579144568619,-4.158026990764857,-3.6042677759581365
196,-4.964808511719438,-5.533577357212135,-4.39465795952658,-3.784135576883535
197,-5.235584527343289,-5.811422024774992,-4.629920932955632,-3.9619314012890507
198,-5.50460747626486,-6.083518312564822,-4.862725855972069,-4.137245526613498
199,-5.770730008272478,-6.3483189409467675,-5.092020351429539,-4.309796179173662
200,-6.032876483277578,-6.604345367728241,-5.316801722442503,-4.4794445596923875
201,-6.2900639813580925,-6.8502080136793975,-5.536127543659226,-4.646208035494639
202,-6.541422393753777,-7.084625159435127,-5.749124652926709,-4.81027115830732
203,-6.78621314718328,-7.306440169546961,-5.954996412066898,-4.971994186651459
204,-7.023846120893347,-7.5146367331364905,-6.153028166583112,-5.131918817627075
205,-7.2538943325475325,-7.708351849263567,-6.342590896436018,-5.290770864768946
206,-7.476105995413404,-7.886886327459655,-6.5231431108328755,-5.449459656817232
207,-7.690413585027487,-8.049712618563397,-6.6942310965312455,-5.609073976669734
208,-7.896939598036805,-8.196479836798181,-6.855487678886729,-5.770874410094298
209,-8.095998738416695,-8.327015879913388,-7.006629695473991,-5.936282029286489
210,-8.288096325726553,-8.441326599408498,-7.147454411687816,-6.1068633961253065
211,-8.473922785287803,-8.53959201691142,-7.277835124902958,-6.284311932920322
212,-8.654344149798266,-8.622159625502269,-7.397716207738707,-6.47042577338709
213,-8.83038857448655,-8.689534856174687,-7.507107831554848,-6.66708227233927
214,-9.003228942009656,-8.742368829818782,-7.606080588946309,-6.876209417980679
215,-9.174161707538543,-8.781443554214277,-7.69476019976956,-7.099754454625479
216,-9.344582207625864,-8.807654763610675,-7.773322440794535,-7.339650085170334
217,-9.515956727427003,-8.821992635529101,-7.841988386675244,-7.59777868077845
218,-9.68979168872334,-8.825520655309194,-7.901019992334016,-7.875934979165356
219,-9.867600385180344,-8.819352933335834,-7.950715987251384,-8.175787801772815
220,-10.050867750640025,-8.80463031230908,-7.991407994019494,-8.498841363129578
221,-10.241013700264153,-8.782495631678753,-8.0234567304024,-8.846396781924906
222,-10.439355632197502,-8.754068542628797,-8.047248109447647,-9.21951443180757
223,-10.64707071818125,-8.720420288853164,-8.063189018926712,-9.618977789679915
224,-10.86515864418448,-8.682548884838749,-8.071702542001121,-10.045259449293411
225,-11.094405485553352,-8.641355133446497,-8.073222377260652,-10.498489967332688
226,-11.335349414321273,-8.59761992725439,-8.068186229089536,-10.978430197079241
227,-11.588248938171487,-8.551983272487565,-8.057027968746013,-11.484447740537556
228,-11.853054360226789,-8.504925459703813,-8.040168411791022,-12.015498113179534
229,-12.129383125671433,-8.456750781308807,-8.018004616980669,-12.570111166070749
230,-12.41649968469623,-8.407574162381689,-7.990897683177529,-13.14638324818334
231,-12.713300451087568,-8.357311028530207,-7.959159101443362,-13.741975517492914
232,-13.018304371822419,-8.30567068329265,-7.9230358060889206,-14.354118723512707
233,-13.329649545394485,-8.2521534090532,-7.882694157681152,-14.979624686969323
234,-13.645096235750554,-8.196051440926432,-7.83820317931484,-15.614904595384097
235,-13.962036525621292,-8.136453894190296,-7.789517451259519,-16.25599411776145
236,-14.277510739189882,-8.072255654305112,-7.736460144849018,-16.8985852191518
237,-14.588230641468696,-8.002170166046081,-7.678706740837198,-17.538064428677853
238,-14.890609292866465,-7.92474598640197,-7.615770027401339,-18.169557185131502
239,-15.180797304922173,-7.838386896095529,-7.546987006050992,-18.78797775516593
240,-15.45472510990518,-7.7413752981079895,-7.471508348021307,-19.388084093293674
241,-15.708150725814514,-7.631898569480658,-7.388291038079419,-19.964536893289644
242,-15.936712372082495,-7.508077975771378,-7.29609481647302,-20.51196197009107
243,-16.135985172766496,-7.367999706568788,-7.193482983024279,-21.025015012704007
244,-16.301541075936978,-7.209747546043145,-7.078828060669539,-21.49844766470185
245,-16.42901102309666,-7.031436655260259,-6.950322730085906,-21.92717382228137
246,-16.51414832353973,-6.831247913562755,-6.805996343859979,-22.30633499304832
247,-16.552892128213966,-6.607462245425997,-6.643737209750914,-22.63136353402588
248,-16.54142985825156,-6.35849434752074,-6.461320700153782,-22.8980425867279
249,-16.476257426847905,-6.082925228882414,-6.256443101422544,-23.10256155188375
250,-16.354236101023282,-5.7795329855615165,-6.026760965192566,-23.241565997211378
251,-16.172644882794067,-5.447321250135928,-5.769935567581943,-23.312200968364923
252,-15.92922734748319,-5.085544785939443,-5.4836819248786925,-23.3121467748241
253,-15.622231959637872,-4.693731735430352,-5.16582166013205,-23.239646447214216
254,-15.250444992906758,-4.271702081120252,-4.814338868339492,-23.09352420784139
255,-14.813215307232483,-3.819581934967225,-4.42743799319812,-22.873194459078682
256,3.6521358061363685e-15,-1.4994300582820815e-14,-1.352450230882917e-13,4.584168001774361e-12
257,1.08673985874305e-13,-2.9279801791364244e-13,-2.7364081216714205e-12,-6.449400370273976e-12
258,1.7479780719219613e-12,-3.37663404319366e-12,-3.3514377437644986e-11,9.836247444270203e-12
259,1.705886326894268e-11,-2.617615961193436e-11,-2.7227877536892394e-10,3.5515803378518686e-11
260,1.2023983833499244e-10,-1.530889250512577e-10,-1.6668822264364174e-09,2.525556207813966e-10
261,6.612173852152165e-10,-7.229178177870032e-10,-8.218226733454234e-09,1.240960600608963e-09
262,2.9836232595948475e-09,-2.881470187613272e-09,-3.408145674748223e-08,5.2880385695230744e-09
263,1.1444873214432821e-08,-1.0002504527894714e-08,-1.225689466782721e-07,1.9444790943133767e-08
264,3.8320861323118176e-08,-3.094859630084408e-08,-3.9105680153050473e-07,6.359536185978796e-08
265,1.1432897882076295e-07,-8.687902514130392e-08,-1.1265039760659055e-06,1.87891313561035e-07
266,3.0897654803707625e-07,-2.2436998132321456e-07,-2.971165220648821e-06,5.087442519225271e-07
267,7.666010990561629e-07,-5.39022791059385e-07,-7.256695774506131e-06,1.276548197258118e-06
268,1.7655970204287616e-06,-1.2154971940194354e-06,-1.6565839779791853e-05,2.9956728033887188e-06
269,3.809622344527818e-06,-2.591991571585764e-06,-3.5621944174120876e-05,6.625070964975742e-06
270,7.760171295854402e-06,-5.259551609063283e-06,-7.262454839750835e-05,1.3895930640985904e-05
271,1.5019362325804264e-05,-1.02091447662886e-05,-0.00014116082466604008,2.7792494488742397e-05
272,2.7769737660430614e-05,-1.9042061701148322e-05,-0.0002628243170639217,5.324848650149722e-05
273,4.927404452329539e-05,-3.426169979887749e-05,-0.00047066151042232933,9.81183765148471e-05
274,8.423231376366664e-05,-5.9666881054755345e-05,-0.0008135414641650332,0.00017448404827014404
275,0.00013918623205211073,-0.00010086824565833285,-0.0013615035235280176,0.00030035748277561594
276,0.00022295216796585276,-0.0001659496296915771,-0.002212083641906776,0.0005018331772554041
277,0.00034705475592254034,-0.0002662954041089848,-0.0034975529939404683,0.0008157346626768163
278,0.0005261232519387076,-0.0004176023123742406,-0.00539292623776372,0.0012927822096497237
279,0.0007782035637869204,-0.0006410902676582002,-0.008124514856669872,0.0020012884165772067
280,0.0011249304895214524,-0.0009649208178542476,-0.011978718097092137,0.003031359715225399
281,0.0015914977224683153,-0.001425824608430671,-0.017310665282269915,0.004499550171917988
282,0.002206357917261709,-0.0020709303067562154,-0.02455225413162666,0.006553874767569584
283,0.003000581756225538,-0.0029597773155863455,-0.03421907539220717,0.009379048371349067
284,0.004006803618742101,-0.004166483489577841,-0.0469156793176784,0.013201770998479329
285,0.005257682196597624,-0.0057820273356343245,-0.06333862811088252,0.018295834154049423
286,0.006783807288760754,-0.007916592248639246,-0.08427679305472376,0.02498677890721297
287,0.008610989211044612,-0.010701908695229091,-0.11060839705009981,0.03365579427272363
288,0.010756875098421858,-0.014293519451812177,-0.14329437273015874,0.0447425114605831
289,0.013226847363784416,-0.018872883607780666,-0.18336770197084531,0.05874632391617616
290,0.016009174325061704,-0.024649227653937053,-0.2319185219854586,0.07622585302716982
291,0.01906940212770842,-0.031861047177552476,-0.29007492255611306,0.09779618291919522
292,0.022344001045098146,-0.040777161040254604,-0.35897951353646673,0.12412351233292937
293,0.025733308269407264,-0.05169722191789203,-0.43976200586810854,0.15591691382047324
294,0.029093843329618976,-0.06495159310129035,-0.5335082167075972,0.19391695621588745
295,0.032230110815539295,-0.08090051166754274,-0.6412260733100656,0.23888103008981199
296,0.0348860472331442,-0.09993247245892246,-0.7638093445196421,0.2915653212737214
297,0.03673631320762177,-0.12246178540446312,-0.9019999668733614,0.35270349711832627
298,0.03737767713227453,-0.14892527998350139,-1.0563499487368104,0.42298230458275315
299,0.03632077965408181,-0.1797781542446137,-1.2271839256211647,0.5030144213488189
300,0.03298260774842765,-0.21548899079666653,-1.414563498800308,0.5933090460853445
301,0.026680040046587448,-0.25653398755152657,-1.6182545145228484,0.6942408580621018
302,0.016624848960120082,-0.30339047569472133,-1.8376984305800075,0.8060181093192418
303,0.0019205575436199844,-0.3565298204319661,-2.071988870121226,0.9286507331014208
304,-0.018438452178082564,-0.4164098206625909,-2.319854380070969,1.0619194492049853
305,-0.045565199139748304,-0.4834667411723094,-2.579648295287507,1.2053469197331965
306,-0.08067538380722505,-0.5581071246928736,-2.8493464628301224,1.3581720478670738
307,-0.12507939090636758,-0.6406995408948606,-3.1265534074167,1.5193285190503532
308,-0.18017078091437996,-0.7315664348830407,-3.4085173240024624,1.6874286510411958
309,-0.2474111167125391,-0.8309762390367175,-3.692154071461066,1.8607535505775732
310,-0.32831106439786245,-0.9391359092209314,-3.974080117903135,2.037250465213716
311,-0.4244078102203141,-1.0561840397759814,-4.250654158777457,2.214538075954338
312,-0.5372389460924988,-1.1821847016934357,-4.518026899333639,2.3899202976135836
313,-0.6683130908890417,-1.3171221355364608,-4.772198269232929,2.5604089487739947
314,-0.8190776302958835,-1.4608964155498552,-5.009081125121214,2.722755422289538
315,-0.9908840705727153,-1.6133201846073646,-5.224570302717715,2.8734912418705076
316,-1.184951607489393,-1.774116541649683,-5.414615708970051,3.0089771335287727
317,-1.4023296072339582,-1.9429181444291954,-5.575298001978522,3.1254599831321905
318,-1.643859777846754,-2.119267570908442,-5.702905295846866,3.2191368007139802
319,-1.910138874646416,-2.302618962666328,-5.794009252630967,3.2862245744052543
320,-2.2014828285707626,-2.492340953216848,-5.84553888652808,3.32303468360616
321,-2.5178932103227374,-2.6877208633347207,-5.854850407814053,3.3260503544774305
322,-2.8590269442907035,-2.8879701244843927,-5.819791476308338,3.2920054921884456
323,-3.2241701636622326,-3.092230870532527,-5.738758315849707,3.217963113721491
324,-3.612217051847043,-3.2995836174404314,-5.610744261045038,3.1013915412950466
325,-4.021654445739727,-3.5090559309782434,-5.435378463168918,2.9402364972762607
326,-4.450552884540056,-3.7196319640754356,-5.212953670515082,2.7329872731854645
327,-4.896564675455686,-3.930262728587665,-4.944442215845791,2.4787352229990454
328,-5.356929416858782,-4.139876951329662,-4.631499585182001,2.177222958053213
329,-5.828487273117472,-4.347392351459885,-4.276455202574677,1.828882789589545
330,-6.3077001366216265,-4.551727165940429,-3.8822903386729886,1.434863176323729
331,-6.790680645141192,-4.751811742075975,-3.4526033304138846,0.9970421779890265
332,-7.273228850585479,-4.946600011329543,-2.991562578385468,0.5180271903890699
333,-7.750876162655127,-5.135080657030286,-2.503848060797996,0.00114053124548868
334,-8.218936022018896,-5.316287790557526,-1.994582362182461,-0.5496092441624674
335,-8.672560596648177,-5.489310956408673,-1.4692524549828911,-1.129570103225742
336,-9.106802645787258,-5.653304296446869,-0.9336236875829809,-1.733502863971782
337,-9.516681562468412,-5.807494717618595,-0.39364761798055375,-2.3556502756662527
338,-9.897252490907121,-5.951188925342283,0.1446345162593067,-2.989817747861884
339,-10.243677322479563,-6.083779206148855,0.6751907878965481,-3.629464354240741
340,-10.551296305677191,-6.204747867320517,1.1920980540054233,-4.267802498730548
341,-10.815698963208032,-6.313670267366377,1.689639910077114,-4.897904423385941
342,-11.032792994387364,-6.410216398247898,2.1624011369206313,-5.512813569821726
343,-11.198869853584748,-6.494151007386462,2.6053567147283703,-6.1056586770959385
344,-11.310665735563775,-6.565332273810299,3.013953584332697,-6.6697684165050495
345,-11.365416765203138,-6.623709077660125,3.3841834830762854,-7.198784324381852
346,-11.360907280874638,-6.669316925214557,3.7126453685173577,-7.686769803404079
347,-11.295510215705288,-6.702272612378316,3.9965961629833107,-8.128313015849564
348,-11.168218716650557,-6.722767728142942,4.233988800456589,-8.518621592528662
349,-10.978668294932818,-6.731061115956836,4.423496828269679,-8.853607221658681
350,-10.7271489698105,-6.72747042537128,4.564525102856279,-9.129958364799283
351,-10.414607047468802,-6.71236289891526,4.6572064142143,-9.34519956338436
352,-10.042636364605118,-6.686145550011913,4.7023841705604665,-9.497736050131572
353,-9.613459018562445,-6.649254896930535,4.701581565851828,-9.586882654843071
354,-9.12989579923343,-6.602146425227128,4.656957931749616,-9.612876293756331
355,-8.595326729065086,-6.545283956735086,4.571253236130716,-9.576871645365209
356,-8.013642303043236,-6.479129106730943,4.447721926968317,-9.480919941992017
357,-7.389186197299645,-6.4041310121811215,4.290057528610617,-9.327931136622489
358,-6.726690379794972,-6.320716512720666,4.102309573205638,-9.121620032762642
359,-6.03120370629158,-6.229280961976462,3.8887945901053818,-8.866437287035126
360,-5.308015216545364,-6.130179839815657,3.654002978219597,-8.567486499350148
361,-4.562573456514497,-6.0237213259375,3.402503649108089,-8.23042889212818
362,-3.8004032399258496,-5.910159981906642,3.1388483516140298,-7.861377336969267
363,-3.027021324728434,-5.78969167234576,2.8674775724594155,-7.466781713533133
364,-2.247852515289204,-5.662449836791279,2.5926298526142237,-7.053307771061254
365,-1.4681477086959278,-5.5285032019959335,2.318256268332653,-6.627711808536437
366,-0.6929053828151581,-5.387855000631659,2.047941701093056,-6.196713586357567
367,0.07320202505581622,-5.24044373683942,1.7848343655581604,-5.766869933079549
368,0.8258954763678525,-5.086145512335792,1.5315848829848622,-5.344451508697975
369,1.5613491563740374,-4.924777899280736,1.2902959837680452,-4.935325135792839
370,2.276241623581969,-4.756105318316864,1.062483701919285,-4.5448440072923955
371,2.9677972915921855,-4.57984585261647,0.8490506914628431,-4.177747931558935
372,3.633817422517723,-4.395679401953514,0.6502720552013616,-3.8380755798248183
373,4.27270000048251,-4.203257055285106,0.46579383516961015,-3.529090466727594
374,4.883448058031469,-4.002211536558573,0.2946440761688515,-3.25322212165293
375,5.465666244145598,-3.7921685568292602,0.13525614349182213,-3.012023607640439
376,6.0195456459878,-3.572758886527956,-0.014496242630618475,-2.8061462172850846
377,6.545837103118369,-3.343630945001847,-0.1572529965546187,-2.6353318333933258
378,7.045813477963441,-3.104463690372892,-0.29611160597619335,-2.498423089593199
379,7.521221564832178,-2.854979581437606,-0.4345621082036857,-2.3933911134584536
380,7.974224526771889,-2.5949573749642556,-0.5764143313487224,-2.3173802885965253
381,8.407335940216191,-2.324244516598183,-0.7257187412251178,-2.266769140347803
382,8.823346697271873,-2.042768881999907,-0.8866823212932454,-2.2372461387318276
383,9.22524616068309,-1.750549627183704,-1.063580972282842,-2.223898930588101
384,2.0614297884060188e-14,-3.484073055574636e-14,-4.30808008495972e-14,1.26508917354451e-14
385,4.777317531415338e-13,-7.477786980422553e-13,-9.089400530483613e-13,2.7379519807447334e-13
386,5.6061334442686364e-12,-8.969813606091479e-12,-1.0371174911062547e-11,3.226034996960845e-12
387,4.364267217659831e-11,-7.207792691053248e-11,-7.89800992588469e-11,2.5010041003339086e-11
388,2.5470223236430674e-10,-4.362045028651344e-10,-4.520161505055851e-10,1.455401611648722e-10
389,1.1916564820537458e-09,-2.126328268651213e-09,-2.0811340217550704e-09,6.797149434713753e-10
390,4.667931558798181e-09,-8.720900067006401e-09,-8.059225005620434e-09,2.6610028914599958e-09
391,1.578718070472142e-08,-3.1033354443159854e-08,-2.7095498106473026e-08,9.005213089087025e-09
392,4.717701514696177e-08,-9.803361820728415e-08,-8.099616302901433e-08,2.6955782154413716e-08
393,1.2684636172437147e-07,-2.7983097106715967e-07,-2.1931396377932203e-07,7.265856990764574e-08
394,3.113943251313093e-07,-7.320022895433854e-07,-5.459373909658566e-07,1.788997312532259e-07
395,7.064370765575404e-07,-1.774979884674021e-06,-1.2644759094004203e-06,4.070798092828335e-07
396,1.4960412080654904e-06,-4.027475863612561e-06,-2.7519219570421956e-06,8.643018842914035e-07
397,2.9826247899579994e-06,-8.61874142525043e-06,-5.673257117367069e-06,1.7259406124340747e-06
398,5.638160840849843e-06,-1.7510409176812926e-05,-1.11533782962001e-05,3.263159215593577e-06
399,1.0166530550165476e-05,-3.396413743132555e-05,-2.1026836010218672e-05,5.873513120279453e-06
400,1.7575501785616314e-05,-6.319549043536209e-05,-3.819022208204731e-05,1.0111040296898771e-05
401,2.9255127986350142e-05,-0.00011325656079300013,-6.708637772717804e-05,1.671019510880825e-05
402,4.7057565013172656e-05,-0.0001961888888349736,-0.00011435358621093733,2.6595820465831775e-05
403,7.337165807361853e-05,-0.0003294835303334317,-0.00018967609496418016,4.086930509579587e-05
404,0.00011118444457733221,-0.0005378762293809941,-0.000306874023189632,6.075937853555925e-05
405,0.0001641212098514504,-0.0008554925071830116,-0.00048527013517735894,8.752486940422016e-05
406,0.00023645612521437873,-0.0013283404250432579,-0.000751367227490029,0.0001222963776623262
407,0.0003330869121007948,-0.0020171285416875143,-0.001140862239597059,0.00016584434098349435
408,0.0004594694176898828,-0.0030003641866152794,-0.0017010112036777143,0.000218262537482145
409,0.0006215113328312516,-0.004377663852097764,-0.0024933428014576498,0.0002785587617684025
410,0.0008254283005255682,-0.006273184622715947,-0.003596698114246706,0.00034414831411315043
411,0.0010775700474992553,-0.00883906448942352,-0.005110551138439926,0.0004102510794345371
412,0.0013842285594361683,-0.012258741445345101,-0.007158540131033665,0.00046919928432912535
413,0.0017514442807376332,-0.01675000760485835,-0.00989211532291962,0.0005096703032396617
414,0.0021848293514505675,-0.02256764620707709,-0.01349418542085035,0.0005158667631108063
415,0.002689428474307373,-0.030005497011903,-0.018182624890404075,0.00046667413241523653
416,0.0032696376717631483,-0.03939779977134508,-0.024213487376147938,0.00033483332797766395
417,0.003929198632577132,-0.05111967639593009,-0.031883758719069843,8.617195242783319e-05
418,0.004671281447925755,-0.0655866301025112,-0.04153347668429423,-0.000321058056954982
419,0.0054986614186052175,-0.0832529639094926,-0.05354704438242319,-0.0009366868653736875
420,0.006413986636698819,-0.10460905069711204,-0.06835357096964345,-0.0018189288635615621
421,0.007420122786395488,-0.13017742163927798,-0.08642608688598476,-0.0030344361877403503
422,0.008520550805463939,-0.16050767766603302,-0.10827950178255359,-0.004658066461862773
423,0.009719782501230215,-0.19617026785662925,-0.1344672013100258,-0.006772337526256588
424,0.011023749703338198,-0.237749217168942,-0.1655762137318028,-0.009466554358519147
425,0.012440114778109447,-0.2858339215529773,-0.2022209182128954,-0.012835607878768258
426,0.013978444982431368,-0.3410101594058267,-0.24503531260590916,-0.016978461276513732
427,0.015650190798597346,-0.40385049311012977,-0.2946639082395423,-0.021996356194952223
428,0.017468409593963525,-0.4749042522610218,-0.35175137090336367,-0.027990787765172463
429,0.019447181098818784,-0.5546873009384796,-0.41693107892392917,-0.03506131324107455
430,0.02160067051907589,-0.6436717953590452,-0.490812818770274,-0.04330327294511445
431,0.023941808581404142,-0.7422761361656901,-0.5739698837816967,-0.0528055134758087
432,0.026480575151882766,-0.8508553124386213,-0.6669258801964427,-0.06364821074999978
433,0.02922189368657703,-0.9696918232733145,-0.7701415746337972,-0.07590089365963697
434,0.032163166800165566,-1.09898734849466,-0.8840021367296854,-0.08962076731143535
435,0.035291507576637675,-1.2388553236809938,-1.0088051382734562,-0.10485142767311252
436,0.038580745613171284,-1.3893145569338052,-1.1447496649357922,-0.12162204699758086
437,0.04198830978710195,-1.5502840063445793,-1.2919268780955893,-0.1399470920350571
438,0.04545210992736571,-1.7215788182889793,-1.450312332610144,-0.15982661552513086
439,0.04888755557244063,-1.9029077077618513,-1.6197603125565787,-0.18124713684457192
440,0.052184860591718875,-2.09387174306928,-1.8000003925864136,-0.20418310123660924
441,0.055206786704329144,-2.293964578356705,-1.9906363697444278,-0.22859888013103902
442,0.05778697627182807,-2.5025741586803387,-2.191147642042233,-0.2544512490514236
443,0.05972901496681185,-2.718985903602609,-2.4008930387052745,-0.28169225579477397
444,0.0608063481739606,-2.942387356546898,-2.619117035929334,-0.31027237113585354
445,0.06076315172341662,-3.171874268251091,-2.8449582242127587,-0.3401437982505554
446,0.0593162285336378,-3.4064580634178934,-3.077459831586884,-0.37126380615396065
447,0.05615796895485494,-3.645074619858279,-3.3155820535432454,-0.4035979472434325
448,0.05096037526790646,-3.8865942689050907,-3.5582158966921,-0.4371230198165247
449,0.04338011127122418,-4.129832904609845,-3.8041982100363847,-0.47182964325691107
450,0.03306449764172207,-4.373564067383119,-4.052327555445448,-0.5077243262994111
451,0.019658334299084635,-4.616531845655474,-4.301380557208174,-0.5448309270257994
452,0.0028113938688332217,-4.857464417379824,-4.550128368830676,-0.583191426389709
453,-0.017813602983794585,-5.0950880325035905,-4.797352902690016,-0.622865964226906
454,-0.04253274771180897,-5.328141218788641,-5.041862483809637,-0.6639321167156591
455,-0.0716326786429003,-5.5553889775125915,-5.282506611882205,-0.7064834257288777
456,-0.10536254380971623,-5.775636723622444,-5.518189544730603,-0.750627221954455
457,-0.1439264515911069,-5.987743717738509,-5.747882450690673,-0.7964818135242608
458,-0.18747666661063006,-6.190635735792561,-5.970633915965641,-0.8441731387488947
459,-0.2361077973697655,-6.38331672660806,-6.185578634893199,-0.8938310041534243
460,-0.2898522026434403,-6.5648792187434,-6.391944155327956,-0.9455850463256267
461,-0.3486768162212593,-6.734513255520935,-6.589055597011373,-0.9995605673485206
462,-0.41248155486051663,-6.891513661193263,-6.776338306913198,-1.0558743982711438
463,-0.48109943324753535,-7.035285471233519,-6.9533184611258045,-1.1146309429413823
464,-0.5542984634494309,-7.165347395124539,-7.1196216670234955,-1.175918545673378
465,-0.6317853660657547,-7.281333219911584,-7.274969661113426,-1.2398063110984552
466,-0.7132110674909725,-7.382991106175268,-7.419175236352885,-1.306341483927299
467,-0.798177903902641,-7.470180773883746,-7.55213556675948,-1.3755474712661284
468,-0.8862483993741107,-7.5428686226592685,-7.673824126036982,-1.447422561780037
469,-0.9769554344750083,-7.6011208781912085,-7.784281419967812,-1.5219393656861897
470,-1.0698135744684574,-7.645094902683289,-7.883604769006544,-1.5990449686570896
471,-1.1643312842982765,-7.675028851155937,-7.971937387672281,-1.6786617626277536
472,-1.2600237224320359,-7.691229895931327,-8.049457011138802,-1.760688888640176
473,-1.3564257785592386,-7.694061277506363,-8.11636431732112,-1.8450042025667268
474,-1.4531050021803706,-7.683928470122858,-8.172871385448849,-1.9314666550306026
475,-1.5496740610256694,-7.661264773668067,-8.219190420430905,-2.0199189630460097
476,-1.6458023704461178,-7.6265166592946505,-8.255522957131902,-2.1101904434726553
477,-1.7412265474777524,-7.58012920382404,-8.282049740864442,-2.2020998775608107
478,-1.8357593658573963,-7.522531947374347,-8.298921460762031,-2.2954582814787874
479,-1.9292969201792303,-7.454125499810889,-8.30625049195138,-2.3900714691880705
480,-2.0218237476797665,-7.375269204902147,-8.304103781176426,-2.4857423104688414
481,-2.1134157037007832,-7.286270147072178,-8.29249698915598,-2.5822726071944793
482,-2.2042404404781615,-7.187373755176335,-8.271389981708287,-2.6794645339194663
483,-2.2945553972501163,-7.078756221761532,-8.240683740591903,-2.7771216133144465
484,-2.3847032714349643,-6.9605189158927825,-8.200218743992764,-2.8750492218721844
485,-2.475105004391038,-6.832684923994799,-8.149774845447439,-2.973054645619545
486,-2.566250379525056,-6.695197807456111,-8.089072658522285,-3.0709467283460463
487,-2.6586863936172103,-6.547922619125634,-8.01777643259376,-3.168535175168282
488,-2.7530036224564105,-6.390649174333196,-7.93549838251146,-3.265629591225669
489,-2.8498208575382846,-6.223097526527819,-7.841804411828209,-3.362038348260085
490,-2.949768340149172,-6.044925553673033,-7.736221145859411,-3.4575673803741873
491,-3.0534699613650225,-5.855738519624541,-7.618244167444882,-3.5520190143361527
492,-3.1615248302933425,-5.6551004352523515,-7.4873473254133405,-3.6451909396235127
493,-3.274488637422849,-5.44254700754011,-7.342992963978687,-3.736875419356706
494,-3.392855254516876,-5.217599931932898,-7.184642901304583,-3.8268588357965667
495,-3.517039016569719,-4.979782254591755,-7.011769968020856,-3.91492165361885
496,-3.6473581246538997,-4.728634507804126,-6.823869902396209,-4.000838871183882
497,-3.784019591032425,-4.463731304385811,-6.620473389043295,-4.084381014940266
498,-3.9271061200511035,-4.184698066074956,-6.401158023296661,-4.16531571537783
499,-4.076565280802337,-3.8912275569286465,-6.165559984450281,-4.243409885054332
500,-4.232201281507219,-3.583095895529221,-5.913385208274828,-4.318432500776501
501,-4.393669602526257,-3.260177729082637,-5.644419862697667,-4.39015797386407
502,-4.560474686705823,-2.9224602678104756,-5.35853994990693,-4.458370075649261
503,-4.731970824353927,-2.5700558989365887,-5.055719882839458,-4.522866371130514
504,-4.907366307373729,-2.203213125601739,-4.736039913222228,-4.583463102998375
505,-5.0857308645066075,-1.8223256067769908,-4.399692321043455,-4.640000461602642
506,-5.266006328323007,-1.4279391092685128,-4.046986310244316,-4.692348173713554
507,-5.447020425155413,-1.020756221782973,-3.678351590912261,-4.7404113433905675
508,-5.627503521863548,-0.601638723272509,-3.294340662367668,-4.784136480712008
509,-5.806108108316241,-0.1716075427896761,-2.895629842161877,-4.823517657200584
510,-5.981430742045048,0.2681597049748858,-2.483019111164364,-4.858602729349169
511,-6.152036132223831,0.7163335765055088,-2.0574308630249396,-4.8894995729749935
512,-1.9363739364230363e-13,-2.936914921288415e-14,-1.767230261499917e-13,-2.8433925874346745e-13
513,-4.339686210038471e-12,-5.666996335800809e-13,-3.5840491300594754e-12,-6.3568181938978334e-12
514,-5.2010685311668586e-11,-6.816940670023844e-12,-4.236692666286633e-11,-7.561830711775875e-11
515,-4.16767345333638e-10,-5.513041100825426e-11,-3.3601087346226507e-10,-6.010301124161317e-10
516,-2.514262783438665e-09,-3.3585306682236816e-10,-2.005225130208327e-09,-3.5971949349596346e-09
517,-1.2214915569343906e-08,-1.6497913581311748e-09,-9.627846218455032e-09,-1.7343113988704156e-08
518,-4.991973097815957e-08,-6.833535391238953e-09,-3.8849743656343e-08,-7.0367711049084e-08
519,-1.769656963970031e-07,-2.4632889221536313e-08,-1.3587080551682318e-07,-2.477855669069566e-07
520,-5.567537145937552e-07,-7.910370573926168e-08,-4.2146102552373633e-07,-7.747978161859362e-07
521,-1.5822113120802407e-06,-2.3037355475909933e-07,-1.1805208971059586e-06,-2.1897847433865545e-06
522,-4.118953774434915e-06,-6.169349272404759e-07,-3.0290683485948703e-06,-5.673068209105362e-06
523,-9.935091559544093e-06,-1.5359061502376292e-06,-7.203665932899846e-06,-1.3626285081909627e-05
524,-2.2412514312144547e-05,-3.586005910230582e-06,-1.6033399231890247e-05,-3.0629437578807486e-05
525,-4.765847129709633e-05,-7.908099121684186e-06,-3.367138352184215e-05,-6.493514629304005e-05
526,-9.615777883637019e-05,-1.6569425503318737e-05,-6.718138532173068e-05,-0.00013068881046278454
527,-0.00018512229923697883,-3.314897327470892e-05,-0.00012809560807459908,-0.00025108534630533175
528,-0.00034170281644933814,-6.359159843329282e-05,-0.00023458213963919113,-0.00046268405887678674
529,-0.0006072267120600996,-0.00011740600013679908,-0.0004143849619587132,-0.000821099567780325
530,-0.0010426109821577028,-0.00020928518146143792,-0.000708725352773281,-0.0014082658218036335
531,-0.0017350727784322373,-0.0003612263687204247,-0.0011773799188992949,-0.002341430287543852
532,-0.0028062181619280336,-0.00060521962099075,-0.0019051756005425918,-0.0037839756035866353
533,-0.004421534287285776,-0.0009865599720522314,-0.0030101632925990164,-0.005958086733737583
534,-0.006801241830929695,-0.0015678167698479732,-0.0046537462780109375,-0.009159184580792758
535,-0.010232385132483594,-0.0024334662827979973,-0.007053044342488246,-0.01377193518486632
536,-0.01508195020661254,-0.0036951605712404597,-0.01049576630510558,-0.02028752149392857
537,-0.021810709385979878,-0.005497568587270272,-0.015357840295080149,-0.02932173801807666
538,-0.030987400479482338,-0.008024686424592396,-0.022124010633710077,-0.04163334419917357
539,-0.043302763024967696,-0.011506474773321548,-0.031411551597810256,-0.05814199732819954
540,-0.059582879676178695,-0.016225645093667612,-0.043997171353950225,-0.07994498768778965
541,-0.08080121200623591,-0.02252438371805251,-0.06084708438290034,-0.10833192424898931
542,-0.10808868154613774,-0.03081077658728442,-0.08315011885838888,-0.14479647482073477
543,-0.14274113238870997,-0.041564677832868775,-0.11235359847219172,-0.19104425487289659
544,-0.18622352377708717,-0.05534275384811182,-0.15020159855138268,-0.24899598757607525
545,-0.24017024113344596,-0.07278243152793967,-0.1987750271109608,-0.32078512539129495
546,-0.30638098206648134,-0.09460448548740547,-0.2605328264926082,-0.4087492304516733
547,-0.38681176885173413,-0.12161401456660337,-0.33835343483965963,-0.5154145548645348
548,-0.4835607582964791,-0.15469958280896454,-0.43557549379636396,-0.6434734390682788
549,-0.5988486602037918,-0.19483033404868155,-0.5560366449339693,-0.7957543510267516
550,-0.7349937322497108,-0.24305093157469781,-0.7041091283020209,-0.9751846144501208
551,-0.8943814866040023,-0.3004742239757728,-0.8847307881638381,-1.1847461124179697
552,-1.079429416147823,-0.36827159377359875,-1.1034300093311682,-1.427424495097335
553,-1.2925472194730065,-0.4476610050781207,-1.366343058184369,-1.7061526578126445
554,-1.5360931677301464,-0.5398928282910728,-1.6802222905132316,-2.0237494798248425
555,-1.8123274067433457,-0.6462335817453175,-2.052433718002451,-2.3828550166256517
556,-2.1233631189698756,-0.7679477899582183,-2.4909424997557266,-2.785863511942165
557,-2.4711165768795644,-0.906278213807494,-3.0042850467141977,-3.2348557335646433
558,-2.8572571981049224,-1.0624247574713195,-3.6015265958064084,-3.7315322343147823
559,-3.283158760323486,-1.237522398728089,-4.292203326328787,-4.277149192099185
560,-3.749852948571903,-1.4326185218425826,-5.086248351097295,-4.872458488737691
561,-4.257986389139162,-1.6486500548356033,-5.993901215637604,-5.5176536455017215
562,-4.807782273151076,-1.886420824935553,-7.025600875123213,-6.21232314509617
563,-5.399007591317708,-2.146579547354828,-8.19186248480522,-6.9554125377514655
564,-6.030946891810894,-2.4295988535117345,-9.50313872812306,-7.745196557024938
565,-6.702383339284685,-2.73575574604992,-10.96966680933919,-8.579262263742935
566,-7.4115876985604565,-3.065113840399232,-12.60130264519804,-9.454503999936364
567,-8.156315695709791,-3.4175077173419295,-14.407344192644613,-10.367130674887509
568,-8.933814026549719,-3.792529669484954,-16.396346236211087,-11.312685629093954
569,-9.74083509224928,-4.18951907823425,-18.575929318078344,-12.286079035764226
570,-10.57366034806389,-4.6075546084193455,-20.952585814847986,-13.281632510061176
571,-11.428131958333713,-5.04544935670315,-23.531486436906125,-14.293135310282368
572,-12.299692262991485,-5.501749038846422,-26.31629063877192,-15.31391123898118
573,-13.183430382147453,-5.974733251205933,-29.308964572722463,-16.3368950919935
574,-14.074135120047368,-6.46241979483503,-32.50961028502902,-17.35471726551479
575,-14.966353181860606,-6.9625720073519615,-35.91630983726106,-18.3597949214819
576,-15.854451590081455,-7.47270900924243,-39.524987928542195,-19.344427934802056
577,-16.73268308512795,-7.990118738107038,-43.329296394035985,-20.300897707108636
578,-17.59525321978914,-8.51187361693039,-47.320523657651506,-21.221566834726964
579,-18.436387811671,-9.034848680860016,-51.487531822563646,-22.09897756666169
580,-19.25039940320595,-9.555741971108347,-55.81672359427338,-22.925946984078646
581,-20.031751395855125,-10.071096994031782,-60.29204065433883,-23.695656877366204
582,-20.77511857379352,-10.57732703752418,-64.89499445037964,-24.40173639071313
583,-21.475442811719514,-11.07074113465516,-69.6047296568498,-25.03833564625299
584,-22.12798286970446,-11.547571464860983,-74.39811981409669,-25.600188747903548
585,-22.728357312620396,-12.004001984726369,-79.2498938975429,-26.082664795498854
586,-23.27257974942269,-12.436198082231922,-84.13279183455478,-26.481805807956647
587,-23.757085764682756,-12.840337049075245,-89.01774630489594,-26.79435075431869
588,-24.178751107152767,-13.212639164193316,-93.87408756187209,-27.01774521693961
589,-24.534900903366843,-13.549399176988205,-98.66976752267367,-27.150136554459717
590,-24.82330987364726,-13.8470179703513,-103.37159902053024,-27.190354785352252
591,-25.042193738501545,-14.10203417115807,-107.94550590425018,-27.137879767067524
592,-25.190192210267387,-14.31115545969319,-112.35677962116536,-26.992795591971404
593,-25.266344162940754,-14.471289310140119,-116.57033802801689,-26.755733450041358
594,-25.270055757378312,-14.579572872883073,-120.5509824334297,-26.427804510298408
595,-25.201062464601257,-14.633401687249796,-124.26364927035176,-26.01052463920473
596,-25.059386072185728,-14.630456891987253,-127.67365330563298,-25.505732996408216
597,-24.845287873747097,-14.568730581841736,-130.7469198898669,-24.915506719040867
598,-24.55921932618122,-14.446548943823162,-133.4502044029203,-24.242074019485237
599,-24.201771511459523,-14.26259279779419,-135.75129772615375,-23.48772807401742
600,-23.773624758243628,-14.01591516459524,-137.6192172375927,-22.65474406873657
601,-23.27549976326661,-13.705955492465034,-139.02438344885812,-21.745301694287374
602,-22.708111504154438,-13.332550190200585,-139.93878295301138,-20.761415243536202
603,-22.072127155853142,-12.895939144078199,-140.33611880549958,-19.704873269873648
604,-21.36812911456832,-12.396767935345526,-140.19194979655543,-18.577189513268095
605,-20.596584099273155,-11.836085525997653,-139.48382027950774,-17.379566503351317
606,-19.75781914515354,-11.215337242107314,-138.19138228902648,-16.112872911974755
607,-18.852005130116382,-10.536352955422648,-136.29651161662554,-14.77763536144048
608,-17.879148289365347,-9.801330444224009,-133.78341931449484,-13.374045009561975
609,-16.839089978945875,-9.012814002209907,-130.63875978565179,-11.901978839974332
610,-15.73151475198035,-8.173668457824458,-126.85173620645858,-10.36103519690794
611,-14.555966615794135,-7.287048863993572,-122.41420353913998,-8.750582728831692
612,-13.311873148729113,-6.356366217453806,-117.32076885279206,-7.069821555131951
613,-11.998576976253805,-5.385249665231584,-111.56888810948378,-5.317855153495255
614,-10.615373940706993,-4.377505750672121,-105.15895801639226,-3.4937711908840567
615,-9.161557150929879,-3.3370753399076456,-98.09440102419381,-1.596729294544855
616,-7.636465970008147,-2.267988948886487,-90.38174109331757,0.3739464134846501
617,-6.039538893813541,-1.1743212581115934,-82.03066747758534,2.4186723107824677
618,-4.370369192029916,-0.06014565416183464,-73.0540835098303,4.5375101470198524
619,-2.6287621283812066,1.0705103288108748,-63.46813723232454,6.730074140853246
620,-0.8147925487275992,2.2137077804223226,-53.29223070712844,8.995442586416255
621,1.071138375294889,3.365636518932831,-42.54900497321204,11.332076137910201
622,3.028248433990005,4.522651681139958,-31.264297888308665,13.73774477288343
623,5.055322835154434,5.681306002621698,-19.467072498487557,16.209465221306825
624,7.150666890710055,6.838377069885069,-7.189314106846541,18.74345039525643
625,9.312063904400949,7.990888922992355,5.53410515063469,21.33507207053401
626,11.536739120559647,9.136127502710028,18.66559468837734,23.978837765087363
627,13.821330470804988,10.271649567163024,32.165046487762936,26.668382438093385
628,16.161866722865522,11.395284845889753,45.99006758746526,29.396475306467682
629,18.553753497077466,12.505131350247428,60.096242039505654,32.15504175053141
630,20.991767474853862,13.599543914304641,74.43741948676282,34.93519996530728
631,23.4700589826648,14.677116195663734,88.96602672075447,37.727311715517544
632,25.98216299756225,15.736656517209926,103.6333978468077,40.52104627712305
633,28.521018488350713,16.777158074978743,118.39011804138588,43.30545640156486
634,31.078995881992338,17.797764170875446,133.18637535509302,46.069064925134825
635,33.64793232911111,18.797729248928718,147.97231461356395,48.799960468431834
636,36.21917433645029,19.776376617534847,162.69838721242832,51.48590053192137
637,38.783627238382735,20.73305382556001,177.31569050320556,54.11442019442967
638,41.33181089432875,21.667086725438367,191.77629053123275,56.672944562232445
639,43.85392092429326,22.577733300189255,206.03352211660754,59.14890309664087
640,4.8630238621760815e-14,-2.886662823598198e-14,4.0248621164264514e-14,3.5268556446410447e-14
641,1.1049191777385123e-12,-6.177066730655819e-13,8.504098952818229e-13,7.868383205964856e-13
642,1.3014921149590062e-11,-7.410937223285381e-12,9.971291068076907e-12,9.196973152068737e-12
643,1.0199878776646659e-10,-5.98583477188011e-11,7.870464926681834e-11,7.161332234680258e-11
644,5.996653759427757e-10,-3.6583189726635445e-10,4.705360936085428e-10,4.18919284338512e-10
645,2.829344185166628e-09,-1.8084094218428098e-09,2.2788829935163557e-09,1.9695675561435873e-09
646,1.1193577810134662e-08,-7.546894679642464e-09,9.336370731860864e-09,7.775978242622593e-09
647,3.8305349714503466e-08,-2.739243957459153e-08,3.334515529780977e-08,2.6591679964859854e-08
648,1.1606427375292441e-07,-8.838708347212745e-08,1.0613768686474762e-07,8.061543549107773e-08
649,3.171067505446038e-07,-2.578185959332324e-07,3.0618535459823486e-07,2.205997555289466e-07
650,7.92738797560131e-07,-6.888885856214047e-07,8.111421952187676e-07,5.52788020529828e-07
651,1.8350928645043458e-06,-1.7042960644462966e-06,1.9943521273663197e-06,1.283410415773323e-06
652,3.972643421018233e-06,-3.938684043130507e-06,4.5905591457871884e-06,2.787557407962736e-06
653,8.10922683810526e-06,-8.566544475727346e-06,9.96390113592842e-06,5.710033386361987e-06
654,1.571727263698814e-05,-1.7646960920355805e-05,2.051870896982823e-05,1.1106224691426547e-05
655,2.9096088841310946e-05,-3.46196605334577e-05,4.0299553366515237e-05,2.0631142132258497e-05
656,5.170584044841521e-05,-6.49875510135399e-05,7.583020722967051e-05,3.6784728507511856e-05
657,8.858740584567862e-05,-0.00011721876197349658,0.00013724064253178272,6.322137148706408e-05
658,0.00014687761445683975,-0.00020389598608251114,0.00023972603431195326,0.00010513138941243552
659,0.0002364283923384003,-0.00034313267777458126,0.00040537157223471487,0.00016970203482994704
660,0.0003705369393305665,-0.0005602647104340212,0.0006653617372562123,0.0002666651805330277
661,0.0005667920892075559,-0.0008898129249391456,0.0010625731358227235,0.00040893815802197687
662,0.000848039338481544,-0.0013776973115394227,0.0016545269785064863,0.0006133630303449232
663,0.0012434635644961506,-0.002083668160767531,0.0025166521562743306,0.0009015477282939204
664,0.0017897841008577768,-0.003083904226148793,0.0037457841192638608,0.0013008098157428216
665,0.002532551556592384,-0.00447371350324734,0.005463799975734435,0.0018452200822846683
666,0.003527529603325482,-0.0063702592289725645,0.007821267915006164,0.0025767386639260585
667,0.004842138075105927,-0.008915222563861501,0.011000970580596167,0.003546431018618524
668,0.006556926385202295,-0.012277304456717078,0.01522114855261772,0.004815744956612219
669,0.008767038777241287,-0.016654462693918223,0.020738302602392043,0.006457823229995777
670,0.011583625641062488,-0.022275776411195995,0.02784939256349758,0.008558819157727231
671,0.015135148414684491,-0.029402829721058427,0.03689327690484834,0.011219175691636036
672,0.019568519873751467,-0.03833050890537235,0.04825125037626689,0.014554821556444488
673,0.025050017309773336,-0.04938711411607017,0.06234655695368425,0.018698232014548878
674,0.031765903652865544,-0.06293369691322515,0.07964278080959995,0.02379929686279187
675,0.03992269142286347,-0.07936254932358816,0.10064104785445897,0.030025934973005878
676,0.049746986868645496,-0.09909478832630393,0.12587600297598023,0.03756439358460494
677,0.061484857037528574,-0.12257700143614178,0.15591056185486918,0.046619172135081995
678,0.07540067085011916,-0.15027694375714457,0.1913294697511256,0.0574125149749027
679,0.09177537629551372,-0.18267830365617493,0.23273173186923743,0.07018342485225997
680,0.1109041890739351,-0.22027458199253108,0.28072201013747566,0.08518615922497023
681,0.13309368266395522,-0.26356215747840733,0.3359011091036478,0.10268818363786957
682,0.15865828506844282,-0.31303263710050805,0.3988556989728263,0.12296756981852598
683,0.18791620261656314,-0.3691646146045571,0.47014744648702855,0.14630983999010375
684,0.22118480548856628,-0.43241498105422677,0.5503017442841502,0.1730042724497138
685,0.2587755225558169,-0.5032099489236228,0.639796246472148,0.20333969612524844
686,0.30098830434194473,-0.5819359648378315,0.7390494322591383,0.23759981319217155
687,0.3481057222565951,-0.6689306959048231,0.8484094303098216,0.27605809868474435
688,0.40038677975373616,-0.7644742806229615,0.9681433435677121,0.31897233434342964
689,0.45806051689992433,-0.8687810375956622,1.09842731688616,0.36657884085172326
690,0.5213194943116253,-0.9819918236221787,1.2393375871278831,0.4190864784370594
691,0.5903132459400869,-1.1041672269380285,1.3908427466921611,0.4766704909554762
692,0.6651417931936936,-1.235281771174795,1.5527974362872168,0.5394662734930429
693,0.745849315800201,-1.375219290749502,1.724937661195312,0.6075631485872915
694,0.8324180779194938,-1.5237696187455825,1.906877897726863,0.6809982416625432
695,0.9247627114593434,-1.6806267039771268,2.098110123802959,0.7597505522851645
696,1.02272496229996,-1.8453882451673744,2.2980048705907468,0.8437353243147184
697,1.1260690090259928,-2.0175568976491722,2.50581435182171,0.9327988247372908
698,1.2344774674795802,-2.1965430726180024,2.720677684773789,1.0267136475637801
699,1.3475481975231651,-2.381669311870865,2.941628172759794,1.125174665184469
700,1.4647920302509048,-2.5721761834283514,3.167602574192174,1.22779575441807
701,1.5856315338566318,-2.767229606814302,3.3974522387955988,1.334107427530602
702,1.7094009337912308,-2.965929482410502,3.629955948302652,1.4435554990275201
703,1.8353472971097935,-3.167319468501019,3.863834258040018,1.5555009163213898
704,1.9626330814944546,-3.370397723512403,4.097765098236062,1.6692208757473361
705,2.09034013594258,-3.5741284104278246,4.330400360634567,1.7839113342242614
706,2.2174752222897083,-3.7774537459330033,4.5603831679708655,1.8986910106850672
707,2.3429771045347714,-3.979306368653618,4.786365501855586,2.0126069499978083
708,2.4657252264800316,-4.178621798590054,5.007025849341782,2.124641695520422
709,2.5845499677887376,-4.374350762962504,5.221086520548206,2.2337220850111836
710,2.69824443465281,-4.565471171364352,5.427330289638727,2.338729648964506
711,2.805577704460677,-4.750999534499952,5.624616019431758,2.438512551405539
712,2.9053094049298753,-4.930001634956083,5.811892945846631,2.531898971790417
713,2.9962054680367736,-5.1016022746032395,5.988213321892997,2.617711784073416
714,3.077054858773516,-5.264993940693057,6.152743151332467,2.694784346422951
715,3.146687039434288,-5.419444251106138,6.304770778677279,2.761977173722312
716,3.2039898930420243,-5.564302058380489,6.443713143940184,2.8181952261292853
717,3.2479277960580824,-5.6990021122310806,6.5691195565957905,2.8624055118780523
718,3.2775595021372688,-5.823068201533192,6.680672892667972,2.893654672503698
719,3.2920554768496912,-5.936114719504014,6.778188170866457,2.9110861950636253
720,3.2907143093183033,-6.037846620313829,6.861608517390654,2.913956879977308
721,3.272977821744107,-6.1280577616566445,6.930998583441684,2.9016521859557227
722,3.238444502685669,-6.2066276557788695,6.98653553351927,2.8737000761284155
723,3.186880905298047,-6.273516680795371,7.028497774961136,2.8297830026362165
724,3.1182306777293407,-6.3287598343540505,7.05725164855958,2.7697476910390204
725,3.032620929321072,-6.37245914223875,7.073236345158668,2.6936124208660264
726,2.930365682542958,-6.404774864562893,7.0769473527693165,2.6015715440153824
727,2.8119662157031966,-6.425915670880937,7.068918772101954,2.493997037516389
728,2.678108164053639,-6.436127981785511,7.049704865012141,2.3714369499783343
729,2.529655315293312,-6.435684697274191,7.019861220004249,2.2346106700619353
730,2.3676401077705087,-6.424873550324257,6.979925931675401,2.0844010184396753
731,2.19325091387201,-6.4039853368267785,6.930401196909613,1.921843239727904
732,2.007816265140377,-6.3733022796613605,6.871735729783254,1.7481110455267153
733,1.8127862476293952,-6.333086784892897,6.804308389400757,1.5644999318279678
734,1.6097113640616312,-6.283570841819995,6.7284133999795595,1.3724080616237033
735,1.400219221783058,-6.224946306194044,6.644247520133837,1.1733150647136659
736,1.1859894607546628,-6.157356287912459,6.551899488258152,0.9687591598179721
737,0.9687273825033264,-6.080887841583146,6.45134203321654,0.760313047734454
738,0.7501367779114441,-5.995566131319656,6.342426694536687,0.5495590572944661
739,0.5318924779971052,-5.901350210679698,6.224881644621849,0.33806404739353585
740,0.31561316662987343,-5.79813052545424,6.098312647976941,0.12735457777551654
741,0.10283499678842749,-5.685728211646066,5.962207230105309,-0.08110714188453794
742,-0.10501345801062176,-5.563896224017108,5.815942062671827,-0.2859460309454851
743,-0.3066344084331341,-5.43232229262092,5.658793502919662,-0.4858951798413201
744,-0.5008817375808301,-5.290633666398432,5.489951155398105,-0.6798147315306772
745,-0.6867791492501796,-5.1384035648878,5.308534254076065,-0.8667082322245897
746,-0.8635352144000366,-4.975159222134261,5.113610594186307,-1.0457361463799015
747,-1.0305550276267665,-4.800391371797609,4.9042176770139285,-1.2162263066556367
748,-1.1874482696453506,-4.613564990098759,4.679385668702577,-1.3776811544438277
749,-1.3340335647891535,-4.41413108447505,4.43816171745158,-1.5297817188592586
750,-1.4703391220601383,-4.20153929141143,4.17963512371921,-1.6723883793727672
751,-1.5965997514961683,-3.97525102753569,3.9029628167837753,-1.8055385567800173
752,-1.7132504513666025,-3.7347529241997885,3.6073945598373722,-1.929441575640111
753,-1.8209168624278058,-3.4795702677290117,3.2922972863054314,-2.044471035060932
754,-1.9204029794288344,-3.209280165452756,2.957177963857326,-2.1511551098906248
755,-2.0126765934574253,-2.9235241615231105,2.6017043909829005,-2.2501652770821443
756,-2.098853007837242,-2.6220200362250248,2.2257233550975255,-2.3423040184325252
757,-2.1801776216120645,-2.3045725377130473,1.8292756214307626,-2.4284920875510725
758,-2.2580080050073077,-1.9710828155245959,1.4126072783477583,-2.50975594273878
759,-2.3337960980033152,-1.6215563504226036,0.976177036479889,-2.5872159360946454
760,-2.409071144408837,-1.2561092046840285,0.5206591647073332,-2.6620758111178016
761,-2.4854239286878497,-0.8749724504099844,0.046941843693239886,-2.7356139959393357
762,-2.564492811500712,-0.4784946702684711,-0.44387917510160624,-2.8091770878964986
763,-2.6479519639071407,-0.06714246470689586,-0.9505116029925615,-2.884175809533957
764,-2.737502082092325,0.3585010585628462,-1.4714822205903186,-2.9620835796424423
765,-2.834863728157256,0.7977397938095027,-2.0051568193892044,-3.044437690214494
766,-2.9417732929197435,1.2497700824003393,-2.549764124972019,-3.132842916911464
767,-3.059981419748601,1.713687987221364,-3.103423238534516,-3.228977223415146
768,2.9323354431049146e-15,-7.41655553649595e-15,-1.7233510845069206e-15,2.1956419227970436e-14
769,3.30401681665328e-15,-4.4489965417751095e-14,-1.3210221709483995e-13,3.6171120711535105e-13
770,3.7616810296550105e-15,-7.441951251628056e-13,-1.514309198601111e-12,4.147417375911824e-12
771,4.17606031888977e-15,-8.07292469554146e-12,-1.0923535162168596e-11,3.1973338344658704e-11
772,5.150528404271677e-15,-6.154216988937661e-11,-5.6588187805838075e-11,1.8459314704875978e-10
773,4.868948992676912e-15,-3.6050252082566636e-10,-2.2195330685119274e-10,8.537482555052547e-10
774,6.08899431578311e-15,-1.7204030505872355e-09,-6.653728778075991e-10,3.3096871430127304e-09
775,5.967024718084814e-15,-6.959045235526422e-09,-1.4362253449450102e-09,1.1114911290080752e-08
776,7.331704783690094e-15,-2.4553583180142235e-08,-1.4818933671509384e-09,3.317200184970655e-08
777,7.241610782649051e-15,-7.722298816866362e-08,4.620144352792122e-09,8.980280668197144e-08
778,8.4584138646978e-15,-2.201976691967807e-07,3.517843689577869e-08,2.24255923744008e-07
779,8.349334092186403e-15,-5.770472463897967e-07,1.4047712666573688e-07,5.237149145882732e-07
780,6.608672589479768e-14,-1.4052208105894968e-06,4.4114351003587467e-07,1.1565403288251156e-06
781,1.36025878111251e-12,-3.2090087274715993e-06,1.1990570769052985e-06,2.4364062345599723e-06
782,1.62121700987501e-11,-6.924446506473341e-06,2.9398692200467987e-06,4.929380309850528e-06
783,1.300975732937788e-10,-1.4208577910266544e-05,6.65314055171842e-06,9.626911366253747e-06
784,7.889870589278759e-10,-2.7874114559692432e-05,1.4103782796286293e-05,1.8216043739932364e-05
785,3.866132795150323e-09,-5.251930372726503e-05,2.829621926759321e-05,3.348771169148596e-05
786,1.598305464460822e-08,-9.54109884436783e-05,5.4139513845141924e-05,5.993421551889338e-05
787,5.745882268037743e-08,-0.00016768552678213475,9.936661910747062e-05,0.0001045972685580316
788,1.836879609050231e-07,-0.0002859364902947061,0.0001757628683212997,0.00017823745411592876
789,5.312464095856301e-07,-0.0004742589729302547,0.000300757077733481,0.0002969035082786302
790,1.4089877076905652e-06,-0.000766817080630657,0.0004994225827918398,0.00048398441992784013
791,3.464903873974742e-06,-0.0012109930252486483,0.0008069248974104717,0.0007728277834359504
792,7.972276334601419e-06,-0.0018711626495928973,0.001271437339649764,0.0012100031279253414
793,1.7292897711897236e-05,-0.002833122801875238,0.001957525947754303,0.0018592782697262017
794,3.558977429634742e-05,-0.004209170674946521,0.0029499805678339834,0.0028063595777359095
795,6.987524633485231e-05,-0.006143804314525332,0.004358040729666137,0.004164423229452875
796,0.00013149115163123805,-0.008819977705673152,0.006319933923984985,0.006080434238221243
797,0.00023812363923879013,-0.012465804365310439,0.009007611758793221,0.008742213762931186
798,0.0004164546947980607,-0.017361561847814552,0.012631538239428098,0.012386173828425648
799,0.0007055438057350316,-0.02384680802959676,0.017445356359010705,0.017305593299735997
800,0.0011610153681515965,-0.032327380736003414,0.023750236560651034,0.02385926132941829
801,0.0018600999422400861,-0.043282017529346205,0.03189869542183939,0.03248026643518664
802,0.0029075405831441117,-0.0572683044743243,0.04229766658118235,0.04368466306302396
803,0.004442330323941119,-0.07492764330664677,0.055410609243304446,0.058079705373238553
804,0.006645195383394741,-0.09698891709740057,0.07175845252595536,0.07637130258847458
805,0.009746683386836106,-0.12427053621052951,0.09191919564387907,0.09937032405040205
806,0.01403565981801786,-0.1576805596351022,0.1165260130366494,0.127997367408703
807,0.01986796222190339,-0.19821461178553268,0.1462637482945246,0.16328560198690692
808,0.0276749134589895,-0.24695135140380112,0.18186371935823142,0.20638131269795518
809,0.03797135545044253,-0.3050452967523997,0.22409679843765123,0.2585417986841696
810,0.05136283585789357,-0.37371686903766516,0.2737647722245476,0.32113032524800333
811,0.06855156402089009,-0.45423958282972676,0.33169003039942985,0.395607887060521
812,0.09034075065403659,-0.5479243867218496,0.39870367250190153,0.48352161385345177
813,0.11763695909163624,-0.6561012378633948,0.4756321643789453,0.5864897349581463
814,0.1514501244505652,-0.7800980782719121,0.5632827150424409,0.7061831137307815
815,0.19289094054258885,-0.921217466665555,0.6624275821548333,0.844303464201976
816,0.24316537168911065,-1.0807112044038862,0.7737875487390468,1.0025584669462053
817,0.30356611619432855,-1.2597533752642982,0.8980148443012929,1.1826341056801075
818,0.3754609280407177,-1.4594122934346276,1.0356758096985441,1.3861646468753814
819,0.4602777908939233,-1.680621919565535,1.1872336262780299,1.6147007781675562
820,0.5594870309239729,-1.9241533584937898,1.3530314457099701,1.8696765041832923
821,0.674580549204803,-2.1905870921191353,1.5332762672321991,2.152375467505634
822,0.8070484473547594,-2.480286625064822,1.7280239133881188,2.4638974151532302
823,0.9583534084586296,-2.79337422776597,1.9371654533141727,2.805125564981208
824,1.1299032761786887,-3.129709450546107,2.1604154136440092,3.1766956402413613
825,1.3230223456370804,-3.4888710525641082,2.3973021005209243,3.578967333262195
826,1.5389219378341341,-3.8701429412344734,2.6471603315144403,4.01199893061441
827,1.778670873181866,-4.2725046513563845,2.9091268431310926,4.475525782701975
828,2.043166487771383,-4.694626809791016,3.18213859816448,4.968943231637223
829,2.3331068473659284,-5.134871932724821,3.4649341678381105,5.4912945243510976
830,2.648964808469693,-5.591300790522957,3.756058307473013,6.041264135573823
831,2.990964553352187,-6.061684452596583,4.053869782552244,6.617176810491371
832,3.3590611872833285,-6.543521994705064,4.356552436128654,7.217002512776971
833,3.7529239325580512,-7.034063717161502,4.662129420260451,7.838367333763441
834,4.17192338662155,-7.530339588211072,4.968480445334211,8.478570286296048
835,4.6151232324852325,-8.029192496204157,5.273361833496955,9.13460577578436
836,5.081276700579731,-8.527315770829778,5.574429097689664,9.803191414493824
837,5.568827984282151,-9.02129432113618,5.869261707675399,10.480800726252063
838,6.075918708731687,-9.507648639528853,6.155389650725782,11.163700180209064
839,6.600399446454811,-9.982880839147658,6.4303213489811935,11.847989896413688
840,7.13984616608643,-10.443521829235738,6.69157245950294,12.529647284687181
841,7.6915813944806,-10.886178691054848,6.93669505795501,13.204572813150344
842,8.25269977014963,-11.30758129678292,7.1633066935054,13.868637055019361
843,8.820097569620808,-11.704627216340338,7.369118801211289,14.517728132848303
844,9.39050570025513,-12.074423982403367,7.5519639686276046,15.147798668908793
845,9.96052557550558,-12.41432783161034,7.70982157501403,15.754911359195944
846,10.526667223461821,-12.721978109220935,7.840841353381212,16.33528231660441
847,11.085388928474021,-12.995326613743334,7.94336446662564,16.885321375640526
848,11.633137669929045,-13.232661265220973,8.015941738003868,17.40166861563339
849,12.166389602725042,-13.432623603359486,8.057348732010231,17.881226440283168
850,12.68168982113843,-13.594219756408709,8.066597443109387,18.321186646597102
851,13.175690661734942,-13.716824665266856,8.042944415374667,18.71905202351851
852,13.645187831536406,-13.800179495990331,7.9858951843773704,19.072652137292646
853,14.087153694265444,-13.84438232400991,7.895205002026559,19.380153084107864
854,14.498767109236073,-13.849872321119067,7.770875873848778,19.640061117966802
855,14.877439293037375,-13.817407818046481,7.613150004968343,19.851220190190546
856,15.22083526183557,-13.748038747645477,7.422499814635497,20.012803563529722
857,15.526890509720701,-13.643074093155041,7.199614738686219,20.124299785659026
858,15.793822683482,-13.504045069651326,6.94538509413791,20.185493421090346
859,16.02013812370916,-13.332664852180201,6.660883329612384,20.196441044706916
860,16.204633253330563,-13.130785729139221,6.347343028744295,20.157443092008
861,16.346390904860655,-12.900354602905848,6.00613607040637,20.06901223900512
862,16.44477178415551,-12.643367780856709,5.638748378702259,19.931839047217984
863,16.49940136898492,-12.361825998919215,5.246754716638046,19.746755655489064
864,16.51015263304859,-12.057690597513632,4.83179298985343,19.51469832985973
865,16.477125068256353,-11.73284172772647,4.395538530754804,19.236669695374253
866,16.400620548487034,-11.389039405904128,3.9396788291000018,18.9137014695848
867,16.281116635257135,-11.027888160066997,3.4658891629817346,18.546818497232437
868,16.11923796871513,-10.650805924334884,2.97580956478065,18.137004849896005
869,15.91572641545159,-10.258997740685635,2.471023530566004,17.68517270444604
870,15.671410657519942,-9.853434723520415,1.953038849140346,17.19213465127725
871,15.387175904981564,-9.43483863419739,1.423270888935737,16.658580009085085
872,15.063934397829591,-9.003672302229157,0.8830286377163723,16.085055639100858
873,14.702597333283125,-8.560136019314188,0.33350374196531307,15.471951660002393
874,14.3040488124438,-8.104169923668495,-0.22423725959892402,14.819492367047324
875,13.869122347640179,-7.6354622869158195,-0.7892573701935985,14.127732557258854
876,13.398580410044714,-7.153463515542574,-1.3607501581694725,13.396559358685419
877,12.893097427981902,-6.657405584859847,-1.9380373527311805,12.625699557799237
878,12.353246571400986,-6.146326536530577,-2.5205630597806494,11.814732316888358
879,11.77949057887058,-5.619099591771158,-3.107884710713577,10.963107074644252
880,11.172176801705174,-5.074466361873912,-3.6996609223134693,10.070166329743746
881,10.531536556881887,-4.511073576106678,-4.29563650995378,9.135172920566854
882,9.857688797509818,-3.9275126946033194,-4.895624957480552,8.15734133547928
883,9.15064802780789,-3.3223617307712123,-5.4994887034808615,7.135872518134954
884,8.410336309634252,-2.694228574191155,-6.107117653097186,6.069991571375475
885,7.636599130218732,-2.0417950811581007,-6.718406365182024,4.958987711497592
886,6.829224826442732,-1.363861186120467,-7.333230394825902,3.8022557816775793
887,5.987967190401052,-0.6593882835584448,-7.951422290152506,2.5993385989011486
888,5.11257081483879,0.07245886346002202,-8.572747749496612,1.3499693827245125
889,4.202798676396807,0.8322724144844512,-9.19688244110228,0.054113496762455686
890,3.258461400721583,1.6203646410050383,-9.823389973259605,-1.287991274490239
891,2.2794476079522146,2.4367346733838464,-10.451701479530916,-2.675796689167788
892,1.2657547015895245,3.281039415343314,-11.081097252550945,-4.10840901469994
893,0.2175194399735608,4.152569176030165,-11.71069082178156,-5.584557735398209
894,-0.8649523809065875,5.050228499856825,-12.33941582635526,-7.102568700440218
895,-1.9811578004922386,5.972522595416464,-12.96601598449805,-8.660342359505991
896,6.633101069047048e-16,-7.229783206090132e-15,8.496609689960303e-15,-2.4890607480823804e-14
897,1.886211552101929e-14,-1.0706870400700296e-13,2.4630416640790924e-13,-5.450977759676063e-13
898,-2.872421095893763e-13,-1.38124909863669e-12,2.555534038629912e-12,-6.619168099206572e-12
899,-6.695790247557851e-12,-1.2208338248705111e-11,1.6788961554069603e-11,-5.396275751863275e-11
900,-6.707673082949101e-11,-8.144045716026304e-11,7.792310620313133e-11,-3.318755102868328e-10
901,-4.5280529867607433e-10,-4.3701333571664436e-10,2.615828472624699e-10,-1.6451282380533377e-09
902,-2.345836233659885e-09,-1.9668936668457664e-09,5.824914500551022e-10,-6.859495087284251e-09
903,-9.952033295560291e-09,-7.646359642445552e-09,3.3157009904742874e-10,-2.4788526264135914e-08
904,-3.599412242880958e-08,-2.624452163529365e-08,-4.370964397897471e-09,-7.938882476783598e-08
905,-1.1413580833037849e-07,-8.090390538603191e-08,-2.752372533707568e-08,-2.2927007643658518e-07
906,-3.240076781136491e-07,-2.2711943145141704e-07,-1.0984634884746137e-07,-6.054133911414562e-07
907,-8.369534449609993e-07,-5.873072129458941e-07,-3.536527783435285e-07,-1.4785039795868092e-06
908,-1.993102042006806e-06,-1.41250413311481e-06,-9.88990127581969e-07,-3.3711647532259595e-06
909,-4.422579886752942e-06,-3.185627260281371e-06,-2.4889953056869967e-06,-7.234263323517431e-06
910,-9.225317708457464e-06,-6.784914249588459e-06,-5.757444067887534e-06,-1.470992054434787e-05
911,-1.8224746024874282e-05,-1.3730363155837205e-05,-1.2415927545111673e-05,-2.850640124377505e-05
912,-3.431056117243523e-05,-2.6539838501498833e-05,-2.5221337302073162e-05,-5.2911246357917365e-05
913,-6.188462039252328e-05,-4.922460258532417e-05,-4.8645774388659364e-05,-9.446838786513757e-05
914,-0.00010742191452135734,-8.795590813406042e-05,-8.965014190504912e-05,-0.00016284224547153883
915,-0.0001801555532908565,-0.00015193446120137017,-0.00015867922425262515,-0.00027188674511146715
916,-0.0002928908990892748,-0.0002544925566546076,-0.0002708999020452635,-0.00044092980193404294
917,-0.0004629495528523837,-0.0004144541034720591,-0.0004476954513546507,-0.0006962742465721427
918,-0.0007132390300514048,-0.0006577703243523662,-0.0007184180409370586,-0.001072904815373941
919,-0.0010734389057774543,-0.0010194385307135685,-0.001122389202599331,-0.0016163782236348532
920,-0.001581289193999608,-0.001545698119869595,-0.001711124956997522,-0.0023848601685681117
921,-0.0022839619384629785,-0.002296482092202583,-0.0025507491605433253,-0.0034512600844032147
922,-0.0032394925306905736,-0.0033480844309677054,-0.0037245461010778206,-0.004905402289341086
923,-0.0045182431701129315,-0.004795984344731925,-0.005335591855383618,-0.0068561614449603415
924,-0.0062043671504033665,-0.006757748594464542,-0.0075093937671242925,-0.009433481522070988
925,-0.00839723929496459,-0.009375914073165723,-0.010396458909270406,-0.012790191165453194
926,-0.011212814876599054,-0.012820735782923285,-0.014174705856654457,-0.01710352482233103
927,-0.01478487677207544,-0.017292671735722163,-0.019051629779972733,-0.022576258535618354
928,-0.019266128518093575,-0.023024467437911485,-0.025266128969516907,-0.02943737215849714
929,-0.024829089533916254,-0.030282699722122157,-0.03308990147362111,-0.03794215614483562
930,-0.03166674830022209,-0.03936864373284662,-0.04282832354737002,-0.04837169116935095
931,-0.039992929974676385,-0.05061833843573224,-0.05482072693484292,-0.0610316426704243
932,-0.05004233697406424,-0.06440174517974073,-0.06943999952976415,-0.07625032985299453
933,-0.062070224595575665,-0.08112092007918097,-0.08709144360705104,-0.09437604940777847
934,-0.07635167887889878,-0.10120715318508502,-0.10821083762140139,-0.11577365767088678
935,-0.09318047067136244,-0.12511706394898545,-0.1332616616572293,-0.14082044045521197
936,-0.11286746821282723,-0.15332768135466346,-0.16273146315407588,-0.16990132644562797
937,-0.1357386003513888,-0.1863305761634461,-0.19712735860711048,-0.203403526812142
938,-0.1621323734668934,-0.2246251499077063,-0.23697068840991217,-0.24171070936919442
939,-0.1923969569628429,-0.26871121872748777,-0.28279086539236714,-0.28519683891370073
940,-0.22688686437162184,-0.31908105836065515,-0.33511848209843387,-0.3342198349931929
941,-0.26595926922459545,-0.3762110984282386,-0.39447776638938037,-0.38911521301356156
942,-0.3099700063295669,-0.4405534688522951,-0.4613784983942234,-0.4501898831613314
943,-0.35926931940786605,-0.5125276084401723,-0.536307523059003,-0.5177162832254097
944,-0.4141974246379692,-0.5925121453777158,-0.6197200106269506,-0.5919270155837789
945,-0.47507996608674924,-0.6808372519483176,-0.7120306315814443,-0.673010145363029
946,-0.5422234429555833,-0.7777776618737031,-0.8136048223964427,-0.7611052965512844
947,-0.6159106898182872,-0.8835465191094692,-0.9247503235728207,-0.8563006565456345
948,-0.6963964894814682,-0.9982902027179008,-1.0457091717944211,-0.9586309684790325
949,-0.783903393752907,-1.1220842446567176,-1.1766503236810169,-1.068076556157406
950,-0.8786178203442407,-1.254930427072516,-1.3176630797514788,-1.1845633901092074
951,-0.9806864845290675,-1.3967551140743295,-1.4687514641679054,-1.3079641666757629
952,-1.0902132122941117,-1.5474088410394524,-1.6298296990652636,-1.4381003367551595
953,-1.2072561679576672,-1.7066671532207485,-1.800718892366482,-1.5747449881490827
954,-1.33182551413977,-1.8742326555804611,-1.981145035628972,-1.7176264567005295
955,-1.4638815062504973,-2.0497382079939723,-2.1707383843850225,-1.8664325176146932
956,-1.6033330081077048,-2.2327511747136666,-2.3690342682776184,-2.0208149903601673
957,-1.7500364007242206,-2.4227786146056007,-2.575475352560176,-2.180394578924491
958,-1.9037948435218035,-2.619273279444748,-2.7894153465562437,-2.3447657642481885
959,-2.064357836993876,-2.8216402717075404,-3.0101241286550464,-2.5135015674278938
960,-2.2314210288245246,-3.0292442010276686,-3.2367942314728726,-2.6861580105631537
961,-2.4046262021999913,-3.2414166699423053,-3.4685486050770895,-2.8622781164895517
962,-2.5835613858256234,-3.4574639148823785,-3.704449550887583,-3.0413953084368504
963,-2.76776103004251,-3.676674427668788,-3.9435086944348887,-3.223036095025471
964,-2.956706202250935,-3.898326386179515,-4.184697842126287,-3.4067219539854845
965,-3.1498247672340227,-4.121694730447511,-4.426960546221431,-3.5919703585058858
966,-3.3464915334289675,-4.34605773227882,-4.669224184029075,-3.778294922161186
967,-3.5460283640823143,-4.570702922473442,-4.910412342506204,-3.965204670931842
968,-3.747704271807556,-4.794932259649704,-5.14945728844946,-4.152202483027345
969,-3.9507355355056424,-5.018066448071057,-5.385312297686219,-4.3387827682173015
970,-4.1542858990131,-5.239448338093983,-5.616963614384768,-4.524428487440794
971,-4.357466930259066,-5.458445371043175,-5.84344181401551,-4.708607639925126
972,-4.559338637159718,-5.674451059481676,-6.063832350709435,-4.890769368257858
973,-4.758910450976015,-5.886885522916258,-6.27728508174331,-5.070339851180938
974,-4.95514269848926,-6.095195126914277,-6.483022578444355,-5.246718168675524
975,-5.146948690310799,-6.298851299448751,-6.680347053604457,-5.419272333579729
976,-5.333197553302608,-6.497348621217275,-6.868645760031854,-5.587335688019536
977,-5.5127179299847455,-6.6902023060543145,-7.04739474252531,-5.750203860976046
978,-5.684302656660081,-6.876945202908863,-7.216160855625991,-5.907132475198941
979,-5.84671451469546,-7.0571244618875175,-7.37460199125753,-6.057335777471225
980,-5.998693126067851,-7.230298013406687,-7.522465493147615,-6.199986346227763
981,-6.13896303525502,-7.396031011522525,-7.659584768222287,-6.334216005223465
982,-6.266242985423619,-7.553892390099082,-7.785874138650789,-6.459118041984708
983,-6.379256358512786,-7.703451673839884,-7.901322011734146,-6.573750795925557
984,-6.476742707357191,-7.844276175667456,-8.005982478306757,-6.677142644133773
985,-6.557470264798177,-7.975928697906996,-8.099965483668855,-6.7682983738985705
986,-6.620249271340688,-8.09796583768838,-8.183425748044193,-6.846206891132614
987,-6.66394592100851,-8.20993697741075,-8.256550645637189,-6.909850174100856
988,-6.6874966864067895,-8.311384019491037,-8.319547281666495,-6.9582133435605416
989,-6.689922750438548,-8.401841901419438,-8.372629034065396,-6.990295684854548
990,-6.670344245436283,-8.480839902888544,-8.416001849438462,-7.005122426018968
991,-6.627993982304227,-8.547903732037481,-8.4498505999015,-7.001757049828369
992,-6.562230343955829,-8.602558353326382,-8.47432581733935,-6.979313897979581
993,-6.472549019744955,-8.644331495947787,-8.489531123480074,-6.93697081306339
994,-6.358593271053289,-8.672757759720543,-8.495511667562022,-6.87398155895516
995,-6.220162442483369,-8.687383215801491,-8.492243868334322,-6.789687762716745
996,-6.057218467483107,-8.687770382947996,-8.479626734215273,-6.683530130611834
997,-5.869890160524398,-8.673503447068073,-8.457475005506721,-6.555058706669593
998,-5.658475138655834,-8.644193582934651,-8.425514326672069,-6.403941963476447
999,-5.423439271585006,-8.599484232654603,-8.383378615912713,-6.2299745405495015
1000,-5.165413619523616,-8.539056196084552,-8.330609754649554,-6.033083474775527
1001,-4.885188879907414,-8.462632394027656,-8.266659671979513,-5.813332799076177
1002,-4.58370742584743,-8.369982175691678,-8.190894849629405,-5.570926418846788
1003,-4.262053078889129,-8.260925057276594,-8.102603222288696,-5.306209210050612
1004,-3.921438814556619,-8.135333798167263,-8.001003397485462,-5.019666317444603
1005,-3.5631926496038084,-7.993136744225515,-7.885256069543403,-4.711920665648559
1006,-3.188742003451099,-7.834319393030607,-7.75447745494543,-4.3837287290822475
1007,-2.7995968617521374,-7.65892516233815,-7.607754533026523,-4.035974638654385
1008,-2.397332096459178,-7.4670553691862995,-7.444161837626644,-3.6696627329890266
1009,-1.9835693134871704,-7.258868451728837,-7.262779513153039,-3.2859086894526377
1010,-1.5599586058260932,-7.034578487985032,-7.0627123229757744,-2.8859293948927722
1011,-1.1281605868165103,-6.794453084517892,-6.843109279268522,-2.471031737477641
1012,-0.6898290657261141,-6.53881072314356,-6.603183550981969,-2.0426005190422973
1013,-0.24659470643874454,-6.268017664979433,-6.3422323000637375,-1.6020857016222416
1014,0.199950019148589,-5.982484518536188,-6.059656094746391,-1.1509892120988265
1015,0.6482643075521979,-5.682662582390048,-5.754977552227257,-0.6908515348012308
1016,1.0968706964424701,-5.369040073551041,-5.427858871010295,-0.22323832324199983
1017,1.5443647468187283,-5.042138350278125,-5.078117925361014,0.2502727412893342
1018,1.9894225978139262,-4.702508233034594,-4.705742610661715,0.7281046248733879
1019,2.430806309576505,-4.350726519720368,-4.310903148973432,1.208692943572513
1020,2.8673669627885765,-3.987392781433907,-3.8939620889249964,1.690497104899015
1021,3.298045536007849,-3.613126513013063,-3.4554817633294754,2.1720104212946043
1022,3.721871632837975,-3.2285646987786105,-2.9962290018738416,2.6517690540247414
1023,4.137960178687672,-2.8343598386719537,-2.517176935010643,3.128359673914168
1024,-4.8538723600589516e-14,-3.975147366272052e-14,-6.553438354184599e-14,-5.015929086770052e-14
1025,-1.09079650793032e-12,-8.421065220359283e-13,-1.441438006076249e-12,-1.10094044092736e-12
1026,-1.340598887754965e-11,-9.918025405817827e-12,-1.7229190555068085e-11,-1.326402585126212e-11
1027,-1.1006955088092605e-10,-7.833428518129119e-11,-1.3771195287011969e-10,-1.0692525284619474e-10
1028,-6.790336153079101e-10,-4.666560042035847e-10,-8.283764622992618e-10,-6.487405945083773e-10
1029,-3.3650730748610717e-09,-2.242720795859469e-09,-4.012036179720946e-09,-3.16808430863911e-09
1030,-1.3988944849904558e-08,-9.082809664190307e-09,-1.6346202128114992e-08,-1.3006403787152605e-08
1031,-5.0296734846032156e-08,-3.1962587655345444e-08,-5.7782373289256514e-08,-4.6289099536772574e-08
1032,-1.600281933354815e-07,-9.998287824265224e-08,-1.8133232000762848e-07,-1.4611811596680706e-07
1033,-4.586701428292482e-07,-2.829410816113388e-07,-5.142229775860036e-07,-4.1643268930531116e-07
1034,-1.2013343667398481e-06,-7.345094953953546e-07,-1.3363426200974018e-06,-1.0867964616331708e-06
1035,-2.9091859253459114e-06,-1.7689718074218896e-06,-3.2188206942012066e-06,-2.6273165604312475e-06
1036,-6.577265076658148e-06,-3.989218310129383e-06,-7.253196048670783e-06,-5.939653127304509e-06
1037,-1.3996764622491587e-05,-8.488798328185816e-06,-1.5409140599136406e-05,-1.265710999566902e-05
1038,-2.8230115555700885e-05,-1.7155852321496578e-05,-3.1065240173054304e-05,-2.559341791559361e-05
1039,-5.428082608846271e-05,-3.311118938200175e-05,-5.976202998882669e-05,-4.9385227254622295e-05
1040,-0.00010000118105500189,-6.131608747270759e-05,-0.00011022857767923686,-9.137667713815035e-05
1041,-0.00017727904502031378,-0.00010938703119894671,-0.0001957327850991944,-0.00016279491438095473
1042,-0.0003035397315033695,-0.00018865408573527114,-0.0003358007831238574,-0.00028026243854917124
1043,-0.0005035900390640885,-0.00031549657005674683,-0.0005583420296207971,-0.0004676851749745235
1044,-0.0008118191736567111,-0.000512983919578301,-0.0009022038836910682,-0.000758543980412796
1045,-0.0012747556629279608,-0.000812841062549965,-0.0014201626394528635,-0.001198601895066159
1046,-0.0019539610381306026,-0.001257746375861209,-0.0021823376525013823,-0.0018490202059056506
1047,-0.002929220742303109,-0.0019039565653000256,-0.0032799919742266,-0.0027898539263668644
1048,-0.004301971312154915,-0.002824236964340674,-0.004829657805669902,-0.004123872542155064
1049,-0.0061988813736644595,-0.00411105818002497,-0.006977499317456587,-0.005980625938312849
1050,-0.008775483446837894,-0.005880001239848939,-0.009903800339124046,-0.008520649552468392
1051,-0.01221973506507647,-0.008273294030765885,-0.013827441540087745,-0.011939678299278394
1052,-0.016755372363424673,-0.011463382631701716,-0.019010212394510145,-0.01647271698740372
1053,-0.022644908085496553,-0.01565642302858188,-0.025760788682810204,-0.022397797041731574
1054,-0.030192119756182932,-0.021095562678526622,-0.03443819754411812,-0.030039236460130046
1055,-0.03974387321216051,-0.02806386850457531,-0.04545458987749736,-0.039770213009002284
1056,-0.05169113219057679,-0.0368867491408719,-0.05927714458860415,-0.05201446042440435
1057,-0.06646901642692433,-0.04793371544762626,-0.07642894084177083,-0.06724690434238018
1058,-0.08455578863967764,-0.06161932510572295,-0.09748865281022379,-0.08599306910500926
1059,-0.10647067455166775,-0.07840316488362256,-0.12308894578482453,-0.10882710849969124
1060,-0.13277044910493904,-0.09878873811889954,-0.15391348194967025,-0.13636834265290745
1061,-0.16404475535747357,-0.12332114502923373,-0.19069247743936005,-0.1692762192136137
1062,-0.20091015899830714,-0.1525834694035007,-0.23419678807516406,-0.20824365884639529
1063,-0.24400297950471833,-0.18719181653882389,-0.2852305380335919,-0.25398879184486944
1064,-0.2939709770255765,-0.22778898326193636,-0.3446223423470867,-0.3072451430315581
1065,-0.35146401038018693,-0.2750367805333062,-0.41321520950123164,-0.36875037446424136
1066,-0.4171238144674319,-0.3296070712761723,-0.4918552436542615,-0.4392337481057107
1067,-0.49157307346379414,-0.39217162929946886,-0.581379296585521,-0.5194025217521802
1068,-0.5754039883579786,-0.46339096795895507,-0.6826017470132493,-0.6099275393603257
1069,-0.669166552926961,-0.5439023279327898,-0.7963006092015461,-0.7114283196799863
1070,-0.7733567609241943,-0.6343070506125713,-0.9232031936842067,-0.8244579830330678
1071,-0.8884049691538779,-0.7351575956823169,-1.0639715603698183,-0.9494883834949457
1072,-1.0146646367444963,-0.8469444872264222,-1.2191880181193584,-1.0868958310991659
1073,-1.1524016511283957,-0.9700834911777728,-1.3893409348998589,-1.2369477947242682
1074,-1.3017844370529024,-1.1049033373664965,-1.5748111285415354,-1.3997909701260673
1075,-1.4628750276366902,-1.2516343013958497,-1.7758591096299552,-1.5754410787075033
1076,-1.6356212573600233,-1.410397954818551,-1.9926134447841497,-1.763774731160868
1077,-1.819850217209555,-1.5811983765780746,-2.2250605001527854,-1.9645236467266922
1078,-2.015263093078577,-1.763915094568365,-2.473035811131857,-2.1772714646901914
1079,-2.22143149074721,-1.9582979938097675,-2.736217304956061,-2.4014533215717617
1080,-2.437795334767148,-2.163964387729454,-3.0141205780355227,-2.6363582973577713
1081,-2.66366241441708,-2.3803984022259357,-3.3060963999956066,-2.8811347594550236
1082,-2.8982096373057953,-2.606952769719985,-3.6113305817811114,-3.1347985564039353
1083,-3.1404860396047773,-2.842853073633136,-3.92884630645699,-3.3962439373542153
1084,-3.389417590443834,-3.0872044242676258,-4.257508979087239,-3.6642570003900663
1085,-3.6438138156442537,-3.3390004865725245,-4.596033606963061,-3.937531405260359
1086,-3.902376251535524,-3.5971347204726727,-4.942994674193289,-4.214686025881529
1087,-4.1637087219880415,-3.8604136369627158,-5.2968384260383665,-4.494284166729092
1088,-4.426329410059284,-4.127571819593298,-5.6558974292072675,-4.774853926117972
1089,-4.688684669149994,-4.397288412762419,-6.018407225570109,-5.054909259206814
1090,-4.9491644870407665,-4.668204736729467,-6.382524849384452,-5.332971274821452
1091,-5.206119479845034,-4.93894265573791,-6.746348933298853,-5.607589293083604
1092,-5.457879252521137,-5.208123301176835,-7.107941087273268,-5.877361195355342
1093,-5.7027719194026085,-5.474385737264931,-7.465348198377838,-6.140952613987446
1094,-5.939144533915787,-5.736405152997362,-7.8166252694330565,-6.397114536398526
1095,-6.165384133205975,-5.992910171443706,-8.159858391797654,-6.644698935462441
1096,-6.379939062852489,-6.242698885947597,-8.493187433316523,-6.882672085104856
1097,-6.581340211275287,-6.484653261975818,-8.814828017302974,-7.11012527517743
1098,-6.768221754760461,-6.717751582502553,-9.123092372945015,-7.326282701602358
1099,-6.939340993966184,-6.941078662707711,-9.416408651844817,-7.530506374759435
1100,-7.093596852696296,-7.153833614902479,-9.693338329322435,-7.722297959277597
1101,-7.230046610646497,-7.355335005218901,-9.952591342109969,-7.901297529885444
1102,-7.347920454351195,-7.5450233078355256,-10.193038655321006,-8.067279298886616
1103,-7.446633454921734,-7.722460628454469,-10.41372200006539,-8.220144439362885
1104,-7.5257946172309005,-7.887327734545504,-10.61386057757875,-8.359911192713424
1105,-7.58521269245552,-8.039418493784167,-10.792854584919791,-8.486702508124718
1106,-7.624898503476672,-8.17863188252569,-10.950285479762979,-8.60073151374704
1107,-7.645063599378292,-8.304961781639346,-11.08591296618754,-8.702285163680688
1108,-7.646115129727927,-8.418484826345328,-11.199668748297578,-8.791706440564111
1109,-7.628646909780309,-8.51934661884219,-11.291647162773314,-8.869375520091735
1110,-7.593426732328448,-8.607746646723056,-11.362092863952789,-8.935690320927787
1111,-7.54138006861306,-8.68392227593549,-11.411385794807835,-8.991046871245132
1112,-7.473570387400564,-8.748132204065742,-11.440023733322954,-9.035819921782956
1113,-7.391176405957655,-8.800639767970456,-11.448602755453983,-9.070344225398832
1114,-7.295466667105388,-8.841696499365776,-11.437796002152023,-9.094896885293883
1115,-7.1877719107647895,-8.871526313182617,-11.408331177949742,-9.109681149258533
1116,-7.069455774394172,-8.890310696669905,-11.360967241340228,-9.114811996349285
1117,-6.941884412565354,-8.898175242822568,-11.296470771648426,-9.11030382633547
1118,-6.8063956699330745,-8.895177840265008,-11.215592512376784,-9.096060522006637
1119,-6.664268472580462,-8.881298793882515,-11.119044596307456,-9.071868110894739
1120,-6.516693119025072,-8.856433107049435,-11.007478952379977,-9.03739020689452
1121,-6.364743153214061,-8.820385108190091,-10.881467378229846,-8.992166364248348
1122,-6.209349487130662,-8.772865552713155,-10.741483735300628,-8.935613426814323
1123,-6.051277410039746,-8.713491277286202,-10.58788868602625,-8.867029904743571
1124,-5.8911070751252135,-8.641787428241257,-10.420917345482154,-8.78560335887312
1125,-5.729217992858896,-8.557192230918478,-10.240670164213132,-8.69042072055552
1126,-5.5657779847782995,-8.459064213233903,-10.04710729599805,-8.580481421701142
1127,-5.400736962711431,-8.346691745913283,-9.840046635568903,-8.454713157138622
1128,-5.233825798545194,-8.219304714805983,-9.61916563822055,-8.311990049869173
1129,-5.064560440446017,-8.076088098512832,-9.384006957187134,-8.151152940426243
1130,-4.892251315376665,-7.916197188121751,-9.133987856868892,-7.9710314754331755
1131,-4.7160179374318885,-7.738774155853858,-8.868413281660857,-7.770467628630613
1132,-4.5348085197682275,-7.5429656563757685,-8.586492382480914,-7.548340251128456
1133,-4.34742426775361,-7.327941128696476,-8.287358227440002,-7.303590217421548
1134,-4.152547915589317,-7.092911457990036,-7.970090350905866,-7.035245710812708
1135,-3.9487759612987596,-6.8371476552251345,-7.633739728088118,-6.7424471773429575
1136,-3.7346539587826824,-6.55999921781907,-7.277355701933143,-6.424471472081574
1137,-3.5087141434971034,-6.260911846171758,-6.900014337322378,-6.080754726408598
1138,-3.2695146027058746,-5.939444208205943,-6.500847636013433,-5.710913480132362
1139,-3.015679154175688,-5.595283466127141,-6.07907301594096,-5.314763647956479
1140,-2.745937070036018,-5.228259305620585,-5.634022441559582,-4.892336925615432
1141,-2.4591617761437328,-4.838356236711403,-5.165170588605524,-4.44389428628511
1142,-2.1544076719085137,-4.425723966672237,-4.6721614372934726,-3.969936271708491
1143,-1.830944250810862,-3.9906856779089535,-4.1548327124785995,-3.471209843670106
1144,-1.4882867568751947,-3.5337440770485546,-3.613237627277298,-2.9487116285983186
1145,-1.126222685686469,-3.055585114992729,-3.0476634373033042,-2.4036874595803286
1146,-0.7448335281769045,-2.557079311148738,-2.458646374952326,-1.8376281942060222
1147,-0.344511258905609,-2.0392806482497003,-1.8469826056305405,-1.2522618615609928
1148,0.07403081494480775,-1.5034230371486925,-1.2137349287112909,-0.6495422654228037
1149,0.5097531052829412,-0.9509143838801417,-0.5602350332816658,-0.031634241292630635
1150,0.961290830096221,-0.38332832436256303,0.11191878981574499,0.5991041696037276
1151,1.426961142208491,0.19760627443187262,0.8008684848137442,1.240142307502518
1152,-8.471272072654616e-14,-3.197779140926079e-14,-9.022605473028671e-14,-1.4965562136797745e-13
1153,-1.781499210509645e-12,-6.345405304080472e-13,-1.8465994558397e-12,-3.1251918016826047e-12
1154,-2.256374671197095e-11,-8.234263648048052e-12,-2.1559940666827895e-11,-3.809757409023394e-11
1155,-1.9114914847523972e-10,-7.163042371537902e-11,-1.6892903339793484e-10,-3.1137760891097435e-10
1156,-1.2142330716125837e-09,-4.663119380575826e-10,-9.983747279626028e-10,-1.9166514559023386e-09
1157,-6.182920526514764e-09,-2.4287789795139106e-09,-4.7623674295892485e-09,-9.49845951933074e-09
1158,-2.6360773433189316e-08,-1.0574229276359105e-08,-1.916275787310273e-08,-3.957640677246683e-08
1159,-9.704856339894957e-08,-3.969694277839192e-08,-6.709967863686676e-08,-1.4293572648743915e-07
1160,-3.157450045819775e-07,-1.3153880657238755e-07,-2.092457363942633e-07,-4.5776304331598693e-07
1161,-9.243692189267494e-07,-3.9179531018850367e-07,-5.915415055024602e-07,-1.32309846382303e-06
1162,-2.4706541134205173e-06,-1.064449827818233e-06,-1.5373518093089757e-06,-3.5002796977645647e-06
1163,-6.1008136729967e-06,-2.669565564868592e-06,-3.7142439627237485e-06,-8.573291350121311e-06
1164,-1.4055541164336523e-05,-6.241648056358205e-06,-8.417978090659876e-06,-1.9626492624340647e-05
1165,-3.0463109244619562e-05,-1.3717951876703064e-05,-1.8030709639306917e-05,-4.2328565378469775e-05
1166,-6.25451593272962e-05,-2.8538603641771266e-05,-3.672552982890686e-05,-8.658255343691498e-05
1167,-0.0001223706342837533,-5.6531830984581416e-05,-7.150388978441727e-05,-0.00016893083133877213
1168,-0.00022930888368762032,-0.00010716646343771749,-0.00013366448728859947,-0.0003159275288795037
1169,-0.00041334179210949536,-0.00019525875060625377,-0.0002408099797992368,-0.0005687057968332739
1170,-0.0007193944813330191,-0.00034322011458107313,-0.0004194994570527982,-0.000988969703826857
1171,-0.0012128326910742936,-0.0005839256792084024,-0.0007086480243939339,-0.0016666271808551546
1172,-0.001986250889836524,-0.0009642696398572215,-0.0011637584292613155,-0.002729248658706021
1173,-0.0031676377919269976,-0.0015494525432931821,-0.0018620422749857466,-0.004353484344171582
1174,-0.004929955379381623,-0.0024280176016061193,-0.0029084497138781354,-0.006778501268482307
1175,-0.007502104732453907,-0.003717619000206936,-0.004442577333825189,-0.010321410603347578
1176,-0.011181178773742476,-0.005571465959673593,-0.006646366071371161,-0.015394549000125084
1177,-0.01634582101831338,-0.008185343666428119,-0.009752437238836724,-0.022524358897981177
1178,-0.02347042386347052,-0.011805068028855515,-0.014052848837332214,-0.032371486976028256
1179,-0.03313981365235054,-0.01673418770678105,-0.01990799054161852,-0.045751593090526496
1180,-0.04606398684395306,-0.02334170626876864,-0.02775527866104939,-0.06365624047334256
1181,-0.06309238635956665,-0.03206956189191445,-0.03811726647450417,-0.08727312806755068
1182,-0.08522714367779056,-0.04343957383096905,-0.051608754633188494,-0.11800483376149759
1183,-0.11363466433953112,-0.05805954580413571,-0.06894247415206803,-0.15748516851349834
1184,-0.14965490555338887,-0.07662820798678006,-0.09093292334064064,-0.20759220072000856
1185,-0.19480768727009312,-0.09993868254731858,-0.11849797135442497,-0.2704570014756868
1186,-0.2507953943379377,-0.128880173160625,-0.15265789529628906,-0.34846718725624626
1187,-0.31950146819351904,-0.16443760669672677,-0.19453159419857297,-0.44426439835790377
1188,-0.40298415215171207,-0.20768899476615013,-0.24532981979199145,-0.5607349490824906
1189,-0.5034650441017448,-0.2598003329789986,-0.30634537756734687,-0.7009930176805388
1190,-0.6233121228959745,-0.3220179152014733,-0.3789403781032175,-0.8683559076397037
1191,-0.7650170477271029,-0.3956580069879981,-0.4645307530261321,-1.0663111029986716
1192,-0.9311666802292552,-0.48209389465972124,-0.5645683868117626,-1.2984750538897143
1193,-1.1244089428869808,-0.5827404018851261,-0.680521349125044,-1.5685438585080025
1194,-1.3474132997462047,-0.6990360416184536,-0.8138528365815986,-1.8802362475841747
1195,-1.6028263209189528,-0.832423045301822,-0.9659995417572387,-2.237229520214353
1196,-1.8932229651218995,-0.9843255807831989,-1.138350255248104,-2.643089318424292
1197,-2.221054378560279,-1.156126533009647,-1.3322255682957762,-3.1011943549801786
1198,-2.5885931581055215,-1.3491432750189118,-1.5488595743254165,-3.614657417777386
1199,-2.997877156556374,-1.564602899204585,-1.7893844640352654,-4.186244158092624
1200,-3.45065301302233,-1.8036174088237715,-2.054818867965902,-4.818291323048817
1201,-3.94832066801908,-2.0671593862762006,-2.346060721747383,-5.512626209442913
1202,-4.491880167403104,-2.3560386573166587,-2.663885313048158,-6.270489192006402
1203,-5.0818820693835765,-2.670880459033381,-3.008949017889387,-7.0924612104858715
1204,-5.718382743133399,-3.0121055945119863,-3.381799051375794,-7.978398083979511
1205,-6.400905785681616,-3.3799130193570663,-3.7828893495500524,-8.927373456317811
1206,-7.128410686658577,-3.774265255748725,-4.212602471917886,-9.937632062889405
1207,-7.89926974009001,-4.194876969867004,-4.671277176250575,-11.006554848632353
1208,-8.711254041921547,-4.641206979998307,-5.1592410773466515,-12.130637261879714
1209,-9.561529225477738,-5.11245388734817,-5.676847568695608,-13.305481803738074
1210,-10.446661379692202,-5.607555441599047,-6.224515969592725,-14.525805633305161
1211,-11.36263337243629,-6.1251916707549,-6.802773668984981,-15.785463721911064
1212,-12.304871569765087,-6.66379172204329,-7.412298879227304,-17.077487722038278
1213,-13.268282707684554,-7.221544279832814,-8.05396249493913,-18.39414037647584
1214,-14.247300442364496,-7.796411349844072,-8.728867479772337,-19.72698494875404
1215,-15.235940883609448,-8.386145128440928,-9.438384180890996,-21.06696881531251
1216,-16.227866210514964,-8.988307613356945,-10.184179999151786,-22.40452003150653
1217,-17.21645528272196,-9.600292559457891,-10.968241922200209,-23.729655375589367
1218,-18.194880000046656,-10.219349341377635,-11.792890555887771,-25.032098094985567
1219,-19.156186031322722,-10.842608255055842,-12.660784462755954,-26.301403334674358
1220,-20.093376433108617,-11.467106772945911,-13.574913829529573,-27.52708902476214
1221,-20.999496612735356,-12.089816263161225,-14.538582732137545,-28.698769848801742
1222,-21.867719059345934,-12.707668690900473,-15.555379539395927,-29.806291810425204
1223,-22.6914262715105,-13.317582840552195,-16.62913528726953,-30.839864866368686
1224,-23.464290350155327,-13.91648962794522,-17.76387015643432,-31.79019110051814
1225,-24.180347799515964,-14.501356112940693,-18.963728488506536,-32.648585976257706
1226,-24.83406818443503,-15.06920787129796,-20.232903072709362,-33.407090321820384
1227,-25.420415426698966,-15.617149439597858,-21.575549717069407,-34.05857087290342
1228,-25.9349006827893,-16.142382605933815,-22.99569337897619,-34.59680741479069
1229,-26.37362592646323,-16.642222379988965,-24.497127362067232,-35.01656482794694
1230,-26.7333175576555,-17.114110536948843,-26.08330728343917,-35.31364864104212
1231,-27.011349569683638,-17.55562668852575,-27.75724167126681,-35.48494302743601
1232,-27.205756024791064,-17.964496889478117,-29.52138116280761,-35.52843053844766
1233,-27.315232808692695,-18.338599838005734,-31.377508331990995,-35.443193241767716
1234,-27.339128853003064,-18.67597077229756,-33.32663018085494,-35.22939531812195
1235,-27.277427225365674,-18.97480320275892,-35.36887527797107,-34.88824755530926
1236,-27.130716686127563,-19.23344864991169,-37.50339741972941,-34.4219545573007
1237,-26.90015449318738,-19.450414581819505,-39.728287529581664,-33.83364584842329
1238,-26.587421399240352,-19.624360762494163,-42.04049530165986,-33.12729239015781
1239,-26.1946699246044,-19.754094234515645,-44.43576184718909,-32.30761033261164
1240,-25.724467101302928,-19.838563165497064,-46.908564326107225,-31.37995408686497
1241,-25.17973296798823,-19.87684978953557,-49.45207325576787,-30.3502010217045
1242,-24.563676149243534,-19.86816267197705,-52.05812289838036,-29.2246302534918
1243,-23.879727876184297,-19.811828519363868,-54.71719485416918,-28.00979810714078
1244,-23.13147579820228,-19.707283747107084,-57.41841474265373,-26.712412876878158
1245,-22.322598898983205,-19.554066006052107,-60.149561652665554,-25.339211506603842
1246,-21.456804765078278,-19.351805856480997,-62.89708989260801,-23.896840741695435
1247,-20.53777036442764,-19.100218764884488,-65.64616248226578,-22.39174517892094
1248,-19.569087377980082,-18.799097585518187,-68.38069579834246,-20.830064462031466
1249,-18.554212993073385,-18.448305675557293,-71.08341481579656,-19.217541642212435
1250,-17.496426916111222,-18.047770779550646,-73.73591846988275,-17.55944445068697
1251,-16.398795198234556,-17.597479805584907,-76.31875478989282,-15.860500922270667
1252,-15.264141295358629,-17.097474601695925,-78.81150561218382,-14.124850471356295
1253,-14.095024607589952,-16.54784882617284,-81.19288085206956,-12.356011164184833
1254,-12.893726567315479,-15.948745989171211,-83.44082248488084,-10.556863562423372
1255,-11.662244175007313,-15.300358725362559,-85.53261853878989,-8.729651142470434
1256,-10.402290721890521,-14.60292933830018,-87.44502751916325,-6.875996932099512
1257,-9.115303293769555,-13.856751637018585,-89.15441375120632,-4.99693566034396
1258,-7.802456524696528,-13.06217406440044,-90.63689413202667,-3.0929603966116552
1259,-6.464681966179648,-12.219604095274303,-91.86849671586651,-1.1640823685623565
1260,-5.102692359615696,-11.32951386019015,-92.82533141195282,0.7900975983853773
1261,-3.7170100477238948,-10.392446928421522,-93.48377285218746,2.770307779177865
1262,-2.307998734848133,-9.409026161012584,-93.82065518896732,4.777516298663722
1263,-0.8758978047737173,-8.379962521753956,-93.81347821899926,6.812835951877299
1264,0.579141574152493,-7.306064711105596,-93.44062380785796,8.877425171176556
1265,2.0570192864188024,-6.188249465753393,-92.68158112610263,10.972387225947577
1266,3.5576487230973886,-5.027552345331572,-91.51717871741803,13.0986697058026
1267,5.080919458185729,-3.8251388086410705,-89.92982092085074,15.256966262810163
1268,6.626660678713658,-2.5823153652739617,-87.90372568251564,17.447622476894782
1269,8.19460582137155,-1.3005405757173425,-85.42516033766512,19.670547566332182
1270,9.784358790594473,0.018564335552492386,-82.48267154231365,21.925133497829787
1271,11.395362059432784,1.3732054932459694,-79.06730520457143,24.210182863781057
1272,13.026866888326266,2.7614072486510577,-75.17281202778244,26.523846693656882
1273,14.677905840693569,4.181004152727423,-70.79583414642872,28.863573157707556
1274,16.347267730000443,5.629634244973401,-65.93606832429172,31.22606790941627
1275,18.03347510182972,7.104733862125445,-60.5964013014303,33.60726660318035
1276,19.73476433671713,8.603534150659629,-54.78301312670371,36.002319919554274
1277,21.449068454537656,10.123059443487954,-48.50544469582849,38.40559123537486
1278,23.17400270764656,11.660127634811023,-41.776626226723735,40.810666892725415
1279,24.906853065775902,13.21135265844638,-34.61286403514582,43.210378850749954
1280,4.419506979230001e-15,-9.829755749495377e-15,3.362550365750626e-14,5.042353858068413e-15
1281,5.49470574214485e-14,-1.916395806303942e-13,7.947500211945322e-13,6.55785520774235e-14
1282,5.722473045086507e-13,-2.4630588269399077e-12,9.264440238754613e-12,7.162685973659675e-13
1283,4.3363337924794335e-12,-2.1263859502848947e-11,7.197549774703941e-11,4.9705721491563646e-12
1284,2.6900959099292586e-11,-1.3762258418923858e-10,4.2093145825265525e-10,2.6279374019506947e-11
1285,1.4455177948537274e-10,-7.137933378052653e-10,1.9825918131689007e-09,1.136436824212718e-10
1286,6.858505807469215e-10,-3.0992378267397075e-09,7.855678950749851e-09,4.231250239400406e-10
1287,2.886326977269753e-09,-1.1619138425669343e-08,2.7001762944041724e-08,1.4046026833149754e-09
1288,1.0811487374409933e-08,-3.849388990844965e-08,8.23747581157461e-08,4.255245668726395e-09
1289,3.627394586937549e-08,-1.1474445355527786e-07,2.2703488494552866e-07,1.193334200497687e-08
1290,1.0995827396006228e-07,-3.1220267319551417e-07,5.733618484889525e-07,3.123327231158458e-08
1291,3.0406108873030753e-07,-7.84482156630808e-07,1.3421456369124948e-06,7.667368208292678e-08
1292,7.743772965207635e-07,-1.8380555776003303e-06,2.939894486219267e-06,1.7721218787344082e-07
1293,1.8327467397741687e-06,-4.048161334430612e-06,6.073938316119595e-06,3.8704216810379524e-07
1294,4.0638965806162445e-06,-8.437726487414718e-06,1.1915581273203446e-05,8.019450913078522e-07
1295,8.503720834055626e-06,-1.674035601572249e-05,2.2321401191679265e-05,1.5828889528493986e-06
1296,1.689864864188433e-05,-3.177019554721972e-05,4.012151943633383e-05,2.9888343248998023e-06
1297,3.206766589842101e-05,-5.79216909356219e-05,6.948100101661055e-05,5.421104135834149e-06
1298,5.8389472327097125e-05,-0.00010182066590952127,0.00011633629530175847,9.482258085167146e-06
1299,0.00010243691050258964,-0.0001731446587225061,0.00018890272751340018,1.6053194999115552e-05
1300,0.00017377896651284635,-0.0002856252629215943,0.0002982416067370055,2.639308097810755e-05
1301,0.0002859671181961161,-0.00045823863094665416,0.0004588668235467928,4.226741314129773e-05
1302,0.00045771742584195123,-0.0007165827055844981,0.0006893613573776591,6.61096857159029e-05
1303,0.0007142923926173467,-0.0010944314849865426,0.0010129645650723525,0.00010122127388869765
1304,0.0010890772159011571,-0.0016354479498295767,0.001458082274081835,0.00015201187053250745
1305,0.001625333680219323,-0.0023950283536009155,0.002058664408024529,0.00022427881961523433
1306,0.0023781018480720797,-0.003442241547772886,0.0028543899402041183,0.0003255179110156893
1307,0.0034162053176032625,-0.004861818087656579,0.0038905970835231138,0.0004652508247426445
1308,0.004824300756280784,-0.006756135352879673,0.005217898264152021,0.0006553459171606365
1309,0.006704897473506586,-0.009247137240110524,0.006891424821964415,0.0009103001914517501
1310,0.009180258870684058,-0.01247812063911953,0.008969655481840448,0.0012474420637866492
1311,0.012394085678991534,-0.016615316393609254,0.011512795103623193,0.0016870079915565737
1312,0.01651287194303137,-0.021849190236390436,0.014580685438673227,0.0022520421944357055
1313,0.021726819653820128,-0.02839538964274968,0.01823024680415458,0.0029680684260141805
1314,0.028250197569828994,-0.03649526590920296,0.02251246786752489,0.0038624866329596288
1315,0.0363210346741149,-0.04641590713137111,0.027468979294647054,0.004963655606087673
1316,0.046200049202623245,-0.05844962705528173,0.03312826516136832,0.006299635222174143
1317,0.058168730226397375,-0.0729128667732901,0.039501583207426576,0.007896578033454756
1318,0.07252651005342024,-0.09014448052777808,0.04657868077927897,0.009776778893843704
1319,0.08958699164715114,-0.1105033929230823,0.05432340728077994,0.011956411902119435
1320,0.10967322503904996,-0.13436563195977588,0.06266933576266563,0.014443004965345053
1321,0.13311205935811649,-0.1621207597538366,0.07151551556941475,0.01723272248665109
1322,0.16022763146831193,-0.19416773983355645,0.08072248436291955,0.02030754484734243
1323,0.19133408702925284,-0.2309102958191016,0.09010867101388453,0.023632448391193994
1324,0.22672766374546346,-0.2727518304858464,0.09944732049516446,0.027152700621917335
1325,0.26667829830025735,-0.3200899862243318,0.10846406778979577,0.03079139163743358
1326,0.3114209466633424,-0.37331093740177385,0.11683527977036931,0.034447324060682044
1327,0.36114683086575877,-0.43278351189629777,0.12418727192138918,0.03799337978514785
1328,0.4159948428310483,-0.4988532430357983,0.1300964906829296,0.041275472910104145
1329,0.4760433465249826,-0.5718364543786264,0.13409073230321025,0.04411218474411992
1330,0.5413026228929808,-0.652014478406141,0.1356514458758492,0.04629515937147547
1331,0.6117081974449008,-0.7396281065704943,0.1342171424737125,0.04759031781606898
1332,0.6871152778716401,-0.8348723626828265,0.12918790499375538,0.047739926160249226
1333,0.7672945089953818,-0.9378916848488511,0.11993096566148892,0.046465528927272126
1334,0.8519292252324029,-1.0487755936009702,0.10578729128733481,0.04347173439534707
1335,0.9406143474240481,-1.1675549160336003,0.08607909136776927,0.03845081396722908
1336,1.0328570323913513,-1.294198627994003,0.06011814177706792,0.03108805383720196
1337,1.1280791409932105,-1.4286113689097892,0.02721479757789814,0.021067774403146472
1338,1.2256215449258145,-1.570631676652161,-0.013312447426361776,0.008079911467128465
1339,1.324750245100209,-1.7200309827912275,-0.062127009374066434,-0.008172966534359269
1340,1.4246642263098426,-1.8765134014583453,-0.11986403558946201,-0.027968349044827406
1341,1.5245049252376388,-2.0397163375376115,-0.1871201688247719,-0.051556341446535696
1342,1.623367142905437,-2.2092119318492727,-0.2644434277400917,-0.07915226422025498
1343,1.7203111897649304,-2.384509352199563,-0.35232337627509264,-0.1109294778693942
1344,1.814376013174577,-2.5650579295275078,-0.4511817505771979,-0.1470126262165465
1345,1.9045930244592273,-2.750251127759545,-0.5613637049007641,-0.18747149484612619
1346,1.9900003175360885,-2.9394313242645485,-0.6831298277284337,-0.2323156811707176
1347,2.0696569544777903,-3.131895364873589,-0.8166490668315616,-0.28149026717378145
1348,2.1426569863351617,-3.3269008432282345,-0.9619926877391914,-0.3348726747491368
1349,2.208142880615189,-3.52367303877725,-1.1191293747657165,-0.39227086632044844
1350,2.265318040094517,-3.7214124312121606,-1.2879215678393794,-0.45342302993481315
1351,2.3134581207554494,-3.9193026918309304,-1.4681231121107543,-0.5179988584582147
1352,2.3519208887146728,-4.116519034725587,-1.6593782806775592,-0.5856024973692402
1353,2.3801543958488596,-4.3122367934469406,-1.8612222135266363,-0.6557771957786198
1354,2.3977032999123065,-4.505640072696864,-2.0730827976707866,-0.7280116517539206
1355,2.4042132056375305,-4.695930310542753,-2.294283994176145,-0.8017479970080718
1356,2.3994329568732007,-4.882334575618314,-2.5240505971669593,-0.8763913188030734
1357,2.3832148644621456,-5.064113416760457,-2.7615143879405384,-0.9513205698558456
1358,2.355512908514166,-5.240568080462078,-3.005721624164597,-1.0259006714657837
1359,2.316379005284197,-5.411046915182286,-3.25564178003605,-1.0994955723608266
1360,2.265957476499066,-5.574950791518167,-3.510177428632851,-1.1714819872092186
1361,2.204477901386669,-5.731737383793483,-3.768175132958854,-1.2412635056628942
1362,2.132246567784525,-5.88092418172567,-4.028437187947578,-1.3082847364541985
1363,2.0496367676946985,-6.022090130128351,-4.289734032679645,-1.3720451326688854
1364,1.9570782038862369,-6.154875829409607,-4.550817131168751,-1.432112134957346
1365,1.8550457872534962,-6.278982268954595,-4.810432102303513,-1.4881332699994083
1366,1.74404810952777,-6.394168108076134,-5.067331865977134,-1.5398468525853657
1367,1.6246158728123958,-6.500245563572329,-5.320289564126719,-1.5870909614226079
1368,1.4972905467527877,-6.597075007355968,-5.568111013213184,-1.6298103910233122
1369,1.3626135067065404,-6.684558420332838,-5.809646449213256,-1.6680613241492457
1370,1.2211158830018165,-6.762631887942579,-6.043801337747351,-1.7020135202625046
1371,1.0733093233679853,-6.83125735690246,-6.269546040458621,-1.7319498738745867
1372,0.9196778390552957,-6.89041390029106,-6.48592415379932,-1.7582632609370104
1373,0.7606708711877537,-6.940088758018525,-6.692059367320389,-1.781450659597752
1374,0.5966976786227406,-6.980268431092963,-6.887160724531401,-1.802104601745197
1375,0.42812311306576506,-7.010930110363222,-7.070526209328929,-1.8209020816917498
1376,0.25526481237026266,-7.032033713394646,-7.241544623606872,-1.838591116028573
1377,0.07839180969447988,-7.04351478698323,-7.399695765497127,-1.8559752121046131
1378,-0.10227547477946738,-7.045278508090982,-7.54454896113529,-1.8738960598776133
1379,-0.2865639209182209,-7.037194983630339,-7.675760044231721,-1.8932148113844012
1380,-0.4743451604782325,-7.0190960108166935,-7.793066915422579,-1.9147923523593393
1381,-0.6655319004391304,-6.990773416272449,-7.896283845901345,-1.9394690004809725
1382,-0.860073241109367,-6.951979045347026,-7.98529471596714,-1.9680440835918391
1383,-1.0579491245076738,-6.9024264248397715,-8.060045397984394,-2.001255858657481
1384,-1.2591640564656432,-6.841794073980079,-8.120535504322193,-2.0397622282293373
1385,-1.4637402497810095,-6.769730391471228,-8.166809724037174,-2.084122696118621
1386,-1.6717103359419467,-6.6858600018364305,-8.19894896770309,-2.1347819785270454
1387,-1.8831097899258717,-6.589791403312399,-8.217061528596656,-2.192055651928475
1388,-2.097969206945528,-6.481125723158577,-8.221274451497674,-2.256118175685305
1389,-2.3163065624384096,-6.359466355483729,-8.211725279006323,-2.3269935770214376
1390,-2.538119577749578,-6.224429232453054,-8.188554321051408,-2.404549029955022
1391,-2.763378304458126,-6.075653462805989,-8.151897567747055,-2.488491499526067
1392,-2.992018030651603,-5.912812062557885,-8.101880340465238,-2.5783675594890525
1393,-3.22393260304271,-5.735622501884777,-8.03861175224346,-2.673566426857798
1394,-3.458968249897754,-5.543856799508653,-7.9621800274535675,-2.7733261914940597
1395,-3.6969179814137414,-5.337350911111892,-7.8726487126503715,-2.876743154472395
1396,-3.937516636415405,-5.116013180817047,-7.770053795920958,-2.9827841263507215
1397,-4.180436636927681,-4.879831653713796,-7.654401740713383,-3.090301476826826
1398,-4.425284505165087,-4.628880081727288,-7.525668431585235,-3.1980506716517447
1399,-4.671598190628882,-4.363322493574505,-7.383799022940945,-3.3047099821455275
1400,-4.918845248189507,-4.083416240825293,-7.228708676911415,-3.4089020081892643
1401,-5.166421901125884,-3.7895134748006596,-7.060284172379606,-3.5092166179906044
1402,-5.413653015958768,-3.4820610518232358,-6.878386363168197,-3.604234877924465
1403,-5.659793008432258,-3.1615989058256164,-6.682853459100928,-3.6925535238458083
1404,-5.904027692083325,-2.8287569662177297,-6.473505098693113,-3.7728095117940676
1405,-6.145477072455864,-2.484250734007925,-6.250147176431259,-3.843704181131562
1406,-6.383199081171476,-2.1288756594219103,-6.0125773809135685,-3.9040265669077847
1407,-6.616194234826186,-1.7635004888701782,-5.760591392604603,-3.952675410523199
1408,-8.212707727498791e-14,-3.89968277301475e-14,-2.0877025732625253e-14,-6.058978423153568e-14
