,TP9,AF7,AF8,TP10
0,2.8100461708370903e-14,-6.516573537426637e-14,-5.213396184367052e-14,-3.76999229119862e-15
1,7.543272790120751e-13,-1.4104534210301444e-12,-1.1082570915243863e-12,-3.2664199473039487e-15
2,8.877258464771819e-12,-1.67102904812106e-11,-1.3229755640171733e-11,-2.047128906193194e-13
3,6.87136082559956e-11,-1.3257239773666123e-10,-1.0590423794459725e-10,-3.676838046744084e-12
4,3.9608399800518e-10,-7.925864357285784e-10,-6.389149718312468e-10,-3.6767249732062055e-11
5,1.8173653389303726e-09,-3.8193526925621814e-09,-3.106567512231513e-09,-2.5925364341227816e-10
6,6.925280142082213e-09,-1.549645317393325e-08,-1.2715216262771937e-08,-1.4235026965607103e-09
7,2.257353463623818e-08,-5.4591008209270334e-08,-4.517280855167754e-08,-6.433454924404316e-09
8,6.43144506707177e-08,-1.7084100697171766e-07,-1.425097092918536e-07,-2.4816546676702868e-08
9,1.6276772434859008e-07,-4.83421020247909e-07,-4.063345159072134e-07,-8.386291877468127e-08
10,3.7028758686374495e-07,-1.2543474493233113e-06,-1.0618879600465367e-06,-2.53255463204523e-07
11,7.633667756015444e-07,-3.018584973059227e-06,-2.5725246422894402e-06,-6.942971335793418e-07
12,1.4318691069157908e-06,-6.800416098731323e-06,-5.831527076563858e-06,-1.7502075490310657e-06
13,2.440513218264604e-06,-1.4453839248630937e-05,-1.2465912328578996e-05,-4.100069825855018e-06
14,3.7413160195336992e-06,-2.9172571311123726e-05,-2.5294415127993137e-05,-9.005353606770227e-06
15,5.008408061440577e-06,-5.622172202754199e-05,-4.898829133644531e-05,-1.8683889185862995e-05
16,5.359413227884199e-06,-0.00010394740916969589,-9.09881131655467e-05,-3.68510098668555e-05
17,2.9212598826167165e-06,-0.00018512157056799997,-0.00016273149683667548,-6.947059643364571e-05
18,-5.806272097334298e-06,-0.000318676208265462,-0.00028124500238950587,-0.00012575931128835214
19,-2.683797657124858e-05,-0.0005318736895307671,-0.00047114773879946436,-0.00021948492088221265
20,-6.988916539290848e-05,-0.0008629472229382942,-0.0007671041879025755,-0.0003705939865638171
21,-0.00014990291600288578,-0.0013642282441107014,-0.0012167493869372995,-0.0006071952638773371
22,-0.0002889528432272375,-0.002105755553238147,-0.0018840911242752802,-0.0009679129903085236
23,-0.0005185433322472288,-0.0031793353656614596,-0.002853371728359388,-0.0015046091624649203
24,-0.0008823135589791407,-0.004702993013390231,-0.00423334714224587,-0.002285456396390625
25,-0.001439133350825294,-0.006825727188532743,-0.006161914266761903,-0.003398323671105933
26,-0.002266558826222725,-0.009732447862052794,-0.008810990178572672,-0.0049544169197563
27,-0.0034645946629583723,-0.013648950951526686,-0.012391520042219257,-0.007092095877264618
28,-0.005159688641411098,-0.01884675804663264,-0.01715846562984294,-0.0099807687215652
29,-0.007508863626992233,-0.025647629508696042,-0.023415604597326358,-0.013824747836011541
30,-0.010703873188865703,-0.03442754530618673,-0.03151995320195486,-0.018866934475499243
31,-0.014975250300784962,-0.045619941009203455,-0.041885612991449384,-0.02539218817309045
32,-0.02059610462286725,-0.05971798708756766,-0.054986835959082526,-0.03373022916197409
33,-0.02788551323622044,-0.07727570833400915,-0.07136010333337663,-0.04425791950149166
34,-0.037211342913091576,-0.09890775682531779,-0.09160502091068104,-0.05740077137587111
35,-0.04899233960139378,-0.12528767599511315,-0.11638384877348394,-0.07363353935915591
36,-0.06369932331656426,-0.15714452451618965,-0.14641950528109368,-0.09347976726293632
37,-0.08185533450636333,-0.19525776595296954,-0.18249191408478332,-0.11751017923763865
38,-0.10403459149231231,-0.2404503725429042,-0.22543259812482244,-0.14633982863671408
39,-0.1308601379592614,-0.2935801378551689,-0.27611746543205845,-0.1806239462003805
40,-0.16300008466156893,-0.3555292422041909,-0.33545777719656616,-0.22105246068614592
41,-0.2011623803115999,-0.42719216523413867,-0.4043893378841142,-0.2683431993527911
42,-0.24608808249354783,-0.5094620906560438,-0.48385999888023834,-0.3232338117309354
43,-0.2985431395797043,-0.6032159973006712,-0.5748156197482039,-0.3864724967951584
44,-0.3593087379326149,-0.7092986770329196,-0.678184683095216,-0.4588076498203251
45,-0.42917031385310855,-0.8285059622718136,-0.7948618085671003,-0.5409765796639481
46,-0.5089053752843858,-0.9615674825544911,-0.9256904569352632,-0.6336934787882436
47,-0.5992703225477221,-1.1091292995638706,-1.0714451549526633,-0.7376368559024171
48,-0.7009864986336098,-1.2717367922493517,-1.2328136041087876,-0.8534366636809864
49,-0.8147257361315756,-1.4498181772380587,-1.4103790602661226,-0.9816613708192792
50,-0.9410956982552349,-1.6436690540073258,-1.6046033853196753,-1.1228052381942872
51,-1.0806253343352812,-1.8534383588539518,-1.8158111756964785,-1.2772760628182793
52,-1.2337507845770708,-2.0791160963935096,-2.0441753652539867,-1.4453836505168363
53,-1.4008020740417655,-2.3205231922598055,-2.2897046818584736,-1.6273292689293832
54,-1.5819909312653304,-2.577303776223252,-2.55223330790531,-1.8231963168064542
55,-1.7774000526002218,-2.8489201617428246,-2.8314130559114754,-2.0329424241411274
56,-1.9869741095219338,-3.1346507368949155,-3.1267083220160403,-2.256393171055327
57,-2.210512763355923,-3.43359092380064,-3.4373940239959646,-2.4932375823010227
58,-2.447665910988798,-3.7446573004234804,-3.7625566677010576,-2.743025519534303
59,-2.697931337255974,-4.066594911429157,-4.101098618270009,-3.005167056040519
60,-2.960654896259645,-4.397987725321495,-4.451745581870935,-3.2789338792554945
61,-3.235033286502767,-4.737272125008078,-4.813057231853011,-3.5634627262060934
62,-3.520119425163002,-5.08275325005371,-5.183440841967234,-3.857760816851326
63,-3.8148303668038803,-5.432623942864908,-5.561167720562763,-4.160713211190465
64,-4.1179576530010635,-5.78498598955406,-5.944392175175131,-4.471091978842756
65,-4.428179923346171,-6.1378732907727755,-6.331172678363405,-4.787567035488917
66,-4.7440775665535195,-6.489276549737991,-6.719494854526065,-5.108718469918162
67,-5.064149144206149,-6.837169025171964,-7.107295865005688,-5.433050159122239
68,-5.386829280043692,-7.179532866901797,-7.492489736085474,-5.759004447400494
69,-5.710507675364297,-7.514385532152152,-7.87299315218882,-6.084977649062987
70,-6.033548886622605,-7.839805771613693,-8.246751225107662,-6.409336123135925
71,-6.354312485001997,-8.153958676423034,-8.611762749495382,-6.7304326624174
72,-6.671173209760604,-8.45511929023156,-8.966104464975118,-7.046622938079884
73,-6.982540727410608,-8.741694314295643,-9.307953865591248,-7.356281744415921
74,-7.286878617016394,-9.012241467470167,-9.635610127303252,-7.657818795837865
75,-7.582722217701679,-9.26548610638925,-9.947512762926758,-7.949693839413499
76,-7.868694997394034,-9.500334763046952,-10.242257660349688,-8.230430860617425
77,-8.143523131409879,-9.715885316372956,-10.51861021286,-8.498631177221053
78,-8.406048015140069,-9.91143358005531,-10.775515308807316,-8.752985236011318
79,-8.655236476239843,-10.086476159537277,-11.012104010328208,-8.992282949079186
80,-8.890188497749932,-10.240709505487661,-11.227696816217,-9.215422430603407
81,-9.110142313843722,-10.374025167733791,-11.421803470936473,-9.421417021280817
82,-9.314476793673386,-10.48650133121522,-11.59411934896197,-9.609400515710345
83,-9.502711085166448,-10.578390792479777,-11.744518509889934,-9.778630537915195
84,-9.674501548500352,-10.650105610089303,-11.873043583814864,-9.928490041445317
85,-9.829636067115578,-10.702198733515631,-11.979892707245378,-10.058486942677979
86,-9.968025881197168,-10.735342981191602,-12.06540378622272,-10.168251928463475
87,-10.08969514318724,-10.75030779788521,-12.130036414338308,-10.257534511487611
88,-10.194768445669649,-10.747934273101931,-12.174351818124283,-10.326197437903025
89,-10.28345661747489,-10.729108944509909,-12.198991240010582,-10.374209581141091
90,-10.35604112275515,-10.694736942278777,-12.204653199004225,-10.401637482612767
91,-10.412857428900917,-10.645715050760108,-12.192070090859293,-10.408635723589033
92,-10.454277731519177,-10.582905272361643,-12.16198460229848,-10.395436332369743
93,-10.48069343746141,-10.507109474276644,-12.115126417479766,-10.36233744644541
94,-10.492497809504446,-10.419045681700673,-12.052189689194474,-10.309691460360272
95,-10.490069168512566,-10.319326551391827,-11.973811732236422,-10.237892896143688
96,-10.473755030931937,-10.208440517328183,-11.880553372206192,-10.147366234378127
97,-10.443857531906705,-10.08673604654542,-11.772881350136045,-10.038553940241702
98,-10.400620448138271,-9.95440937908038,-11.651153142385551,-9.911904910353103
99,-10.344218091096826,-9.811496052678788,-11.515604507122948,-9.767863553234985
100,-10.274746291821375,-9.657866432186028,-11.366340014425004,-9.606859699127618
101,-10.192215644970542,-9.49322537718912,-11.203326757829991,-9.429299514319066
102,-10.096547123754238,-9.317116091552757,-11.026391382438193,-9.23555757182961
103,-9.987570120601678,-9.128928107155598,-10.835220499846965,-9.02597020497603
104,-9.865022912511224,-8.927909263604501,-10.629364494849172,-8.800830243820975
105,-9.728555496467646,-8.713181458193835,-10.408244664411157,-8.560383207525602
106,-9.577734690477095,-8.4837598580081,-10.171163567392009,-8.304824998856898
107,-9.41205135090128,-8.238575190812275,-9.917318405042849,-8.03430112115978
108,-9.230929517915772,-7.976498664995693,-9.64581719861957,-7.748907413465925
109,-9.03373726886232,-7.696369012830779,-9.35569748233058,-7.448692276405373
110,-8.819799034545486,-7.397021106883402,-9.045947187977035,-7.133660340407204
111,-8.58840911644483,-7.077315567460686,-8.715527362479213,-6.803777508424108
112,-8.338846133452398,-6.736168760079927,-8.363396331298246,-6.458977288125966
113,-8.07038812491297,-6.37258257633927,-7.988534899696627,-6.099168313145028
114,-7.7823280419431216,-5.985673399197161,-7.5899721698580915,-5.724242939411763
115,-7.473989370447951,-5.574699674133636,-7.166811545028617,-5.33408679072533
116,-7.1447416459241655,-5.1390875402798555,-6.7182564918638565,-4.928589117260373
117,-6.794015640848138,-4.6784540193842075,-6.243635638792909,-4.5076538215242525
118,-6.4213180288765,-4.192627314200747,-5.742426801056256,-4.071210998161745
119,-6.02624535483155,-3.6816638300862667,-5.214279541692113,-3.619228826805757
120,-5.608497164135133,-3.1458616026519097,-4.659035901616336,-3.151725650807155
121,-5.167888168800764,-2.585769888494293,-4.076748960518528,-2.668782069165325
122,-4.704359348382877,-2.002194753535914,-3.467698923017681,-2.1705528644518672
123,-4.217987902795688,-1.396200572544013,-2.8324064608211534,-1.65727858617198
124,-3.7089959892789492,-0.7691074322316827,-2.1716430809571383,-1.1292966070573154
125,-3.177758187839074,-0.12248450732489742,-1.4864383319594594,-0.587051469430943
126,-2.624807648272883,0.5418604474242235,-0.7780837036355139,-0.031104340209836684
127,-2.0508408776332057,1.2218952774678895,-0.04813312119127415,0.5378586035264545
128,6.630119048037265e-15,-5.6510711117982474e-14,-8.521380052052235e-14,-3.844486672653262e-15
129,3.4175578326230196e-13,-1.1322177867361534e-12,-1.4533470676334457e-12,9.583033759474187e-14
130,4.27887687299892e-12,-1.3354138077741338e-11,-1.7789550286606097e-11,1.0911136348311404e-12
131,3.437592506495717e-11,-1.0583166024332057e-10,-1.4219917906913044e-10,7.81381371728353e-12
132,2.0508830985499007e-10,-6.323155040553635e-10,-8.572467406346505e-10,4.066121169214951e-11
133,9.733840762148697e-10,-3.0460198380965452e-09,-4.161373155121934e-09,1.6355441454767522e-10
134,3.836133038556042e-09,-1.2359589025621163e-08,-1.69928988245484e-08,5.19983973872533e-10
135,1.2936508470040358e-08,-4.35654250288814e-08,-6.018120984778968e-08,1.2884428170375894e-09
136,3.816699476267072e-08,-1.3649667961099195e-07,-1.8910760090253847e-07,2.2376698195811226e-09
137,1.001911711040257e-07,-3.869477838245337e-07,-5.366127451055555e-07,1.0625162233066802e-09
138,2.3703767102342658e-07,-1.0065711428174551e-06,-1.3944395640216746e-06,-1.1227686774932034e-08
139,5.102015475747195e-07,-2.430169963697738e-06,-3.3562976311168833e-06,-6.106294386771662e-08
140,1.0051620129717918e-06,-5.496386742983838e-06,-7.552817728109456e-06,-2.1460493852730312e-07
141,1.8165251101515949e-06,-1.1736124650538808e-05,-1.6015321455958055e-05,-6.201359648434712e-07
142,3.001256686459039e-06,-2.3811847056504873e-05,-3.2210381321949004e-05,-1.5835005872062477e-06
143,4.47439475338002e-06,-4.615956181730134e-05,-6.178955648490322e-05,-3.695456998118238e-06
144,5.810120796530574e-06,-8.589311523092127e-05,-0.00011359752237296032,-8.037375209698046e-06
145,5.897321175867541e-06,-0.0001540366697306775,-0.0002009764271836732,-1.6500986814314787e-05
146,2.3832897822807445e-06,-0.00026715520580952956,-0.00034339433144968016,-3.226865887138727e-05
147,-9.17718926762723e-06,-0.00044945391442923843,-0.0005684110383171067,-6.051253273674617e-05
148,-3.656642702398915e-05,-0.0007354148675989021,-0.0009139758443490514,-0.00010938320682122766
149,-9.265599260927896e-05,-0.0011730329406232619,-0.0014310294918406406,-0.00019137055826894524
150,-0.00019779229406241116,-0.0018277023376078072,-0.0021863579366610906,-0.0003251296325082529
151,-0.00038294880965284497,-0.0027867901492687804,-0.003265619792257604,-0.000537871912662495
152,-0.0006937794609220462,-0.0041649142398829855,-0.004776443911726074,-0.0008684252306450513
153,-0.001195701268925635,-0.006109919688566082,-0.006851469962065359,-0.001371062621229478
154,-0.001980119166974097,-0.008809521429029715,-0.009651184414512315,-0.002120190173499138
155,-0.0031718805756055864,-0.012498551209168582,-0.013366388358031911,-0.003215965243708844
156,-0.004938011331923656,-0.017466715208500613,-0.018220123099110894,-0.004790888456087739
157,-0.007497737558485889,-0.02406673539065549,-0.024468875611465383,-0.00701737544386839
158,-0.011133740433387062,-0.032722713811368265,-0.03240288936527721,-0.010116267606774906
159,-0.016204523649008436,-0.043938525632314915,-0.04234541740993727,-0.014366186296513853
160,-0.023157698372477258,-0.058306014589153514,-0.05465077405107259,-0.02011357346146084
161,-0.03254391017915726,-0.07651273529533811,-0.06970106892135541,-0.027783196180259727
162,-0.045031049815467454,-0.09934896126553222,-0.08790154229361531,-0.03788882553419761
163,-0.0614183084361597,-0.12771365718557517,-0.10967446237785829,-0.05104373518529006
164,-0.08264956224725442,-0.16261910001453755,-0.13545159309043198,-0.06797060538289595
165,-0.1098255055507043,-0.20519382720481455,-0.16566529305305577,-0.0895103675265988
166,-0.1442138993002461,-0.25668359278979264,-0.20073836177178292,-0.11662948636919124
167,-0.18725726851570831,-0.31845002426916086,-0.24107280511448076,-0.15042515467223372
168,-0.24057736996445558,-0.39196669585017413,-0.28703774713677815,-0.19212787140224524
169,-0.305975764473398,-0.4788123671322984,-0.3389567666119592,-0.24310089151110162
170,-0.38542986826392195,-0.5806611808803619,-0.3970949818584356,-0.3048360743050275
171,-0.48108392588150667,-0.6992696688716236,-0.4616462443926831,-0.37894571877018146
172,-0.59523444349349,-0.8364604802697038,-0.5327208286276114,-0.4671500574227973
173,-0.7303097441798924,-0.9941028214847136,-0.6103340198566336,-0.5712601837537569
174,-0.8888434537363825,-1.1740896785048942,-0.6943960051439062,-0.6931563096720985
175,-1.0734418926429972,-1.3783119803018653,-0.7847034610414834,-0.8347613851707876
176,-1.286745532369977,-1.6086299528310515,-0.8809332082214406,-0.9980102586424697
177,-1.5313848664024325,-1.8668420047953722,-0.9826382665243643,-1.1848147081900404
178,-1.809931242010872,-2.1546515759461315,-1.0892465952779107,-1.397024826861993
179,-2.124843391281004,-2.4736324634070797,-1.2000627441168707,-1.6363873927602413
180,-2.4784105825078853,-2.825193218493965,-1.314272570317577,-1.9045019931546407
181,-2.872693479102899,-3.2105412730522405,-1.4309511015880971,-2.202775794984947
182,-3.309463936352747,-3.6306475079495093,-1.549073540325471,-2.5323779576769794
183,-3.7901450810497854,-4.086212014826029,-1.6675293188408344,-2.894194763833214
184,-4.315753100397041,-4.577631823673141,-1.7851390274322385,-3.2887865955563957
185,-4.88684221092514,-5.104971371842839,-1.900673951060218,-3.7163479062023326
186,-5.503454282816352,-5.667936473728248,-2.0128778684509165,-4.176671327381312
187,-6.165074558618872,-6.265852514141895,-2.1204906923316127,-4.66911700814543
188,-6.870594827748539,-6.897647532442174,-2.222273463687745,-5.192588207646524
189,-7.618285300600547,-7.56184078936,-2.3170341585832244,-5.745514055314086
190,-8.405776270910758,-8.256537315452212,-2.4036537250422088,-6.325840255984093
191,-9.230050465688008,-8.979428830889038,-2.481111741117882,-6.931028354558712
192,-10.087446763062411,-9.727801303098959,-2.5485110745502078,-7.558063989712827
193,-10.973675715173929,-10.498549274324633,-2.605100929846264,-8.203474363683357
194,-11.883847051973762,-11.288196948455639,-2.650297690348065,-8.863354940705314
195,-12.812509069330957,-12.092925878991316,-2.6837030005880256,-9.533405166057806
196,-13.753699528264349,-12.908608951293573,-2.7051185873319326,-10.208972777042787
197,-14.701007418704283,-13.730850206219541,-2.7145573850796425,-10.885106062665097
198,-15.647644678110542,-14.555029912640496,-2.7122506119429435,-11.556613226300945
199,-16.586526709461634,-15.37635416706812,-2.698650532730323,-12.218127820906952
200,-17.51036032105313,-16.189908183262833,-2.6744287452837585,-12.86417906451085
201,-18.411737517996517,-16.990712336643302,-2.640469930738735,-13.489265709355394
202,-19.283233417283608,-17.773779950492514,-2.59786111527372,-14.087932034876331
203,-20.117506438866446,-18.534175755792404,-2.547876596871004,-14.654844465554726
204,-20.907398847527496,-19.26707392582956,-2.491958792504814,-15.18486728152398
205,-21.646035686439497,-19.967814581636098,-2.4316953561956063,-15.673135893541502
206,-22.326920154150237,-20.631957685266535,-2.368793004054645,-16.11512619440964
207,-22.94402353201367,-21.255333284517512,-2.3050485568235275,-16.506718574972982
208,-23.491867867463057,-21.834087143878882,-2.2423177719575524,-16.844255302316284
209,-23.965599757601026,-22.364720890458592,-2.1824825850015164,-17.12459009778274
210,-24.361053754037687,-22.844125917905412,-2.127417413260681,-17.345128919226596
211,-24.67480411951779,-23.26961042296844,-2.0789551934349007,-17.503861141148587
212,-24.904203904639544,-23.63891909486281,-2.038853829127059,-17.599380533155433
213,-25.047410573266127,-23.9502451333391,-2.008763714459384,-17.630895656291745
214,-25.10339768204436,-24.202234433403774,-1.990196977110468,-17.598229522781132
215,-25.07195240647653,-24.39398193909851,-1.9844990488087115,-17.501808592092402
216,-24.953658996800375,-24.525020331787772,-1.9928231246475399,-17.34264139959308
217,-24.749868535062905,-24.5953013763648,-2.016108015630785,-17.122287328146147
218,-24.462655643938234,-24.60517039824367,-2.0550598327607537,-16.84281623299012
219,-24.094763062098338,-24.555334501826298,-2.1101378670220954,-16.506759811780743
220,-23.64953524481405,-24.446825264516207,-2.1815449491000583,-16.117055771039976
221,-23.130842366966213,-24.280956746852507,-2.269222487029986,-15.67698597439606
222,-22.54299629435825,-24.059279746911443,-2.372850290663339,-15.19010986454102
223,-21.890660244383707,-23.7835332941554,-2.4918512004068356,-14.660194528161385
224,-21.1787539757382,-23.455594423258514,-2.625400445739301,-14.091142820355325
225,-20.412356426859184,-23.077427291469153,-2.7724395681636667,-13.486920982137498
226,-19.59660776287934,-22.651032703677398,-2.9316946551824343,-12.851487172132153
227,-18.73661279068506,-22.178399087959264,-3.101698548215364,-12.188722292666508
228,-17.837347661625042,-21.661455921906605,-3.280816609726603,-11.502364422951961
229,-16.903571702820756,-21.10203054793838,-3.467275564692067,-10.79594808012672
230,-15.939746103007426,-20.50180923586268,-3.6591948703554555,-10.072749415281464
231,-14.94996103020792,-19.86230325541797,-3.854620017259754,-9.335738319144621
232,-13.937872579724012,-19.184820612834002,-4.0515571249571565,-8.587538263994132
233,-12.906650745854458,-18.470443986275832,-4.248008168520325,-7.830394547834281
234,-11.85893938383433,-17.720015268124932,-4.44200615775838,-7.066151437251808
235,-10.796828884571616,-16.934126990187647,-4.631649590350236,-6.29623853000815
236,-9.72184202895255,-16.113120773819062,-4.815135513188886,-5.521666480678528
237,-8.634933226040916,-15.257092813208281,-4.9907905529808625,-4.743032055784841
238,-7.536501075661886,-14.365906269108281,-5.157099317185416,-3.9605323120437586
239,-6.426413935819427,-13.439210324321024,-5.312729618938262,-3.1739875255623917
240,-5.30404792417923,-12.476465533238049,-5.456554043615383,-2.3828723438420454
241,-4.168336545198604,-11.476974987401146,-5.587667448705549,-1.5863544887718781
242,-3.0178309147287994,-10.439920718832983,-5.7054000709796595,-0.7833402095205594
243,-1.8507693558916394,-9.364404673966613,-5.80932600359111,0.02747442889625499
244,-0.6651549670932365,-8.249493514296253,-5.899266898609534,0.8475474311643151
245,0.5411603819565526,-7.094266436065169,-5.9752908453616564,1.6784310179984159
246,1.7703872850725262,-5.89786515088395,-6.03770646962698,2.521709177208067
247,3.0247070068767155,-4.659545132442131,-6.087052391109396,3.3789338005773475
248,4.306178453896709,-3.3787272115884375,-6.124082264703358,4.251560604244611
249,5.616645717236039,-2.0550485930223306,-6.149745713165902,5.140886026312897
250,6.957647977855148,-0.6884123715441632,-6.165165533357892,6.047986271123786
251,8.330333516512212,0.7209653559744831,-6.171611623973226,6.973659625528229
252,9.735379490572871,2.1725116553418364,-6.1704721386130394,7.918373109487577
253,11.172919031174853,3.6652570247990957,-6.163222413421774,8.882214442699755
254,12.64247707905909,5.197800541642327,-6.151392252775367,9.864850212248259
255,14.142916218555586,6.7682805895237825,-6.136532179435873,10.865491015358199
256,-3.599928826217286e-15,-4.493985081814698e-14,-5.803618180401193e-14,-8.988618348616823e-15
257,5.838905545097804e-14,-9.463317896533045e-13,-1.1072737458293955e-12,-7.906812584148069e-14
258,9.080009415616247e-13,-1.1244687383711821e-11,-1.3060557283367091e-11,-8.554903949633928e-13
259,8.118733638224933e-12,-8.965077642043657e-11,-1.0378780194472435e-10,-6.747045044494752e-12
260,5.0848197862388855e-11,-5.388046037362883e-10,-6.217771760546655e-10,-4.204083792340625e-11
261,2.400799642458453e-10,-2.6105260274093853e-09,-3.002410245623752e-09,-2.2042290785161706e-10
262,8.849144137462574e-10,-1.0649897507045752e-08,-1.2205810137617712e-08,-1.0079446617539577e-09
263,2.5598461710027246e-09,-3.772118010813333e-08,-4.3078076524116024e-08,-4.095296644049832e-09
264,5.548496275994253e-09,-1.1866989747391128e-07,-1.3504105525051768e-07,-1.494006731326343e-08
265,6.932613911761025e-09,-3.374844547698982e-07,-3.8271154854516594e-07,-4.931897271070252e-08
266,-8.641127360210469e-09,-8.798142778260798e-07,-9.944242471613968e-07,-1.484197208194762e-07
267,-9.20894424113803e-08,-2.1264969821842713e-06,-2.3961128331063756e-06,-4.1029525963457736e-07
268,-3.7953404407405145e-07,-4.8096710716347035e-06,-5.404334954245904e-06,-1.0499433433260004e-06
269,-1.187378641522958e-06,-1.0259053896618332e-05,-1.149897506230383e-05,-2.5057403516585083e-06
270,-3.1789157807193476e-06,-2.0771670008212738e-05,-2.3232739189796877e-05,-5.61618524328532e-06
271,-7.636048014737376e-06,-4.014308380950524e-05,-4.482027142905413e-05,-1.1897501845738097e-05
272,-1.6876828946590487e-05,-7.440139014408636e-05,-8.295381627264536e-05,-2.3959077251291968e-05
273,-3.486548888785345e-05,-0.00013278628075744485,-0.00014789406767350588,-4.609932941738321e-05
274,-6.806558424542257e-05,-0.00022901397811823013,-0.00025488349876830863,-8.512867131722066e-05
275,-0.0001265881560289098,-0.0003828644008217543,-0.00042592451474333416,-0.0001514680478256685
276,-0.0002256847163718244,-0.0006221194540172923,-0.0006919558843369352,-0.00026057041045407314
277,-0.0003876290958319439,-0.0009848708599530648,-0.0010954480099777803,-0.00043470792290388433
278,-0.0006440224338186278,-0.0015222026670198567,-0.0016934209029619176,-0.0007051592596430482
279,-0.0010385418064940252,-0.0023012378641360386,-0.002560868735630825,-0.001114818861797476
280,-0.0016301352995391305,-0.003408520872621583,-0.003794552304532387,-0.001721233483084917
281,-0.002496645141633319,-0.004953688690645261,-0.005517096613379942,-0.002600051115994247
282,-0.0037388164813468207,-0.007073363827136565,-0.007881306136516747,-0.0038488440753065268
283,-0.005484623446219244,-0.009935182679421822,-0.01107458622880676,-0.005591242614270478
284,-0.007893817464704888,-0.013741854555486625,-0.015323336629436921,-0.007981289287607943
285,-0.011162576892540499,-0.018735130020393287,-0.020897163025505296,-0.01120789897401281
286,-0.015528113323512437,-0.025199543512429527,-0.02811273613591409,-0.015499286767738074
287,-0.021273070070870894,-0.0334657849504425,-0.03733711570990843,-0.02112720744191823
288,-0.028729533419097498,-0.04391354886930199,-0.04899035018653941,-0.02841083708953029
289,-0.03828246827963449,-0.056973707800572836,-0.06354716243954499,-0.03772012057342562
290,-0.0503723874767147,-0.07312965931734544,-0.08153753873627496,-0.04947840781334631
291,-0.06549706848825324,-0.09291770343412774,-0.10354605212312737,-0.06416420761580328
292,-0.08421214336058083,-0.11692631888816954,-0.13020977282852625,-0.08231189941634255
293,-0.1071304067984769,-0.14579422319302854,-0.1622146463826833,-0.10451126054778055
294,-0.13491971397013885,-0.18020712218799387,-0.20029025394647126,-0.13140568904118086
295,-0.16829937301306208,-0.2208930800056259,-0.24520290732313232,-0.16368902912792851
296,-0.20803497706013974,-0.2686164697764838,-0.2977470714055647,-0.20210093825870817
297,-0.2549316661338677,-0.3241704987198589,-0.35873514719826016,-0.24742077037721033
298,-0.30982585957659015,-0.38836833812814747,-0.4289856867027952,-0.30045999014757874
299,-0.37357555363300454,-0.462032928550394,-0.5093101445742536,-0.3620531764542291
300,-0.4470493349472295,-0.5459855724041842,-0.6004982985399913,-0.43304772015037846
301,-0.5311143173924163,-0.641033469242969,-0.7033024896508491,-0.5142923697998436
302,-0.6266232648607064,-0.7479563917033134,-0.8184208437520191,-0.6066248287481155
303,-0.7344012141639654,-0.8674927412955886,-0.9464796371641764,-0.7108586555986507
304,-0.8552319575472964,-1.0003252611008344,-1.0880149633004716,-0.8277697660345484
305,-0.9898447809234464,-1.1470667154635494,-1.2434538443757024,-0.9580828746622548
306,-1.1389018793400685,-1.3082458733165303,-1.4130949156437314,-1.1024582488457841
307,-1.3029868832276363,-1.4842941503261058,-1.5970887913033194,-1.2614791701171895
308,-1.4825949258566815,-1.6755332742446831,-1.795418204152506,-1.4356405106590788
309,-1.67812466280121,-1.882164336546972,-2.00787799812047,-1.6253388308144876
310,-1.8898726172075961,-2.1042585807021164,-2.2340550467560494,-1.8308643872303463
311,-2.1180301700777227,-2.3417502527011522,-2.4733081742027276,-2.0523954092184247
312,-2.362683443108321,-2.5944318025050794,-2.72474817045188,-2.289994952947683
313,-2.623816234230739,-2.8619516761517505,-2.9872180216858997,-2.5436105795584814
314,-2.9013160650852403,-3.1438148781327677,-3.2592735208363144,-2.813077025332223
315,-3.1949832883550027,-3.4393864136520613,-3.5391644841959855,-3.098121941545306
316,-3.504543085142951,-3.747897642375187,-3.8248168776950986,-3.398374681225185
317,-3.829660063066924,-4.068455491633529,-4.113816251404953,-3.7133780030209342
318,-4.169955049563762,-4.400054390529618,-4.403392992402701,-4.042602452622847
319,-4.525023567193874,-4.7415907000634805,-4.69041003280382,-4.385463073750211
320,-4.894455383431392,-5.091879331490895,-4.971353788822474,-4.741337997926985
321,-5.277854450889513,-5.449672168864009,-5.242329253974527,-5.109588369266274
322,-5.674858498791445,-5.813677845169077,-5.4990603192228145,-5.489578981209661
323,-6.085157505438015,-6.1825823674261535,-5.73689653761744,-5.880698940082868
324,-6.50851027607178,-6.555070046853873,-5.950827681999054,-6.282381628290753
325,-6.944758371468625,-6.92984416745935,-6.135507551607392,-6.694123220145774
326,-7.393836679429934,-7.305646821273278,-6.285288556064276,-7.115499007148746
327,-7.855779992911958,-7.681277351321907,-6.3942686316884565,-7.546176817721786
328,-8.33072505291216,-8.055608874056134,-6.456352013757979,-7.985926868862878
329,-8.818907628907567,-8.427602400467078,-6.465325287787818,-8.43462746310693
330,-9.32065434157051,-8.796318138067116,-6.41494996276723,-8.892266041975216
331,-9.83636907825214,-9.160923632360745,-6.299072541104265,-9.358935224565268
332,-10.36651400759178,-9.520698493990652,-6.111752698095788,-9.834823594271482
333,-10.911585361529008,-9.875035553678346,-5.847409726234592,-10.32020114441814
334,-11.472084316561707,-10.223438388381634,-5.500986849403827,-10.815399450805717
335,-12.048483466601853,-10.565515265600387,-5.068132377114789,-11.320786801256109
336,-12.641189532390804,-10.900969655268808,-4.545395963161247,-11.836738674275269
337,-13.250503092404173,-11.22958755701355,-3.930437475712859,-12.363604115870146
338,-13.87657624304765,-11.551221981704256,-3.222245201430775,-12.901668710337853
339,-14.519369197706638,-11.865775007369328,-2.421359323505586,-13.45111497267049
340,-15.178606911414967,-12.173177898217048,-1.5300958646932068,-14.011981102642775
341,-15.8537368678246,-12.473369829653898,-0.5527656054465325,-14.584119129806826
342,-16.543889185895285,-12.766275800338814,0.5041180915600404,-15.16715354139149
343,-17.2478401942598,-13.051784333575345,1.6316490628000824,-15.760441519221109
344,-17.96398058134516,-13.329725574471615,2.818362521691745,-16.36303591580421
345,-18.690289159565495,-13.599850376625076,4.05010051060137,-16.97365207309197
346,-19.42431318347729,-13.861810943476508,5.3099153812562925,-17.59063953027551
347,-20.16315603665518,-14.115143546239862,6.578017710540977,-18.21195958041215
348,-20.9034729528911,-14.359253784153754,7.8317744828376386,-18.835169521510462
349,-21.641475267516395,-14.593404785738546,9.045762569212846,-19.457414308637844
350,-22.372943508183468,-14.81670867404725,10.191881520071687,-20.075426153073366
351,-23.09324943587464,-15.028121536994693,11.23952848213341,-20.685532436618228
352,-23.797386941273253,-15.226442058237533,12.155836681363484,-21.283672118563025
353,-24.48001149435335,-15.410313877235513,12.90597741637997,-21.86542061455979
354,-25.135487641686208,-15.578231661422185,13.453523922990927,-22.426022926028057
355,-25.75794385200981,-15.728550791031335,13.760873845126106,-22.960434601043225
356,-26.341333831257465,-15.859500479990922,13.789725428091943,-23.463369918116435
357,-26.879503268267413,-15.96920008604198,13.501600985058595,-23.92935650788688
358,-27.36626083599708,-16.055678301187847,12.858409724222435,-24.352795469190735
359,-27.795452163726413,-16.11689486072941,11.823040706839729,-24.728025899451538
360,-28.161035416079496,-16.1507643661836,10.359975576012193,-25.04939264843102
361,-28.457157066463715,-16.155181784704084,8.435909788340082,-25.311316021946144
362,-28.678226436642852,-16.128049165339387,6.020370424975498,-25.508362110288378
363,-28.81898759079301,-16.06730310044367,3.086318278212711,-25.635312396074266
364,-28.874587220987507,-15.970942458450368,-0.3892781794314252,-25.687231308570976
365,-28.840637240329865,-15.83705592149255,-4.4249091256970985,-25.659530435763596
366,-28.713270907888386,-15.66384887729721,-9.034041687392763,-25.54802818029477
367,-28.489191443510066,-15.449669238540654,-14.224701065212596,-25.349003748848325
368,-28.165712247251875,-15.193031793451699,-19.999124244100724,-25.059244493783986
369,-27.740788013791246,-14.892640727826153,-26.353494680630632,-24.676085777414123
370,-27.21303622252455,-14.54740999966109,-33.27776474455869,-24.197442699219895
371,-26.58174868452799,-14.156481292212826,-40.75557086199005,-23.621833210025343
372,-25.846893033333878,-13.719239318342519,-48.76424430097842,-22.948392329851185
373,-25.009104252728978,-13.235324297505759,-57.2749184034451,-22.176877382839677
374,-24.06966653675981,-12.704641475710025,-66.25273085453715,-21.30766435820054
375,-23.030485970259598,-12.12736760733441,-75.6571173534692,-20.341735695552345
376,-21.894054698191706,-11.503954365096002,-85.44219087530304,-19.280659971506946
377,-20.663407415066775,-10.835128689973775,-95.55719866053313,-18.12656412743439
378,-19.34207114832717,-10.121890135975965,-105.94704720789058,-16.882099022172365
379,-17.93400942922603,-9.365505304763158,-116.55288394073844,-15.550399214773773
380,-16.44356203928992,-8.567499501893062,-127.31272292684119,-14.135037978678584
381,-14.875381588468514,-7.729645779475249,-138.16210110280636,-12.639978618133162
382,-13.234368221668847,-6.853951559018895,-149.03475092279484,-11.069523199212078
383,-11.525603763336996,-5.942643053010001,-159.86327523600747,-9.428259821189776
384,2.2352537443365645e-14,-5.034865004202638e-14,1.4085178167911094e-12,-8.878380257459534e-16
385,6.149070007413418e-13,-1.0720288763701326e-12,3.116804066419994e-11,5.4877647237667625e-14
386,7.808806737123526e-12,-1.274569251224385e-11,3.717092162566053e-10,8.224761233999037e-13
387,6.545475728661887e-11,-1.0163467901089589e-10,2.9643262077240007e-09,7.5382574810985e-12
388,4.1002387855238385e-10,-6.109409883794992e-10,1.781234486547178e-08,5.010944141028019e-11
389,2.0528519882588323e-09,-2.96077630428284e-09,8.625879890991264e-08,2.596771744173711e-10
390,8.57862471711333e-09,-1.2082965840039675e-08,3.516376713370521e-07,1.0972480365864207e-09
391,3.085440651746709e-08,-4.2816953371937574e-08,1.2442603386708656e-06,3.9004676436014994e-09
392,9.774356575753745e-08,-1.347834039994559e-07,3.909821931248465e-06,1.1933816949311526e-08
393,2.777207778395791e-07,-3.8360953714707477e-07,1.110420378843735e-05,3.195753786295268e-08
394,7.182049269567287e-07,-1.0010414827335726e-06,2.890546500149498e-05,7.578382243827812e-08
395,1.711053503777475e-06,-2.4224081970747293e-06,6.975196690727914e-05,1.6018485730563788e-07
396,3.793547525363694e-06,-5.486860386426915e-06,0.0001574940599557155,3.017340642279141e-07
397,7.89392037224231e-06,-1.1723352668805432e-05,0.00033532948839707955,5.006485332764037e-07
398,1.552867142825728e-05,-2.378284227677756e-05,0.000677658806293441,7.044614587554665e-07
399,2.9055250491366584e-05,-4.6063880567797386e-05,0.0013070230984400931,7.384456038516107e-07
400,5.1978034232559654e-05,-8.558383650128848e-05,0.002417348270186284,1.8527470595951867e-07
401,8.929789470957441e-05,-0.0001531505733823153,0.004304696431986186,-1.8082823227746052e-06
402,0.000147886382810496,-0.0002648887346534148,0.00740659825401094,-6.824389932759672e-06
403,0.000236855127177173,-0.00044417026370607816,0.012350799878161551,-1.7597570221411008e-05
404,0.0003678801470442829,-0.0007239899804360592,0.020013901104083503,-3.8601951791910774e-05
405,0.0005554301931872186,-0.0011498138127716872,0.03158989372980177,-7.68368424059731e-05
406,0.0008168388859143995,-0.00178290975929417,0.04866804426609809,-0.00014284402892440626
407,0.0011721533020958856,-0.0027041502424060885,0.0733189258903134,-0.00025198656665939627
408,0.0016436877180289868,-0.004018249870357498,0.10818671938932851,-0.00042601242604094436
409,0.0022552112135305544,-0.0058583756775841414,0.15658520619284405,-0.0006949172325510701
410,0.0030307023152441326,-0.008391038786176428,0.2225942060396436,-0.0010991087052086039
411,0.003992613070754386,-0.011821148420225592,0.31115260627701696,-0.0016918617022109626
412,0.00515959888835415,-0.01639708269863459,0.428143627315439,-0.0025420376150609887
413,0.0065436888243148705,-0.022415607034620276,0.5804676042804845,-0.003737025948299684
414,0.008146893098364385,-0.03022645161604905,0.7760973682936533,-0.005385850106758383
415,0.009957269546230878,-0.04023634551642441,1.024111305109103,-0.007622364520426749
416,0.01194449739715201,-0.052912297468025386,1.3346993690168842,-0.010608457016079889
417,0.014055034061768565,-0.06878391293795169,1.7191377420452776,-0.014537159395499296
418,0.016206957394148843,-0.08844454432898684,2.1897284494214,-0.019635560951590317
419,0.018284621024083344,-0.11255108604160267,2.75970105971029,-0.026167414463117673
420,0.02013327276082958,-0.1418222486683613,3.443074591208521,-0.034435322250599934
421,0.021553804772276683,-0.17703517637390975,4.254478886349636,-0.044782391216817964
422,0.022297818416112714,-0.21902030792324362,5.208935967739484,-0.05759325038434056
423,0.022063195557318168,-0.2686544240028364,6.321603212231968,-0.07329433214677161
424,0.020490371386035502,-0.3268518703521867,7.60748152860333,-0.09235332909499584
425,0.017159500731627815,-0.39455399648894357,9.081093053170205,-0.11527775165362125
426,0.011588700440288747,-0.4727169019740553,10.756134139015007,-0.1426125275958065
427,0.0032335345965718303,-0.5622976345701416,12.645110562665772,-0.17493660244838014
428,-0.008512112470270075,-0.6642390355443708,14.758962864536068,-0.21285851944340073
429,-0.02431365783913445,-0.7794534749878059,17.106690538272055,-0.25701097858032435
430,-0.044891851018057274,-0.9088057626722288,19.694984357454818,-0.3080443960922758
431,-0.07101716536357304,-1.0530955561129918,22.527876451069524,-0.3666195077073187
432,-0.1035025403262836,-1.2130396158609111,25.60641779483313,-0.43339908109536807
433,-0.1431945063352927,-1.3892542776078523,28.928392565338225,-0.5090388243415489
434,-0.1909627663931721,-1.582238520778406,32.48807830802251,-0.5941775977895282
435,-0.24768835050925642,-1.792358013539423,36.27606010673388,-0.6894270558276951
436,-0.31425049991389353,-2.0198305045525964,40.279105928809045,-0.795360862876048
437,-0.39151247655401317,-2.2647129125873127,44.480109079545926,-0.9125036437344277
438,-0.4803065286943899,-2.5268904368466143,48.85810226512599,-1.041319842370311
439,-0.5814182746558016,-2.8060679743384696,53.38834617093656,-1.1822026750033205
440,-0.6955707930505751,-3.1017640868690486,58.04249375519288,-1.3354633728662328
441,-0.8234087286650736,-3.4133077104451646,62.788829681583856,-1.5013209171458188
442,-0.9654827377684303,-3.7398377453790843,67.59258251708893,-1.6798924730856333
443,-1.122234604509713,-4.080305607596694,72.4163055502295,-1.8711847316777397
444,-1.293983360687905,-4.433480761990031,77.22032038784104,-2.0750863652639198
445,-1.4809127341589534,-4.797959198536793,81.96321590953136,-2.2913617971169598
446,-1.6830602362602711,-5.172174752687528,86.6023937393279,-2.5196464740760756
447,-1.900308175844082,-5.554413114474919,91.09465017000983,-2.7594438150341745
448,-2.1323768570053927,-5.942828317125997,95.39678347831152,-3.0101239861616276
449,-2.3788201798682027,-6.335461446767443,99.46621482356356,-3.2709246261345504
450,-2.639023819709906,-6.73026127112184,103.26161044690454,-3.540953611609964
451,-2.912206110419968,-7.1251064477960115,106.74349269456991,-3.819193915408139
452,-3.1974217051442975,-7.517828942606189,109.87482748157197,-4.104510568270306
453,-3.493568031351761,-7.906238265918898,112.62157618889324,-4.395659690817012
454,-3.7993945008418395,-8.288146120534696,114.95320063883112,-4.691299516738495
455,-4.113514378705515,-8.661391048289051,116.84311070349949,-4.990003282670003
456,-4.434419160182297,-9.023862664148592,118.26904524884674,-5.290273815987304
457,-4.7604952518214105,-9.373525075809368,119.21337847362798,-5.590559610141309
458,-5.0900427043092185,-9.708439103179915,119.6633452377677,-5.8892721392277565
459,-5.421295699611637,-10.02678293508503,119.61118065189191,-6.1848041302083585
460,-5.752444455483267,-10.32687088942747,119.05417098111066,-6.47554848339657
461,-6.081658176637641,-10.60716997723583,117.99461476104841,-6.7599175102030085
462,-6.407108654569818,-10.86631400982682,116.43969489127194,-7.036362142255496
463,-6.726994097634311,-11.103115031022012,114.40126431917595,-7.303390758237145
464,-7.039562759833105,-11.316571902272026,111.89554971537048,-7.55958727432701
465,-7.3431359311104,-11.505875916932622,108.94277923079184,-7.80362815105464
466,-7.636129853998252,-11.670413370080151,105.56674197987456,-8.034297983647626
467,-7.917076141378318,-11.80976506141425,101.79428828043432,-8.250503364380062
468,-8.184640288017187,-11.923702760236104,97.6547808708522,-8.451284733688436
469,-8.437637894425515,-12.012182712473054,93.17950829498132,-8.635825971431869
470,-8.675048255465926,-12.075336319512386,88.40107237637181,-8.803461520031776
471,-8.896025007895739,-12.11345816648688,83.352762182984,-8.953680876602402
472,-9.099903580418971,-12.126991622903668,78.06792710415988,-9.086130340706294
473,-9.286205246309338,-12.11651228040744,72.57936162156703,-9.200611957022517
474,-9.454637641425467,-12.082709530290302,66.9187140588993,-9.297079646889825
475,-9.60509167838143,-12.026366616381422,61.11593105044256,-9.375632578240493
476,-9.737634859454356,-11.948339526482535,55.198748690289975,-9.43650587874648
477,-9.852501064996503,-11.849535106945714,49.19224033074118,-9.480058850946401
478,-9.950076968958983,-11.730888799814517,43.11842981302958,-9.506760899600227
479,-10.030885306767882,-11.593342409808926,36.99597756228142,-9.517175429443974
480,-10.095565291324284,-11.437822309130283,30.839945490663702,-9.511942014868762
481,-10.144850538513689,-11.265218481571093,24.661645059357976,-9.49175718090851
482,-10.179544922642414,-11.076364793885963,18.46857118411801,-9.457354166463748
483,-10.200496833183271,-10.872020862133107,12.264422964342229,-9.409482065181196
484,-10.208572345841946,-10.652855854194476,6.049210505515373,-9.34888475622668
485,-10.204627852266793,-10.419434537506499,-0.1805545773103779,-9.276280045880476
486,-10.189482713060501,-10.172205843838224,-6.431589009620729,-9.192339441218481
487,-10.163892507755664,-9.911494181427383,-12.713493627885919,-9.097668969121495
488,-10.128523452964748,-9.637493679614742,-19.038342050897032,-8.9927914376854
489,-10.083928546070865,-9.350265502967234,-25.420210502423213,-8.87813051317468
490,-10.030525966840756,-9.04973832138513,-31.874658138917134,-8.753996954520423
491,-9.968580233672096,-8.735711970462122,-38.418168153377586,-8.620577309701734
492,-9.898186565470038,-8.407864283011973,-45.0675606422489,-8.477925334941009
493,-9.819258845135128,-8.065761018803094,-51.839388724746065,-8.325956349291756
494,-9.731521517164532,-7.708868765788791,-58.74932968581993,-8.164444684702875
495,-9.634505680844413,-7.33657063317295,-65.81158297219899,-7.993024335823228
496,-9.527549563004234,-6.948184505265047,-73.03828670711279,-7.811192855523619
497,-9.409803471534062,-6.542983576093418,-80.43896400944718,-7.618318482261903
498,-9.280239244186756,-6.12021883907287,-88.02000981739366,-7.413650424928785
499,-9.137664118057906,-5.679143164612366,-95.7842281392411,-7.196332170637849
500,-8.980738855131861,-5.219036562339086,-103.73042870231147,-6.965417622061333
501,-8.807999870109631,-4.739232194482727,-111.85309086569222,-6.719889814436193
502,-8.617885020218026,-4.23914268367199,-120.14210142637113,-6.45868190940348
503,-8.408762634716851,-3.718286242565847,-128.5825716066434,-6.180700114530272
504,-8.178963286234957,-3.1763121448378704,-137.15473708966707,-5.884848134767303
505,-7.926813738699404,-2.6130250573517904,-145.83394349706265,-5.5700527261933255
506,-7.650672449250457,-2.0284077620566903,-154.59071820499886,-5.235289894062455
507,-7.348965955846736,-1.4226418131971037,-163.39092790045072,-4.879611257160037
508,-7.020225449766035,-0.7961257007525543,-172.19601981358096,-4.50217008939539
509,-6.663122814120703,-0.14949012433898018,-180.9633431505044,-4.10224654784917
510,-6.276505406719975,0.5163899772703712,-189.6465459163814,-3.679271604402321
511,-5.859428878663835,1.200386947850011,-198.19604108317137,-3.2328492156812896
512,-6.479642514478553e-14,-5.280365486182233e-14,-9.642352106433374e-14,-4.581881724639186e-14
513,-1.3562317526773445e-12,-1.1262140691340744e-12,-2.1167578895752568e-12,-9.712506566445422e-13
514,-1.524318049746641e-11,-1.3296679871974612e-11,-2.4914177699636337e-11,-1.130136766178507e-11
515,-1.1447872111680493e-10,-1.053073798760927e-10,-1.961564048447725e-10,-8.81128101368529e-11
516,-6.472927394881868e-10,-6.2900202698289e-10,-1.1630742170784597e-09,-5.181275091145214e-10
517,-2.951499436054248e-09,-3.0307129195336872e-09,-5.556068801977233e-09,-2.4596449729081156e-09
518,-1.1354568584862927e-08,-1.2304924380148478e-08,-2.2340288951492626e-08,-9.853815258780204e-09
519,-3.806325628511334e-08,-4.340945148408713e-08,-7.797813428147399e-08,-3.437376420333404e-08
520,-1.1391588230929197e-07,-1.3613463714340593e-07,-2.417720566037222e-07,-1.068632554720236e-07
521,-3.1012731922395064e-07,-3.8625675350075767e-07,-6.778177641767114e-07,-3.0139107727975705e-07
522,-7.793492625423487e-07,-1.0054544549314871e-06,-1.7427171586223416e-06,-7.819286123569778e-07
523,-1.8287529033191221e-06,-2.428397367837853e-06,-4.1563525334851815e-06,-1.8868109207152487e-06
524,-4.043373102070231e-06,-5.4923794533657e-06,-9.282104084814019e-06,-4.27239806239659e-06
525,-8.484349698888018e-06,-1.172238949064112e-05,-1.9562148547168808e-05,-9.144285997739777e-06
526,-1.6993497089519823e-05,-2.376190792683795e-05,-3.916196770579603e-05,-1.861137603365236e-05
527,-3.264225901580047e-05,-4.599617120029046e-05,-7.488487217053638e-05,-3.620429474529187e-05
528,-6.036892241861429e-05,-8.541926509902856e-05,-0.0001374211353265029,-6.76041729002724e-05
529,-0.00010785225497996036,-0.0001527983336362331,-0.00024299623320208898,-0.0001216297414943055
530,-0.00018667171819261528,-0.00026418665818536723,-0.00041547786787824614,-0.00021152927240230748
531,-0.00031380333657661606,-0.0004428317864852085,-0.000688991357231693,-0.00035661847087445575
532,-0.000513495548203661,-0.000721514919508452,-0.0011110773961088961,-0.0005842957007226009
533,-0.0008195604967007191,-0.0011453433234140972,-0.0017464053177393003,-0.0009324518988455609
534,-0.0012781030508976382,-0.001774998858593427,-0.0026810293706790514,-0.0014522745294241837
535,-0.0019506924094099495,-0.0026904233540911734,-0.004027146067001967,-0.0022114235388824453
536,-0.0029179598256587366,-0.003994896339318092,-0.005928278515202699,-0.0032975333673975617
537,-0.004283581490366907,-0.0058194336619759104,-0.008564780215752093,-0.004821969757997586
538,-0.006178578982247798,-0.008327408053392805,-0.012159517642365034,-0.006923744659261417
539,-0.008765842234290958,-0.011719266162795195,-0.016983559761966114,-0.009773468302057761
540,-0.012244753091090995,-0.016237192438993294,-0.02336167521420575,-0.013577195908869204
541,-0.016855762746990816,-0.02216954993215878,-0.031677415874455654,-0.01858000878998132
542,-0.022884755159717635,-0.029854912945468732,-0.042377550497614,-0.025069157035965142
543,-0.03066701234567341,-0.03968549761001625,-0.05597560536591886,-0.03337658471117247
544,-0.04059058746689843,-0.052109794729198945,-0.07305427130936902,-0.04388065920220085
545,-0.053098888646529625,-0.06763421513975953,-0.09426644874434399,-0.05700693463880872
546,-0.06869228093615141,-0.08682357148791854,-0.1203347247154406,-0.07322779516312487
547,-0.08792852588824156,-0.11030024146685014,-0.15204910814576728,-0.09306084699905778
548,-0.11142189754795812,-0.13874188560972142,-0.19026289096725524,-0.11706595817210048
549,-0.13984083989171364,-0.17287762679497315,-0.23588655238383405,-0.14584088047549723
550,-0.17390406308182044,-0.21348263758636649,-0.289879679576293,-0.18001542877237042
551,-0.21437501346273122,-0.2613711241265312,-0.3532409385869694,-0.22024423671210572
552,-0.2620546939673258,-0.3173877401530956,-0.4269961914874826,-0.2671981540801742
553,-0.3177728564317627,-0.38239751038040015,-0.512184917640813,-0.32155439787644774
554,-0.3823776340464878,-0.45727438754334115,-0.6098451553697245,-0.38398561531307707
555,-0.4567237294907139,-0.542888610412194,-0.7209972333040912,-0.45514806061707347
556,-0.5416593208016668,-0.6400930696990192,-0.8466266061090765,-0.5356691271392352
557,-0.6380118912936666,-0.7497089237347552,-0.98766614561176,-0.6261345101919232
558,-0.7465732305004263,-0.8725107350030002,-1.1449782643864757,-0.7270753028166497
559,-0.8680838888885678,-1.0092114211720982,-1.3193372638837046,-0.8389553451222468
560,-1.0032173987867608,-1.1604473294996858,-1.5114123028517894,-0.9621591570363159
561,-1.1525645965081768,-1.3267637509603896,-1.7217513741644859,-1.0969807837140677
562,-1.3166183951053951,-1.5086011899668352,-1.9507666596845796,-1.2436138722499974
563,-1.4957593629186243,-1.7062826971337473,-2.1987216042872855,-1.4021432778904093
564,-1.6902424596475238,-1.9200025563950174,-2.4657200127751158,-1.572538468088345
565,-1.9001852689191774,-2.149816594336081,-2.751697428518731,-1.754648954132385
566,-2.1255580443015156,-2.395634349436166,-3.056415001791801,-1.9482019335550806
567,-2.3661758547536405,-2.657213302767419,-3.3794560005351975,-2.152802273125431
568,-2.621693076228579,-2.934155330433627,-3.7202250582787357,-2.3679349032260193
569,-2.8916004294132853,-3.225905492605473,-4.077950194696732,-2.5929696313139536
570,-3.175224710439425,-3.531753225444965,-4.451687585221139,-2.8271683166656745
571,-3.4717313029921835,-3.8508359515840653,-4.840328998644433,-3.069694282565818
572,-3.78012949790286,-4.182145073249198,-5.242611766998115,-3.31962377751121
573,-4.09928058154583,-4.524534260759686,-5.657131101386362,-3.57595923595798
574,-4.427908588857179,-4.87672989916222,-6.082354521946267,-3.8376440337671425
575,-4.764613552327113,-5.237343508405636,-6.51663813053697,-4.103578385836315
576,-5.107887016671605,-5.604885908921308,-6.958244421675347,-4.372635995261009
577,-5.456129531799003,-5.977782865929829,-7.405361300843227,-4.64368103625349
578,-5.807669785835014,-6.354391913336138,-7.856121959496357,-4.91558503808473
579,-6.160784996929427,-6.7330200326553475,-8.308625242615213,-5.187243235199769
580,-6.51372214873601,-7.111941844789855,-8.760956137109268,-5.457589959630333
581,-6.8647196309834575,-7.489417963179525,-9.21120600756587,-5.725612675699318
582,-7.212028834330435,-7.863713156137017,-9.657492209646708,-5.990364293204164
583,-7.55393524834717,-8.233113974065752,-10.0979767210015,-6.250973442854326
584,-7.888778623296594,-8.59594551349245,-10.530883445162372,-6.506652455432268
585,-8.21497178027093,-8.950587013944094,-10.95451386583893,-6.756702852245939
586,-8.531017689506966,-9.295486014950727,-11.367260757644909,-7.000518226817017
587,-8.835524482135126,-9.629170837943635,-11.767619694699015,-7.237584473910665
588,-9.127218114530365,-9.950261200446231,-12.154198140678888,-7.467477399230652
589,-9.404952464811204,-10.2574768164786,-12.525721952410832,-7.689857818569806
590,-9.667716705660542,-10.549643886164832,-12.881039183281151,-7.904464326184857
591,-9.914639864228354,-10.825699427733475,-13.219121131681616,-8.111103976151439
592,-10.144992546218605,-11.084693455011289,-13.53906064209822,-8.309641175330274
593,-10.358185865400513,-11.32578905175174,-13.840067730846611,-8.49998513074026
594,-10.55376768010401,-11.548260439435055,-14.121462673216827,-8.682076226568688
595,-10.731416293505236,-11.751489176406,-14.382666752163898,-8.855871726294293
596,-10.89093182374138,-11.934958662455683,-14.62319092883833,-9.021331203493881
597,-11.03222549245687,-12.098247153504694,-14.842622750310245,-9.178402101316816
598,-11.155307115885437,-12.24101951543097,-15.040611857928043,-9.327005806190767
599,-11.26027111086757,-12.363017964041571,-15.216854499096483,-9.467024597214131
600,-11.347281349311642,-12.46405204963542,-15.371077474317598,-9.598289800246036
601,-11.416555208633927,-12.543988149629639,-15.503021968933728,-9.720571436380288
602,-11.4683471728052,-12.602738731555602,-15.612427724437712,-9.833569609798301
603,-11.502932338997773,-12.640251641741397,-15.699017997274082,-9.936907831486776
604,-11.520590178765062,-12.656499662682053,-15.762485734024489,-10.030128424539088
605,-11.52158889056083,-12.651470565078283,-15.802481361420613,-10.1126901052347
606,-11.50617066259494,-12.625157859520703,-15.818602548728913,-10.183967783153982
607,-11.474538141897767,-12.57755242860729,-15.810386249914755,-10.243254574368907
608,-11.426842377420808,-12.508635193737199,-15.777303275043133,-10.289765975168308
609,-11.363172472515009,-12.418370942752047,-15.718755576235006,-10.32264610055474
610,-11.283547145780426,-12.306703415786927,-15.63407636498683,-10.340975852447748
611,-11.187908359738016,-12.173551717875268,-15.522533106731911,-10.343782847556877
612,-11.076117134793282,-12.01880809867759,-15.383333367214766,-10.330052904545472
613,-10.94795162241055,-11.842337112743067,-15.215633415595459,-10.298742864640628
614,-10.803107467291937,-11.643976148448091,-15.018549423140433,-10.248794499495975
615,-10.641200444721248,-11.423537290579814,-14.791171035633726,-10.179149245108391
616,-10.461771317115213,-11.18081046074193,-14.532577043729688,-10.088763491093111
617,-10.264292814118944,-10.91556776155329,-14.241852829494686,-9.976624150694189
618,-10.048178604036307,-10.627568935094299,-13.918109230107353,-9.841764238505531
619,-9.81279409161725,-10.316567833255426,-13.560502431495495,-9.683278189864142
620,-9.557468848727204,-9.982319787503446,-13.168254485650486,-9.500336668022321
621,-9.281510460531608,-9.624589757981127,-12.740674035294141,-9.292200622162971
622,-8.984219550686738,-9.243161136601604,-12.277176828125254,-9.058234380612387
623,-8.664905734628775,-8.83784507562983,-11.777305609597192,-8.797917588632444
624,-8.322904240302426,-8.408490211843517,-11.240748997599262,-8.510855828255224
625,-7.957592930428833,-7.954992656374788,-10.667358964072701,-8.196789787997346
626,-7.568409459471108,-7.477306121368772,-10.057166577060283,-7.855602882104464
627,-7.1548683015042975,-6.975452056282235,-9.410395691557818,-7.487327251277918
628,-6.716577391829509,-6.449529668647845,-8.727474318357999,-7.092148108618951
629,-6.253254134940778,-5.899725706187713,-8.009043446285723,-6.670406424809607
630,-5.764740543905766,-5.326323879111147,-7.255963144044776,-6.222599974450136
631,-5.251017290903738,-4.729713803223584,-6.469315822293875,-5.749382790253174
632,-4.712216465117401,-4.110399346155396,-5.650406593251108,-5.2515630928896195
633,-4.148632851969238,-3.469006260723533,-4.8007607225954905,-4.730099781325536
634,-3.560733566491206,-2.8062889913599305,-3.922118225099849,-4.186097581346847
635,-2.9491658932186544,-2.123136541910333,-3.016425709717887,-3.6208009587271297
636,-2.314763205314478,-1.4205772961751844,-2.0858256303122737,-3.035586908428525
637,-1.658548856621932,-0.6997826865812246,-1.1326431436094,-2.431956732743886
638,-0.9817379619842119,0.03793038842357874,-0.1593708153048764,-1.8115269198956196
639,-0.2857370034231483,0.7910984910535102,0.831348552216768,-1.1760192308861896
640,-6.528833380628704e-14,-4.658327080651929e-14,-3.806090913742727e-14,-4.91238309459583e-14
641,-1.389629150322486e-12,-1.008341153338293e-12,-7.886782226885407e-13,-1.0405344204376186e-12
642,-1.549531533558225e-11,-1.1990434183581396e-11,-9.360090529403936e-12,-1.1674572981334844e-11
643,-1.1512865023201752e-10,-9.555545868623031e-11,-7.466713058000291e-11,-8.740961237214093e-11
644,-6.42329707570946e-10,-5.73849365211943e-10,-4.4944431700823136e-10,-4.922042377189474e-10
645,-2.8813552813004124e-09,-2.7776432068451703e-09,-2.183062081488496e-09,-2.23207261468029e-09
646,-1.0868200967844051e-08,-1.1319620947383324e-08,-8.93728581150117e-09,-8.525415225681913e-09
647,-3.5593530145050663e-08,-4.0050477160834425e-08,-3.179757130601151e-08,-2.8317460475625003e-08
648,-1.0370220339578908e-07,-1.2587427806985606e-07,-1.005802800404137e-07,-8.37868766335518e-08
649,-2.7395794051470216e-07,-3.576817329747307e-07,-2.878627593278227e-07,-2.2501163501687216e-07
650,-6.663163235381426e-07,-9.319208957225124e-07,-7.558767835688696e-07,-5.566400913195152e-07
651,-1.5105255931666204e-06,-2.2517097556000266e-06,-1.8415683500034498e-06,-1.2835993140264136e-06
652,-3.223786131547891e-06,-5.092645434325408e-06,-4.201421214125109e-06,-2.7855324579133257e-06
653,-6.530086146473542e-06,-1.0865114235758548e-05,-9.044743315583752e-06,-5.732653381640352e-06
654,-1.26372583904629e-05,-2.2009312575439286e-05,-1.8491501402216224e-05,-1.1258817059942451e-05
655,-2.349139647342175e-05,-4.256458708717057e-05,-3.609778281086216e-05,-2.1210553691768116e-05
656,-4.213180976524677e-05,-7.895827962421903e-05,-6.759779475957538e-05,-3.8493291617510513e-05
657,-7.317287346407139e-05,-0.00014106023399458728,-0.00012191517282578113,-6.753765261119879e-05
658,-0.00012344152735429984,-0.00024354680664223494,-0.0002124974562635192,-0.00011490917634625462
659,-0.0002028003241008939,-0.00040761212461443716,-0.0003590251369456186,-0.00019008378314660306
660,-0.00032518540547970664,-0.0006630541978070644,-0.000589540042368679,-0.00030640846986522603
661,-0.0005098862881440589,-0.0010507493569101415,-0.0009430264966450183,-0.0004822620301675551
662,-0.0007830896805211046,-0.0016255107037526366,-0.0014724625122907184,-0.0007424239977576163
663,-0.0011797026345590537,-0.002459305480062678,-0.0022483373365661413,-0.00111965165288901
664,-0.0017454611722097643,-0.003644783402280349,-0.003362606526866328,-0.0016564550772842739
665,-0.0025393192786477784,-0.005299044196219283,-0.004933027265579919,-0.0024070493272468816
666,-0.0036361001544270503,-0.007567549047676564,-0.007107786114332231,-0.0034394514110689446
667,-0.005129377338083387,-0.010628058767856635,-0.010070300430963389,-0.004837678593043666
668,-0.007134538309121939,-0.01469446244113738,-0.014044045043486575,-0.006703994314598978
669,-0.009791968090732251,-0.020020345378063378,-0.01929722942871197,-0.009161139404505804
670,-0.013270275908989871,-0.026902135392770702,-0.026147129489166178,-0.012354479859801292
671,-0.01776947492383432,-0.03568166260882397,-0.0349638637755529,-0.01645399882464083
672,-0.023524014229209637,-0.046747970756009324,-0.04617339802080758,-0.021656059823352652
673,-0.030805554444709775,-0.060538227530577186,-0.06025956501154942,-0.028184870960492714
674,-0.03992537386827417,-0.07753759799429087,-0.07776489945442386,-0.03629358561966168
675,-0.05123629175975935,-0.09827796778177963,-0.09929010938598903,-0.04626498392557388
676,-0.06513399915330183,-0.12333543134341349,-0.1254920361274064,-0.05841169047433702
677,-0.08205769572508029,-0.15332649355808795,-0.15707999271258893,-0.07307589702854454
678,-0.10248994349063478,-0.18890296956582855,-0.19481041475992658,-0.09062857331959606
679,-0.12695566404087283,-0.230745606197968,-0.23947980638292068,-0.11146816400452726
680,-0.15602022504247468,-0.27955648744876416,-0.2919160153162997,-0.13601878436950898
681,-0.19028658312796748,-0.33605032455831235,-0.35296792427781537,-0.16472794078168415
682,-0.23039147331732,-0.40094476704472426,-0.4234936979386593,-0.19806381346541338
683,-0.2770006588957383,-0.4749499031318494,-0.5043477749327463,-0.23651214830356956
684,-0.33080327929465286,-0.558757145327366,-0.5963668402768222,-0.28057281052883853
685,-0.39250535604903175,-0.6530277184784536,-0.7003550536357951,-0.3307560560111985
686,-0.462822537470667,-0.7583809827725813,-0.8170688414450376,-0.3875785751909365
687,-0.5424721805285114,-0.8753828324329683,-0.9472015846563884,-0.45155936057796725
688,-0.6321648829123379,-1.0045344121375481,-1.0913685478308848,-0.5232154413588708
689,-0.7325955888500507,-1.1462613875945649,-1.2500923988960597,-0.6030575184491127
690,-0.8444343986327829,-1.3009039946097911,-1.4237896619758343,-0.6915855209653172
691,-0.9683172139495537,-1.468708072962414,-1.6127584285364,-0.7892840914987626
692,-1.104836349327924,-1.6498172682279486,-1.8171676252748066,-0.8966179938934887
693,-1.2545312347417874,-1.8442665572474102,-2.0370481016262127,-1.0140274247295569
694,-1.4178793264517782,-2.051977222240832,-2.2722857566820958,-1.1419231996258905
695,-1.595287333146545,-2.272753365646341,-2.5226168761480334,-1.2806817789241367
696,-1.7870828532750491,-2.5062800236754827,-2.787625796388921,-1.430640095203163
697,-1.993506507942009,-2.752122902306624,-3.0667449564263065,-1.5920901480291012
698,-2.2147046426687704,-3.00972972590937,-3.3592573418526093,-1.7652733396536588
699,-2.450722661366954,-3.2784331567268286,-3.6643012688726615,-1.950374538957781
700,-2.7014990475449356,-3.557455213754841,-3.980877403814092,-2.147515879388704
701,-2.9668601214162265,-3.845913092747312,-4.307857864995155,-2.356750319258154
702,-3.246515577358395,-4.142826265620958,-4.6439972110572585,-2.5780550186048377
703,-3.5400548439928095,-4.447124717777553,-4.987945083703971,-2.811324614684307
704,-3.8469443086731663,-4.757658166024471,-5.338260243861335,-3.056364506645272
705,-4.166525448851346,-5.0732060879492105,-5.693425718903209,-3.312884287583216
706,-4.498013914033614,-5.392488385782073,-6.051864764814907,-3.580491487425521
707,-4.840499603276142,-5.714176503877959,-6.411957340822971,-3.858685811575262
708,-5.192947783865443,-6.036904818829602,-6.772056794755621,-4.1468540766320405
709,-5.554201296479252,-6.359282124726577,-7.130506464759753,-4.444266054698395
710,-5.922983890256931,-6.679903043009642,-7.485655916446642,-4.7500714408829925
711,-6.29790472745121,-6.997359196515941,-7.835876553450441,-5.063298154045905
712,-6.677464091442929,-7.310250000390723,-8.179576363047243,-5.3828521683677
713,-7.0600603237445805,-7.617192938196596,-8.515213586060577,-5.707519053082818
714,-7.44399800511223,-7.916833209319082,-8.841309130810112,-6.035967370139202
715,-7.827497382969049,-8.207852653074102,-9.156457583293651,-6.366754045355029
716,-8.20870503201021,-8.48897787509847,-9.459336699063464,-6.698331788813594
717,-8.585705717196378,-8.75898752192425,-9.7487152953781,-7.029058595926434
718,-8.956535408533428,-9.016718669377417,-10.023459494350021,-7.357209313053551
719,-9.319195375332184,-9.261072308940834,-10.282537298343799,-7.680989202054287
720,-9.671667264364219,-9.491017932937156,-10.525021507404155,-7.9985493878776985
721,-10.011929041901139,-9.705597233927163,-10.75009101479625,-8.308004023489849
722,-10.337971654597636,-9.903926945860137,-10.957030540759641,-8.607448958274583
723,-10.647816239207398,-10.085200864194537,-11.145228886340915,-8.894981650714456
724,-10.93953168691561,-10.24869108951415,-11.31417580874442,-9.168722024799331
725,-11.211252345374493,-10.393748544301438,-11.463457637085426,-9.42683393330819
726,-11.461195621145912,-10.519802815783613,-11.592751762779084,-9.667546860913157
727,-11.687679228076084,-10.626361379481727,-11.701820152034507,-9.889177476970982
728,-11.88913781408107,-10.713008258623923,-11.790502038975488,-10.090150632817883
729,-12.064138690777629,-10.779402174269372,-11.858705966651753,-10.269019392131828
730,-12.211396388080784,-10.825274240113272,-11.906401349465446,-10.424483686012708
731,-12.329785759872495,-10.850425254722921,-11.933609734129854,-10.555407197145414
732,-12.418353377524857,-10.854722642532275,-11.940395937024121,-10.660832099784718
733,-12.47632696564919,-10.838097093381762,-11.926859233570147,-10.739991314084708
734,-12.503122658898306,-10.800538948777886,-11.893124769952227,-10.792317973947304
735,-12.498349889654412,-10.742094381397127,-11.839335359109675,-10.817451856258506
736,-12.461813753425313,-10.66286141270927,-11.765643811521942,-10.815242575067522
737,-12.393514741026044,-10.562985811995864,-11.672205937045973,-10.785749405733064
738,-12.293645773306691,-10.442656918549744,-11.559174337260188,-10.729237669983732
739,-12.162586524353888,-10.30210342752337,-11.426693088872891,-10.64617168177326
740,-12.00089507166601,-10.14158917880548,-11.274893398355463,-10.537204324215844
741,-11.809296965602911,-9.961408987498496,-11.103890286742185,-10.403163398167056
742,-11.588671864222631,-9.761884554090962,-10.913780342187689,-10.245034951584959
743,-11.340037932227132,-9.54336049231508,-10.70464055701819,-10.063943864132753
744,-11.064534252933132,-9.306200512992024,-10.476528246159564,-9.861132022117827
745,-10.763401548738143,-9.050783802925812,-10.229482025339125,-9.637934473447709
746,-10.4379615472515,-8.777501639103379,-9.963523810567928,-9.39575399960226
747,-10.089595365971253,-8.486754280032816,-9.67866178524824,-9.13603458063539
748,-9.719721317104842,-8.178948177869877,-9.374894267893676,-8.860234259095929
749,-9.329772554982842,-7.854493556831522,-9.052214401946044,-8.569797928854609
750,-8.921175000754172,-7.513802404990135,-8.710615579545912,-8.266130584674704
751,-8.49532598209506,-7.15728692754875,-8.350097503340063,-7.950571567675632
752,-8.053574019166046,-6.785358509760351,-7.970672784403761,-7.624370330524858
753,-7.597200171962072,-6.398427236424159,-7.572373969981699,-7.28866422439193
754,-7.127401338756488,-5.996902012049178,-7.155260891840954,-6.944458777763969
755,-6.64527586101049,-5.581191321047379,-6.7194282244204215,-6.592610895698626
756,-6.151811747576819,-5.151704660494676,-6.265013141522028,-6.233815357688734
757,-5.647877781148006,-4.708854668943052,-5.792202960923957,-5.86859493389934
758,-5.134217713774553,-4.2530599634412685,-5.301242667936492,-5.497294374115927
759,-4.611447697170097,-3.7847486833916455,-4.792442211503646,-5.12007845242403
760,-4.08005702879753,-3.3043627243156957,-4.266183469903351,-4.736934174615891
761,-3.5404122278232815,-2.812362627312958,-3.722926787324171,-4.347677175863866
762,-2.9927643874203786,-2.3092330713700795,-3.1632169874938225,-3.951962254693995
763,-2.4372596831135973,-1.7954888961957824,-2.587688775991637,-3.549297907233163
764,-1.8739528523776,-1.2716815634777152,-1.9970714487732666,-3.139064644674813
765,-1.302823399868089,-0.7384059449849825,-1.392192830636878,-2.7205367985316715
766,-0.7237942266269661,-0.19630730740986907,-0.7739823737266808,-2.2929074441297614
767,-0.1367523312920636,0.3539116531067404,-0.14347335257577098,-1.8553160045187802
768,-1.2893857277902898e-13,-5.781572906158869e-14,-5.166426156661376e-14,-8.910941948964131e-14
769,-2.8431482809984964e-12,-1.2417713926850046e-12,-1.114932055218817e-12,-1.9317696682039113e-12
770,-3.258222453698652e-11,-1.4750270796553722e-11,-1.3393971451733792e-11,-2.2271812586604027e-11
771,-2.488020895667502e-10,-1.1744754734917228e-10,-1.0777868396734679e-10,-1.713622813874724e-10
772,-1.4282365062904333e-09,-7.051197602428974e-10,-6.531433186018668e-10,-9.924677734695387e-10
773,-6.596638375151117e-09,-3.413742148497924e-09,-3.187885127105546e-09,-4.6303974451472135e-09
774,-2.5623880467484796e-08,-1.3920279160841572e-08,-1.308998727902675e-08,-1.8189107599914595e-08
775,-8.637901030241941e-08,-4.9295542869296844e-08,-4.662879281467942e-08,-6.207007794559893e-08
776,-2.58731057861094e-07,-1.5509285371692797e-07,-1.4742891691958053e-07,-1.8836178480574738e-07
777,-7.013399050941278e-07,-4.411952449111645e-07,-4.2112549995025026e-07,-5.176261534494985e-07
778,-1.7457799048574578e-06,-1.1507449899257182e-06,-1.1021713913672425e-06,-1.3067615975111063e-06
779,-4.037933086754547e-06,-2.7831587124531025e-06,-2.6732857795415137e-06,-3.0659354885973354e-06
780,-8.762477322283964e-06,-6.299953081822085e-06,-6.065573504374311e-06,-6.748609884890938e-06
781,-1.798219604754576e-05,-1.3450286787580051e-05,-1.2975312254320789e-05,-1.4044970145920695e-05
782,-3.512913284354754e-05,-2.7260980334833128e-05,-2.6341020334548374e-05,-2.7814990863079017e-05
783,-6.568865382267746e-05,-5.2742397050712835e-05,-5.1030778023304125e-05,-5.270225493811942e-05
784,-0.00011811965073717389,-9.786601244172323e-05,-9.479394599990349e-05,-9.597280794293691e-05
785,-0.00020505387564543804,-0.00017487087973813213,-0.00016953252935969035,-0.00016862416904102998
786,-0.00034481427420585093,-0.00030195377381226973,-0.00029294473917614196,-0.000286807602769949
787,-0.000563285825521962,-0.0005053910318461203,-0.000490586279373097,-0.0004736014811217604
788,-0.0008961626238468642,-0.0008221287340462207,-0.0007983832748517349,-0.0007611648005715513
789,-0.0013915817859781838,-0.0013028618953863547,-0.0012656146060167526,-0.0011932876340257125
790,-0.0021131384531818823,-0.0020156030746286057,-0.0019583610989242183,-0.001828339655057751
791,-0.0031432570358577916,-0.0030497168341503747,-0.0029633952259017,-0.002742599215435344
792,-0.004586872426000617,-0.004520369640129567,-0.004392458652064963,-0.004033924309943725
793,-0.0065753518847372966,-0.0065733161315042,-0.006386847273020444,-0.00582570383870324
794,-0.00927056464299305,-0.00938991343251877,-0.00912219560771606,-0.008271003755139639
795,-0.012868983060189656,-0.013192226678862733,-0.012813325868537485,-0.01155679894124066
796,-0.017605677670178004,-0.01824806257128726,-0.017719003043443836,-0.015908158969671887
797,-0.023758049779463535,-0.02487574496046022,-0.024146417136402573,-0.021592235253529178
798,-0.03164913057539067,-0.033448428537025114,-0.032455198458954435,-0.0289218793944092
799,-0.04165026595260383,-0.04439773485663731,-0.04306076254906799,-0.038258708770609696
800,-0.05418300231313942,-0.05821649018388201,-0.056436778756321,-0.05001542651451276
801,-0.06971999102669085,-0.07546034775111686,-0.07311656142154552,-0.06465719991240339
802,-0.08878473835218481,-0.09674808846129354,-0.09369319529862613,-0.0827019047105219
803,-0.11195004345129583,-0.12276041395552444,-0.11881822752880779,-0.1047190534489449
804,-0.13983498948595754,-0.1542370741224904,-0.14919878687197,-0.13132724417577255
805,-0.17310038129708158,-0.1919722070254448,-0.1855930264766613,-0.1631899918391517
806,-0.21244255720288932,-0.23680781202926354,-0.22880382835995436,-0.20100983809487197
807,-0.2585855412089437,-0.2896253255015924,-0.27967075480397036,-0.24552067561847332
808,-0.31227154442329347,-0.35133532146618907,-0.339060282642556,-0.29747826936206506
809,-0.3742498696989567,-0.4228654154312224,-0.4078544092938916,-0.35764900836402963
810,-0.44526432044964526,-0.5051465065877788,-0.4869377726370253,-0.4267969763034486
811,-0.526039262126483,-0.599097549876941,-0.5771834785999982,-0.505669485403528
812,-0.6172645318501329,-0.7056091032293058,-0.6794378787839509,-0.5949812748054556
813,-0.7195794369489109,-0.8255259447860368,-0.7945045838189527,-0.6953976293652918
814,-0.8335561254307382,-0.9596290983975658,-0.9231280348049972,-0.8075167261879547
815,-0.9596826495051248,-1.1086176415970956,-1.0659769837267385,-0.931851562382257
816,-1.0983460759632793,-1.273090697202144,-1.223628253015497,-1.0688118568641858
817,-1.249816023314842,-1.453530026611192,-1.3965511536714104,-1.218686350049832
818,-1.4142290239104809,-1.6502836489333166,-1.585092940120794,-1.3816259466608156
819,-1.5915741188280863,-1.8635509048357528,-1.7894656682147645,-1.5576281575851996
820,-1.7816800932374341,-2.093369367262636,-2.0097348007835927,-1.746523296066083
821,-1.9842047496669022,-2.339603973137501,-2.2458098735781316,-1.9479628709807584
822,-2.1986265956688458,-2.60193871129773,-2.4974374941497146,-2.1614105954234155
823,-2.424239290656422,-2.8798711530112495,-2.7641968983451575,-2.386136392262959
824,-2.6601491542945586,-3.172710053570957,-3.045498234886132,-2.621213730138484
825,-2.905275986216379,-3.47957618798803,-3.3405836893542626,-2.8655205641020167
826,-3.158357384725258,-3.799406512274124,-3.6485314963064135,-3.117744085728061
827,-3.4179566814948004,-4.130961665964293,-3.968262823760655,-3.3763894091594246
828,-3.6824745313092375,-4.472836753283495,-4.298551449515983,-3.639792233692553
829,-3.9501641121258038,-4.823475261703041,-4.638036085284562,-3.906135431859263
830,-4.2191498030730346,-5.181185899635152,-4.985235143968697,-4.173469416557638
831,-4.487449118635958,-5.544162061754596,-5.338563689078309,-4.43973604389366
832,-4.752997588679173,-5.910503562951712,-5.696352254633586,-4.702795712473421
833,-5.013676188752436,-6.278240222139046,-6.056867180177998,-4.960457227524238
834,-5.267340846055295,-6.645356826807511,-6.418332069814382,-5.210509912105563
835,-5.511853476271556,-7.009818969879604,-6.778949957327797,-5.450757370502605
836,-5.745113947855201,-7.369599223279991,-7.136925742066389,-5.6790522433006565
837,-5.965092325577071,-7.722703098664628,-7.490488452627607,-5.8933312420354245
838,-6.169860716103712,-8.067194245498602,-7.837912897574699,-6.091649715826804
839,-6.35762402645082,-8.401218350358791,-8.177540274175039,-6.272214984788909
840,-6.526748952191623,-8.723025228781593,-8.507797327091671,-6.4334176765950835
841,-6.675790536603921,-9.030988641600505,-8.827213678497277,-6.573860324158475
842,-6.803515684204161,-9.323623420547086,-9.134436988514189,-6.692382524131558
843,-6.908923071415693,-9.599599551562283,-9.4282456494043,-6.788082017300069
844,-6.991258971960523,-9.857752937078091,-9.707558767629664,-6.860331131733264
845,-7.0500286029765595,-10.097092638497607,-9.971443243777708,-6.908788125905737
846,-7.085002697463908,-10.316804485034,-10.219117820312922,-6.933403079525875
847,-7.096219116713755,-10.516251022653435,-10.449954030025111,-6.934418101615297
848,-7.083979429863116,-10.694967864740462,-10.663474042673815,-6.912361755236544
849,-7.048840503522255,-10.852656591920352,-10.85934547240504,-6.868037732676004
850,-6.991601259456583,-10.989174429956735,-11.037373272723201,-6.80250795025886
851,-6.913284869642517,-11.104521009653025,-11.197488907805742,-6.717070364695943
852,-6.815116762901371,-11.198822579269859,-11.339737047430534,-6.61323193940147
853,-6.69849891318245,-11.272314096429103,-11.46426008647783,-6.492677306202225
854,-6.5649809640840715,-11.325319671425838,-11.571280837695936,-6.357233772191725
855,-6.416228815358118,-11.358231866307761,-11.661083787135096,-6.208833410483498
856,-6.253991353307567,-11.37149037341782,-11.733995334467501,-6.049473045086548
857,-6.080066046922753,-11.36556060317729,-11.79036346459771,-5.88117299238354
858,-5.8962641544815995,-11.340912703983346,-11.83053731196738,-5.705935453580087
859,-5.704376290772955,-11.298001517863474,-11.854847084376695,-5.525703463397251
860,-5.506139093187065,-11.237247944941812,-11.863584808763694,-5.342321290137289
861,-5.303203696230475,-11.159022149042935,-11.856986347175358,-5.157497151555281
862,-5.097106679549212,-11.063628987258447,-11.835215107321023,-4.972769060703545
863,-4.889244095588509,-10.951295989494248,-11.7983478390283,-4.789474547509592
864,-4.680849111146387,-10.822164151405353,-11.746362866250967,-4.60872491711285
865,-4.472973714104881,-10.676281737226937,-11.679131054827856,-4.431384607077204
866,-4.266474844562566,-10.513601219337275,-11.596409759950363,-4.258056094958146
867,-4.062005210585305,-10.333979410431962,-11.497839935396245,-4.089070687987848
868,-3.8600089450233854,-10.137180773404992,-11.382946520284154,-3.9244854006274705
869,-3.6607221535256866,-9.922883824822202,-11.251142149761563,-3.764085996266707
870,-3.46417829728601,-9.690690481562495,-11.101734165116827,-3.607396139282982
871,-3.2702182495270065,-9.440138138028594,-10.933934827840211,-3.4536924758146146
872,-3.078504764625334,-9.170714204430153,-10.746874572729753,-3.3020253386338205
873,-2.8885410053826925,-8.881872786042752,-10.539618068838925,-3.1512446558976
874,-2.6996926893619304,-8.573053139950536,-10.311182795447984,-3.0000305375303813
875,-2.5112133413397295,-8.243699510359722,-10.060559784775943,-2.846927918509358
876,-2.322272077448131,-7.8932819167524,-9.786736135159211,-2.6903845570688056
877,-2.1319832988439527,-7.5213174514055,-9.48871885903712,-2.528791619193908
878,-1.9394376397086404,-7.127391634425897,-9.165559600199314,-2.3605260297855954
879,-1.7437334965109845,-6.7111793755569575,-8.816379734989091,-2.183993736247956
880,-1.5440084627491624,-6.272465102498516,-8.440395362860734,-1.9976730123580666
881,-1.3394700053544901,-5.81116163505073,-8.036941692904437,-1.8001569291892208
882,-1.129424744681821,-5.327327412534982,-7.605496344452513,-1.5901941353279974
883,-0.9133057382210331,-4.821181717948898,-7.14570110118746,-1.3667271201035118
884,-0.6906972172189623,-4.293117585261325,-6.657381688597866,-1.1289271802306518
885,-0.4613562835083696,-3.7437121250376384,-6.140565183315124,-0.8762253711644385
886,-0.22523113917810256,-3.173734056936251,-5.59549470882207,-0.6083387984249247
887,0.017524507502256467,-2.5841482941482643,-5.022641124157538,-0.32529168985357076
888,0.2665411420191352,-1.976117483125078,-4.422711469359106,-0.02743078564206241
889,0.521227455069936,-1.3510004605159547,-3.796653992218072,0.28456531278454844
890,0.7807687943304925,-0.710347646743529,-3.145659644127903,0.6096830833632526
891,1.0441301094240405,-0.055893450817080075,-2.4711599970185834,0.9465774469952853
892,1.3100633691000958,0.6104541872790279,-1.774821597225282,1.293581570799255
893,1.5771193585460976,1.2866269428836026,-1.058536834348422,1.6487230107963324
894,1.8436636969720093,1.9704117255283735,-0.3244114625462605,2.0097459789832985
895,2.1078968513998415,2.6594685173848225,0.42525103276866344,2.3741394088517356
896,-1.1209008889551532e-13,-5.784544865112651e-14,-6.047937980750324e-14,-5.1817055163225425e-14
897,-2.495999522013485e-12,-1.242946380144313e-12,-1.289958129823352e-12,-1.1090827967677953e-12
898,-2.876435549900133e-11,-1.4767819360765937e-11,-1.536394597726789e-11,-1.255238214754408e-11
899,-2.2077130601455897e-10,-1.174933517791492e-10,-1.2238598404824377e-10,-9.456526135887341e-11
900,-1.2726264470015893e-09,-7.041984495684091e-10,-7.345102919437104e-10,-5.346030816045876e-10
901,-5.895824567578514e-09,-3.4007402853091285e-09,-3.5520222215661344e-09,-2.4272106225152687e-09
902,-2.2940758309322323e-08,-1.3823086333309766e-08,-1.445829636848847e-08,-9.251661374066005e-09
903,-7.735037827945578e-08,-4.876964689533789e-08,-5.108236147846421e-08,-3.055532866016094e-08
904,-2.3136547422171178e-07,-1.5281317153950286e-07,-1.602804985394601e-07,-8.954867926299324e-08
905,-6.252594887824381e-07,-4.328517285624774e-07,-4.5460822649833716e-07,-2.3726996657457383e-07
906,-1.549167355430733e-06,-1.1240946046383444e-06,-1.1820913252414506e-06,-5.76954659059977e-07
907,-3.5610242694485693e-06,-2.7071213058110433e-06,-2.8501785910184833e-06,-1.3033240031083436e-06
908,-7.668920285944129e-06,-6.1027732178912845e-06,-6.432368155319167e-06,-2.762656458372987e-06
909,-1.5598925350464472e-05,-1.2979223447999016e-05,-1.3694123805113481e-05,-5.54066298751008e-06
910,-3.0171258439764912e-05,-2.6212950999675516e-05,-2.7682637451101e-05,-1.0586274541209363e-05
911,-5.58082454122927e-05,-5.055172748597987e-05,-5.343192247164631e-05,-1.938041068967945e-05
912,-9.919663297843603e-05,-9.353225526069543e-05,-9.893975576975099e-05,-3.4159616185531394e-05
913,-0.00017012440707743736,-0.00016670693159786707,-0.00017647526207239408,-5.8205132531167636e-05
914,-0.00028250826151824196,-0.0002872325832042589,-0.00030427468086061555,-9.620849583966304e-05
915,-0.00045562226817106075,-0.00047986828301410493,-0.0005086774607902742,-0.0001547250530360702
916,-0.0007155311636664754,-0.000779419083829244,-0.0008267448748614304,-0.00024272674871862556
917,-0.001096723136645681,-0.0012336474903150872,-0.0013093886674334894,-0.0003722649960037143
918,-0.0016439273061183766,-0.0019066548538613688,-0.002025017913728523,-0.0005592531971245075
919,-0.0024140905006749167,-0.0028827110646768394,-0.0030636886514522053,-0.0008243762618311552
920,-0.0034784767734768137,-0.004270483726784991,-0.004541713562898348,-0.0011941309970952168
921,-0.004924841655668238,-0.006207588544954776,-0.0066066589439604615,-0.001701996262567409
922,-0.0068596218697866635,-0.008865352291690385,-0.009442624538485116,-0.0023897251532647664
923,-0.009410070561863928,-0.012453649989266905,-0.013275669907623399,-0.0033087431660888994
924,-0.012726258542476696,-0.01722565044461506,-0.01837922038594851,-0.0045216264521953506
925,-0.016982854011361133,-0.023482280609045985,-0.02507925800806844,-0.006103623135971153
926,-0.022380587251816034,-0.03157620090990175,-0.03375907976933385,-0.008144168770579965
927,-0.02914730335276209,-0.041915072075273986,-0.044863388846876795,-0.010748334989987174
928,-0.03753850572544713,-0.054963890193785586,-0.05890147542065193,-0.014038139184030664
929,-0.047837296559198814,-0.07124617169361482,-0.07644924368530848,-0.01815363355637237
930,-0.060353627795500436,-0.09134378413325903,-0.0981498513468367,-0.023253685251258968
931,-0.07542278789408315,-0.11589524233713985,-0.12471274771720303,-0.029516356344008704
932,-0.09340306563817703,-0.14559232224017613,-0.15691092633862935,-0.03713879425894918
933,-0.11467255230618184,-0.18117488616147986,-0.19557624728561815,-0.0463365502624518
934,-0.13962506732949978,-0.22342386202660172,-0.2415927318642633,-0.05734225639756494
935,-0.1686652194288503,-0.27315237382862234,-0.2958877869251319,-0.07040360948845861
936,-0.20220264435201069,-0.33119507955379773,-0.3594213756901529,-0.08578063414233182
937,-0.24064549078946035,-0.3983958338278921,-0.433173214894078,-0.10374222414286317
938,-0.28439325681810546,-0.4755938534236128,-0.518128142037509,-0.12456199208950175
939,-0.33382910923371256,-0.5636086221951879,-0.615259859457676,-0.14851348917623097
940,-0.3893118461970462,-0.6632238256960896,-0.7255133215790798,-0.17586488905295286
941,-0.45116768849794553,-0.7751706525605367,-0.8497860860410805,-0.2068732601729672
942,-0.5196821052379799,-0.9001108378104408,-0.9889089965037194,-0.2417785784057414
943,-0.5950918947891337,-1.0386198510514901,-1.1436266031142024,-0.28079765469358436
944,-0.6775777506337579,-1.1911706489125358,-1.3145777544447823,-0.324118170101824
945,-0.7672575434674064,-1.3581184153623895,-1.5022768110797753,-0.37189302193844653
946,-0.8641805453243856,-1.5396867054370722,-1.7070959351957458,-0.42423518910545316
947,-0.9683228083261017,-1.7359553875642122,-1.929248902119683,-0.48121332211280565
948,-1.079583890123253,-1.9468507475841201,-2.1687768590619783,-0.5428482530735402
949,-1.197785090656715,-2.1721380745796113,-2.425536423507214,-0.6091106035602903
950,-1.322669331187542,-2.4114169958847778,-2.699190469958028,-0.6799196437352093
951,-1.4539027675658274,-2.6641197675755803,-2.989201900003293,-0.7551435252637702
952,-1.5910781866030974,-2.9295126590312113,-3.294830628371715,-0.8346009741415565
953,-1.7337201886226608,-3.206700497671669,-3.6151339482539644,-0.9180644890143982
954,-1.8812921123831405,-3.4946343647158606,-3.948970364391596,-1.00526504743298
955,-2.033204612185594,-3.792122356776275,-4.295006904053816,-1.0958982784315612
956,-2.188825752503138,-4.09784325325489,-4.65172983603588,-1.189632016462336
957,-2.3474924441069,-4.410362857662833,-5.01745864835205,-1.2861151104661173
958,-2.508523008401242,-4.728152713874292,-5.390363058585079,-1.3849873238943484
959,-2.6712306243866646,-5.049610837569784,-5.76848275907591,-1.4858901277687544
960,-2.8349373861294778,-5.373084050271616,-6.1497495343033,-1.5884781601446762
961,-2.9989886786026703,-5.696891459873192,-6.532011331639476,-1.6924311022841791
962,-3.1627675670659694,-6.0193485987224316,-6.913057820549045,-1.7974657050343943
963,-3.325708890567472,-6.338791709235262,-7.2906469401934775,-1.9033476888775755
964,-3.4873127543426063,-6.653601658496835,-7.662531911839503,-2.0099032382967827
965,-3.6471571292175957,-6.96222696779728,-8.026488180494452,-2.1170298157302763
966,-3.804909288502388,-7.263205460571634,-8.380339749385652,-2.2247060325066337
967,-3.9603358437022096,-7.555184062352603,-8.721984380433241,-2.333000333607604
968,-4.1133111786714105,-7.836936328261186,-9.04941715261237,-2.44207827957175
969,-4.26382412619528,-8.1073773260372,-9.360751896776872,-2.552208241799997
970,-4.411982779729584,-8.365575564134518,-9.654240058823781,-2.663765366158191
971,-4.558017384240495,-8.610761723234079,-9.928286581831166,-2.7772337029765857
972,-4.702281301738984,-8.842334023767764,-10.18146244105533,-2.8932064478990536
973,-4.845250097171876,-9.059860139708974,-10.412513512798421,-3.0123842858776864
974,-4.987518836893054,-9.263075647941015,-10.6203655088874,-3.135571878157132
975,-5.129797733210366,-9.451879080949183,-10.804124762935384,-3.2636725775539843
976,-5.272906302862055,-9.62632372644638,-10.963074713135828,-3.3976814990063677
977,-5.417766233297589,-9.786606388998225,-11.096667989857972,-3.5386771087014375
978,-5.565393167165296,-9.933053394087896,-11.204514085876415,-3.6878115247122554
979,-5.716887621614536,-10.066104172888702,-11.286362664051655,-3.8462997437785056
980,-5.873425254431963,-10.18629281507358,-11.342082643244886,-4.015408021587661
981,-6.036246673581347,-10.294228016323595,-11.371637299841796,-4.1964416368021205
982,-6.206646960812298,-10.390571876100376,-11.375055731054742,-4.390732261612426
983,-6.385965044626226,-10.476018019277213,-11.352401148477515,-4.599625143732889
984,-6.575573014616135,-10.551269522197616,-11.303736606920266,-4.824466277021374
985,-6.7768654201386616,-10.617017119730448,-11.229088924135473,-5.066589701417059
986,-6.991248543936059,-10.67391815526143,-11.128411710041295,-5.327305029324757
987,-7.220129588485469,-10.722576710893684,-11.00154859601515,-5.607885247122132
988,-7.464905662487181,-10.763525321233125,-10.848197930199358,-5.909554789773075
989,-7.726952410075755,-10.797208631998695,-10.66788037572314,-6.233477836582492
990,-8.007612089049406,-10.823969315459191,-10.459911005367557,-6.580746730075816
991,-8.308180879422936,-10.844036499620714,-10.223377616795059,-6.95237038093132
992,-8.629895192285472,-10.857516908534103,-9.957127084176635,-7.349262492686051
993,-8.973916753150686,-10.864388848510078,-9.659761601638046,-7.772229422997072
994,-9.341316254977457,-10.864499110927323,-9.329646648693563,-8.221957495380083
995,-9.733055414322559,-10.857562798234632,-8.964932406502173,-8.698999587606787
996,-10.14996731931888,-10.84316601721982,-8.56359016753318,-9.203760850496325
997,-10.59273502912299,-10.820771324143836,-8.123465004481531,-9.736483453010484
998,-11.061868469105256,-10.789725751335942,-7.642345595391856,-10.297230304958656
999,-11.557679761630025,-10.74927119560685,-7.118051643761918,-10.885867775262739
1000,-12.08025723546147,-10.698556906476513,-6.548538792471403,-11.502047499203574
1001,-12.629438463779657,-10.636653777628805,-5.932020321060097,-12.145187449583448
1002,-13.204782787233961,-10.562570118827427,-5.267104254021709,-12.8144525312169
1003,-13.805543879901009,-10.475268568093824,-4.552943814268747,-13.50873504231907
1004,-14.430643007929804,-10.37368379529046,-3.7893984549191044,-14.226635426783412
1005,-15.078643708685128,-10.25674064810514,-2.9772020205526095,-14.966443814573005
1006,-15.747728678269155,-10.123372399253784,-2.118133953823972,-15.726122910073418
1007,-16.4356796937801,-9.972538768728294,-1.2151889025793878,-16.503292837019348
1008,-17.139861410554026,-9.80324341614149,-0.2727396230056925,-17.295218580589815
1009,-17.857209861767366,-9.614550624560316,0.7033122599561312,-18.098800680045333
1010,-18.584226446945564,-9.405600927504608,1.7054032619993331,-18.910569817063347
1011,-19.31697812691136,-9.175625463853807,2.7241984718735823,-19.726685914640147
1012,-20.051104446259,-8.923958880126564,3.748510913374597,-20.54294230875864
1013,-20.78183188226582,-8.650050634949862,4.7652550192071335,-21.354775480473705
1014,-21.503995873913855,-8.353474595603442,5.759438899054305,-22.157280740946238
1015,-22.212070719977106,-8.033936850543798,6.714199416776303,-22.94523414831575
1016,-22.900207355314997,-7.6912816941598265,7.6108832713847105,-23.71312080583905
1017,-23.562278824602064,-7.325495770224551,8.429176323562926,-24.45516954869115
1018,-24.191933078176387,-6.9367103882656656,9.147282349134343,-25.165393875982268
1019,-24.78265252124357,-6.525202052197892,9.742151261835282,-25.837638829101433
1020,-25.32781956114409,-6.0913912629707605,10.189755661197124,-26.465633361997632
1021,-25.82078722340665,-5.635839676698473,10.465413359323888,-27.043047598148373
1022,-26.254953751075526,-5.159245716816918,10.544152354327766,-27.56355422734272
1023,-26.623839967920443,-4.662438753337318,10.401113577765244,-28.020893167330655
1024,-8.283356544517818e-14,-4.440999160598461e-14,5.635929096612746e-13,-6.589119887179604e-14
1025,-1.8803140145700865e-12,-9.63625905216529e-13,1.2485031660331415e-11,-1.4957761757910918e-12
1026,-2.1579791982462557e-11,-1.1488366670411227e-11,1.4864110619281872e-10,-1.729233683007536e-11
1027,-1.6462276555817787e-10,-9.177316231340642e-11,1.1832803454230792e-09,-1.330281367209158e-10
1028,-9.414937686837816e-10,-5.523679553198884e-10,7.096460325400388e-09,-7.681448766868945e-10
1029,-4.319422269147766e-09,-2.679212342300858e-09,3.429497953795971e-08,-3.5628663966649283e-09
1030,-1.661174824864734e-08,-1.0939118238126327e-08,1.395050437045223e-07,-1.3872976657184472e-08
1031,-5.525202053783437e-08,-3.8768739227379815e-08,4.925490836216568e-07,-4.679057662936809e-08
1032,-1.627164789345935e-07,-1.220166726023789e-07,1.5442960802995152e-06,-1.3995743394600935e-07
1033,-4.3217261096395455e-07,-3.470982366264242e-07,4.376248065044307e-06,-3.7815523425564345e-07
1034,-1.0506340202675232e-06,-9.050171462959234e-07,1.1367186749557771e-05,-9.366418455537867e-07
1035,-2.3663227544082126e-06,-2.187506431566845e-06,2.7372560069918345e-05,-2.1523092259306804e-06
1036,-4.987468047761764e-06,-4.947332890960494e-06,6.167996021661644e-05,-4.63376994248992e-06
1037,-9.919829304740827e-06,-1.0550790885016124e-05,0.00013107304320226072,-9.42317504624184e-06
1038,-1.8749771259832376e-05,-2.1355931781187636e-05,0.00026439882323505635,-1.8223624972361465e-05
1039,-3.387874552767455e-05,-4.1254408235847215e-05,0.000509080826693601,-3.3706176988058634e-05
1040,-5.881363007430622e-05,-7.641723315596923e-05,0.0009400444915481772,-5.9909478204349395e-05
1041,-9.851568476508598e-05,-0.00013628461488863315,0.001671513709885857,-0.00010274286599690034
1042,-0.0001598090229869868,-0.00023483683179210501,0.0028720924093696013,-0.00017060037103707034
1043,-0.0002518475499556138,-0.0003921765532087669,0.004783458668045383,-0.00027508850185185
1044,-0.0003866373192113862,-0.0006364430481452776,0.0077428698052604975,-0.0004318651299058145
1045,-0.0005796092637545012,-0.0010060655619024657,0.012209506838340206,-0.0006615804478491673
1046,-0.0008502353424629779,-0.0015523472567576847,0.018794480221625335,-0.0009909041005584354
1047,-0.001222679370913949,-0.0023423532014654335,0.028294083307136057,-0.001453615461453651
1048,-0.0017264722133090691,-0.0034620568202842245,0.041725625406194365,-0.0020917269343641983
1049,-0.0023971996308871416,-0.005019679942868409,0.06036491465936587,-0.0029566034497606804
1050,-0.003277189986001627,-0.00714914313306312,0.08578420552325537,-0.004110035427145677
1051,-0.004416188306417114,-0.0100135262874231,0.11988919063581027,-0.005625217889550716
1052,-0.005872003025077181,-0.013808425464903818,0.16495341613589803,-0.007587585627610834
1053,-0.007711112060930952,-0.018765081285178682,0.22364834633420028,-0.010095453718786609
1054,-0.010009215757239323,-0.025153147594323185,0.2990672095376201,-0.013260414583831382
1055,-0.012851725464906868,-0.03328296683447169,0.39474073116389735,-0.017207447233729047
1056,-0.01633417813716651,-0.04350722086509046,0.5146429096852481,-0.022074701380116333
1057,-0.020562569007551542,-0.0562218328781333,0.6631851189833634,-0.028012928394332774
1058,-0.02565359598449169,-0.07186600737409124,0.8451970277558497,-0.03518454223305139
1059,-0.031734810509309874,-0.09092131063375054,1.065893109819664,-0.04376230577776861
1060,-0.03894467007341348,-0.11390971334284394,1.330823872524136,-0.053927650897566445
1061,-0.0474324873351548,-0.14139053953940428,1.6458113450568999,-0.06586865333099118
1062,-0.057358269944467306,-0.1739562913319624,2.01686883254062,-0.07977769567356188
1063,-0.0688924439903393,-0.21222734630094753,2.450105441419666,-0.09584886290643019
1064,-0.08221545266807144,-0.25684555350917576,2.951616400722615,-0.11427512461938309
1065,-0.09751722054437617,-0.30846678391131455,3.527360724925606,-0.13524536603099616
1066,-0.1149964728666979,-0.36775252090054583,4.1830282691023575,-0.15894133579998151
1067,-0.13485989882394223,-0.43536060593118575,4.923898697488018,-0.1855345821938205
1068,-0.15732114750823312,-0.5119352817263525,5.7546953047707845,-0.21518345019443094
1069,-0.18259964545944024,-0.5980967006217465,6.6794369789685675,-0.24803021039103693
1070,-0.21091922502676558,-0.6944300872456928,7.701291861257061,-0.2841983859731486
1071,-0.24250655340708602,-0.8014747622149336,8.822436429810834,-0.32379033690980197
1072,-0.277589353313109,-0.9197132461914691,10.043923802880407,-0.3668851508055754
1073,-0.31639440806349706,-1.0495606710167464,11.36556501565664,-0.4135368784632326
1074,-0.3591453467504926,-1.1913547264085265,12.78582687425459,-0.46377313950665494
1075,-0.40606020924784986,-1.345346366738919,14.301749730310855,-0.5175941102778608
1076,-0.4573487962877749,-1.5116914927396026,15.908888156668588,-0.5749718934085923
1077,-0.5132098166153266,-1.690443807782974,17.60127704716057,-0.6358502567206543
1078,-0.5738278510769818,-1.8815490279815945,19.371425123274236,-0.7001447190341574
1079,-0.6393701619951925,-2.0848406001674027,21.210337221743487,-0.7677429524806021
1080,-0.7099833848256262,-2.3000370523993503,23.107566076197337,-0.8385054652734377
1081,-0.7857901474313275,-2.5267410686486733,25.051293610852582,-0.912266525680577
1082,-0.8668856699740981,-2.7644403434726526,27.028441053860064,-0.9888352871449742
1083,-0.9533344051260376,-3.012510234656609,29.024806471767402,-1.0679970759698119
1084,-1.0451667837892582,-3.2702181929112366,31.025227643974464,-1.1495148064880518
1085,-1.1423761355668582,-3.5367299087496296,33.01376755561896,-1.2331304938751753
1086,-1.24491585571009,-3.8111170786522695,34.97391920633238,-1.3185668414070708
1087,-1.352696891101067,-4.09236665656233,36.888825926243875,-1.4055288866367488
1088,-1.4655856169714,-4.379391423589168,38.741512972759075,-1.4937056992152065
1089,-1.583402173453172,-4.671041679400819,40.51512586272518,-1.5827721313794145
1090,-1.705919326666795,-4.966117833911256,42.193170682553024,-1.6723906298850233
1091,-1.8328619128788206,-5.263383658144466,43.75975151870557,-1.7622131247814956
1092,-1.9639069163863314,-5.561579939076652,45.19980016473139,-1.8518830153626482
1093,-2.0986842223134956,-5.859438275169406,46.499293387835095,-1.9410372763993256
1094,-2.236778074557195,-6.155694747404954,47.645453274162136,-2.029308708013929
1095,-2.377729256833736,-6.449103204952763,48.626926511244186,-2.1163283501139896
1096,-2.5210380013720495,-6.738447915000279,49.433938899761074,-2.201728077229741
1097,-2.666167615573492,-7.022555342469023,50.05842190418903,-2.285143382206374
1098,-2.8125488022621457,-7.300304846854667,50.494108640523805,-2.3662163479690626
1099,-2.959584634315921,-7.570638109679256,50.736597345132814,-2.4445987960820257
1100,-3.106656129806933,-7.832567136308813,50.783381056854175,-2.519955589658976
1101,-3.253128359610028,-8.08518070936009,50.63384295892523,-2.591968056938558
1102,-3.3983570061145616,-8.327649206717759,50.28921755200901,-2.660337491057098
1103,-3.5416952795481045,-8.559227734383027,49.752518548310206,-2.7247886716888634
1104,-3.6825010877831534,-8.779257562024327,49.028435073662614,-2.7850733456259693
1105,-3.820144346559716,-8.987165886235317,48.123198424377705,-2.840973596287698
1106,-3.9540143099768716,-9.182463982171347,47.044422234411044,-2.892305026790608
1107,-4.083526796020755,-9.364743837517304,45.80091945325306,-2.9389196777742153
1108,-4.208131178897167,-9.533673392800308,44.40250000470093,-2.9807085998375724
1109,-4.327317019036184,-9.68899053817675,42.85975338201228,-3.0176040013165197
1110,-4.440620202764946,-9.830496038421222,41.18382072856714,-3.0495808952566823
1111,-4.547628466712098,-9.958045574522247,39.38616114988455,-3.076658174775064
1112,-4.647986186963507,-10.071541101828782,37.478317099606095,-3.098899053447587
1113,-4.741398319838714,-10.170921731053957,35.471683677986775,-3.116410816730506
1114,-4.827633389933008,-10.256154339758389,33.37728657770797,-3.1293438414647587
1115,-4.906525431816351,-10.327224118482764,31.205573211674814,-3.137889852928897
1116,-4.977974804579988,-10.384125247889669,28.966221265986796,-3.1422794024309177
1117,-5.041947813414831,-10.426851891636423,26.667968545393233,-3.1427785628674805
1118,-5.0984750897543725,-10.455389674861944,24.31846752679586,-3.139684854899172
1119,-5.147648701325315,-10.469707800832532,21.924167518739974,-3.133322432271423
1120,-5.189617985715389,-10.46975193919735,19.490226752554094,-3.1240365711994653
1121,-5.2245841256701215,-10.455437999198395,17.02045611604502,-3.112187525439798
1122,-5.252793511054557,-10.426646880773246,14.517295596295519,-3.0981438254601046
1123,-5.274529960928992,-10.383220276419452,11.981823837403452,-3.0822751167089972
1124,-5.290105908977306,-10.324957577500125,9.413800555286661,-3.064944648000033
1125,-5.299852685855612,-10.251613920782265,6.811740898092495,-3.0465015359804095
1126,-5.304110061967609,-10.162899394711019,4.17302020997547,-3.027272944998652
1127,-5.30321524268147,-10.058479410407234,1.4940070600356563,-3.0075563328430337
1128,-5.297491534004003,-9.937976229691596,-1.229778151817364,-2.9876119212421943
1129,-5.287236919141482,-9.800971631539326,-4.003482194298163,-2.9676555551968744
1130,-5.272712804152241,-9.64701068911069,-6.832719220743324,-2.9478521167080154
1131,-5.254133203080746,-9.47560662165228,-9.723356169505184,-2.9283096559434165
1132,-5.231654638788166,-9.2862466788061,-12.681287594611074,-2.9090743961419947
1133,-5.2053670346217435,-9.07839900881889,-15.712204367633232,-2.8901267575438263
1134,-5.175285863768278,-8.85152045638458,-18.821360801052233,-2.8713785304522026
1135,-5.141345807471778,-8.605065229934565,-22.013344765938218,-2.8526713084172957
1136,-5.103396150305398,-8.338494371681357,-25.291855313144527,-2.833776269869515
1137,-5.061198110652945,-8.051285956231458,-28.659492159708247,-2.8143953708802822
1138,-5.014424268014413,-7.74294593480222,-32.11756117465442,-2.794163983790746
1139,-4.962660206475322,-7.4130195318023,-35.66589969629016,-2.772654987013675
1140,-4.905408446626105,-7.0611030887009765,-39.302725143089866,-2.7493842811879707
1141,-4.842094687496076,-6.686856236811682,-43.0245099503703,-2.7238176768322493
1142,-4.772076326944874,-6.290014266117787,-46.82588538409075,-2.695379069442818
1143,-4.694653174836626,-5.870400542017021,-50.69957626104569,-2.663459790288452
1144,-4.609080219675613,-5.4279388064574245,-54.636368051757934,-2.6274289955582275
1145,-4.514582257640321,-4.962665185111761,-58.625107269163706,-2.586644933504784
1146,-4.4103701444589465,-4.474739708800695,-62.65273546344636,-2.5404669091935674
1147,-4.295658386564874,-3.9644571461736686,-66.70435656172894,-2.4882677497646513
1148,-4.169683749590796,-3.432256936525323,-70.76333672106034,-2.4294465600383766
1149,-4.031724530487211,-2.8787320073387828,-74.81143531399596,-2.363441549073614
1150,-3.8811201151459573,-2.3046362613759843,-78.8289651471844,-2.2897427030252238
1151,-3.7172904268842197,-1.7108905234025422,-82.79497953303245,-2.20790407832611
1152,-1.1767343031930024e-13,-4.797559190319129e-14,-7.569299478137221e-14,-9.69569708069733e-14
1153,-2.7120895298129243e-12,-1.0239581412266112e-12,-1.6655821638905628e-12,-2.238836252633015e-12
1154,-3.201344743800434e-11,-1.2164334298369056e-11,-1.9772300228559396e-11,-2.638407765757701e-11
1155,-2.516807814096765e-10,-9.689522444631329e-11,-1.570335454596657e-10,-2.0711993055251594e-10
1156,-1.4856636959979519e-09,-5.81709611520726e-10,-9.38914667203383e-10,-1.2213050604257301e-09
1157,-7.045013466755268e-09,-2.8150406013664027e-09,-4.520713235843303e-09,-5.787497419276352e-09
1158,-2.8039267733297353e-08,-1.1470012233847273e-08,-1.831054672731431e-08,-2.302760930589462e-08
1159,-9.661554457327965e-08,-4.057618598565868e-08,-6.434089983971061e-08,-7.935183804683821e-08
1160,-2.949987530333199e-07,-1.2750402492072662e-07,-2.0069715160147802e-07,-2.423773599174298e-07
1161,-8.127411276738364e-07,-3.622306071110057e-07,-5.657066770912555e-07,-6.681787241044754e-07
1162,-2.049911367304009e-06,-9.43489562458767e-07,-1.4614518080946354e-06,-1.686621210700865e-06
1163,-4.789540065544452e-06,-2.2787831737535463e-06,-3.5003024202675295e-06,-3.9441661459440265e-06
1164,-1.04678216431132e-05,-5.15144152164766e-06,-7.846132211228374e-06,-8.627716972099614e-06
1165,-2.157459167566658e-05,-1.0984490919175042e-05,-1.6590029423372706e-05,-1.7796059767849846e-05
1166,-4.2218665122421184e-05,-2.2237425644188157e-05,-3.3307810529563034e-05,-3.484650898103069e-05
1167,-7.889203957510623e-05,-4.297735317300824e-05,-6.385256555698561e-05,-6.514289794310123e-05
1168,-0.0001414632646469801,-7.96696719719965e-05,-0.00011743885699083409,-0.00011682670197626493
1169,-0.00024442328517161,-0.0001422347636010836,-0.0002080751782195373,-0.0002018258049904411
1170,-0.00040839692503647336,-0.00024541557830795645,-0.0003563971234298787,-0.0003370654773205208
1171,-0.0006619203142084492,-0.0004104960790390901,-0.0005919449341659106,-0.0005458740510305411
1172,-0.0010434696497521176,-0.0006674021017512401,-0.0009559154739978036,-0.0008595623132776029
1173,-0.0016037106153667913,-0.0010572043285486195,-0.0015044003912969,-0.0013191417112216304
1174,-0.0024079215902103497,-0.0016350280091151136,-0.0023120997660277896,-0.001977133069112617
1175,-0.00353852848403418,-0.0024733562614663277,-0.003476474741576752,-0.0028994056073398944
1176,-0.0050976755435795515,-0.0036656938694795494,-0.0051222746526443305,-0.0041669764206004704
1177,-0.007209745502180495,-0.005330537254402014,-0.007406345348174078,-0.005877693810689517
1178,-0.01002373453076705,-0.007615574621799796,-0.010522597312020711,-0.008147724362529916
1179,-0.013715382970306904,-0.010702019126175143,-0.014706986409881181,-0.011112763581390702
1180,-0.01848896198048224,-0.014808958213742372,-0.020242338191715153,-0.01492889326068063
1181,-0.024578619028549683,-0.02019758502075467,-0.027462830021600503,-0.019773015336860492
1182,-0.032249191402429905,-0.027175163662021013,-0.03675793496007537,-0.02584280151072733
1183,-0.04179640640653344,-0.03609857017196364,-0.048575627986090296,-0.03335611002818998
1184,-0.05354639929178972,-0.04737724535336421,-0.06342465912824466,-0.042549835366256075
1185,-0.06785449494193488,-0.0614753952876442,-0.08187570933143573,-0.053678172780656785
1186,-0.08510321646990729,-0.0789132800423656,-0.10456126307125443,-0.06701029728625445
1187,-0.10569950268753364,-0.1002674412863248,-0.1321740562730107,-0.08282747510777393
1188,-0.13007113640766307,-0.12616973503424236,-0.16546398826102005,-0.1014196443211513
1189,-0.15866240627200515,-0.15730505637360495,-0.20523342140716824,-0.12308151962115432
1190,-0.19192904584681178,-0.1944076684021879,-0.2523308309313448,-0.14810829319879829
1191,-0.23033251462834242,-0.23825607720406497,-0.30764280892699153,-0.17679101891175905
1192,-0.2743337058061866,-0.2896664278522383,-0.37208447008024564,-0.2094117796761519
1193,-0.3243861845463517,-0.34948443235333265,-0.4465883506057829,-0.24623874783449745
1194,-0.38092907758135186,-0.4185758782320461,-0.5320919354811876,-0.28752125488059643
1195,-0.44437974946644904,-0.4978158050812028,-0.6295239909521844,-0.33348499023470707
1196,-0.5151264124396318,-0.588076474802181,-0.7397899183454422,-0.38432744876594427
1197,-0.5935208249010108,-0.6902142983250884,-0.8637563803502628,-0.44021374352841797
1198,-0.6798712376831323,-0.8050559162297628,-1.0022354810631005,-0.5012728938428848
1199,-0.7744357472431205,-0.9333836618292896,-1.1559688052486907,-0.5675946896004415
1200,-0.8774162105604218,-1.0759206619386592,-1.3256116395655462,-0.6392272207184976
1201,-0.9889528678911279,-1.2333158518420118,-1.5117177081640798,-0.7161751463049923
1202,-1.1091198067333807,-1.4061291961287787,-1.7147247565041235,-0.79839876158743
1203,-1.2379213836378737,-1.5948174154861134,-1.9349413100995758,-0.8858139024126724
1204,-1.3752897002493936,-1.799720520794669,-2.172534919092636,-0.9782927075909944
1205,-1.5210832067482085,-2.0210494497750595,-2.427522175278105,-1.0756652390930443
1206,-1.675086480346629,-2.25887508800321,-2.6997607559004377,-1.1777219396837946
1207,-1.8370111994135714,-2.5131189356206147,-2.9889437089544804,-1.2842168875313242
1208,-2.0064983059002657,-2.7835456539986625,-3.2945961488049296,-1.3948717881367119
1209,-2.183121320794479,-3.069757693656124,-3.616074479903102,-1.5093806260063387
1210,-2.3663907501045034,-3.3711921667083535,-3.9525682116329666,-1.6274148821742238
1211,-2.555759493074674,-3.6871200849842327,-4.303104370430393,-1.7486292092450528
1212,-2.750629140570466,-4.016648039685022,-4.666554457942433,-1.8726674432609194
1213,-2.950357030371968,-4.358722351111069,-5.041643847770602,-1.999168821552333
1214,-3.154263907978647,-4.712135668585072,-5.426963459822462,-2.1277742679810108
1215,-3.3616420269436738,-5.075535952277968,-5.820983501871846,-2.2581326018020995
1216,-3.5717635121479274,-5.4474377211895275,-6.222069023807924,-2.389906523944059
1217,-3.783888803080687,-5.8262354060051615,-6.628496992258445,-2.522778234965406
1218,-3.9972749922414326,-6.210218602851799,-7.038474562643388,-2.6564545424031922
1219,-4.211183876209986,-6.597588984968026,-7.450158202912859,-2.79067132176712
1220,-4.424889543658442,-6.986478594793033,-7.861673308715185,-2.92519720513188
1221,-4.637685335424556,-7.374969209712325,-8.271133943774082,-3.059836384166998
1222,-4.848890026467612,-7.7611124513532275,-8.676662341827086,-3.194430430451542
1223,-5.057853097749955,-8.142950291492578,-9.076407817321025,-3.3288590548706125
1224,-5.2639589874776505,-8.518535597810331,-9.468564750642956,-3.463039749501185
1225,-5.466630235350554,-8.885952360252606,-9.851389339225085,-3.5969262793016523
1226,-5.665329460144256,-9.2433352438532,-10.223214837466529,-3.730506016670146
1227,-5.8595601395964465,-9.58888812651869,-10.582465045030297,-3.863796138985927
1228,-6.048866191576893,-9.920901300326163,-10.927665843643052,-3.9968387369788383
1229,-6.232830386144224,-10.237767041932063,-11.257454626026513,-4.1296949095376645
1230,-6.411071648534503,-10.537993291170755,-11.57058750607078,-4.2624379477261565
1231,-6.5832413425511715,-10.820215216074846,-11.865944245936598,-4.39514573667877
1232,-6.749018651367634,-11.083204486453074,-12.142530882598573,-4.527892528025381
1233,-6.908105197541406,-11.32587612574256,-12.399480082566138,-4.660740256847721
1234,-7.060219065267316,-11.547292860920358,-12.63604929827027,-4.793729595208538
1235,-7.205088404898155,-11.746666941550252,-12.851616841976513,-4.926870948370566
1236,-7.342444812022311,-11.923359450270302,-13.045676032175075,-5.060135609357305
1237,-7.472016680527595,-12.076877176950562,-13.217827602344896,-5.193447292005903
1238,-7.593522730834847,-12.206867176220875,-13.367770592038296,-5.32667426174971
1239,-7.706665910750611,-12.313109172072052,-13.49529196479503,-5.459622276848769
1240,-7.811127857275587,-12.39550601292646,-13.600255216080514,-5.5920285406894354
1241,-7.90656409355356,-12.454072415288381,-13.682588247081094,-5.72355684835187
1242,-7.992600116472372,-12.488922263328611,-13.742270786802779,-5.853794088340284
1243,-8.068828507882113,-12.500254755200135,-13.779321645697246,-5.982248233785035
1244,-8.134807176734428,-12.488339704327084,-13.793786079297883,-6.108347927299979
1245,-8.190058811528758,-12.453502315273967,-13.785723530514044,-6.231443730878794
1246,-8.234071593178703,-12.396107759094841,-13.755196004811747,-6.350811077671657
1247,-8.266301188627812,-12.316545872372874,-13.70225731407187,-6.465654927112779
1248,-8.286174015948568,-12.215216297651205,-13.626943403060404,-6.575116089501305
1249,-8.293091742807244,-12.092514370855998,-13.529263947771822,-6.678279151518284
1250,-8.286436952559985,-11.948818043913258,-13.409195388004765,-6.774181900983652
1251,-8.265579886353372,-11.784476108409685,-13.266675527968772,-6.861826118081896
1252,-8.22988614595239,-11.59979795924882,-13.101599809046999,-6.94018957192879
1253,-8.178725221125335,-11.395045106281367,-12.91381932856503,-7.008239036248538
1254,-8.111479687775969,-11.170424607384989,-12.703140648008963,-7.064944116513618
1255,-8.027554909080493,-10.926084559052528,-12.469327404014544,-7.109291663503413
1256,-7.926389062027099,-10.662111740891483,-12.212103705978016,-7.140300535102518
1257,-7.807463306169622,-10.378531469254865,-11.931159275636313,-7.157036459423444
1258,-7.670311910079413,-10.07530967324489,-11.626156256707375,-7.158626748038662
1259,-7.5145321536955185,-9.752357164283932,-11.296737596912843,-7.144274608194802
1260,-7.339793831188877,-9.409536029041714,-10.942536880636588,-7.113272807249288
1261,-7.145848188660738,-9.046668035420732,-10.563189468276933,-7.065016451050528
1262,-6.932536143522961,-8.663544903168548,-10.158344778170024,-6.999014650342349
1263,-6.699795647227093,-8.259940255105253,-9.727679528902177,-6.914900865205706
1264,-6.447668069547192,-7.835623032496,-9.270911743958054,-6.812441736711986
1265,-6.1763035003296745,-7.390372129315503,-8.787815306994645,-6.691544237021038
1266,-5.885964883025982,-6.92399197558295,-8.278234844577637,-6.5522609938172875
1267,-5.577030913011095,-6.436328780099681,-7.742100703935111,-6.394793671963789
1268,-5.249997652277542,-5.927287128244119,-7.1794437861622,-6.219494324272859
1269,-4.905478830217479,-5.3968466213089545,-6.590409990390831,-6.026864654014255
1270,-4.544204817581243,-4.845078240405542,-5.975274021854833,-5.817553163852271
1271,-4.167020277189593,-4.272160120253519,-5.334452316775204,-5.592350198943147
1272,-3.774880510599192,-3.6783924261072536,-4.668514839904742,-5.352180925516448
1273,-3.3688465348078536,-3.064211040388259,-3.978195516813245,-5.098096319923253
1274,-2.950078937419433,-2.4301997839202736,-3.2644010729780786,-4.831262276310395
1275,-2.519830572664538,-1.777100919537284,-2.528218065827188,-4.552946973195054
1276,-2.0794381744733856,-1.1058237127350665,-1.770917914302873,-4.264506669699006
1277,-1.630312976535592,-0.41745085441623675,-0.993959753358251,-3.96737013050311
1278,-1.1739304429369959,0.28675741591788584,-0.19899096797053098,-3.6630219041472745
1279,-0.7118192263496539,1.0053616125022766,0.6121547075107862,-3.3529847015687246
1280,-1.0793903047111665e-13,-5.80571687949481e-14,-4.83981446034836e-14,-8.503001607039718e-14
1281,-2.476522536357037e-12,-1.2605800158318519e-12,-1.0309203509727822e-12,-1.9331704512478017e-12
1282,-2.973024640289844e-11,-1.50078004982721e-11,-1.2315682106908691e-11,-2.2978935932820592e-11
1283,-2.3784772562322875e-10,-1.1969350369435675e-10,-9.862691985332289e-11,-1.822039090064246e-10
1284,-1.428633113814169e-09,-7.193828620331355e-10,-5.9491729754176e-10,-1.0856265811559985e-09
1285,-6.8917763398324006e-09,-3.4848890864960673e-09,-2.890686109987646e-09,-5.200127876075538e-09
1286,-2.7894557045458813e-08,-1.4212842385260774e-08,-1.1818076345604553e-08,-2.0920952131195713e-08
1287,-9.77056251850764e-08,-5.0321836147344603e-08,-4.192051407214855e-08,-7.291842223961505e-08
1288,-3.031086937439079e-07,-1.582433132565487e-07,-1.320002825774584e-07,-2.2534707583959888e-07
1289,-8.480099281697144e-07,-4.498255552833724e-07,-3.755631156698411e-07,-6.287194275830217e-07
1290,-2.170743557933811e-06,-1.1721673521661742e-06,-9.791956198015856e-07,-1.606588059533918e-06
1291,-5.144533399494675e-06,-2.831923394702257e-06,-2.3664615500656846e-06,-3.804335135096641e-06
1292,-1.1398562406396636e-05,-6.4027049732516965e-06,-5.3513382637494415e-06,-8.428832502632001e-06
1293,-2.3804366935729598e-05,-1.3652110286793294e-05,-1.1412112855845508e-05,-1.7613827153598808e-05
1294,-4.717783009085928e-05,-2.7632321900560826e-05,-2.3103446957365727e-05,-3.4950814380115355e-05
1295,-8.924991602775763e-05,-5.338413622263198e-05,-4.4650318901532556e-05,-6.62280316239351e-05
1296,-0.00016195861293563478,-9.890774215039127e-05,-8.277202476098716e-05,-0.00012042026296381347
1297,-0.00028310974105276844,-0.00017645362639758736,-0.00014778663552715725,-0.00021096879246610412
1298,-0.00047844505414213346,-0.00030418292378425917,-0.0002550456072560138,-0.0003573837363966081
1299,-0.0007841424672880338,-0.0005082379032251775,-0.00042674409488383446,-0.0005871900534377974
1300,-0.0012497556559011463,-0.0008252499726700287,-0.0006941445751684367,-0.000938224018580671
1301,-0.0019415793828488762,-0.0013052948499391926,-0.0011002394950366565,-0.001461269408249008
1302,-0.002946403672866257,-0.0020152829833811068,-0.0017028629081784214,-0.00222300292922679
1303,-0.004375595453341644,-0.003042748827429963,-0.002578241751743327,-0.003309197590890964
1304,-0.006369421608023241,-0.004499976332969105,-0.003824955070965169,-0.004828111936313914
1305,-0.009101503564560607,-0.006528371305355534,-0.00556824484945122,-0.0069139735015513945
1306,-0.012783271513938693,-0.009302965485433924,-0.007964596054989457,-0.009730447711878632
1307,-0.01766826706101119,-0.013036913678231758,-0.011206477129271303,-0.013473969697439258
1308,-0.02405612741152349,-0.01798582526338783,-0.015527106621999317,-0.018376807096023958
1309,-0.032296072911098726,-0.02445175609931721,-0.02120508826326173,-0.024709717442946796
1310,-0.04278971355811038,-0.03278667711714408,-0.028568736779391906,-0.032784064580364834
1311,-0.05599298961061519,-0.04339523250124323,-0.037999901451820875,-0.042953264717015854
1312,-0.07241706710466579,-0.05673660373273289,-0.04993708496585482,-0.055613444125128024
1313,-0.0926280213708566,-0.07332530612836159,-0.06487765250734408,-0.07120320650228337
1314,-0.11724516063390143,-0.09373076176759458,-0.08337893112797976,-0.09020242804533964
1315,-0.14693786737852396,-0.1185755165225148,-0.1060580126185924,-0.11313002140559568
1316,-0.18242086694807755,-0.14853199868804684,-0.13359009466905544,-0.14054063497554914
1317,-0.224447870133894,-0.18431775162049363,-0.16670522473441574,-0.17302028047837856
1318,-0.27380357839304087,-0.2266891118026665,-0.20618334814775383,-0.2111809087440697
1319,-0.3312940856322566,-0.27643334568653544,-0.25284760560751024,-0.2556539800935293
1320,-0.3977357578307869,-0.33435930224170207,-0.30755587386117755,-0.3070831012320992
1321,-0.47394271962845713,-0.40128668202991064,-0.37119059557313716,-0.3661158244013215
1322,-0.5607131238456206,-0.47803406649676844,-0.44464699817700687,-0.43339472630168296
1323,-0.6588144242590493,-0.5654058917234671,-0.5288198550516178,-0.5095479036393957
1324,-0.7689679124492013,-0.6641785878882059,-0.6245889937058197,-0.5951790387961712
1325,-0.8918328148752466,-0.7750861380274804,-0.7328038029876708,-0.6908572028341415
1326,-1.0279902753769847,-0.8988053363683984,-0.8542670329989633,-0.7971065736147037
1327,-1.1779275700882443,-1.0359410466857097,-0.9897182159761918,-0.914396254048578
1328,-1.3420229155185306,-1.1870117741567912,-1.139817062729907,-1.0431303792506448
1329,-1.5205312357351035,-1.3524358695724543,-1.3051272064148272,-1.183638701499253
1330,-1.713571250714233,-1.5325186822409327,-1.4861006727902466,-1.336167838244455
1331,-1.921114234751362,-1.7274409674346216,-1.6830634533358324,-1.5008733608437301
1332,-2.1429747712766214,-1.9372488359197253,-1.8962025444821209,-1.6778128901625404
1333,-2.3788037987389585,-2.161845507329182,-2.1255547929417453,-1.866940349683079
1334,-2.6280842018807635,-2.4009850964370205,-2.370997854121375,-2.0681015074232376
1335,-2.890129154426194,-2.6542686224999117,-2.6322435285940324,-2.2810309149677472
1336,-3.164083363857894,-2.9211423876486537,-2.9088336916557314,-2.5053503255629264
1337,-3.448927307694635,-3.200898821887531,-3.200138974396989,-2.740568644006174
1338,-3.743484484869195,-3.492679840767239,-3.5053602930426204,-2.9860834296442325
1339,-4.046431636977776,-3.7954827085078184,-3.8235332582847614,-3.241183941011002
1340,-4.356311823970201,-4.108168345583663,-4.153535429798511,-3.5050556774193176
1341,-4.6715501689981505,-4.429471966866374,-4.4940963149763204,-3.776786340178379
1342,-4.990472019476879,-4.758015885622754,-4.843809947020175,-4.055373105118108
1343,-5.311323207905068,-5.0923242711602414,-5.201149817690934,-4.339731069888726
1344,-5.632292038630034,-5.430839604754557,-5.564485885905529,-4.628702715155942
1345,-5.951532577436208,-5.77194054060433,-5.932103336486425,-4.921068199257561
1346,-6.267188781223149,-6.113960846712657,-6.3022227249612675,-5.215556291794527
1347,-6.577418976451617,-6.4552090754218625,-6.673021115364925,-5.510855743361425
1348,-6.880420178429881,-6.793988595289023,-7.042653799182452,-5.805626886230673
1349,-7.174451739423745,-7.128617605379922,-7.409276175227567,-6.098513264048393
1350,-7.457857822075658,-7.457448750006881,-7.771065372373212,-6.388153096971047
1351,-7.729088215330894,-7.778887956422217,-8.126241209297609,-6.67319040146181
1352,-7.986717042252936,-8.091412129871758,-8.473086107126157,-6.952285600354261
1353,-8.22945895178839,-8.393585359500927,-8.809963601105522,-7.224125477928367
1354,-8.456182438588069,-8.684073314635556,-9.135335135081032,-7.4874323557931435
1355,-8.665919995161644,-8.961655543643717,-9.447774866229588,-7.740972387523827
1356,-8.857874867603774,-9.225235426594795,-9.745982255784623,-7.983562892498562
1357,-9.031424258491725,-9.473847577860537,-10.028792272891117,-8.214078671550736
1358,-9.18611889691567,-9.706662545113113,-10.295183091783501,-8.431457268355567
1359,-9.32167897454501,-9.922988706157632,-10.544281215798366,-8.634703160498507
1360,-9.43798652667847,-10.1222713237777,-10.775364014029746,-8.822890882639058
1361,-9.535074416807538,-10.304088780155206,-10.987859706528516,-8.995167100906636
1362,-9.613112160715918,-10.468146075151628,-11.181344880768984,-9.150751672584887
1363,-9.672388899908876,-10.614265735374222,-11.355539664713335,-9.28893773833419
1364,-9.713293902605868,-10.74237634197927,-11.510300719430905,-9.409090905855537
1365,-9.736295032040358,-10.85249894304329,-11.645612246340123,-9.510647594242068
1366,-9.74191567480558,-10.944731669544879,-11.76157523047067,-9.593112617502594
1367,-9.730710664955492,-11.019232921100038,-11.85839516168855,-9.656056094027917
1368,-9.703241771181876,-11.076203527244994,-11.936368490781343,-9.699109776202572
1369,-9.660053333558384,-11.115868321059105,-11.995868086975065,-9.721962900976594
1370,-9.601648642249813,-11.138457583219987,-12.037327968204956,-9.724357667950168
1371,-9.528467642667865,-11.144188825316364,-12.061227575661473,-9.706084456234109
1372,-9.44086652954501,-11.133249380762436,-12.068075860171108,-9.666976894792441
1373,-9.339099756402193,-11.105780259569066,-12.05839544027881,-9.606906902873869
1374,-9.223304937446546,-11.061861699446018,-12.032707080965569,-9.52577981721849
1375,-9.09349105703014,-11.001500810491441,-11.99151472831392,-9.423529720722623
1376,-8.949530328795344,-10.924621664691706,-11.935291319732638,-9.300115082933337
1377,-8.791153964229347,-10.83105812559439,-11.864465572197101,-9.155514815983663
1378,-8.61795202055811,-10.720549649164976,-11.779409932960816,-8.989724840361394
1379,-8.42937740298511,-10.5927402156285,-11.680429858883281,-8.802755243370495
1380,-8.224753998632039,-10.447180475904274,-11.567754572319854,-8.594628099548338
1381,-8.00328882161716,-10.283333117102435,-11.441529423692792,-8.365376006962551
1382,-7.7640879529374365,-10.100581371596753,-11.301809973495635,-8.115041376588849
1383,-7.506175967584134,-9.89824051557347,-11.148557889484932,-7.84367649428614
1384,-7.228518456940853,-9.675572127802857,-10.981638737933524,-7.551344356733788
1385,-6.930047179185858,-9.431800809716796,-10.800821730682264,-7.23812026463168
1386,-6.609687306130729,-9.166133005586047,-10.605781471872874,-6.904094139061473
1387,-6.2663861833710675,-8.877777508357841,-10.396101729187706,-6.549373510734075
1388,-5.899142983186867,-8.56596719396935,-10.171281233710435,-6.1740871174550795
1389,-5.507038607354704,-8.22998149582521,-9.930741489798844,-5.778389033047774
1390,-5.089265190562967,-7.869169112409593,-9.673836551417823,-5.362463241624959
1391,-4.645154564607373,-7.482970435125661,-9.399864694188965,-4.926528564797857
1392,-4.174205068625123,-7.070939190478958,-9.108081883147172,-4.470843846270842
1393,-3.676106130482824,-6.632762810343522,-8.797716905233374,-3.9957132982304775
1394,-3.1507600978856476,-6.168281075624472,-8.467988003469012,-3.5014919167719087
1395,-2.59830086333263,-5.677502621193874,-8.118120817296054,-2.9885908789462396
1396,-2.0191089029012628,-5.160618942277005,-7.7473674016017,-2.457482841356708
1397,-1.4138224328776576,-4.618015602995395,-7.355026066442717,-1.9087070689800012
1398,-0.7833444780615885,-4.0502804147986335,-6.940461751439498,-1.3428743324050463
1399,-0.12884573859322115,-3.4582084241242477,-6.503126624213708,-0.760671521347098
1400,0.5482367642995305,-2.8428036227672817,-6.042580572035153,-0.162865931525567
1401,1.2462051918474901,-2.2052773690050116,-5.5585112408814465,0.44969080977819553
