,TP9,AF7,AF8,TP10
0,2.589500067149866e-14,-4.116723665360959e-14,-6.057627128294921e-14,2.2693896873909585e-14
1,6.712766002631206e-13,-8.809775472106096e-13,-1.3217479724606784e-12,5.739713956890023e-13
2,7.99299257313409e-12,-1.0456790680017637e-11,-1.5730497331496356e-11,6.7823606251104825e-12
3,6.28361812686591e-11,-8.316742029672524e-11,-1.2539504500789767e-10,5.293820215782692e-11
4,3.6890435096745507e-10,-4.98407374173304e-10,-7.534078945039873e-10,3.0858173131034956e-10
5,1.7295673536697113e-09,-2.4071477796811723e-09,-3.649103986082435e-09,1.4364380266917455e-09
6,6.7613379604968594e-09,-9.787230965938419e-09,-1.4881742334949525e-08,5.575273159419304e-09
7,2.272179042607935e-08,-3.454679285839504e-08,-5.2690553900171286e-08,1.860097902995142e-08
8,6.715828332926546e-08,-1.0831472639787872e-07,-1.6569679726205744e-07,5.457576792018485e-08
9,1.7773123112715027e-07,-3.070323852262159e-07,-4.710196076252147e-07,1.4334383643457468e-07
10,4.2723279233379844e-07,-7.979929008750278e-07,-1.2273646930767895e-06,3.4186671305079997e-07
11,9.438126628765335e-07,-1.923407949808746e-06,-2.965051478259276e-06,7.489786940070032e-07
12,1.93466727179827e-06,-4.3397056086956454e-06,-6.702827021195456e-06,1.5217811120972634e-06
13,3.708995739112709e-06,-9.237215048270933e-06,-1.428955338013074e-05,2.890013074509298e-06
14,6.692997942789042e-06,-1.8670187805916607e-05,-2.891661762635501e-05,5.1626469953418056e-06
15,1.1426256999883003e-05,-3.603167316035925e-05,-5.585323393811898e-05,8.718898556201476e-06
16,1.852522622443635e-05,-6.671101020446639e-05,-0.00010346066497981016,1.3974034753932486e-05
17,2.8595978098450994e-05,-0.00011897305404817337,-0.0001845418075677718,2.1308970361841033e-05
18,4.2075110899770974e-05,-0.00020509723020234198,-0.00031807873129606186,3.095171642731417e-05
19,5.89749445782331e-05,-0.00034281074105662625,-0.0005314020334032845,4.279821941464525e-05
20,7.850703881453729e-05,-0.0005570435075190064,-0.0008628219957318837,5.6159869992590896e-05
21,9.855682264688804e-05,-0.0008820226553088282,-0.0013647325771880814,6.942484802673812e-05
22,0.00011498198025723571,-0.0013637116592138635,-0.002107175703251036,7.962048261480592e-05
23,0.00012070845965424274,-0.002062583928522965,-0.003181825953696528,8.186403727572064e-05
24,0.00010460079311391536,-0.003056703116866426,-0.004706325776524917,6.868996414531378e-05
25,5.008800724801586e-05,-0.004445063396733598,-0.006828870234861346,2.924293867939824e-05
26,-6.646712638565109e-05,-0.006351123118005872,-0.009732909692798032,-5.167186549805961e-05
27,-0.0002776593090400215,-0.00892644553995638,-0.01364181053236171,-0.00019468654909304448
28,-0.0006271857841571105,-0.012354341619789842,-0.01882328971771126,-0.00042711708546377383
29,-0.0011722263433279249,-0.016853393109614236,-0.025593420407024822,-0.0007843537264481995
30,-0.001986025469840986,-0.022680720385710593,-0.03431999425369594,-0.0013113832127752132
31,-0.0031606288018069255,-0.030134849369811336,-0.045425022621627065,-0.002064422823595408
32,-0.004809710520143901,-0.03955802635538301,-0.05938616437582394,-0.003112637654406006
33,-0.0070714128212615475,-0.051337829131982794,-0.0767368824953717,-0.004539903564862706
34,-0.010111104129719137,-0.0659079279431223,-0.09806515536289213,-0.006446569459490432
35,-0.014123950061731628,-0.08374786075319218,-0.12401060067703891,-0.008951164496805608
36,-0.01933718133257666,-0.10538170405138249,-0.15525990961113117,-0.012191989017993812
37,-0.026011936727950116,-0.1313755427610955,-0.19254053488431797,-0.016328522941742116
38,-0.03444455772027531,-0.16233367028181545,-0.23661262734287564,-0.02154258249209397
39,-0.044967214910574906,-0.19889348155295028,-0.2882592697820441,-0.028039155714422555
40,-0.05794775557930151,-0.2417190573566597,-0.34827511224072666,-0.03604684948071057
41,-0.07378867628640075,-0.2914934757370921,-0.41745356796276045,-0.045817885637837084
42,-0.09292514435619914,-0.3489099251316561,-0.4965727817273004,-0.05762759149884262
43,-0.11582201655490464,-0.41466173223109043,-0.5863806304690716,-0.07177333975954961
44,-0.1429698314098286,-0.4894314543455055,-0.6875790583393971,-0.08857290478882658
45,-0.1748797823899712,-0.5738792198517867,-0.8008080831009822,-0.10836221568693918
46,-0.21207771146052065,-0.668630529955851,-0.9266298367426892,-0.13149250109421334
47,-0.2550971951789479,-0.7742637595156057,-1.0655130194591131,-0.15832683598764702
48,-0.3044718273184103,-0.8912976132353334,-1.2178181519796796,-0.18923611613563843
49,-0.360726831793594,-1.020178805579793,-1.3837840062942968,-0.2245945010255351
50,-0.4243701663017043,-1.1612702379118405,-1.5635155790862878,-0.2647743805319798
51,-0.49588329956368943,-1.314839944494673,-1.7569739459715104,-0.310140934022729
52,-0.5757118624802985,-1.4810510701846307,-1.9639682986149538,-0.36104636272910856
53,-0.6642563852068075,-1.6599531271223877,-2.1841504219308505,-0.41782388682980365
54,-0.761863337648274,-1.851474755924861,-2.4170118161283325,-0.48078160768304157
55,-0.8688166900244607,-2.0554181893562657,-2.661883609830371,-0.5501963429645641
56,-0.9853302030590062,-2.2714555839246393,-2.917939347520213,-0.6263075481661527
57,-1.111540644312431,-2.4991273481421454,-3.1842006689007807,-0.7093114420268172
58,-1.2475021086294242,-2.7378425562270845,-3.4595458311572247,-0.7993554559998642
59,-1.393181597143509,-2.9868814937861337,-3.7427209593255366,-0.8965331287243753
60,-1.548455981436444,-3.245400338476401,-4.032353846644354,-1.0008795655154508
61,-1.7131104480616748,-3.51243793475766,-4.326970067439127,-1.1123675798843848
62,-1.8868384845592987,-3.7869245784991987,-4.6250111111541825,-1.230904628742661
63,-2.0692434321958744,-4.067692685228185,-4.9248541988530725,-1.3563306448849448
64,-2.2598415938715477,-4.353489175957219,-5.224833403935612,-1.4884168592746023
65,-2.4580668489204607,-4.64298937751377,-5.523261667885907,-1.6268656913842547
66,-2.6632766909039782,-4.934812200789385,-5.818453280292459,-1.77131176836325
67,-2.874759570956189,-5.227536330992342,-6.108746380673066,-1.9213241132783037
68,-3.0917433986897156,-5.51971713947378,-6.392525038046828,-2.0764095194174903
69,-3.313405025875441,-5.809904007630741,-6.668240472706041,-2.236017102111134
70,-3.5388805157078367,-6.096657740346906,-6.934431002958373,-2.399543992282377
71,-3.767275982956692,-6.378567739905785,-7.189740327173777,-2.566342107675182
72,-3.9976787780245373,-6.654268611671381,-7.432933787478153,-2.7357259091613053
73,-4.2291687810369405,-6.922455880288854,-7.66291230487586,-2.906981021478504
74,-4.46082957059952,-7.181900509735001,-7.878723725281635,-3.0793735710233463
75,-4.691759235677518,-7.43146194206601,-8.079571370610536,-3.252160068806761
76,-4.921080608048121,-7.670099397785487,-8.264819647358859,-3.4245976453332387
77,-5.147950706711659,-7.896881214819442,-8.433996625629717,-3.595954426933756
78,-5.371569204157516,-8.110992042404458,-8.586793562943129,-3.765519830817824
79,-5.591185746946186,-8.311737749904768,-8.723061408089594,-3.932614549491346
80,-5.806105989068715,-8.498547957704709,-8.842804379477625,-4.096599994691457
81,-6.0156962253149775,-8.67097614682585,-8.946170768734875,-4.256886976868962
82,-6.219386542744095,-8.828697354691405,-9.033441172725725,-4.412943408499152
83,-6.416672440612253,-8.971503515367257,-9.105014404768397,-4.564300837835838
84,-6.607114902084896,-9.099296552507942,-9.161391377945213,-4.710559643581717
85,-6.790338934094776,-9.212079381007388,-9.203157289419226,-4.851392749553036
86,-6.966030624231247,-9.309945017935501,-9.230962464160308,-4.986547750848614
87,-7.1339327950412725,-9.393064043757029,-9.245502239138942,-5.115847378299862
88,-7.29383936607065,-9.46167069021192,-9.24749628467964,-5.239188265073378
89,-7.445588561822535,-9.516047860841109,-9.237667768188354,-5.35653801726043
90,-7.589055128991379,-9.556511413348,-9.216722766857288,-5.467930628256089
91,-7.724141748295674,-9.583394049301729,-9.18533033024096,-5.5734603139661285
92,-7.850769844475023,-9.597029165758368,-9.144103580878538,-5.673273881741543
93,-7.968870012064826,-9.597735024998256,-9.093582221574398,-5.767561779837153
94,-8.078372284003455,-9.58579959271081,-9.03421679180112,-5.8565480055397305
95,-8.179196474672484,-9.561466381736752,-8.966354983333359,-5.940479078326457
96,-8.271242828520371,-9.524921618205335,-8.890230287167395,-6.01961230891154
97,-8.354383200074537,-9.47628302004439,-8.805953200685389,-6.094203615231063
98,-8.428452981161598,-9.415590445000507,-8.713505176688159,-6.164495151719118
99,-8.493243976878317,-9.342798627218306,-8.612735445288079,-6.230703028097028
100,-8.548498413699306,-9.257772178926805,-8.503360786771077,-6.293005397892878
101,-8.593904241541493,-9.160282987787879,-8.384968279512504,-6.351531194763277
102,-8.629091867123726,-9.050010091950002,-8.25702099297292,-6.406349786326173
103,-8.653632429024894,-8.926542064825536,-8.118866542765245,-6.457461800712217
104,-8.66703769584871,-8.78938189108899,-7.9697483737393675,-6.504791360598464
105,-8.668761638201904,-8.637954265387792,-7.8088195888275775,-6.548179933404164
106,-8.658203693169558,-8.471615196757647,-7.635159096770241,-6.5873819750290314
107,-8.634713707087371,-8.289663755690656,-7.4477898114249586,-6.622062508561484
108,-8.59759850919062,-8.091355758102726,-7.24569859969232,-6.651796739470741
109,-8.546130035715851,-7.875919141884117,-7.027857644630482,-6.676071765741029
110,-8.479554891813466,-7.642570757983371,-6.7932468654742095,-6.694290396161138
111,-8.397105207802557,-7.390534269640015,-6.540877017339798,-6.705777043643664
112,-8.298010617508972,-7.11905883089898,-6.269813080612288,-6.709785614221935
113,-8.181511160319879,-6.827438199250447,-5.979197543490768,-6.705509267496861
114,-8.046870885752496,-6.515029927379441,-5.668273180911041,-6.692091881960341
115,-7.89339192027343,-6.181274275713368,-5.3364049389624695,-6.668641019866301
116,-7.720428741239663,-5.825712490752134,-4.983100545776888,-6.6342421520692305
117,-7.527402392505576,-5.448004103976134,-4.608029487457287,-6.587973874245239
118,-7.313814370684198,-5.047942922266692,-4.211040010688499,-6.528923822684348
119,-7.079259910355679,-4.6254714029534485,-3.792173841985183,-6.456204980696194
120,-6.823440400665006,-4.180693134442152,-3.3516783468091957,-6.368972055725003
121,-6.546174674724124,-3.713883176414263,-2.8900158896721977,-6.266437602575685
122,-6.247408927115943,-3.225496051299386,-2.4078701983396655,-6.147887569807521
123,-5.927225033807163,-2.716171220519789,-1.9061495807211235,-6.012695954544935
124,-5.585847073207715,-2.186735924257296,-1.3859868911726918,-5.860338265942812
125,-5.223645877254841,-1.6382053115063024,-0.8487361928482614,-5.690403519591022
126,-4.841141477464017,-1.0717798372013223,-0.2959661134569408,-5.502604514450996
127,-4.43900335295465,-0.48883995442539246,0.2705500576502369,-5.296786180544533
128,-1.338496986748693e-13,-1.1053138452053292e-13,-1.3017398116788023e-14,-8.962328668574818e-14
129,-2.8995283418596818e-12,-2.4117114546179543e-12,-2.8312962495574343e-13,-1.9312502238416374e-12
130,-3.444143373659899e-11,-2.8753005607803138e-11,-2.984350562823191e-12,-2.3003274595645354e-11
131,-2.7410750468304874e-10,-2.295720553004009e-10,-2.0631111114098986e-11,-1.8367151528533014e-10
132,-1.6463101676891142e-09,-1.3814454288942772e-09,-1.0486616324690571e-10,-1.1074383484029024e-09
133,-7.98200087802732e-09,-6.700902110998862e-09,-4.1685728924332673e-10,-5.392920097998317e-09
134,-3.263378294884567e-08,-2.7367906009628237e-08,-1.3405565107396865e-09,-2.2153539512630867e-08
135,-1.1600343212039024e-07,-9.704613209812303e-08,-3.532718287191955e-09,-7.914146617482653e-08
136,-3.667426609219553e-07,-3.056696143863977e-07,-7.513148535570782e-09,-2.514686531602668e-07
137,-1.049282077860627e-06,-8.703998213573626e-07,-1.1807819611074378e-08,-7.230718226538257e-07
138,-2.754340207575473e-06,-2.2722300615897278e-06,-7.645437632994735e-09,-1.9072558628875507e-06
139,-6.707022441703297e-06,-5.500080149483824e-06,3.332652494780147e-08,-4.665832378051726e-06
140,-1.5288077494223813e-05,-1.2459722440082568e-05,1.8394834840259332e-07,-1.0681877036601402e-05
141,-3.286606106055294e-05,-2.66213239567096e-05,6.07347785259893e-07,-2.3057661916437656e-05
142,-6.705914869174953e-05,-5.399513696870434e-05,1.6348357486847726e-06,-4.722505611114308e-05
143,-0.00013056233739296003,-0.0001045379602292379,3.889921410812901e-06,-9.2268459068028e-05
144,-0.0002436858451534195,-0.00019410132486997073,8.474596926298466e-06,-0.000172767824807715
145,-0.000437750884996992,-0.0003470339088298504,1.7234825464283517e-05,-0.0003112693471913526
146,-0.0007594773431318241,-0.0005995437226239885,3.31210218903139e-05,-0.0005414820761191636
147,-0.0012764726912367695,-0.0010039089099947466,6.065584264967933e-05,-0.0009122789265603395
148,-0.0020838921605065915,-0.0016335990025686622,0.0001065156550850383,-0.001492549837377748
149,-0.0033122873296408486,-0.0025893313503071573,0.00018022377692716607,-0.002376913726497945
150,-0.0051365954058617,-0.004006041187916448,0.0002949433833342577,-0.0036922457240770455
151,-0.0077861471526065465,-0.00606069008830727,0.0004683465342626161,-0.005604919103479679
152,-0.011555491034664822,-0.008980778715325209,0.0007235239135094252,-0.008328600229623517
153,-0.016815748789629867,-0.013053368621523788,0.0010898885005468394,-0.012132373100099774
154,-0.024026137803051524,-0.0186343574704739,0.0016040163938747128,-0.017348911345976475
155,-0.03374522301086545,-0.026157695781672863,0.002310360121611201,-0.02438236356659282
156,-0.0466414000849697,-0.036144184366327665,0.003261764572200872,-0.03371557601804026
157,-0.06350206650036523,-0.04920945311269845,0.004519713490094146,-0.0459162479088768
158,-0.08524091125965726,-0.06607069639200495,0.006154235423802187,-0.06164160120170342
159,-0.11290275026415925,-0.0875517302720843,0.00824340203107176,-0.08164115044699868
160,-0.14766535427864078,-0.11458594349596532,0.010872358591429971,-0.10675717955766532
161,-0.19083776076747608,-0.1482167386479637,0.014131836291531292,-0.1379225715568005
162,-0.24385462916471762,-0.18959510219207035,0.018116108210811357,-0.17615569348106874
163,-0.30826628998081007,-0.23997400147939907,0.022920365847396887,-0.22255211044648698
164,-0.3857242492361147,-0.3006993820106121,0.028637510361984822,-0.27827298844935927
165,-0.4779620378736467,-0.3731976271495711,0.03535437224917412,-0.3445301423000101
166,-0.5867714371011508,-0.45895944245533604,0.04314739447251351,-0.4225677902131424
167,-0.7139742604927201,-0.5595202346696321,0.0520778366292088,-0.51364118667617
168,-0.8613900271726725,-0.6764371676368062,0.06218658067878295,-0.6189924167055724
169,-1.030800012298493,-0.8112631902853434,0.07348864129382145,-0.7398237437549938
170,-1.2239083060536997,-0.9655184414217101,0.08596750503262761,-0.8772690065842151
171,-1.4423006452378464,-1.1406595386888476,0.0995694413610389,-1.0323636536468241
172,-1.6874018973715637,-1.338047351015706,0.11419794418260654,-1.2060140835515574
173,-1.96043317160893,-1.5589139319291685,0.12970847418110812,-1.3989670238264742
174,-2.2623695999377236,-1.8043293523247612,0.14590367926520545,-1.6117797249689847
175,-2.5938998732093,-2.0751692133122805,0.16252927220677685,-1.8447917705368622
176,-2.955388627387433,-2.3720836407611494,0.17927074081675545,-2.0980993053502077
177,-3.346842754894446,-2.695468562009566,0.19575105650450172,-2.3715324619276106
178,-3.767882663927201,-3.045440041407583,0.21152953177979683,-2.6646367200123904
179,-4.2177194260120725,-3.421812405201385,0.2261019563085868,-2.976658866185406
180,-4.6951386407349345,-3.8240808187266184,0.23890211483517668,-3.3065381315971485
181,-5.198491709274088,-4.251408891655739,0.24930475915423447,-3.6529029779789095
182,-5.725695048632372,-4.7026217824657754,0.2566300711035648,-4.0140738781390395
183,-6.274237600578909,-5.1762051542247995,0.26014961523246627,-4.388072300500114
184,-6.841196798120099,-5.67031020351867,0.25909373956505893,-4.772635961692823
185,-7.423262953055037,-6.182764846419699,0.25266034206139926,-5.165240260855437
186,-8.016771826223605,-6.711091003559742,0.2400248803978952,-5.563125658232251
187,-8.617744942797579,-7.252527784385526,0.22035146495117494,-5.963330612995374
188,-9.221937023631297,-7.804060232271964,0.19280484069506074,-6.36272955484275
189,-9.82488972526353,-8.362453160940667,0.15656303427129642,-6.758075234506598
190,-10.42199072025834,-8.924289491934909,0.11083041873573982,-7.146044683148488
191,-11.008537010289851,-9.48601239577107,0.05485093115384195,-7.523287912593039
192,-11.579801250220791,-10.043970448438905,-0.012078832169755395,-7.88647840986384
193,-12.13109977526246,-10.594464942298801,-0.09059692122065864,-8.232364422451502
194,-12.657860967333313,-11.133798437750508,-0.18126401287834856,-8.557819996594542
195,-13.155692572410748,-11.658323610421167,-0.28455232974568834,-8.859894720479843
196,-13.620446588641505,-12.16449143860836,-0.40083574247642495,-9.13586113797282
197,-14.048280385039622,-12.648897787361523,-0.5303812768302428,-9.38325883595111
198,-14.435712781747762,-13.108327478422641,-0.6733422171952217,-9.599934268633698
199,-14.779673923306332,-13.53979498830979,-0.8297529642328737,-9.784075464005202
200,-15.077547903696038,-13.9405809886741,-0.999525766570836,-9.934240858546142
201,-15.3272072529453,-14.308264031811248,-1.1824494060951674,-10.049381624510458
202,-15.52703856607819,-14.64074678759394,-1.3781898743857794,-10.128856986044937
203,-15.675958741916293,-14.93627635351948,-1.5862930351736675,-10.17244216332364
204,-15.773421497247742,-15.193458284218636,-1.8061892253094423,-10.180328734214665
205,-15.819414026494337,-15.411264117688017,-2.037199705507094,-10.153117357385813
206,-15.814443883542912,-15.589032309679833,-2.278544832919812,-10.09180295579652
207,-15.759516366203092,-15.72646262212284,-2.52935379124512,-9.997752611929947
208,-15.656102880316917,-15.823604143258502,-2.788675681346614,-9.87267657280505
209,-15.506100945686974,-15.880837243604606,-3.055491747077231,-9.718592900955155
210,-15.311786675899112,-15.898849890352928,-3.328728487780972,-9.537786434633597
211,-15.075760715412521,-15.878608851059424,-3.607271391412857,-9.332762834238407
212,-14.800888747047974,-15.821326413473747,-3.8899790107763983,-9.10619859031005
213,-14.490237788820972,-15.72842333037559,-4.1756971002786605,-8.860887949693495
214,-14.147009579123301,-15.60148876498719,-4.463272531898375,-8.59968777912484
215,-13.774472402340297,-15.442238062932798,-4.751566716623797,-8.32546142851448
216,-13.37589273244833,-15.252469210204982,-5.039468271153388,-8.041022678817164
217,-12.9544680698316,-15.034018852931194,-5.325904688733965,-7.749080861226754
218,-12.513262316856434,-14.788718754006837,-5.60985279709085,-7.452188215506525
219,-12.055144981540273,-14.51835354428936,-5.890347814837726,-7.152690515962174
220,-11.58273541736375,-14.22462059273677,-6.166490849818299,-6.852681934681923
221,-11.09835320278064,-13.9090927715882,-6.437454717744796,-6.553965034368092
222,-10.603975638556781,-13.57318483061746,-6.702487996441684,-6.258016688846016
223,-10.101203197347406,-13.218124020037417,-6.960917269140902,-5.96596061992842
224,-9.591233600868886,-12.844925516354321,-7.2121475487835,-5.678547116773447
225,-9.074845028896956,-12.454373111071604,-7.455660913367598,-5.396140370469801
226,-8.552388784585848,-12.047005520439704,-7.691013419296842,-5.11871371473545
227,-8.0237915558008,-11.623108567351942,-7.917830394737339,-4.845852915838735
228,-7.4885672258608125,-11.182713375966413,-8.135800247553588,-4.576767503707257
229,-6.945838002871066,-10.7256006076899,-8.344666951897937,-4.31030998430788
230,-6.394364458215509,-10.251310655783714,-8.544221403465228,-4.045002623453128
231,-5.8325838951838875,-9.759159606992773,-8.734291855345129,-3.779071346947238
232,-5.258656311288272,-9.248260674136581,-8.914733663925327,-3.5104861641605587
233,-4.670517075430901,-8.717550705314522,-9.085418587105801,-3.237007394402874
234,-4.0659353162330625,-8.165821284928676,-9.246223884956809,-2.9562368604760807
235,-3.4425769126926236,-7.591753860629974,-9.397021475767419,-2.6656731140053824
236,-2.7980708946842223,-6.99395825989194,-9.537667398176161,-2.362769674813723
237,-2.1300779999594903,-6.371013901349298,-9.667991822848876,-2.0449952035745023
238,-1.4363600970448658,-5.721512960212986,-9.787789845180598,-1.7098944846451527
239,-0.7148491700756942,-5.04410471463097,-9.896813274065691,-1.3551490752344848
240,0.03628542799913078,-4.337540281170018,-9.994763611317355,-0.9786364782726593
241,0.8185727138407436,-3.6007169427239694,-10.081286392318011,-0.5784867194039329
242,1.6331800080505077,-2.8327212809028177,-10.155967031490544,-0.15313525277130066
243,2.480858193246652,-2.0328703468508187,-10.218328286768585,0.29862881541166775
244,3.3618933283371937,-1.2007501387671753,-10.267829425989678,0.7776201136237065
245,4.276065539099429,-0.3362507002411749,-10.303867145609361,1.284220830652886
246,5.222615978048281,0.5604027902139109,-10.325778258900662,1.8183516943502
247,6.200222506965239,1.4886235025376262,-10.332844137414162,2.379450691232322
248,7.206984605801983,2.4474415020573344,-10.324296856471618,2.966459978215321
249,8.240417854512874,3.4354877705317857,-10.299326963385486,3.5778212940517475
250,9.297458172314137,4.45098402644564,-10.257092756457473,4.211480029669892
251,10.37447583457563,5.4917385802863645,-10.196730934117374,4.864897966184809
252,11.467299123735874,6.55514836839989,-10.117368447297302,5.53507453944265
253,12.571247310052893,7.6382072154169816,-10.018135364744618,6.218576343100081
254,13.681172503386193,8.737520281406761,-9.898178540867864,6.911574440854379
255,14.79150977113234,9.849324557076123,-9.756675859254825,7.609888924795086
256,-3.2725807691982e-14,-5.22912434866299e-14,-4.1595873923423005e-14,-1.3918078865466807e-14
257,-6.459210927093787e-13,-1.1205205393998582e-12,-8.531135671386247e-13,-2.2578516975172605e-13
258,-7.114885048989912e-12,-1.3339580214880397e-11,-1.0181904882928474e-11,-2.3488642944686988e-12
259,-5.251077650702698e-11,-1.0649704612871975e-10,-8.141100178553916e-11,-1.6393911711735257e-11
260,-2.9235755007095876e-10,-6.408856083093629e-10,-4.907586749978253e-10,-8.635489859786962e-11
261,-1.31684096306817e-09,-3.1091539686309717e-09,-2.3850354499603e-09,-3.6982368003199744e-10
262,-5.027389044245759e-09,-1.2700715505342507e-08,-9.761065034068679e-09,-1.3585231140109055e-09
263,-1.6823584685125344e-08,-4.5044877733039426e-08,-3.4689580015943556e-08,-4.45957113739557e-09
264,-5.060205799244531e-08,-1.4190367464866432e-07,-1.0952535819890023e-07,-1.3487283980621984e-08
265,-1.3941807745782716e-07,-4.0413197843310206e-07,-3.12681969299279e-07,-3.8339515948301916e-08
266,-3.5687418333609137e-07,-1.0551357925613388e-06,-8.18541019517683e-07,-1.0349877759529356e-07
267,-8.57578796215046e-07,-2.5542819143804636e-06,-1.9872160958258697e-06,-2.662256452531119e-07
268,-1.949381353523951e-06,-5.786958315238625e-06,-4.51602946867587e-06,-6.525091410536063e-07
269,-4.21533590680511e-06,-1.2365742011144457e-05,-9.681324539236382e-06,-1.5229643011026221e-06
270,-8.709087518145508e-06,-2.5084693273823263e-05,-1.970609823616326e-05,-3.3857394025873293e-06
271,-1.7253123770541266e-05,-4.8575321029497034e-05,-3.829523490624676e-05,-7.17881218380135e-06
272,-3.287453787454149e-05,-9.021735637577452e-05,-7.138512440401414e-05,-1.454939876452624e-05
273,-6.0417021429349825e-05,-0.00016135925843410945,-0.00012815741669122124,-2.826304116008692e-05
274,-0.00010737013970980525,-0.0002789015942526734,-0.00022236692082108132,-5.2778666479333983e-05
275,-0.0001849569666192572,-0.0004672904900959171,-0.00037403062142746094,-9.502788632631038e-05
276,-0.00030951836605093923,-0.0007609578765243244,-0.0006115180250293226,-0.00016543642278799925
277,-0.0005042261793603501,-0.0012072301379473106,-0.0009740723038802338,-0.0002792222724260572
278,-0.0008011479910137902,-0.0018697072150931741,-0.0015147769195032624,-0.00045799863100503
279,-0.00124367284374417,-0.0028320906980417965,-0.0023039637470965565,-0.0007316994758139945
280,-0.0018892904088110896,-0.004202412815405706,-0.0034330365750669936,-0.0011408321110393334
281,-0.002812696244482283,-0.006117589614568894,-0.005018658831370168,-0.0017390443446145814
282,-0.0041091738715439835,-0.008748192456823543,-0.007207227297887598,-0.002595975010443461
283,-0.005898181746311337,-0.012303303838678987,-0.010179525397139198,-0.003800336212888777
284,-0.008327051269686383,-0.017035298207890466,-0.014155421494175814,-0.005463154994432914
285,-0.011574682213828088,-0.023244367544622918,-0.01939845078394099,-0.007721082209485749
286,-0.015855105767681957,-0.031282596534412746,-0.02622009504936395,-0.010739658343875169
287,-0.021420773980549337,-0.041557384403330955,-0.034983554246749725,-0.014716410928324519
288,-0.02856542856289908,-0.05453401078965687,-0.046106788883831594,-0.01988364700976886
289,-0.03762640220780838,-0.07073715184709602,-0.060064603833868996,-0.02651079761930674
290,-0.048986211826529,-0.09075117012627767,-0.0773895437911468,-0.03490616982524544
291,-0.06307331499858235,-0.11521902723514982,-0.098671379031329,-0.045417966057317585
292,-0.08036191790390065,-0.14483970098958882,-0.12455497822847403,-0.058434439966554313
293,-0.10137074421333386,-0.18036402752122935,-0.15573639317966315,-0.07438307293403594
294,-0.1266606989110506,-0.22258893210570777,-0.19295701837002022,-0.0937286750313237
295,-0.15683138781332134,-0.2723500586064332,-0.23699573588482106,-0.1169703381824052
296,-0.19251648169948057,-0.33051285459725027,-0.2886590122588708,-0.14463719683116003
297,-0.23437794266919693,-0.3979622156452849,-0.3487689769613974,-0.17728298191606615
298,-0.2830991588821942,-0.4755908362251654,-0.418149580399859,-0.2154793867186737
299,-0.33937706158299047,-0.5642864548039283,-0.4976110002556195,-0.25980829746147377
300,-0.40391332466242175,-0.6649182155218198,-0.5879325360421581,-0.3108529765924306
301,-0.47740477140319054,-0.7783223975999854,-0.6898443002845485,-0.3691883216460157
302,-0.5605331349941706,-0.9052877854090106,-0.8040080779624093,-0.4353703564860655
303,-0.6539543384071792,-1.0465409665861913,-0.9309977812989193,-0.5099251436188855
304,-0.7582874748522811,-1.2027318525122606,-1.0712799723310158,-0.5933373350619562
305,-0.874103681836441,-1.3744197149101611,-1.2251949590032494,-0.6860386038964943
306,-1.0019151095055914,-1.5620600245808935,-1.3929389901980358,-0.788396218102192
307,-1.1421641872407284,-1.765992363793792,-1.574548079951284,-0.9007020316509841
308,-1.2952133913095434,-1.9864296631917433,-1.7698839803170554,-1.0231621743228005
309,-1.4613357107275131,-2.2234489879547095,-1.9786227955891584,-1.155887720631634
310,-1.6407059984048584,-2.4769840671643966,-2.2002466879803957,-1.2988866091224596
311,-1.8333933803033902,-2.74681972566299,-2.4340390670295493,-1.4520570658783951
312,-2.0393548770047865,-3.0325883400767673,-2.6790835831053603,-1.6151827604398292
313,-2.2584303702530337,-3.3337684009921413,-2.9342671610784534,-1.7879298888977175
314,-2.4903390222471806,-3.6496852224587597,-3.1982872156756583,-1.9698463384100855
315,-2.734677228387138,-3.979513798983752,-3.4696630877469103,-2.160363040816
316,-2.99091815557074,-4.322283769877985,-3.7467516334818303,-2.3587975716534473
317,-3.2584128888392914,-4.676886412065332,-4.02776678951914,-2.5643599962138066
318,-3.536393180011749,-5.042083546031822,-4.310802828993136,-2.7761609079133107
319,-3.823975763675975,-5.416518206131137,-4.593860919951146,-2.993221547900396
320,-4.120168179094906,-5.798726896521336,-4.874878501264881,-3.2144858400825815
321,-4.423876011654992,-6.187153228011227,-5.151760904993546,-3.4388341242137574
322,-4.733911444739493,-6.580162709352493,-5.422414580746953,-3.6650983228133764
323,-5.049002992560793,-6.976058449225572,-5.684781219241368,-3.89207823684816
324,-5.367806266633354,-7.373097512438529,-5.93687203086012,-4.118558631468246
325,-5.688915613208653,-7.7695076657198,-6.176801412100822,-4.343326747599237
326,-6.010876446081323,-8.163504244915067,-6.402819229286471,-4.565189858561497
327,-6.332198088724115,-8.55330687633753,-6.613340965261885,-4.782992483600213
328,-6.651366931832321,-8.937155790379773,-6.806975010835669,-4.9956328725095265
329,-6.9668597072496565,-9.31332747515117,-6.9825464377237285,-5.202078387401165
330,-7.277156677128721,-9.680149431683637,-7.1391166624084335,-5.401379428807796
331,-7.580754538273355,-10.03601380992193,-7.2759984988402575,-5.5926815831786465
332,-7.876178846147462,-10.379389725985993,-7.3927662000268795,-5.775235706679386
333,-8.161995771226517,-10.708834085703646,-7.489260201656049,-5.948405705149241
334,-8.436823012346409,-11.023000766737924,-7.565586402071665,-6.1116738210486234
335,-8.699339707450536,-11.320648041297188,-7.622109939039769,-6.26464329406154
336,-8.94829520146166,-11.600644152892517,-7.659443551550187,-6.407038321402629
337,-9.182516553575313,-11.861970993337787,-7.67843074111445,-6.538701305466546
338,-9.400914691635379,-12.103725859597661,-7.680124068422791,-6.659587438885248
339,-9.602489148840329,-12.32512130360373,-7.665759034763117,-6.769756738968418
340,-9.786331347156143,-12.525483121226225,-7.6367241004947655,-6.869363703552081
341,-9.95162642172172,-12.704246558694857,-7.594527482669127,-6.958644817166739
342,-10.097653610478202,-12.860950845442767,-7.540761448566999,-7.03790418892483
343,-10.223785262554069,-12.995232191194157,-7.477064879905832,-7.107497650462489
344,-10.329484546975543,-13.106815411760943,-7.405084922652339,-7.16781568255095
345,-10.414301969449953,-13.195504372127182,-7.326438559110227,-7.21926557155445
346,-10.477870828681747,-13.261171456663815,-7.242674942016989,-7.262253220751352
347,-10.519901764333062,-13.303746294422272,-7.155239314948151,-7.297165055790109
348,-10.54017656577472,-13.323203982091117,-7.065439309915787,-7.324350467571298
349,-10.538541423677334,-13.319553058053096,-6.974414362506907,-7.344105229239614
350,-10.514899814803146,-13.292823487748148,-6.8831089183761,-7.356656306618878
351,-10.46920521370658,-13.243054922950684,-6.792250023801844,-7.362148453511184
352,-10.401453823239246,-13.170285495368635,-6.702329799021649,-7.3606329453259844
353,-10.311677508841633,-13.074541397988781,-6.613593188125731,-7.352058757372348
354,-10.199937109913835,-12.955827495732198,-6.526031265610404,-7.336266439011867
355,-10.066316285641951,-12.814119190248338,-6.439380259696335,-7.312984873132079
356,-9.910916033239623,-12.649355742192903,-6.353126328817492,-7.281831043619039
357,-9.733849994511482,-12.461435228370945,-6.266516003038166,-7.24231286335955
358,-9.535240642941035,-12.250211281103198,-6.178572079389704,-7.193835043573003
359,-9.31521641917504,-12.015491723669257,-6.088114642066943,-7.135707913820408
360,-9.073909858778165,-11.757039179411347,-5.9937867678359105,-7.067159032741679
361,-8.811456733253438,-11.474573693862036,-5.894084376451824,-6.987347364245246
362,-8.527996204137352,-11.167777369941946,-5.787389597681215,-6.895379734192888
363,-8.223671970832752,-10.836300976691838,-5.672006952624656,-6.790329230057594
364,-7.898634375866963,-10.479772452912485,-5.546201588995942,-6.671255161785367
365,-7.553043416367715,-10.097807189144746,-5.408238768919572,-6.537224167058604
366,-7.1870725974722065,-9.690019935202258,-5.256423784279367,-6.387332018942502
367,-6.800913551802847,-9.256038146490264,-5.08914146883065,-6.220725678875528
368,-6.394781338796894,-8.795516551098816,-4.904894487884893,-6.0366251333533745
369,-5.968920328426972,-8.308152691621808,-4.702339614719795,-5.8343445584975875
370,-5.523610565652924,-7.793703171270789,-4.480321246998636,-5.613312372824551
371,-5.059174504829617,-7.252000313544772,-4.237901475208683,-5.3730897645258775
372,-4.575983997383017,-6.68296892888999,-3.9743860870595826,-5.113387314831099
373,-4.074467411633794,-6.086642870846844,-3.6893459753206375,-4.834079382817716
374,-3.5551167611242307,-5.46318105854437,-3.3826335098972606,-4.535215968542777
375,-3.0184947176828802,-4.812882642455026,-3.0543935359942296,-4.217031829655105
376,-2.4652413881654622,-4.136200996399134,-2.705068766727486,-3.879952690589478
377,-1.8960807396076942,-3.4337562311383873,-2.3353994481142517,-3.5245984517050735
378,-1.3118265665011097,-2.7063459436575474,-1.9464172844742889,-3.1517833767365135
379,-0.7133879059463148,-1.9549539413957553,-1.5394337203185091,-2.762513308860957
380,-0.10177382120729692,-1.1807567120689537,-1.1160227781388283,-2.357980036504165
381,0.5219025089160437,-0.38512744693190937,-0.6779987474970202,-1.939552997491606
382,1.1564204392851505,0.43036253224821963,-0.227389106864972,-1.5087685720269128
383,1.8004492720189544,1.2639450454134014,0.23359686660236154,-1.0673172690850816
384,-2.1043439929114222e-13,-8.011443989887859e-14,4.8864772206717e-13,-1.9053323676033195e-13
385,-4.684543851319781e-12,-1.7358023359865528e-12,1.1455076230913574e-11,-4.213800796311887e-12
386,-5.474296663937926e-11,-2.035475109166262e-11,1.3689939130805688e-10,-4.953435876337069e-11
387,-4.2709257901908724e-10,-1.5979077892309266e-10,1.0920618056398866e-09,-3.8910850705564275e-10
388,-2.508504182160294e-09,-9.455079105790574e-10,6.5618853017196036e-09,-2.3029115801570935e-09
389,-1.1868992180933677e-08,-4.511260985629917e-09,3.177215732249402e-08,-1.0986502226038138e-08
390,-4.7273585308976067e-08,-1.813177415965621e-08,1.2948876905497555e-07,-4.414147227107492e-08
391,-1.6350053298194708e-07,-6.330857157164376e-08,4.5804380896022036e-07,-1.5404608883607152e-07
392,-5.025519753842161e-07,-1.9647567920237652e-07,1.4387546865189856e-06,-4.778102829726879e-07
393,-1.3976206271879176e-06,-5.516400139598482e-07,4.084480166887785e-06,-1.3408174388549405e-06
394,-3.56710298548602e-06,-1.4209835594231878e-06,1.0627834679743344e-05,-3.452206773586688e-06
395,-8.451586882111672e-06,-3.3964844282517075e-06,2.5635473716363084e-05,-8.248216400509414e-06
396,-1.8764040251008905e-05,-7.6035903306969775e-06,5.78601977758272e-05,-1.8458148596575425e-05
397,-3.934075935119098e-05,-1.606633802983193e-05,0.0001231493556441812,-3.898686319128474e-05
398,-7.83959481267088e-05,-3.225135323510196e-05,0.0002487880361029357,-7.822485881988661e-05
399,-0.00014929387683669927,-6.184508984444062e-05,0.0004796991731744687,-0.0001499098249921284
400,-0.00027295725401553977,-0.00011382362100610727,0.0008869395396497638,-0.00027566976787651637
401,-0.00048102683800192443,-0.00020187640636624174,0.0015789104368592038,-0.000488375383138258
402,-0.0008198738891268372,-0.00034624389449749077,0.0027156356969470974,-0.0008364165724517881
403,-0.0013555428343175503,-0.0005760228534280161,0.0045263406999069625,-0.0013889937022521265
404,-0.002179666197615182,-0.0009319824359538421,0.007330391089152627,-0.0022424779094552946
405,-0.0034163479998475543,-0.001469917959141058,0.011561419511646728,-0.0035278468396370407
406,-0.005229956870597598,-0.002264548347933478,0.017794188402526143,-0.005419143904788903
407,-0.007833708268872143,-0.0034139376775015463,0.02677341666951321,-0.00814284255760404
408,-0.011498849363735918,-0.005044392112594516,0.039443452512369914,-0.011987925025058965
409,-0.016564193673842105,-0.007315751943576248,0.056977321507782834,-0.017316410870293036
410,-0.023445689177130337,-0.010426965737996566,0.08080333899110222,-0.024573998528679333
411,-0.03264564696481836,-0.014621801381120427,0.11262717045842685,-0.03430041664398319
412,-0.044761211067679815,-0.02019451853645242,0.1544469749839987,-0.04713902558838112
413,-0.06049161682711712,-0.027495300352594204,0.20855909504367384,-0.06384516664906616
414,-0.08064376758147887,-0.036935220515992885,0.2775516798876816,-0.08529273019731577
415,-0.10613565935211723,-0.04899050630122179,0.3642836637487971,-0.11247840731011798
416,-0.13799720185800973,-0.06420585023162027,0.47184667585806883,-0.14652310366413698
417,-0.17736802206875205,-0.08319652325239138,0.6035077431674726,-0.1886700311216116
418,-0.22549189340978704,-0.10664905159633695,0.762631060631061,-0.2402790514640479
419,-0.2837075087407374,-0.13532023814058564,0.9525776443549164,-0.3028169274955856
420,-0.3534354067410569,-0.17003433701970727,1.17658234083196,-0.3778432376373745
421,-0.4361609670718023,-0.21167822722477175,1.4376084261476947,-0.4669918286533372
422,-0.5334135066610446,-0.26119447616620406,1.7381808723360797,-0.5719478138559526
423,-0.6467416340557774,-0.3195722366403682,2.0802002587863693,-0.6944202667476809
424,-0.7776851468548486,-0.38783597890845944,2.46474023519359,-0.8361109075831564
425,-0.9277438843184111,-0.4670321219645651,2.891832366028494,-0.9986792273800961
426,-1.0983440687288155,-0.5582136925956311,3.360243069644142,-1.1837046349014004
427,-1.290802780383227,-0.6624232054216744,3.8672481718026863,-1.3926463416510086
428,-1.5062913078915834,-0.7806740195857051,4.4084112880135295,-1.626801812945543
429,-1.7457981938757543,-0.9139304859941115,4.977372798099404,-1.8872647052742924
430,-2.0100928530508213,-1.0630872509385418,5.565656549851921,-2.174883277911463
431,-2.2996906726873645,-1.2289481256711905,6.162501601427058,-2.490220307515322
432,-2.614820513146246,-1.4122049653944084,6.754726265346881,-2.8335155466310527
433,-2.9553955079608887,-1.6134170237966183,7.326631438918207,-3.2046517499901253
434,-3.320988019093799,-1.8329912597161608,7.859949692846642,-3.603125246627821
435,-3.710809534633285,-2.071164070161411,8.333845846570386,-4.0280219624195865
436,-4.12369620519528,-2.3279849086313606,8.724973798637718,-4.477999698773452
437,-4.558100604149604,-2.6033022198003373,9.007593224797358,-4.951277351669427
438,-5.012090168474443,-2.896752081927907,9.1537484343648,-5.445631614257182
439,-5.483352634916672,-3.207749898002294,9.13351022237339,-5.958401549458482
440,-5.969208633861702,-3.5354854171230183,8.915280011710854,-6.486501250437746
441,-6.4666314447679625,-3.878921300722856,8.466153990298437,-7.026440630606486
442,-6.9722737561488275,-4.236795375817614,7.752343359957482,-7.574354205334413
443,-7.482501113792211,-4.6076266415114135,6.739645273106548,-8.126037549077031
444,-7.993431586977056,-4.989725017408309,5.393957587172641,-8.676990938455718
445,-8.500981037485522,-5.38120474523383,3.681829258731622,-9.222469528064016
446,-9.000913243598273,-5.780001279566925,1.5710370706854584,-9.757539255330032
447,-9.488894014042208,-6.1838914316782025,-0.968821527472096,-10.277137537204208
448,-9.960548327657909,-6.590516463443429,-3.9657303532745694,-10.776137707885804
449,-10.411519455524225,-6.9974077673433515,-7.44466248236891,-11.249416055849961
450,-10.8375289651196,-7.402014714678283,-11.427005690442469,-11.691920252131622
451,-11.234436472051858,-7.801734208149545,-15.930016555009551,-12.09873792158793
452,-11.598297994692016,-8.193941437566517,-20.966313950504336,-12.465164095455773
453,-11.925421780913275,-8.576021309172202,-26.54342191733668,-12.786766297003316
454,-12.212420513769317,-8.94540000038017,-32.663370880722155,-13.059446051839831
455,-12.456258863621207,-9.299576082927553,-39.32236497376649,-13.279495679315863
456,-12.654295436857954,-9.636150658837686,-46.51052182578152,-13.443649309752738
457,-12.804318274518282,-9.95285596532148,-54.21168966183476,-13.549127181903565
458,-12.90457317600199,-10.247581926884306,-62.40334497729767,-13.593672403633315
459,-12.953784261447513,-10.518400165351945,-71.0565724563495,-13.575579503593579
460,-12.951166338663857,-10.763585021013235,-80.1361272481838,-13.493714259743403
461,-12.896428803798127,-10.981631190116573,-89.6005782460466,-13.347524458849357
462,-12.789770975910585,-11.171267644835911,-99.40252967184038,-13.137041416336785
463,-12.63186894069587,-11.331467570569796,-109.48891708355008,-12.862872264603405
464,-12.4238541538414,-11.461454130830901,-119.80137291508501,-12.52618319650366
465,-12.167284225923602,-11.560701950561176,-130.27665583919705,-12.128674025424068
466,-11.864106474288967,-11.628934292811135,-140.84713761539075,-11.6725445904718
467,-11.516614979167617,-11.66611598954515,-151.44134063927095,-11.160453691195565
468,-11.12740201766488,-11.672442272988723,-161.9845191337618,-10.595471377561374
469,-10.699304866972238,-11.64832373749834,-172.39927679704275,-9.981025544534587
470,-10.235349064331414,-11.594367741527781,-182.60621372426343,-9.320843883900212
471,-9.738689283824813,-11.511356633100249,-192.52459552551494,-8.618892326742065
472,-9.212549037512652,-11.400223248642899,-202.07303774587422,-7.879311166747685
473,-8.660160430053175,-11.262024192666322,-211.17019892990115,-7.106350086285124
474,-8.084705191631162,-11.097911453358227,-219.73547593958565,-6.304303313711821
475,-7.489258184295458,-10.909102945714142,-227.68969541073406,-5.477446121951273
476,-6.876734522740304,-10.696852598564467,-234.95579550074558,-4.629973835931012
477,-6.24984137372523,-10.462420614201168,-241.45949232718155,-3.7659444514781235
478,-5.611035400668263,-10.207044528891673,-247.12992571250888,-2.889225882627303
479,-4.962486703727546,-9.931911689245027,-251.90027903164514,-2.003448750306973
480,-4.306049973426038,-9.638133733253982,-255.7083681060376,-1.1119655056433524
481,-3.643243430338788,-9.326723626219225,-258.49719420620136,-0.2178165485460388
482,-2.9752359675064985,-8.998575751275697,-260.2154563233186,0.6762961401247347
483,-2.302842749114198,-8.654449492764853,-260.8180179626701,1.5680274835188004
484,-1.6265293516266686,-8.294956679383988,-260.26632381308417,2.455399694146081
485,-0.9464243650157804,-7.92055317431783,-258.52876177480994,3.3368044959580847
486,-0.2623402049429137,-7.531534813098271,-255.5809660015966,4.210997270240419
487,0.42619827524579335,-7.128037798649305,-251.406056849314,5.07708335810919
488,1.1199179381592723,-6.710043568928596,-245.99481393984425,5.934496890673306
489,1.819754990874148,-6.277388057946941,-239.34577895952503,6.782972646654274
490,2.526806928164784,-5.82977517792426,-231.46528532725154,7.6225115546799165
491,3.2422797452198684,-5.366794261062737,-222.36741249574314,8.453340562141257
492,3.967431471555005,-4.887941115900967,-212.0738633933739,9.27586768326258
493,4.70351315478047,-4.392642277296357,-200.61376437158998,10.090633115015084
494,5.451708478239308,-3.8802819623795624,-188.0233879876918,10.898257370109985
495,6.2130732291738795,-3.350231188678124,-174.34580001319694,11.69938742119182
496,6.988475843380093,-2.80187846606265,-159.6304331980457,12.494641879357175
497,7.778540238123371,-2.2346614419577815,-143.93259152019118,13.284556243246028
498,8.583592107762636,-1.6480988598016144,-127.31288988441125,14.069529252330529
499,9.403609796910823,-1.0418221841532018,-109.83663547605991,14.849771359944212
500,10.238180785384875,-0.4156062519893257,-91.57315819495777,15.625256308461005
501,11.08646471940794,0.23060167179801938,-72.5950987599798,16.39567674134674
502,11.947163806577231,0.8966550265143903,-52.977664153550535,17.160404725141696
503,12.818501260319792,1.5821838261404084,-32.7978610346749,17.918457979481598
504,13.698208335458812,2.2865737680099176,-12.133718557813623,18.66847252588247
505,14.583520342816334,3.008949019928835,8.936487336623278,19.40868236725932
506,15.47118187028755,3.7481590590291884,30.334995672642965,20.136906701262184
507,16.357461273371882,4.50276986279676,51.98529554992898,20.85054505289607
508,17.238174332584173,5.271059675453678,73.8128219907444,21.5465805870931
509,18.108716811380813,6.05101949275577,95.74560021156654,22.22159173163793
510,18.964105489137243,6.840358326793012,117.7148265889577,22.871772106973776
511,19.799027092184936,7.636513231013536,139.65537543571605,23.492958623919794
512,-9.616697028428195e-14,-3.299063302235523e-14,-9.625262306567935e-14,-6.549663128836287e-14
513,-2.1322422273994323e-12,-6.977854310606604e-13,-2.047931099483652e-12,-1.446658201752649e-12
514,-2.439875466026785e-11,-8.331679665749471e-12,-2.4153159282255877e-11,-1.650712048427256e-11
515,-1.8607276411814722e-10,-6.671492623198281e-11,-1.9093010103644574e-10,-1.2565372019184446e-10
516,-1.0662589438480552e-09,-4.0248925481198e-10,-1.1375245857092148e-09,-7.194319171769484e-10
517,-4.9136439027751695e-09,-1.95657127138649e-09,-5.4634591590243095e-09,-3.3162956657351248e-09
518,-1.903331529924861e-08,-8.005445614567724e-09,-2.2098871063493643e-08,-1.2864876235901677e-08
519,-6.39500104862869e-08,-2.8429629562846645e-08,-7.763189895928808e-08,-4.33417197571521e-08
520,-1.9082640556429079e-07,-8.965894221852231e-08,-2.42345171062879e-07,-1.2983815450615092e-07
521,-5.15118415569341e-07,-2.555877003298591e-07,-6.843004784555804e-07,-3.5225674448038335e-07
522,-1.2765475182447252e-06,-6.679044537467673e-07,-1.7724814816869666e-06,-8.782312187031624e-07
523,-2.939090525355095e-06,-1.6182987524830667e-06,-4.259661643583898e-06,-2.035898570781285e-06
524,-6.348681650507772e-06,-3.669727205123809e-06,-9.586889400095965e-06,-4.430532175851995e-06
525,-1.2970426618251664e-05,-7.84903174571448e-06,-2.0363534441271513e-05,-9.122498173344106e-06
526,-2.5230967167977407e-05,-1.593826474002663e-05,-4.1088716488096206e-05,-1.7887117487731986e-05
527,-4.699476114397182e-05,-3.0896554071954486e-05,-7.919047964485792e-05,-3.357933996062157e-05
528,-8.420498907608634e-05,-5.7447655838883236e-05,-0.000146467079198836,-6.062720278978078e-05
529,-0.0001457200872803351,-0.00010286992331766685,-0.000261019087239138,-0.0001056774270020853
530,-0.0002443750736592277,-0.0001780247694396507,-0.00044976073663722225,-0.00017841384802010416
531,-0.0003982924765167016,-0.0002986564400049145,-0.0007515932642464172,-0.0002925644550429835
532,-0.0006324605655320127,-0.00048698983030790767,-0.0012213114583792299,-0.00046710561017215764
533,-0.0009805867325977178,-0.0007736441356076326,-0.001934296833187309,-0.0007276627656298965
534,-0.0014872215558307733,-0.0011998684822458671,-0.002992026685782592,-0.0011080961671737694
535,-0.002210134798474193,-0.0018200916798239465,-0.004528397776716978,-0.0016522482698044442
536,-0.0032229090071392665,-0.00270476236554797,-0.006716826816971627,-0.0024158176462674894
537,-0.004617700272901578,-0.003943438711638041,-0.00977804803981071,-0.003468312825864714
538,-0.006508099983543119,-0.005648069265249433,-0.013988482074927604,-0.004895029516126478
539,-0.009032016915100652,-0.007956389177522541,-0.01968900186182286,-0.006798986675188114
540,-0.012354486594240837,-0.011035339863321643,-0.027293872670108816,-0.009302751374988226
541,-0.01667030518426107,-0.015084405801616227,-0.03729959701287733,-0.0125500795689264
542,-0.022206378751813936,-0.020338750462624313,-0.050293354058584726,-0.016707299810328355
543,-0.029223676094415764,-0.027072024864864163,-0.0669606896989159,-0.021964369578915986
544,-0.03801867466043153,-0.03559871754541396,-0.08809209008380411,-0.028535538976160686
545,-0.04892419460403599,-0.046275914165928855,-0.11458806016269005,-0.0366595638765351
546,-0.062309525598765854,-0.059504338831517574,-0.14746233106594944,-0.04659941984046109
547,-0.07857976438740305,-0.07572855757243149,-0.18784283697931153,-0.05864147885559443
548,-0.09817429771327885,-0.09543623727224448,-0.2369701338832416,-0.07309412293544518
549,-0.12156438467212921,-0.11915637040417014,-0.29619297888755525,-0.09028578143868479
550,-0.14924981394669076,-0.14745639689575213,-0.3669608489397548,-0.11056239234342731
551,-0.18175463405665374,-0.18093817878887333,-0.45081324977012277,-0.13428430127442179
552,-0.21962197787436222,-0.22023281049729312,-0.5493657477592145,-0.1618226255093025
553,-0.2634080254815523,-0.26599427669983605,-0.6642927461684492,-0.19355512319415233
554,-0.31367517133334993,-0.31889200048169175,-0.7973071197465043,-0.22986162032064145
555,-0.3709844820987904,-0.37960235541978404,-0.9501369149022384,-0.27111905939369263
556,-0.4358875499753068,-0.4487992460132748,-1.1244994133133235,-0.31769624385905754
557,-0.5089178623270084,-0.5271438902605201,-1.3220729421764446,-0.36994836096629663
558,-0.5905818219046941,-0.61527396535033,-1.5444668918189948,-0.42821137255689024
559,-0.6813495625555233,-0.7137923014877261,-1.7931904690000864,-0.4927963681088204
560,-0.7816457132293487,-0.8232553290311105,-2.069620770226009,-0.5639839771416376
561,-0.8918402683081799,-0.9441614997341669,-2.374970802423636,-0.6420189387768614
562,-1.0122397249276989,-1.0769399134706992,-2.710258107274629,-0.727104924934299
563,-1.1430786481577289,-1.2219393870372546,-3.0762746595971486,-0.8193997104906257
564,-1.2845118228129604,-1.3794182012875635,-3.4735587088208777,-0.9190107789497243
565,-1.4366071463959378,-1.5495347569046845,-3.902369215590317,-1.0259914459806452
566,-1.5993394112596246,-1.732339357641866,-4.362663502955698,-1.1403375757175274
567,-1.772585115435898,-1.927767323066019,-4.854078693964489,-1.26198495608523
568,-1.9561184305538395,-2.1356336110390357,-5.37591744563688,-1.3908073897047857
569,-2.1496084416835237,-2.355629103803293,-5.927138414551983,-1.5266155462514448
570,-2.3526177575933422,-2.587318681130193,-6.506351803166683,-1.6691566105958153
571,-2.564602570607696,-2.8301411701667116,-7.1118202403945165,-1.8181147487417946
572,-2.7849142228473127,-3.083411225074207,-7.741465146990554,-1.973112400541671
573,-3.0128023101089956,-3.346323151061285,-8.392878628237534,-2.133712394476646
574,-3.2474193261994686,-3.6179566477866523,-9.06334082578793,-2.2994208655290476
575,-3.4878268196484843,-3.8972844072100172,-9.749842549826083,-2.4696909424767908
576,-3.7330030021226337,-4.183181461694464,-10.449112904436713,-2.6439271560072
577,-3.981851714522496,-4.474436140431275,-11.157651515443204,-2.8214905041632985
578,-4.233212623870497,-4.769762456995504,-11.871764872954369,-3.0017040972210305
579,-4.485872493034368,-5.067813718955999,-12.58760621208102,-3.1838592907064944
580,-4.738577337445401,-5.367197122810117,-13.301218276191987,-3.367222203530543
581,-4.990045259477901,-5.666489074845774,-14.008578239017485,-3.5510405087510413
582,-5.238979733008252,-5.964250961471479,-14.705644006214056,-3.734550377768099
583,-5.4840830985240885,-6.2590450815565175,-15.38840107504348,-3.916983455159082
584,-5.724070023383822,-6.549450448672515,-16.052909103931185,-4.09757374104232
585,-5.957680682546037,-6.83407817292929,-16.695347333092315,-4.275564260808245
586,-6.183693422139456,-7.111586140282439,-17.31205800416625,-4.450213408068945
587,-6.400936681218837,-7.380692721520553,-17.89958695159692,-4.62080085538252
588,-6.608299965353487,-7.640189263223008,-18.454720581671847,-4.786632938248151
589,-6.804743688615239,-7.88895113827966,-18.97451851659139,-4.947047430568194
590,-6.989307727293164,-8.125947163423032,-19.456341260111436,-5.1014176437908585
591,-7.161118558409666,-8.350247224880498,-19.897872337103777,-5.249155796867124
592,-7.3193948879261335,-8.561027989875361,-20.29713447017494,-5.389715619587883
593,-7.463451706462841,-8.757576620423132,-20.652499480072702,-5.522594167461799
594,-7.592702743527483,-8.939292445809897,-20.962691730233814,-5.647332841764585
595,-7.706661323851491,-9.105686590460712,-21.22678507624378,-5.76351762352274
596,-7.804939660768187,-9.256379593808736,-21.444193424568148,-5.870778544830332
597,-7.887246651006828,-9.391097097527851,-21.61465514780007,-5.96878843491178
598,-7.953384262300238,-9.509663712429573,-21.738211741856695,-6.0572609916416456
599,-8.00324262943329,-9.611995211865839,-21.81518124009611,-6.135948241747144
600,-8.03679399556461,-9.698089230110103,-21.846127016482413,-6.204637464583318
601,-8.054085653703728,-9.768014672463542,-21.83182271138416,-6.263147665070415
602,-8.055232058019959,-9.82190006834676,-21.773214096624855,-6.311325690915541
603,-8.04040628609325,-9.859921119018408,-21.671378758996624,-6.349042097320901
604,-8.00983104119639,-9.882287707458767,-21.527484522348455,-6.376186868680117
605,-7.963769388149272,-9.889230649041101,-21.34274754705864,-6.392665110947654
606,-7.902515417142086,-9.880988467589242,-21.118391042384808,-6.398392830107157
607,-7.8263850271131465,-9.85779448204546,-20.855605502648412,-6.393292911152498
608,-7.7357070137321085,-9.819864484082668,-20.555511333764645,-6.377291407971881
609,-7.630814636813926,-9.767385276532938,-20.219124674012402,-6.3503142473453975
610,-7.512037828243785,-9.700504326536478,-19.847327134225065,-6.312284439946312
611,-7.379696184541229,-9.619320766042861,-19.440840090102242,-6.263119877970164
612,-7.234092868443834,-9.523877946044344,-19.00020405560672,-6.202731783159886
613,-7.075509521838985,-9.414157720135673,-18.52576355406703,-6.131023851059234
614,-6.90420226859834,-9.290076598233915,-18.01765778537517,-6.047892117962665
615,-6.720398861058341,-9.151483873225722,-17.475817266287564,-5.953225557000103
616,-6.524296998791803,-8.998161782717329,-16.899966498982984,-5.846907389905502
617,-6.316063823674557,-8.829827725820474,-16.2896326032541,-5.72881708203659
618,-6.095836571749643,-8.646138511969667,-15.644159732364214,-5.598832970819588
619,-5.863724340626207,-8.446696576140951,-14.962728983791392,-5.456835462564146
620,-5.619810911620311,-8.231058053554476,-14.244383415611136,-5.302710719999568
621,-5.364158548913163,-7.998742567995964,-13.488057688604675,-5.1363547532643805
622,-5.0968126838400725,-7.749244552219421,-12.692611774447178,-4.957677820620512
623,-4.81780738099619,-7.482045887326253,-11.85686810234481,-4.766609041885915
624,-4.5271714739696165,-7.196629621253337,-10.979651460812518,-4.563101127387632
625,-4.224935251943545,-6.89249450509743,-10.05983092827741,-4.347135127947101
626,-3.911137573900695,-6.569170070359016,-9.096363076040365,-4.118725116755903
627,-3.5858332844780145,-6.226231960558151,-8.088335669835224,-3.8779227216175287
628,-3.249100804427077,-5.863317227168938,-7.035011091594906,-3.624821435444811
629,-2.901049768932801,-5.480139302410022,-5.9358687106580845,-3.35956064356146
630,-2.541828588584001,-5.076502369948248,-4.790645452929285,-3.0823293176778845
631,-2.1716318104775247,-4.652314868708685,-3.599373846692156,-2.793369337812372
632,-1.7907071606874116,-4.207601884270939,-2.3624168640491288,-2.4929784143288596
633,-1.3993621540418226,-3.7425162061500172,-1.080498926480498,-2.18151259209881
634,-0.9979701627365452,-3.257347856849698,0.245267499036494,-1.859388327068307
635,-0.5869758417522867,-2.7525319290643258,1.6133602213417622,-1.527084131850804
636,-0.16689981638700802,-2.2286545998501914,3.021830999468588,-1.1851417911583715
637,0.26165745446333716,-1.6864572240326483,4.468294927414033,-0.8341671498581711
638,0.6980127163205665,-1.1268384426411309,5.949925803328217,-0.47483047622571894
639,1.1413979252186492,-0.5508542749390692,7.463457669795318,-0.10786640067587813
640,-1.1679563783641126e-13,-4.032222798097318e-14,-2.1795899499397224e-14,-7.039761132612814e-14
641,-2.6507583927007355e-12,-8.541648517515881e-13,-4.245172216818065e-13,-1.5853958602169287e-12
642,-3.09470376736182e-11,-1.0195162292456103e-11,-5.167561193137265e-12,-1.8484862352982007e-11
643,-2.407930821870458e-10,-8.156212505747841e-11,-4.239618047698581e-11,-1.437543665709047e-10
644,-1.407726806922336e-09,-4.917509717170612e-10,-2.622803885961411e-10,-8.406134017293538e-10
645,-6.616198746156769e-09,-2.389502933063352e-09,-1.307923588635689e-09,-3.955017389710626e-09
646,-2.6120303935694654e-08,-9.774362818373007e-09,-5.490675130703497e-09,-1.5645198399117037e-08
647,-8.935651116943846e-08,-3.470617027584354e-08,-2.000574951963568e-08,-5.368115196292338e-08
648,-2.7112583319865675e-07,-1.09440697181057e-07,-6.471820016846794e-08,-1.6353195108157096e-07
649,-7.430058870913473e-07,-3.1194170333766535e-07,-1.891722168322675e-07,-4.504006415435963e-07
650,-1.8658990815695108e-06,-8.150457188202762e-07,-5.066404548094776e-07,-1.1378511828603672e-06
651,-4.3449211405600325e-06,-1.974417803797066e-06,-1.257367351699681e-06,-2.6677428613944e-06
652,-9.47311734458312e-06,-4.476124667444988e-06,-2.9186720412284107e-06,-5.860541432612021e-06
653,-1.9495200120572283e-05,-9.570778706192501e-06,-6.386078537941436e-06,-1.2159254493344818e-05
654,-3.812601831957779e-05,-1.942723477705487e-05,-1.3256719933632637e-05,-2.3983667548546138e-05
655,-7.126021320805307e-05,-3.764411041472405e-05,-2.625325862962461e-05,-4.522363468902915e-05
656,-0.00012790901241813417,-6.996126754775185e-05,-4.9832597761107546e-05,-8.190036302016335e-05
657,-0.00022139701873551525,-0.00012521517917862024,-9.10277206102614e-05,-0.00014302250070105874
658,-0.0003708459410996332,-0.0002165812219576728,-0.00016057207452246073,-0.0002416591144696707
659,-0.0006029633765992819,-0.00036314191896974165,-0.0002743531489151346,-0.0003962442080631068
660,-0.0009541430145698706,-0.0005918126960640796,-0.0004552346946878047,-0.000632117368501392
661,-0.0014728682208097856,-0.0009396456918446344,-0.0007352751729645783,-0.0009832927313570832
662,-0.002222394297408219,-0.001456517678067705,-0.0011583536872676954,-0.0014944342262010913
663,-0.003283666386151029,-0.0022081905414070902,-0.0017831944185887976,-0.002222999642180209
664,-0.004758410678253321,-0.003279712612923743,-0.0026867573584269857,-0.003241500180004788
665,-0.006772317085367647,-0.004779107168958899,-0.003967938094188425,-0.004639806651928626
666,-0.009478212699373302,-0.006841271579855426,-0.00575149389615436,-0.006527419266566601
667,-0.013059108220160119,-0.009631987867221354,-0.008192088828323492,-0.009035605973421292
668,-0.017730985138460036,-0.013351923916738262,-0.011478328501701336,-0.012319305634538587
669,-0.023745180911367972,-0.01824048535778052,-0.015836636767195496,-0.016558687749010922
670,-0.03139022369256659,-0.02457936220308076,-0.021534813300082313,-0.021960260826979265
671,-0.04099296828739523,-0.03269560270386172,-0.02888510361995285,-0.028757427298893166
672,-0.052918891594906536,-0.04296404036911484,-0.038246612297015425,-0.03721039423945375
673,-0.06757141925280684,-0.055808899425075345,-0.05002689628164138,-0.04760536598522164
674,-0.08539017548951225,-0.0717044096753529,-0.06468258849868816,-0.06025296633639138
675,-0.10684807486929086,-0.09117427407221243,-0.08271892178830317,-0.07548586353141423
676,-0.13244720689210243,-0.11478985139175804,-0.10468804935447432,-0.09365559941895692
677,-0.162713501181482,-0.1431669420199333,-0.13118608921009714,-0.11512865394421633
678,-0.1981902009001733,-0.17696109652349776,-0.16284885553217154,-0.1402818058583687
679,-0.2394302134851426,-0.21686140364320958,-0.2003462780126796,-0.16949687906289643
680,-0.2869874490630368,-0.2635827555913111,-0.24437554974100603,-0.20315498986778735
681,-0.34140729626631655,-0.31785663282799703,-0.29565308338500923,-0.24163043245947197
682,-0.40321642102329475,-0.3804204964323655,-0.35490539301005086,-0.2852843570295625
683,-0.47291210485152363,-0.4520059222693605,-0.42285905348263736,-0.3344584065361664
684,-0.5509513640802916,-0.5333256558471664,-0.5002299199407957,-0.38946848344204915
685,-0.6377401093512801,-0.6250598085523165,-0.5877118154157029,-0.45059881678173425
686,-0.7336226150726084,-0.7278414534259331,-0.6859649147557927,-0.518096492677362
687,-0.8388715709220373,-0.8422419105304918,-0.7956040671616623,-0.5921665984249758
688,-0.9536789819923199,-0.9687560371614918,-0.9171873076788553,-0.6729681122764993
689,-1.0781481709613734,-1.107787855807248,-1.0512048098074442,-0.7606106490113702
690,-1.2122871151583658,-1.2596368622113634,-1.1980685269248421,-0.8551521463881431
691,-1.356003324175494,-1.4244853567509619,-1.358102759495421,-0.956597550677687
692,-1.5091004305148876,-1.6023871344576484,-1.5315358681620117,-1.0648985317482758
693,-1.6712766275667483,-1.7932578524592053,-1.7184933300225014,-1.1799542305192061
694,-1.8421250469572759,-1.996867368699618,-1.918992307114686,-1.301613014756821
695,-2.021136121972763,-2.2128343129764914,-2.1329378629991185,-1.429675193688932
696,-2.20770193638259,-2.440623111243917,-2.36012092617484,-1.5638966181426865
697,-2.401122509639467,-2.6795436375220674,-2.600218058865381,-1.7039930711659945
698,-2.6006139212860613,-2.9287536155039726,-2.8527930475304504,-1.8496453346397819
699,-2.8053181306243227,-3.187263835036587,-3.117300288379635,-2.0005048004822354
700,-3.014314303482561,-3.4539461881676403,-3.393089898286786,-2.1561994809521625
701,-3.2266314174218427,-3.7275444665971116,-3.67941443994479,-2.3163402615784143
702,-3.4412618811506346,-4.006687798474554,-3.975437110999323,-2.480527232724746
703,-3.6571758744426113,-4.289906538975323,-4.280241211398113,-2.6483559321044123
704,-3.8733360925533065,-4.575650367498301,-4.592840672380588,-2.8194233309857326
705,-4.0887125648863485,-4.862308286243274,-4.91219140538648,-2.9933334015507027
706,-4.302297212100627,-5.148230161952399,-5.237203210476917,-3.1697021118954583
707,-4.513117809339473,-5.4317494063031875,-5.566751972211808,-3.348161708342163
708,-4.7202510358732255,-5.711206352288525,-5.899691866640556,-3.528364161752973
709,-4.922834312908259,-5.984971855220935,-6.234867306210684,-3.709983674920798
710,-5.120076160993002,-6.251470628841266,-6.571124359797059,-3.8927181712371857
711,-5.311264845375495,-6.509203820211124,-6.90732140227985,-4.076289709992732
712,-5.4957751206252,-6.756770332130206,-7.242338771520285,-4.260443800124324
713,-5.673072933455765,-6.99288641892315,-7.575087239402958,-4.444947611303571
714,-5.8427179935058735,-7.216403110436254,-7.904515136923614,-4.629587108348918
715,-6.004364174316355,-7.426321059499299,-8.229614010128971,-4.814163161506081
716,-6.157757759346426,-7.621802459155077,-8.549422723056631,-4.998486710739236
717,-6.302733599145353,-7.80217973655163,-8.863029964658281,-5.182373086481578
718,-6.4392092944297525,-7.966960799161254,-9.169575157989406,-5.3656356120650885
719,-6.56717756465209,-8.115830684316991,-9.46824781068989,-5.548078634053152
720,-6.686697001649061,-8.248649543117669,-9.758285384973465,-5.72949014562764
721,-6.797881442222015,-8.365446972569039,-10.038969802065363,-5.909634184603373
722,-6.900888221300002,-8.466412793334223,-10.309622729443628,-6.088243201020531
723,-6.99590558818615,-8.551884452570166,-10.569599828616184,-6.2650105990029274
724,-7.083139582072971,-8.62233130996965,-10.818284165865466,-6.439583663066704
725,-7.162800669557783,-8.678336138342166,-11.055079007871504,-6.611557079770123
726,-7.235090446534557,-8.720574236013123,-11.27940023793754,-6.7804672610869465
727,-7.300188700015048,-8.749790605337099,-11.490668636361963,-6.945787665945573
728,-7.358241112729726,-8.76677569826881,-11.688302270144424,-7.106925301038706
729,-7.409347875451814,-8.772340265056059,-11.87170923267335,-7.263218561541909
730,-7.453553449546606,-8.767289864882523,-12.040280963501646,-7.413936547220729
731,-7.490837695895983,-8.752399607222637,-12.19338636216187,-7.558279960100391
732,-7.521108556688806,-8.728389689662492,-12.330366888777723,-7.6953836570534015
733,-7.54419644424362,-8.695902282208525,-12.450532818743678,-7.824320895059228
734,-7.559850456739563,-8.655480280165646,-12.553160789853797,-7.944109269329973
735,-7.5677365051924195,-8.607548408291043,-12.637492748925192,-8.053718305867688
736,-7.567437399908921,-8.552397109118228,-12.702736372149797,-8.15207863125319
737,-7.558454908606289,-8.490169589291787,-12.748067000021328,-8.238092604509431
738,-7.540213762950065,-8.420852330816764,-12.772631094507508,-8.310646259670875
739,-7.512067555915229,-8.344269300814538,-12.775551193814117,-8.368622374100282
740,-7.473306439478346,-8.260080015315326,-12.75593230912792,-8.410914447391557
741,-7.423166500966022,-8.167781531529062,-12.712869678531273,-8.436441349509897
742,-7.360840667139732,-8.066714360698041,-12.645457766177499,-8.444162375157765
743,-7.285490958052188,-7.956072211829414,-12.55280037008155,-8.433092424643643
744,-7.196261888208292,-7.834915397069215,-12.43402167976951,-8.402317020129766
745,-7.092294791002308,-7.702187653853375,-12.288278105792962,-8.351006860336279
746,-6.972742824181971,-7.556736068773084,-12.114770686997279,-8.2784316168017
747,-6.836786399590519,-7.397333724694454,-11.912757868677746,-8.183972680816659
748,-6.683648770022585,-7.222704637291848,-11.681568435576809,-8.06713458230503
749,-6.512611500033869,-7.0315505008419406,-11.420614378226716,-7.927554820323744
750,-6.323029546215372,-6.822578726751493,-11.129403469506382,-7.765011869479771
751,-6.114345675876197,-6.5945312325263,-10.80755133046228,-7.579431157229906
752,-5.886103961205693,-6.346213424178899,-10.45479277038444,-7.370888843334556
753,-5.637962098612826,-6.076522811619936,-10.070992195730147,-7.1396132740749945
754,-5.369702319814024,-5.784476704333426,-9.656152895630358,-6.885984029431212
755,-5.081240682081642,-5.469238453299408,-9.21042502825061,-6.610528530300635
756,-4.772634549582793,-5.13014173416953,-8.734112152023526,-6.313916223914385
757,-4.444088105649469,-4.766712405386035,-8.227676168476613,-5.996950417664277
758,-4.0959557668718745,-4.378687522352778,-7.691740568721484,-5.660557883337443
759,-3.728743403868117,-3.966031143862253,-7.127091903240872,-5.305776404033419
760,-3.343107310195893,-3.5289466285827515,-6.5346794239257475,-4.933740483630248
761,-2.939850899770608,-3.067885186246056,-5.915612877825623,-4.545665482454438
762,-2.51991915383633,-2.5835505189092176,-5.271158463172195,-4.142830481760498
763,-2.0843908803777764,-2.0768994608994396,-4.602732989262692,-3.7265602128160356
764,-1.6344688911578287,-1.549138600356546,-3.911896312054713,-3.298206413020416
765,-1.17146824352704,-1.0017169392079952,-3.2003421461408537,-2.8591289908671675
766,-0.6968027348838363,-0.43631472048715225,-2.4698873804913752,-2.410677393076873
767,-0.21196987616232263,0.145171379301833,-1.7224600494122098,-1.9541725703410298
768,-1.0517706684742632e-13,-4.7610964602272445e-14,-3.502306537606149e-14,-7.607908108605293e-14
769,-2.384229044902518e-12,-1.0223574354586324e-12,-7.380319588771587e-13,-1.7014954801734293e-12
770,-2.8293508150725228e-11,-1.2135638589278737e-11,-8.925221088824324e-12,-2.0088409897394092e-11
771,-2.2372796528010108e-10,-9.640701050724951e-11,-7.24707044050171e-11,-1.581135757259514e-10
772,-1.3285053814703322e-09,-5.766217856818861e-10,-4.43731966364531e-10,-9.349552093130852e-10
773,-6.337613035740179e-09,-2.7773548091862986e-09,-2.1901960173676547e-09,-4.443723888514112e-09
774,-2.5377243382431022e-08,-1.1254002942321064e-08,-9.099367900940965e-09,-1.773829972334029e-08
775,-8.798308341142424e-08,-3.956456410495903e-08,-3.280013883438565e-08,-6.134761157344823e-08
776,-2.703327373179863e-07,-1.2348583351345644e-07,-1.0491934427608591e-07,-1.8816467174269317e-07
777,-7.495884331304508e-07,-3.4831947667660853e-07,-3.03042263816457e-07,-5.212295492560834e-07
778,-1.9031791055803456e-06,-9.006295310548044e-07,-8.013491452907223e-07,-1.3230708923836155e-06
779,-4.477245254899734e-06,-2.1593254027274893e-06,-1.961952213159246e-06,-3.1141262610091567e-06
780,-9.855101903960332e-06,-4.846243757582291e-06,-4.4888310142287245e-06,-6.86305349474026e-06
781,-2.0462837773992928e-05,-1.0261953573291156e-05,-9.67233843612631e-06,-1.4277083658145707e-05
782,-4.0354347799689385e-05,-2.0637968427811812e-05,-1.9757882916725358e-05,-2.8225456560208193e-05
783,-7.602142435034887e-05,-3.96413750681783e-05,-3.8476899349557515e-05,-5.333286966419089e-05
784,-0.00013747527506502265,-7.307150900008795e-05,-7.178094783863804e-05,-9.678220183511225e-05
785,-0.00023964337223595467,-0.00012979016064186652,-0.00012882016396283287,-0.00016936601804427458
786,-0.0004041194184088111,-0.0002229263635122962,-0.00022320490211503451,-0.00028682403821027655
787,-0.0006612941995443189,-0.00037139367601905446,-0.00037458400811742797,-0.0004714984530679469
788,-0.0010528812236743873,-0.0006017517212151323,-0.0006105646497255036,-0.0007543304078940758
789,-0.0016348336583919699,-0.0009504344436921572,-0.0009689871202350729,-0.0011772090630602242
790,-0.0024806288399452855,-0.0014663550952345263,-0.0015005537724578234,-0.0017956695277392117
791,-0.00368487442196178,-0.002213882569606845,-0.0022717946568057393,-0.002681918038031748
792,-0.005367167097620625,-0.0032761657602756256,-0.0033683340953467615,-0.003928142621657202
793,-0.007676111880797466,-0.00475876269019415,-0.004898403023644039,-0.005650045982589155
794,-0.010793388333263458,-0.006793510009221864,-0.006996522276359074,-0.007990515485430701
795,-0.014937731035766455,-0.009542546965385767,-0.009827262942823906,-0.011123324120182696
796,-0.020368676080005022,-0.013202387123964689,-0.013588972348259244,-0.015256737441785139
797,-0.027389914257479293,-0.018007911971387788,-0.018517338962376888,-0.020636885891667355
798,-0.0363520855363442,-0.024236144122688093,-0.024888657364747904,-0.0275507506387641
799,-0.047654848710157044,-0.03220964510105128,-0.033022645971689586,-0.03632860492354654
800,-0.061748064943542263,-0.042299374400776676,-0.043284666105615044,-0.04734575239876076
801,-0.07913194431360368,-0.05492684343675107,-0.05608719159157186,-0.06102340938744692
802,-0.10035602013037256,-0.07056540047892093,-0.07189038368563518,-0.07782858924836912
803,-0.1260168363887148,-0.08974049099682588,-0.09120163691414075,-0.09827286377166508
804,-0.15675425859061629,-0.11302875198648353,-0.11457397731644488,-0.12290989813221244
805,-0.1932463467482305,-0.14105581857000032,-0.14260321546932486,-0.15233168171219308
806,-0.23620276097664372,-0.1744927459748044,-0.1759237822106129,-0.187163406345533
807,-0.28635670401342017,-0.21405097924943361,-0.21520320470307713,-0.22805697549576737
808,-0.3444554405112811,-0.26047583594809576,-0.26113521376583876,-0.275683161793343
809,-0.4112494692644625,-0.3145385026204205,-0.3144315094840136,-0.33072246544449296
810,-0.48748046088663544,-0.3770265833453016,-0.37581225009449104,-0.393854761480922
811,-0.5738681091204764,-0.4487332768169326,-0.4459953680362745,-0.4657478588177993
812,-0.6710960781781219,-0.5304452967090919,-0.5256848557639654,-0.5470451277516338
813,-0.7797972605043867,-0.6229296873073287,-0.6155582013125889,-0.6383523839581468
814,-0.9005385883186099,-0.7269197218211755,-0.7162531885054321,-0.7402242453768533
815,-1.0338056674577862,-0.8431001035091176,-0.8283543079613406,-0.8531502028367527
816,-1.1799875227085863,-0.9720917189455976,-0.9523790515829932,-0.9775406652715919
817,-1.3393617593380889,-1.1144362176640326,-1.0887643839827805,-1.1137132554145475
818,-1.5120804553293783,-1.2705807123231352,-1.2378536984401987,-1.26187964158778
819,-1.698157102403911,-1.440862907852335,-1.399884571748049,-1.4221331953690144
820,-1.8974549109054824,-1.6254969762251674,-1.5749776311309465,-1.594437763406041
821,-2.1096767838206607,-1.824560495197293,-1.7631268369391233,-1.7786178344477546
822,-2.334357248534114,-2.0379827642679804,-1.9641914668769371,-1.9743503698100304
823,-2.5708566113858065,-2.26553479915682,-2.1778900612042533,-2.1811585470641117
824,-2.8183575698572203,-2.5068212872434126,-2.4037965540068282,-2.3984076428245973
825,-3.0758644805974025,-2.7612747608477024,-2.641338773922823,-2.6253032512951777
826,-3.3422054390593368,-3.028152213221881,-2.8897994495910955,-2.860892000962152
827,-3.6160372790119673,-3.306534344110815,-3.1483198017864513,-3.1040648928429313
828,-3.895853548538901,-3.595327578284014,-3.4159057471880336,-3.353563340389476
829,-4.179995464367961,-3.8932689522490334,-3.691436679603473,-3.6079879439749103
830,-4.466665789624554,-4.198933912250059,-3.9736767349158577,-3.8658099824220753
831,-4.753945522536874,-4.510747011577349,-4.261288387666168,-4.125385550973618
832,-5.039813226372046,-4.8269954382048414,-4.552848171537924,-4.384972220305891
833,-5.322166774969249,-5.145845245961815,-4.846864264401451,-4.6427480356423185
834,-5.598847234571578,-5.465360105021252,-5.141795632140891,-4.8968326198487135
835,-5.867664552123015,-5.783522331683074,-5.43607238519709,-5.145310090849726
836,-6.126424673714578,-6.098255904482932,-5.728116968448082,-5.386253453156767
837,-6.372957675419884,-6.407451124776429,-6.016365779435947,-5.617750077149173
838,-6.605146453367266,-6.708990536282304,-6.299290792634915,-5.837927839372651
839,-6.820955491546401,-7.000775680670053,-6.575420758892891,-6.044981463794768
840,-7.018459205499819,-7.280754236087187,-6.843361549635291,-6.237198578860112
841,-7.195869348595739,-7.546947063346306,-7.101815224960898,-6.412984989362018
842,-7.351560965787027,-7.797474671001165,-7.349597423245913,-6.57088865646871
843,-7.4840963881994025,-8.03058260625488,-7.585652696978488,-6.709621884368526
844,-7.592246780894699,-8.244665283931434,-7.809067454781142,-6.8280812283595065
845,-7.675010785845252,-8.438287780816532,-8.019080212307435,-6.925364667009603
846,-7.731629842481328,-8.610205147589657,-8.215088904168866,-7.000785620253449
847,-7.761599818889901,-8.75937882521746,-8.396655064407705,-7.053883445727349
848,-7.7646786473425236,-8.88498979677562,-8.563504743354688,-7.084430106739367
849,-7.740889727473298,-8.986448158739554,-8.71552609300525,-7.092432776152842
850,-7.690520937943766,-9.06339885715729,-8.852763620256887,-7.078132219926837
851,-7.614119181364316,-9.11572340289891,-8.975409176331157,-7.041996890602239
852,-7.512480475903886,-9.143537455257132,-9.083789820205311,-6.984712752867893
853,-7.386635698518536,-9.147184243232344,-9.178352762518598,-6.907168958440649
854,-7.237832177000082,-9.127223877356894,-9.259647662691313,-6.810439583566577
855,-7.067511418918538,-9.084418690208146,-9.328306614312883,-6.695761737056079
856,-6.877283352830259,-9.019714828994687,-9.38502221061524,-6.564510437389491
857,-6.668897538734788,-8.934220406836426,-9.430524131514874,-6.418170741564351
858,-6.444211878664854,-8.829180598594174,-9.4655547348911,-6.258307683549157
859,-6.205159422564395,-8.70595014032571,-9.490844166296379,-6.086534644127563
860,-5.953713917459545,-8.56596375668878,-9.507085522256185,-5.904480824433128
861,-5.691854787761487,-8.41070509602314,-9.514910612091839,-5.713758530768619
862,-5.421532260000136,-8.24167479674945,-9.514866861459538,-5.515930996940946
863,-5.144633355279933,-8.060358339693257,-9.507395887486675,-5.312481471316063
864,-4.862949466464451,-7.8681943578573925,-9.49281425069181,-5.104784278555239
865,-4.578146214082101,-7.666544077269925,-9.471296853206367,-4.894078530492323
866,-4.291736235193761,-7.4566625494751815,-9.442863406785571,-4.681445107376243
867,-4.005055503488987,-7.239672308087818,-9.407368338504606,-4.467787460863086
868,-3.7192437077155636,-7.016540039093679,-9.364494437865178,-4.2538167053913565
869,-3.4352291307101175,-6.788056798151653,-9.31375047743211,-4.0400413670852595
870,-3.153718374718413,-6.554822239271424,-9.254472961366707,-3.8267620516541396
871,-2.875191172677346,-6.3172332394525625,-9.185832073725402,-3.614071177725997
872,-2.599900412274829,-6.07547721494954,-9.106841812639411,-3.4018578026873563
873,-2.3278773826919297,-5.829530328742341,-9.016374209046344,-3.1898174474938563
874,-2.0589421358127318,-5.579160687643917,-8.913177441144509,-2.9774667081236665
875,-1.7927187372001938,-5.323936523442147,-8.795897569906606,-2.764162327314017
876,-1.5286550700854575,-5.0632392477519375,-8.663103538645755,-2.549124293734481
877,-1.2660467507433941,-4.7962811670118235,-8.513315002682765,-2.331462439390616
878,-1.0040646185367943,-4.522127544403814,-8.345032485557468,-2.110205922144657
879,-0.7417851809764296,-4.239722601426784,-8.156769297824116,-1.8843349108005223
880,-0.47822332542192514,-3.9479189653394124,-7.947084604946974,-1.652813736900628
881,-0.21236655625189793,-3.6455099915267275,-7.714616993562069,-1.414624741542429
882,0.0567900191759638,-3.3312643237229964,-7.458117861465513,-1.168802028100124
883,0.3302087497030701,-3.0039620014647435,-7.176483946872779,-0.9144643332804396
884,0.6087753370922374,-2.66243138446705,-6.8687883172013535,-0.6508462495374067
885,0.8932663424049189,-2.3055861388753573,-6.534309156985559,-0.3773270711113492
886,1.1843190355777935,-1.9324615213114207,-6.172555728338481,-0.09345659294752927
887,1.4824042658786125,-1.5422492037381612,-5.783290925089807,0.201022734877059
888,1.7878029591817317,-1.134329905482657,-5.366549902461154,0.5061578066681337
889,2.1005867622640015,-0.708303137954222,-4.922654336677204,0.8217714238435814
890,2.420603256877056,-0.2640134219404667,-4.452221951756798,1.1474537204263526
891,2.747466059830604,0.19842759428958293,-3.956171042163396,1.4825586345766895
892,3.0805500125596064,0.678623607042427,-3.4357198181363215,1.8262054897820137
893,3.4189915475916246,1.1758811190197769,-2.8923805033684866,2.1772856294844485
894,3.761694202967384,1.6892021907670864,-2.3279482201507355,2.53447393206021
895,4.107339141952805,2.2172826759070046,-1.7444848030056819,2.896244922187162
896,-7.20713583644258e-14,-5.622767144475059e-14,-5.816549343309245e-14,-7.819811801473189e-14
897,-1.6379481459889108e-12,-1.2256323083011654e-12,-1.2712360620641904e-12,-1.7592076677537407e-12
898,-2.001969287730528e-11,-1.4549445441842609e-11,-1.5079861366250636e-11,-2.1072683949255503e-11
899,-1.6303049238078244e-10,-1.1565186871168038e-10,-1.1974762715744083e-10,-1.6832432996723537e-10
900,-9.956125843050083e-10,-6.92530872555254e-10,-7.163009051318838e-10,-1.0099668638497909e-09
901,-4.876888443536734e-09,-3.3413967754850966e-09,-3.452410570832187e-09,-4.869482217397255e-09
902,-2.001772961223111e-08,-1.3569407780563752e-08,-1.4005733312894198e-08,-1.9710544582606738e-08
903,-7.101614082268054e-08,-4.782809957391163e-08,-4.931829332694189e-08,-6.909038529350159e-08
904,-2.2287763004044604e-07,-1.497045037507625e-07,-1.5423536189141153e-07,-2.1464793370268472e-07
905,-6.301270101505779e-07,-4.235516699337262e-07,-4.3604799613663856e-07,-6.018389328702173e-07
906,-1.628433700660723e-06,-1.0985236052651714e-06,-1.1302523815230055e-06,-1.5451074305807286e-06
907,-3.892849977624689e-06,-2.6417825832853716e-06,-2.7168114548278695e-06,-3.6751655669940484e-06
908,-8.693778043477355e-06,-5.946256021336597e-06,-6.113003406375727e-06,-8.178147394394279e-06
909,-1.828848454811554e-05,-1.2625225825433957e-05,-1.297601574003956e-05,-1.7163545313761375e-05
910,-3.649161985125494e-05,-2.5452561231023308e-05,-2.6155052651794738e-05,-3.420430539360879e-05
911,-6.947199358847294e-05,-4.89927729569201e-05,-5.033800060169021e-05,-6.5097410166657e-05
912,-0.00012682410064839483,-9.046845228445635e-05,-9.294073533346038e-05,-0.00011889584208748062
913,-0.0002229610377200235,-0.00016091329305392604,-0.00016528711152484604,-0.00020926219052687234
914,-0.00037887013948537075,-0.0002766561367305244,-0.00028412388102512005,-0.00035618967095963315
915,-0.0006242636918361996,-0.00046117488508101554,-0.0004735068218303957,-0.0005881274966029458
916,-0.00100014438497089,-0.0007473484853955012,-0.0007670821271285074,-0.0009445341697092076
917,-0.0015617888698461059,-0.0011801205699145776,-0.0012107708430239502,-0.0014788644582927756
918,-0.002382133233078324,-0.0018195700618103736,-0.0018658444312600973,-0.002261974067211186
919,-0.003555522023149731,-0.002744362755708377,-0.002812357245661492,-0.003385901104256107
920,-0.005201758480520192,-0.00405553440157536,-0.004152877956094404,-0.004967956442653232
921,-0.007470368844316489,-0.0058805312330541815,-0.006016437975941669,-0.007155027231677689
922,-0.010544969143330448,-0.008377409395459272,-0.008562592019545276,-0.010127970463471445
923,-0.014647599918930878,-0.011739071626329013,-0.0119854652342443,-0.014105948076455538
924,-0.02004287406991105,-0.016197399098648483,-0.016517643979819766,-0.019350532948734345
925,-0.027041766569540066,-0.02202711975010898,-0.022433754163306063,-0.02616939758490446
926,-0.03600486315477592,-0.029549242745561196,-0.03005356280986554,-0.0349193854455562
927,-0.047344879053183485,-0.039133882816082606,-0.03974443582887799,-0.04600875965977921
928,-0.06152825910984218,-0.051202298718659466,-0.05192298812220703,-0.05989842607881348
929,-0.07907567790490376,-0.0662279773368723,-0.06705577150445273,-0.07710193785606512
930,-0.10056127303044951,-0.08473660908423192,-0.08565886139184957,-0.09818410729888377
931,-0.1266104667601252,-0.10730482107043139,-0.10829622467504907,-0.12375807763458532
932,-0.1578962606906933,-0.13455756144393338,-0.13557677818475017,-0.15448074222479935
933,-0.19513392399842733,-0.16716406065245012,-0.16815007899346018,-0.1910464409554418
934,-0.23907403782899733,-0.20583233204904663,-0.20670062353300547,-0.2341789119865659
935,-0.2904939047921736,-0.2513022141144002,-0.2519407710084587,-0.2846215303892097
936,-0.3501873820386129,-0.30433699823997173,-0.3046023465895642,-0.3431259217424987
937,-0.4189532472291733,-0.3657137281315085,-0.3654270200410252,-0.41043909659892386
938,-0.49758225706126147,-0.4362122980440348,-0.43515559450153396,-0.4872893088030857
939,-0.5868431061106933,-0.5166035158805059,-0.5145163767763521,-0.5743708948849076
940,-0.6874675378857744,-0.6076363323898338,-0.6042128335832768,-0.6723284010899853
941,-0.8001348986002121,-0.7100244681268383,-0.7049107665956668,-0.7817403471062269
942,-0.9254564558548583,-0.8244326945003985,-0.8172252618835852,-0.9031030094283097
943,-1.0639598280221607,-0.9514630433639379,-0.9417076856385489,-1.036814631072038
944,-1.2160738847880201,-1.0916412306617316,-1.0788330072444632,-1.1831604768399266
945,-1.3821144844459425,-1.2454035833515855,-1.2289877324333762,-1.3422991537305462
946,-1.5622714088372782,-1.4130847551342742,-1.392458723321966,-1.5142506039244585
947,-1.7565968422280507,-1.5949065056072493,-1.5694231687305562,-1.6988861530188626
948,-1.9649957161461002,-1.7909677996962279,-1.7599399477705178,-1.895920959222826
949,-2.1872182088480714,-2.0012364601527537,-1.9639426028982532,-2.1049091609430204
950,-2.4228546465411047,-2.2255425762481367,-2.1812341062973886,-2.3252419619006597
951,-2.671333004906571,-2.4635738373958436,-2.411483566518622,-2.556148826294073
952,-2.931919155214074,-2.7148729222645813,-2.6542249818238743,-2.796701883495579
953,-3.203719940867235,-2.978837033057596,-2.908858103749196,-3.045823564477238
954,-3.4856891091605853,-3.254719622126633,-3.174651430138013,-3.302297412837887
955,-3.7766360609009824,-3.541634315049064,-3.4507473024007833,-3.564781934194577
956,-4.075237318782018,-3.838560991751332,-3.736169038071143,-3.8318272709315475
957,-4.38005055524085,-4.144353946132018,-4.029829987811843,-4.101894416802469
958,-4.689530963066583,-4.457752005710462,-4.330544366738572,-4.3733766193745
959,-5.002049698277081,-4.777390456746315,-4.637039674030653,-4.644622559299588
960,-5.315914075720437,-5.101814587556397,-4.947970482926565,-4.913960845229147
961,-5.6293891544674866,-5.429494633807951,-5.261933355883037,-5.179725323018787
962,-5.94072031333687,-5.758841884723681,-5.5774826173195295,-5.4402806687410195
963,-6.248156387858458,-6.088225688667395,-5.893146699282996,-5.694047717874358
964,-6.549972919676588,-6.415991080712448,-6.207444763771761,-5.939527978689383
965,-6.844495058798373,-6.740476743704591,-6.518903299496729,-6.175326786907139
966,-7.130119658978637,-7.0600330081472835,-6.826072390603209,-6.400174581410674
967,-7.405336117354206,-7.373039595047118,-7.127541360313395,-6.612945816928391
968,-7.66874553128079,-7.677922809697543,-7.421953503476836,-6.8126750784694785
969,-7.919077777911273,-7.973171903229951,-7.708019638446358,-6.998570022713155
970,-8.155206164761845,-8.25735433252888,-7.984530230275943,-7.1700208419706355
971,-8.37615935134891,-8.529129667610562,-8.250365863659741,-7.326606024841151
972,-8.581130301577256,-8.78726191852397,-8.504505874953738,-7.4680942720819
973,-8.769482092229222,-9.03063008088047,-8.746034987654573,-7.594442514145064
974,-8.940750472740676,-9.258236729802054,-8.974147834412129,-7.705790065891758
975,-9.094643143424772,-9.469214525879845,-9.188151290512863,-7.80244904181617
976,-9.231035791326091,-9.6628305330825,-9.387464588189106,-7.884891239460706
977,-9.349964992845331,-9.838488286828756,-9.571617227368684,-7.953731777494936
978,-9.451618158140292,-9.995727589986739,-9.74024474571878,-8.009709846304528
979,-9.536320752278309,-10.134222054704916,-9.893082458041501,-8.053666991304821
980,-9.60452108072934,-10.253774448018536,-10.029957321085453,-8.086523401280068
981,-9.656772970987895,-10.354309938403716,-10.150778123385724,-8.109252714871552
982,-9.693716717231736,-10.43586737815694,-10.255524239535376,-8.122855887188502
983,-9.716058680688096,-10.498588791962819,-10.34423322306357,-8.128334674955878
984,-9.72454995489565,-10.542707274614227,-10.416987540696645,-8.126665302502328
985,-9.719964512793664,-10.568533529964887,-10.473900772224919,-8.118772862403656
986,-9.703077252275465,-10.576441308307908,-10.515103613728122,-8.105506984208784
987,-9.674642349382113,-10.56685202005819,-10.54073002702247,-8.087619273125469
988,-9.635372314587146,-10.54021881954964,-10.550903874666348,-8.065742978800296
989,-9.58591812852623,-10.497010463711932,-10.545726367779192,-8.040375303563858
990,-9.526850809922326,-10.437695256235022,-10.525264633660077,-8.011862701074133
991,-9.45864474114482,-10.362725388510372,-10.48954168238304,-7.980389451650125
992,-9.38166304648545,-10.272521984168769,-10.438528017075903,-7.9459697312799795
993,-9.296145285315626,-10.167461144478619,-10.372135092537526,-7.908443318872288
994,-9.202197687102613,-10.047861277324193,-10.290210782439807,-7.867475012355818
995,-9.099786117946003,-9.913971973084454,-10.192536967919652,-7.822557750254063
996,-8.988731928871507,-9.765964666648921,-10.078829311270049,-7.773019362827826
997,-8.86871079453453,-9.603925296262872,-9.948739229069185,-7.718032807136631
998,-8.739254607192374,-9.427849137184742,-9.801858030763322,-7.656629674646999
999,-8.599756444868836,-9.237637951650377,-9.637723142632689,-7.587716699461609
1000,-8.449478584846295,-9.033099556859167,-9.455826294208693,-7.510094940960864
1001,-8.287563484517602,-8.813949870216845,-9.255623505326632,-7.422481267677221
1002,-8.1130476019727,-8.579817446574424,-9.036546677604468,-7.323531730474376
1003,-7.924877879397032,-8.33025047646316,-8.79801656455018,-7.211866383290521
1004,-7.721930664449829,-8.064726168179966,-8.539456869893044,-7.086095089309517
1005,-7.5030327993719474,-7.782662390911926,-8.260309204193547,-6.944843839684873
1006,-7.266984565745831,-7.483431411813964,-7.96004861535984,-6.786781110844619
1007,-7.012584135585967,-7.166375517981148,-7.638199399410371,-6.610643794666078
1008,-6.738653147572061,-6.83082427547478,-7.294350893688861,-6.415262252883173
1009,-6.4440630013345155,-6.476113142814093,-6.928172955759276,-6.199584072211374
1010,-6.127761443178296,-6.1016031264108745,-6.539430837355594,-5.962696128922729
1011,-5.788799003770038,-5.706701140988819,-6.127999173961736,-5.703844609919578
1012,-5.426354842257839,-5.290880719655994,-5.693874826719106,-5.422452680564539
1013,-5.039761552040836,-4.853702706395816,-5.237188334198332,-5.118135536350228
1014,-4.62852849083568,-4.394835558539061,-4.758213756835993,-4.790712624631675
1015,-4.192363211629388,-3.914074888315934,-4.257376726136666,-4.440216872864336
1016,-3.7311905913899155,-3.4113618807185078,-3.735260543579165,-4.066900810010051
1017,-3.2451692808467327,-2.8868002393223287,-3.1926102099316607,-3.6712395170938557
1018,-2.7347051310286754,-2.340671331986104,-2.630334303645544,-3.253930390596418
1019,-2.200461290278076,-1.7734472339468985,-2.049504666324282,-2.8158897479044214
1020,-1.6433647088426129,-1.185801396182542,-1.4513538930193104,-2.35824634703356
1021,-1.064608836566236,-0.5786167014313405,-0.837270664300084,-1.8823319330399366
1022,-0.4656523523143312,0.047009291650200874,-0.20879299467326606,-1.389668960774072
1023,0.15178617884248513,0.6897620746281388,0.4324004929805578,-0.8819556777578693
1024,-1.0981416622032467e-14,-4.1419996242066414e-14,-4.0470655785791636e-14,-3.6205035111698005e-14
1025,-1.665073879863434e-13,-8.814511446940438e-13,-8.653082661495094e-13,-6.671971974788507e-13
1026,-2.8763026286878633e-12,-1.0462426139741825e-11,-1.0275550479362143e-11,-8.554505843488706e-12
1027,-2.958046940606376e-11,-8.329615614775073e-11,-8.183580466662884e-11,-7.197364038820596e-11
1028,-2.158975340267025e-10,-4.999680918885581e-10,-4.914962998562468e-10,-4.5345362308890506e-10
1029,-1.2168082968922038e-09,-2.41980919129167e-09,-2.381001876496921e-09,-2.2857449101007892e-09
1030,-5.593997216375104e-09,-9.864535923605998e-09,-9.718618214393002e-09,-9.632705117859266e-09
1031,-2.1784774611663932e-08,-3.492689853881598e-08,-3.446492960281408e-08,-3.501015312838219e-08
1032,-7.389531707006654e-08,-1.0988726408213864e-07,-1.0863585780503307e-07,-1.1234006333142723e-07
1033,-2.2306514158703703e-07,-3.1267743458331207e-07,-3.097554989761926e-07,-3.2413995542216385e-07
1034,-6.095330108579663e-07,-8.159817026853929e-07,-8.101249390355211e-07,-8.534892591226637e-07
1035,-1.5286719837955537e-06,-1.9751924200111056e-06,-1.965378859049435e-06,-2.075814587662064e-06
1036,-3.558924845505912e-06,-4.4762403120528135e-06,-4.463737143526593e-06,-4.7105375909786486e-06
1037,-7.764423379856571e-06,-9.570600487153772e-06,-9.563750248956378e-06,-1.0057753067488389e-05
1038,-1.599965821026045e-05,-1.9430956350700907e-05,-1.94545683885178e-05,-2.0349863668357556e-05
1039,-3.1347301884961565e-05,-3.766637754943597e-05,-3.777809615798398e-05,-3.925191417627795e-05
1040,-5.872252894812779e-05,-7.003966862205388e-05,-7.035604320001556e-05,-7.254662535432275e-05
1041,-0.00010567731322130113,-0.00012543103339285932,-0.00012616610936932977,-0.00012904025839013828
1042,-0.0001834357130147077,-0.00021709074784765682,-0.00021860973614669903,-0.00022172295768850873
1043,-0.00030818575030006106,-0.00036421869424614557,-0.0003671085904130713,-0.00036921176652382297
1044,-0.0005026450148910704,-0.0005939001649815674,-0.0005990580254081366,-0.0005974958670823369
1045,-0.0007979057007385287,-0.0009434153360500721,-0.0009521532337124374,-0.000941991755002615
1046,-0.0012355508080473916,-0.0014629245352120797,-0.0014770879550992568,-0.001449901240904884
1047,-0.0018700173899656163,-0.0022185134281310754,-0.0022406069380417615,-0.002182847865647421
1048,-0.0027711658081412947,-0.003295562259818683,-0.0033288725822783133,-0.0032197482071065877
1049,-0.004026996852933869,-0.004802382213680317,-0.0048510841750135,-0.004659854482014955
1050,-0.005746442112943887,-0.006874040773225549,-0.006943265856214011,-0.006625884739453176
1051,-0.00806213794813935,-0.009676277712201599,-0.009772117964060656,-0.009267137819205629
1052,-0.011133080644691692,-0.013409395001628105,-0.01353880680566661,-0.012762473209783085
1053,-0.015147050622880671,-0.018311988455651195,-0.018482551241941193,-0.01732302212074749
1054,-0.020322687728042157,-0.02466437720385946,-0.0248838517773983,-0.023194486617018898
1055,-0.02691109837965306,-0.03279157982018401,-0.03306719999767749,-0.03065887960116427
1056,-0.035196879313327975,-0.043065683756814035,-0.04340310392475831,-0.040035560709578775
1057,-0.04549845229666669,-0.055907458050124724,-0.05630926868009153,-0.051681432525021415
1058,-0.058167619780973984,-0.07178706830624287,-0.07225078204410366,-0.06599017832041729
1059,-0.07358827288716664,-0.09122376772896895,-0.09173917111212461,-0.08339044683959931
1060,-0.09217420997503571,-0.11478445816619408,-0.11533021904650609,-0.10434292095336965
1061,-0.11436605550238431,-0.14308104031015123,-0.1436204594188563,-0.12933624450289444
1062,-0.14062730381218116,-0.17676650153312992,-0.17724229906618683,-0.1588818239397709
1063,-0.1714395494397191,-0.21652972239759552,-0.21685775774418767,-0.19350756676249392
1064,-0.20729700276339844,-0.2630890175029101,-0.26315085293241736,-0.23375066514398535
1065,-0.24870042536538853,-0.3171844617671378,-0.31681869955254033,-0.2801495781901584
1066,-0.2961506512629,-0.3795690881992745,-0.37856143562952654,-0.33323540748680064
1067,-0.350141886233732,-0.4509990764305481,-0.4490711245621856,-0.3935228955737068
1068,-0.41115499599703803,-0.5322230815714053,-0.5290198212308099,-0.46150130352888336
1069,-0.479651003527983,-0.6239708793221178,-0.6190470213378868,-0.537625440123618
1070,-0.5560650151771431,-0.7269415248646148,-0.719746740023759,-0.622307119681767
1071,-0.6408007839501147,-0.8417912393020655,-0.8316544860372209,-0.7159073181538941
1072,-0.7342260963039483,-0.969121247927514,-0.9552344109671587,-0.8187292770150358
1073,-0.8366691367972415,-1.1094657992610932,-1.0908669189505085,-0.9310127731582382
1074,-0.9484159441107822,-1.263280592681241,-1.2388370208491317,-1.0529297313471235
1075,-1.0697090240342044,-1.4309318358700809,-1.3993237083740435,-1.1845813059033734
1076,-1.2007471320721956,-1.6126861416474016,-1.5723906084691013,-1.32599650242737
1077,-1.3416861827563942,-1.8087014576672291,-1.7579781570243842,-1.4771323510682868
1078,-1.4926411871370797,-2.0190192025748375,-1.9558975043294498,-1.6378755828994078
1079,-1.6536890668764832,-2.2435577593007743,-2.165826333299003,-1.8080457030217965
1080,-1.8248721453543961,-2.482107450947137,-2.3873067361319698,-1.9873993006745174
1081,-2.006202075482353,-2.7343270979328493,-2.619745256440123,-2.1756353901745507
1082,-2.1976639325051894,-2.999742227409967,-2.862415162758448,-2.372401538949158
1083,-2.3992201796243533,-3.2777449780956,-3.114460976487731,-2.5773005118614
1084,-2.610814206082258,-3.567595716169181,-3.374905233478288,-2.789897145598672
1085,-2.8323731421746103,-3.8684263512584054,-3.642657414385214,-3.0097251636478957
1086,-3.063809673759423,-4.179245316164759,-3.916524935329217,-3.2362936512888894
1087,-3.3050226099388365,-4.498944150127394,-4.195226047971121,-3.4690929304788645
1088,-3.5558960009431373,-4.826305603245842,-4.477404457509097,-3.7075996053421276
1089,-3.816296657556393,-5.160013159239852,-4.761645428962906,-3.951280588613265
1090,-4.0860699868680195,-5.4986618550219175,-5.046493117023539,-4.199595965856899
1091,-4.365034129390975,-5.840770258569736,-5.330468823315171,-4.452000605420402
1092,-4.652972456968449,-6.184793451285083,-5.612089857741145,-4.70794447564171
1093,-4.949624566483721,-6.529136847396301,-5.889888658292056,-4.966871684668899
1094,-5.254675978187313,-6.872170671008064,-6.16243180694163,-5.2282183103367705
1095,-5.567746816486891,-7.212244901153081,-6.42833856873908,-5.491409136078444
1096,-5.8883798125260824,-7.547704486723286,-6.686298577639338,-5.755853452299813
1097,-6.21602801943493,-7.876904626579311,-6.9350882966905605,-6.0209401199094135
1098,-6.550042670956609,-8.198225905667321,-7.1735858925492435,-6.28603212314791
1099,-6.889661641062263,-8.510089075915332,-7.400784185409359,-6.550460862335012
1100,-7.233998975530758,-8.810969271410155,-7.6158013655992916,-6.813520453767537
1101,-7.582035966110845,-9.099409451259797,-7.817889207316517,-7.074462314006161
1102,-7.932614223920006,-9.374032870951288,-8.006438557872881,-7.332490309359918
1103,-8.284431181481347,-9.633554394118175,-8.180981936643168,-7.586756748540676
1104,-8.636038412646277,-9.8767904714644,-8.341193140450981,-7.836359486990846
1105,-8.985843107049421,-10.10266763203001,-8.486883819770307,-8.0803403948778
1106,-9.332112971303635,-10.310229353814643,-8.617997060863116,-8.31768541674062
1107,-9.672984753850663,-10.498641205749442,-8.734598080491866,-8.547326419048277
1108,-10.006476505760395,-10.667194180880545,-8.836862209630063,-8.768144982702161
1109,-10.330503597919348,-10.815306171114177,-8.925060408122603,-8.978978251568261
1110,-10.642898418486928,-10.942521566606343,-8.999542611190513,-9.178626896695711
1111,-10.941433575970951,-11.048508997344337,-9.060719259094023,-9.365865200537089
1112,-11.223848335578221,-11.133057269986534,-9.109041401750247,-9.539453207941198
1113,-11.487877922398008,-11.196069588778158,-9.144979799801208,-9.698150832685736
1114,-11.731285237173617,-11.237556184441075,-9.169003462209108,-9.840733751551179
1115,-11.951894451477822,-11.257625508442596,-9.18155806797319,-9.966010864007874
1116,-12.147625881403194,-11.256474181140637,-9.183044716321097,-10.072843045973762
1117,-12.316531484462104,-11.2343759102259,-9.173799436157513,-10.160162882080176
1118,-12.45683028489243,-11.191669619953375,-9.15407386210717,-10.226995023487438
1119,-12.56694300905939,-11.12874705125362,-9.12401745157323,-10.272476788193524
1120,-12.645525205594533,-11.046040107381767,-9.083661575176775,-10.295878598296124
1121,-12.691498134168738,-10.94400822882678,-9.032905762056048,-10.296623833797003
1122,-12.704076731710762,-10.823126084391504,-8.971506322192212,-10.274307675118438
1123,-12.682794004436873,-10.683871862391346,-8.899067500873544,-10.228714506340205
1124,-12.627521246992474,-10.52671643662486,-8.815035246725817,-10.159833458158992
1125,-12.538483554893388,-10.352113666059516,-8.718693596070015,-10.06787168372605
1126,-12.41627017179504,-10.160492065097023,-8.60916359493537,-9.953264982006996
1127,-12.261839297450551,-9.952248053055326,-8.485404598634616,-9.816685412449814
1128,-12.076517074224851,-9.727740957564023,-8.346217710684774,-9.659045581977185
1129,-11.86199056852371,-9.487289907583937,-8.19025105170729,-9.481499331006217
1130,-11.620294667328686,-9.23117270863101,-8.016006488644921,-9.285438599467826
1131,-11.353792917924672,-8.959626746619428,-7.82184740906237,-9.072486316337555
1132,-11.065152449361886,-8.672851918809412,-7.6060070981403065,-8.844485226198175
1133,-10.757313225422065,-8.371015542015156,-7.366597270605682,-8.603482642541326
1134,-10.433451988844892,-8.054259140860955,-7.1016163292349574,-8.351711198210362
1135,-10.096941363152895,-7.722706973738138,-6.808956968166418,-8.091565746644768
1136,-9.751304679401766,-7.376476112296582,-6.486412814821566,-7.825576651364548
1137,-9.400167188524131,-7.0156878526658,-6.1316839096300475,-7.556379783441252
1138,-9.047204403813634,-6.640480203789578,-5.742380957731006,-7.286683625704401
1139,-8.696088390975332,-6.251021170751711,-5.316028449790303,-7.019233956461918
1140,-8.350432883674817,-5.847522529124578,-4.8500669368341125,-6.7567766529591315
1141,-8.013738149316936,-5.430253770465512,-4.341854951495547,-6.502019214022347
1142,-7.6893365614882025,-4.999555889349283,-3.7886712881418565,-6.257591650603152
1143,-7.380339850722851,-4.555854678959585,-3.187718577629325,-6.0260074305382485
1144,-7.089589002715518,-4.099673205440882,-2.5361293074769486,-5.80962518814104
1145,-6.819607751730877,-3.631643141053962,-1.830975631943724,-5.610611918838601
1146,-6.572560575968042,-3.1525146527192676,-1.0692844747201171,-5.430908372815638
1147,-6.3502160406403085,-2.663164565681588,-0.2480595354233867,-5.272197338731331
1148,-6.153916253683322,-2.1646025515492613,0.6356881436849607,-5.135875468673712
1149,-5.984553099115736,-1.6579751254422648,1.5848994241436996,-5.023029238770879
1150,-5.842551795636678,-1.144567277833417,2.6024146182768746,-4.934415567007061
1151,-5.727862195147043,-0.6258016120961303,3.6909080280540554,-4.870447522038309
1152,2.1873305329076435e-14,-7.276017103401216e-14,-1.327946476591303e-12,1.3288456430471538e-14
1153,4.901309025709849e-13,-1.6309278382368351e-12,-2.6526831995045955e-11,2.919660463819982e-13
1154,5.272338476648789e-12,-1.956339596555398e-11,-3.1844360694865784e-10,2.951473569738196e-12
1155,3.711475591246659e-11,-1.5688991116823424e-10,-2.535139052433454e-09,1.9346795687217602e-11
1156,1.9197451194776135e-10,-9.473253193678304e-10,-1.5214235604697796e-08,9.072164495512501e-11
1157,7.76552700172664e-10,-4.606147830602593e-09,-7.358260208558595e-08,3.1760996123393497e-10
1158,2.5449790557651715e-09,-1.883672242408702e-08,-2.9961046063865585e-07,8.181333374287162e-10
1159,6.869673661311563e-09,-6.680487913973769e-08,-1.0590484485468004e-06,1.3143285140936086e-09
1160,1.5192388173851857e-08,-2.1021321124546046e-07,-3.324829257808359e-06,-4.15658325847239e-10
1161,2.6158392325192046e-08,-5.973585383590683e-07,-9.43580098216979e-06,-1.2727518872906806e-08
1162,2.7377145959116646e-08,-1.5546679850852928e-06,-2.4548514676075466e-05,-5.9419202460992046e-08
1163,-2.3151907284430714e-08,-3.7481813170377945e-06,-5.921494577826182e-05,-1.9763523913551797e-07
1164,-2.330487133912e-07,-8.45013501633546e-06,-0.0001336727450519493,-5.485823832594367e-07
1165,-8.381395111937634e-07,-1.7954276828059067e-05,-0.0002845936635515608,-1.3453928001753932e-06
1166,-2.3022844213048002e-06,-3.619069416632848e-05,-0.0005751828542737267,-3.0016044186021192e-06
1167,-5.4656400506019635e-06,-6.95956410748453e-05,-0.001109636882776475,-6.201553257672495e-06
1168,-1.1751666097866229e-05,-0.00012829306910210015,-0.0020530305249977275,-1.201030069859454e-05
1169,-2.3440603613792642e-05,-0.00022764150317250564,-0.0036576922115813732,-2.1995591051477603e-05
1170,-4.401280702391021e-05,-0.00039019204428720247,-0.006297028256480011,-3.834806512211674e-05
1171,-7.855934215320478e-05,-0.0006480904468904873,-0.010507554377536008,-6.397910748119553e-05
1172,-0.00013424997253419147,-0.001045938564394653,-0.01703958218483619,-0.00010256901187476849
1173,-0.00022084049381048331,-0.0016441084620787655,-0.02691658753818306,-0.00015853242777753957
1174,-0.0003511929375831368,-0.002522476945266191,-0.04150276269657492,-0.00023686412568239406
1175,-0.0005417741808970544,-0.003784520194141428,-0.06257763821489093,-0.00034282672745645707
1176,-0.0008130917444188655,-0.00556167890207711,-0.09241597381513426,-0.00048144374134945043
1177,-0.0011900207404348165,-0.008017875195192594,-0.13387038757393072,-0.0006567662856932635
1178,-0.0017019735662032866,-0.011354035146538717,-0.19045345387308887,-0.0008708902408743588
1179,-0.002382864361118676,-0.015812446352749737,-0.26641529242587547,-0.0011227119289447776
1180,-0.0032708236354433828,-0.021680760195554975,-0.3668120374366889,-0.0014064242959339543
1181,-0.004407624887462372,-0.02929543430864577,-0.49756006348067994,-0.0017097713550107483
1182,-0.005837794386675917,-0.03904440347870888,-0.6654704987324018,-0.002012095655064722
1183,-0.007607387416490183,-0.05136876758047727,-0.8782584188110145,-0.0022822310377889734
1184,-0.00976242882712861,-0.06676329378443563,-1.144521221889542,-0.0024763101969076367
1185,-0.012347032320546122,-0.08577554750093092,-1.4736810646544687,-0.0025355728265671683
1186,-0.015401230904231794,-0.10900349233437082,-1.8758869049256521,-0.002384274706480236
1187,-0.018958569649330605,-0.1370914333646695,-2.361872652380255,-0.0019278101491281335
1188,-0.0230435303136096,-0.17072421963887913,-2.942769161805973,-0.001051169016945631
1189,-0.027668874455876,-0.2106196697784634,-3.629869286281469,0.00038214579581760764
1190,-0.032833006267247555,-0.257519237696655,-4.434346899012928,0.0025306146504206206
1191,-0.038517467431088866,-0.31217699190561476,-5.366932636941378,0.0055744909691798974
1192,-0.04468468296205219,-0.3753470398890596,-6.437551050350375,0.009714775597748752
1193,-0.051276078392963796,-0.44776958649889864,-7.654925785445614,0.015171283983299848
1194,-0.05821068435268501,-0.530155870226549,-9.026161300987399,0.022179737456531033
1195,-0.06538433433426571,-0.6231722714568829,-10.556311343736722,0.0309878382914176
1196,-0.07266954551489359,-0.7274239305031501,-12.247945900977012,0.04185032119273874
1197,-0.07991615145704158,-0.8434382485982521,-14.100729538239465,0.05502301039946061
1198,-0.08695273029591788,-0.9716486705789464,-16.11102485232726,0.07075595048890893
1199,-0.09358884373214409,-1.11237916254012,-18.271535172381427,0.08928571890477155
1200,-0.09961807208407496,-1.2658298003921074,-20.571000588243507,0.1108270678261184
1201,-0.10482180015636605,-1.432063875545858,-22.993960855814414,0.13556408083428098
1202,-0.10897367904310326,-1.610996901817241,-25.520597720631894,0.1636410645272689
1203,-0.11184466135518158,-1.8023878734639616,-28.126667728431684,0.19515342543460343
1204,-0.11320848272382572,-2.0058330788685144,-30.783534686503536,0.2301388069986533
1205,-0.11284744162025057,-2.2207627189956183,-33.45830864971228,0.2685687787553984
1206,-0.11055831325330079,-2.446440515977978,-36.11409569134736,0.3103413789920636
1207,-0.10615822211429744,-2.6819664268982977,-38.710359854972516,0.35527481208858974
1208,-0.09949029198179095,-2.926282503109538,-41.20339565186456,0.40310259176047547
1209,-0.09042889201493508,-3.1781818584483568,-43.54690635913788,0.45347040116989357
1210,-0.07888430291771524,-3.4363206326570057,-45.692680279654304,0.5059349103870241
1211,-0.0648066378909773,-3.6992327614105345,-47.591354140455365,0.5599647513567599
1212,-0.048188868945299286,-3.9653472936347325,-49.19325002376272,0.6149438011115178
1213,-0.02906882974655163,-4.233007932243403,-50.44926973007699,0.6701768665916767
1214,-0.007530091013552428,-4.500494417786211,-51.31182834537242,0.7248978005479176
1215,0.016298366990217878,-4.766045327314544,-51.73580709188978,0.778280009335883
1216,0.042243728746377565,-5.027881824300203,-51.6795043404414,0.829449241905545
1217,0.07009217445129982,-5.284231870618269,-51.10556299287943,0.877498477025885
1218,0.09959294194788557,-5.533354399018581,-49.98185233287187,0.9215046549766468
1219,0.1304635575148217,-5.773562944379469,-48.28228290145432,0.960546932843425
1220,0.16239613720200077,-6.003248244216703,-45.987533975160574,0.9937260813964783
1221,0.19506462535689745,-6.220899342913306,-43.0856747867838,1.020184588423787
1222,0.22813280409790285,-6.4251227691261725,-39.57266269507618,1.0391269902697302
1223,0.26126287776589596,-6.614659400719293,-35.45270402881707,1.0498399219528873
1224,0.2941244108466123,-6.788398685051849,-30.738466239565554,1.0517113581095618
1225,0.32640337748495707,-6.945389943026089,-25.451133222333578,1.0442485133050106
1226,0.35781106637369087,-7.084850551382666,-19.620299122802336,1.0270938817096265
1227,0.3880925771879367,-7.206170867672704,-13.283699556072534,1.0000389229872146
1228,0.417034644366879,-7.30891583447587,-6.486782824691612,0.9630349432078885
1229,0.4444725312395792,-7.3928232721313725,0.7178726483604629,0.9162007758882207
1230,0.4702957523626206,-7.457798940908678,8.271284952489907,0.85982693759089
1231,0.4944524043401037,-7.50390852264499,16.108926374815145,0.7943760131306278
1232,0.5169519149356361,-7.531366736992329,24.161696119237966,0.7204791151867396
1233,0.5378660563569349,-7.540523867235566,32.35698939420699,0.6389283595820857
1234,0.5573281104327427,-7.531850023977222,40.6198419781127,0.5506653980469128
1235,0.5755301200860083,-7.5059175207778885,48.87412761528344,0.45676615223230455
1236,0.5927182119187102,-7.463381773183546,57.04378434770894,0.3584219933104738
1237,0.6091860275310554,-7.404961160716102,65.05404517308465,0.25691770794562796
1238,0.6252663549021948,-7.331416309788447,72.83264825115874,0.15360668107653858
1239,0.641321104180681,-7.2435292637651445,80.311002257117,0.04988380633043159
1240,0.6577298229832399,-7.142083004369725,87.4252833900625,-0.05284329627748495
1241,0.674876993234854,-7.027841776404854,94.11744196143458,-0.15318412040822665
1242,0.6931383932473982,-6.90153264559761,100.33609837651157,-0.24979549619547167
1243,0.712866843842859,-6.7638286878444545,106.03731063551788,-0.3414114971560718
1244,0.7343776848370994,-6.615334167987119,111.18519816433177,-0.42687232632024663
1245,0.7579343473332502,-6.456572018511243,115.75240977563169,-0.5051514880433448
1246,0.7837343974781787,-6.287973874432937,119.72042679136142,-0.5753805808034136
1247,0.8118964282431617,-6.1098728614760445,123.07969575413257,-0.636871092028093
1248,0.8424481672191441,-5.922499271873787,125.82958864418084,-0.6891326376138724
1249,0.8753161504158335,-5.725979197201312,127.97819202465992,-0.7318871648496439
1250,0.9103172849258054,-5.520336121989499,129.54192998761738,-0.7650787260759975
1251,0.9471525876052455,-5.30549541687584,130.54502909501844,-0.7888785293845691
1252,0.9854033433881623,-5.081291607059201,131.01883663666655,-0.8036850794846822
1253,1.0245298764546664,-4.847478232133205,131.00100639842233,-0.8101193338044945
1254,1.0638730713945073,-4.603740058207627,130.5345686943889,-0.8090149130593816
1255,1.1026587211137997,-4.349707353740369,129.66690361791584,-0.80140351896605
1256,1.1400047150038433,-4.084971897752419,128.44863826831426,-0.7884958216444075
1257,1.1749310163191715,-3.8091043540285594,126.93249008207886,-0.7716581828802563
1258,1.2063723132502924,-3.5216726183303617,125.1720793171788,-0.752385676444882
1259,1.2331931652300707,-3.22226072821804,123.22073419461915,-0.7322719509980637
1260,1.2542054059313188,-2.910487917255321,121.13031219042857,-0.7129765529427146
1261,1.268187508450279,-2.586027397387442,118.95006050086194,-0.6961903844765169
1262,1.2739055674378277,-2.24862446510079,116.72553779011304,-0.683600014876185
1263,1.2701355084041523,-1.898113548261874,114.4976179982321,-0.6768515900006733
1264,1.255686096954592,-1.5344338406562033,112.30159526961113,-0.6775150957028094
1265,1.2294222911325061,-1.1576432092705327,110.16640699881839,-0.6870497252175183
1266,1.1902884591083607,-0.7679301040924807,108.11398962564682,-0.7067710789099345
1267,1.137330972813782,-0.36562325023865994,106.1587791949956,-0.7378208876494254
1268,1.069719686289828,0.04880104397894895,104.30736588304359,-0.7811398995274216
1269,0.9867678158875374,0.47471407350621336,102.55830873547004,-0.8374445049974176
1270,0.8879497583052961,0.9113324715580254,100.90211382386279,-0.9072075993912353
1271,0.77291641191833,1.3577184919248055,99.32137596119756,-0.9906440959675015
1272,0.6415076069009009,1.8127827846333247,97.79108108379715,-1.087701409121094
1273,0.4937612999539614,2.2752895623082035,96.27906346106165,-1.1980551281405267
1274,0.32991924944174783,2.743864010969604,94.74660908837245,-1.3211099989571844
1275,0.15042895552933502,3.217001761388465,93.14919400177001,-1.4560062266662563
1276,-0.04405827370342086,3.693080206146315,91.43734386985504,-1.6016310071617952
1277,-0.25269318678147756,4.170371423608115,89.5575991080673,-1.7566350939557351
1278,-0.4744383540651519,4.6470564532769405,87.45356795671835,-1.9194541080593412
1279,-0.7080817152959052,5.1212406574061635,85.06704849451077,-2.0883342065404675
1280,2.2505097784990125e-14,-2.7677149860184373e-14,-8.048748227825149e-14,-8.191050750485045e-15
1281,5.688974672277547e-13,-5.742626242538818e-13,-1.722127049055573e-12,-1.262149678061788e-13
1282,6.289569721800822e-12,-6.887132899651651e-12,-2.001330677925899e-11,-1.8517683718888083e-12
1283,4.5411435899461266e-11,-5.5515271912294185e-11,-1.5575590352140002e-10,-1.8142124917677958e-11
1284,2.4186793192141514e-10,-3.375078613237047e-10,-9.138175982557251e-10,-1.3098022787673716e-10
1285,1.0131444798378128e-09,-1.6546987623397275e-09,-4.324491174796493e-09,-7.455745696257221e-10
1286,3.4675106492830234e-09,-6.832202468461102e-09,-1.7248181285179382e-08,-3.501705427173903e-09
1287,9.913345461732746e-09,-2.4493719883125624e-08,-5.980412370846195e-08,-1.4019845402104681e-08
1288,2.386052934516896e-08,-7.799008136431323e-08,-1.844618693103389e-07,-4.905051066924998e-08
1289,4.7748617853166644e-08,-2.2444348589487303e-07,-5.15221756294542e-07,-1.5292248834215345e-07
1290,7.46931318077613e-08,-5.919445054537787e-07,-1.3216283547303765e-06,-4.316231745055615e-07
1291,6.773339533387848e-08,-1.4469055320724844e-06,-3.149085814151986e-06,-1.1174160633091194e-06
1292,-8.354389995814864e-08,-3.3082691412757934e-06,-7.034857901135266e-06,-2.68245881962505e-06
1293,-6.433646372428496e-07,-7.130375858702278e-06,-1.484781519484083e-05,-6.0261068755539615e-06
1294,-2.166035910658707e-06,-1.4581368197265998e-05,-2.9798825879969344e-05,-1.2766970070621138e-05
1295,-5.711523732721947e-06,-2.8448514173339674e-05,-5.717690783779562e-05,-2.5676662287857185e-05
1296,-1.316757980679513e-05,-5.320520047873225e-05,-0.00010537298601941487,-4.9296756228250976e-05
1297,-2.7708262842040315e-05,-9.577600762968574e-05,-0.0001872573788432034,-9.078291478313853e-05
1298,-5.441951527336901e-05,-0.00016653572796729966,-0.00032197800562259294,-0.00016101978657121366
1299,-0.00010112103929444882,-0.0002805750185224503,-0.0005372428671563877,-0.0002760464560919308
1300,-0.0001794097644886811,-0.00045925933791816513,-0.0008721418764162629,-0.0004588246604411921
1301,-0.00030594356864310307,-0.0007320988232382897,-0.0013805491527523472,-0.0007413704935307686
1302,-0.0005039746595517191,-0.0011389349430422381,-0.0021351273352200593,-0.0011672550624760103
1303,-0.0008051304541265093,-0.001732435449588294,-0.0032319305863825897,-0.0017944609982039669
1304,-0.0012514264575375683,-0.0025808728846975454,-0.004795573367602092,-0.002698560612847669
1305,-0.0018974812923731122,-0.0037711443925150983,-0.006984898700106363,-0.003976158843599433
1306,-0.0028128895019747667,-0.005411972728964246,-0.009999043676097863,-0.005748521097805837
1307,-0.004084693946423447,-0.00763721109427122,-0.014083762874902083,-0.008165283988905373
1308,-0.005819887430034935,-0.010609158736254249,-0.019537833695371532,-0.011408127031191595
1309,-0.008147863501590125,-0.01452178110729779,-0.02671933321963742,-0.015694266884311615
1310,-0.01122272985209268,-0.019603718506426174,-0.036051545946499855,-0.021279623769294955
1311,-0.015225394838728411,-0.026120961209073274,-0.048028237446321974,-0.028461503007010263
1312,-0.020365338532072737,-0.034379067463732114,-0.06321801246927997,-0.037580633741588924
1313,-0.02688198420399872,-0.04472480356048603,-0.08226746887303726,-0.049022412003571075
1314,-0.03504559403622671,-0.057547092368519626,-0.10590286223604985,-0.06321720628877223
1315,-0.04515762355905947,-0.07327716801910565,-0.13493001112872172,-0.08063960050161109
1316,-0.057550482306668656,-0.09238784934531476,-0.17023220019666926,-0.10180647095805236
1317,-0.07258666268177145,-0.1153918627388906,-0.2127658773814816,-0.1272738205264267
1318,-0.09065721432210501,-0.14283916563485807,-0.26355399207906643,-0.15763232315687714
1319,-0.112179556659225,-0.1753132442217866,-0.32367688154667956,-0.19350156517139555
1320,-0.13759463721359616,-0.2134263825001068,-0.3942606816382068,-0.23552300480187485
1321,-0.16736345687397908,-0.25781392375239864,-0.47646331277037646,-0.28435170748202
1322,-0.20196299542593563,-0.3091275691397708,-0.5714581703591683,-0.3406469501230636
1323,-0.24188158053809133,-0.36802778084679266,-0.6804157280141171,-0.405061821820976
1324,-0.2876137511352495,-0.435175378417236,-0.8044833385706976,-0.47823198003511425
1325,-0.3396546716889264,-0.5112224362402248,-0.9447635895705747,-0.5607637492969542
1326,-0.39849415774965147,-0.5968026072830331,-1.1022916331802197,-0.6532217732133507
1327,-0.4646103754860655,-0.6925210129612083,-1.2780119631780267,-0.7561164494117447
1328,-0.5384632796321341,-0.7989438514113618,-1.4727551513948207,-0.8698913908575819
1329,-0.6204878556658048,-0.9165878863573427,-1.6872150812858737,-0.9949111655826448
1330,-0.7110872337970687,-1.0459099862245904,-1.9219272261994869,-1.1314495703500895
1331,-0.8106257448364246,-1.1872968881475683,-2.17724851408405,-1.279678692241531
1332,-0.9194219914532751,-1.3410553640107976,-2.4533392991300866,-1.4396590056627963
1333,-1.0377420127334676,-1.5074029656346206,-2.75014792497281,-1.6113307408912123
1334,-1.165792625169551,-1.686459523618862,-3.06739831479002,-1.7945067440966724
1335,-1.3037150289942028,-1.8782395691303646,-3.4045809624417664,-1.9888670278511087
1336,-1.4515787746794186,-2.0826458399845293,-3.7609476274652884,-2.193955185616669
1337,-1.609376189919252,-2.2994640216340563,-4.135509957177523,-2.409176813756091
1338,-1.7770173718703635,-2.528358860046423,-4.527042173378108,-2.6338000505467973
1339,-1.9543258522464533,-2.768871766847584,-4.934087871301763,-2.866958303991548
1340,-2.141035043544566,-3.0204200174899554,-5.354970886710815,-3.107655199581911
1341,-2.3367855728249607,-3.282297620582108,-5.787810095541551,-3.3547717364205054
1342,-2.5411236047781984,-3.553677910992194,-6.230537921502272,-3.6070755961852177
1343,-2.753500248125195,-3.8336178911153236,-6.680922242591196,-3.8632325053466445
1344,-2.973272128692196,-4.1210643141243555,-7.1365913096929985,-4.121819507914737
1345,-3.1997031989080162,-4.414861470606975,-7.595061221130267,-4.381339964897772
1346,-3.431967837188701,-4.713760606388501,-8.053765438028046,-4.640240058661077
1347,-3.6691552719161327,-5.016430865344058,-8.510085778108726,-4.896926546409701
1348,-3.910275343678546,-5.321471617511013,-8.961384291301833,-5.149785477878513
1349,-4.154265596333596,-5.627426000772955,-9.405035400211794,-5.397201568644729
1350,-4.399999662537832,-5.932795474758239,-9.838457682522455,-5.637577902802481
1351,-4.646296882975976,-6.236055159297039,-10.25914468089441,-5.869355627436334
1352,-4.8919330709932245,-6.535669707651656,-10.664694148476096,-6.091033296629836
1353,-5.135652306142503,-6.830109447512346,-11.052835174073765,-6.301185524731112
1354,-5.376179611900653,-7.1178665110528305,-11.421452679255868,-6.49848061723312
1355,-5.612234345231331,-7.397470669653789,-11.768608838889552,-6.6816968627558495
1356,-5.8425440996437334,-7.667504589574131,-12.092561045287903,-6.849737190952869
1357,-6.065858899832144,-7.926618232060005,-12.391776112578118,-7.001641928272862
1358,-6.280965445808433,-8.173542135125405,-12.664940500241233,-7.136599415849882
1359,-6.486701148587374,-8.407099334303565,-12.910966421082476,-7.253954290785492
1360,-6.681967688868904,-8.626215705630761,-13.128993787171751,-7.353213273118662
1361,-6.8657438256264625,-8.829928545362229,-13.318388035522416,-7.434048345220701
1362,-7.037097183743033,-9.017393236649596,-13.478733961450413,-7.496297257497231
1363,-7.195194759312223,-9.187887892722857,-13.609825769736641,-7.539961343333684
1364,-7.339311898188924,-9.340815908030033,-13.711653630094553,-7.5652006763219655
1365,-7.468839527846531,-9.475706392261387,-13.784387092406158,-7.57232665303746
1366,-7.583289454305101,-9.592212506168151,-13.828355777368884,-7.5617921340252385
1367,-7.6822975742188415,-9.690107761526205,-13.84402780851401,-7.534179323155545
1368,-7.765624896162748,-9.769280389463345,-13.831986491222075,-7.490185610014649
1369,-7.833156313440228,-9.829725920681037,-13.792905772832327,-7.4306076404026555
1370,-7.884897121861006,-9.871538156949507,-13.727525034887481,-7.356323915288673
1371,-7.9209673283492865,-9.894898744822767,-13.636623773806763,-7.268276247839455
1372,-7.941593848369678,-9.900065589097581,-13.520996719840387,-7.167450430671322
1373,-7.9471007404889065,-9.88736036452475,-13.381429926220488,-7.054856480749636
1374,-7.937897673521824,-9.857155399185409,-13.21867833142173,-6.931508837061608
1375,-7.91446686440474,-9.809860211421514,-13.033445258085978,-6.7984068862294915
1376,-7.877348762151832,-9.745907984080207,-12.826364263443324,-6.656516183720435
1377,-7.827126784108002,-9.665742255124087,-12.597983699243466,-6.506750723497694
1378,-7.764411434507887,-9.569804092625287,-12.348754275783962,-6.34995658719896
1379,-7.689824151564445,-9.45852000527757,-12.079019856245681,-6.186897275681442
1380,-7.603981237644881,-9.332290817502097,-11.789011635974386,-6.018240991634025
1381,-7.507478227461005,-9.191481711823993,-11.47884578837151,-5.8445501026596425
1382,-7.40087504168128,-9.036413611397622,-11.148524586443608,-5.6662729706255375
1383,-7.2846822581482265,-8.86735604336388,-10.797940938498936,-5.4837382861036055
1384,-7.159348810263808,-8.684521590162568,-10.426886209525351,-5.2971519974030805
1385,-7.025251392571167,-8.48806200202289,-10.035061137791425,-5.106596873166519
1386,-6.882685817804317,-8.278066010600124,-9.622089600279763,-4.912034686984524
1387,-6.73186052855922,-8.054558852018951,-9.187534931493825,-4.713310963247118
1388,-6.572892421217007,-7.817503478188325,-8.730918458490901,-4.510162176698541
1389,-6.405805090823321,-7.566803408758077,-8.25173988093831,-4.302225254974784
1390,-6.230529554326373,-7.302307152866932,-7.749499098619919,-4.089049194673433
1391,-6.04690745694498,-7.023814110035655,-7.223719070046507,-3.8701085678946963
1392,-5.854696713497541,-6.731081843117921,-6.673969274464428,-3.644818668090643
1393,-5.653579484238068,-6.423834602870966,-6.099889345356924,-3.4125520215837337
1394,-5.443172334049304,-6.101772973036346,-5.501212446172745,-3.1726559741756333
1395,-5.223038375710291,-5.764584496325928,-4.877787968122175,-2.924471050674086
1396,-4.992701153456695,-5.41195513486185,-4.2296031450440985,-2.6673497787162277
1397,-4.751659983325374,-5.043581412916106,-3.556803201149321,-2.400675666758741
1398,-4.499406432937496,-4.659183084786089,-2.8597096734666687,-2.1238820292994247
1399,-4.2354415964326195,-4.2585161659555455,-2.138836581630121,-1.836470359972648
1400,-3.9592938010669796,-3.8413861610569136,-1.3949041527978048,-1.5380279647168482
1401,-3.6705363711924193,-3.4076613174285275,-0.628849848496298,-1.2282445822626489
1402,-3.368805073365356,-2.9572857282574474,0.15816351750852053,-0.9069277371907273
1403,-3.053814873330647,-2.490292104585269,0.9647427362255426,-0.5740165911711339
1404,-2.7253756514002467,-2.0068140311536626,1.7892623542986783,-0.22959408013498175
