,TP9,AF7,AF8,TP10
0,-0.017719659952999085,-0.00875726157147118,-0.002586629614495333,-0.007897301550741734
1,0.09034286071085171,0.03926025811005612,-0.002198635172321042,0.027751796967955496
2,-0.008487118808330477,0.025513659353444046,0.0049145962675411214,0.03390038525132528
3,-0.5697004614443453,-0.07321811806978723,0.016554429532770105,-0.054574154297569344
4,-0.8263510597656349,-0.4686569833925996,0.0281942627979991,-0.4122964313377467
5,-0.24787590045398522,-0.704846177711483,0.03530749423786126,-0.6659104758941409
6,1.2392212089363044,-0.5918284180805529,0.03569548868003556,-0.6399461628801252
7,2.930079137025413,-0.16981780843666347,0.031815544258292576,-0.3425382636682468
8,2.6805964624441088,0.3266282494754831,-0.028936823523399487,0.04885450233904154
9,0.7711679078871366,0.6003732179068898,0.15720022424341956,0.2804206458464794
10,-1.0687504747398344,0.6089915813559167,0.1385865194667381,0.2810706552283819
11,-1.360840609468772,0.45983677625299607,-0.20266473477242997,0.16412490554349143
12,-0.5678267976850501,0.4438746251741151,-0.647550920519769,0.29379887546194705
13,0.478279819559516,0.6409158835136787,-1.5465369364795776,0.021722715391471026
14,0.5583890725671359,0.6212117576797228,-1.8537307034528112,0.04893033139851799
15,-0.2019239795611095,0.2599694507238565,-1.2479571416873478,0.5477366248610571
16,-0.26593663802724665,-0.3311543242948336,-0.11436699116158575,1.2096100412886988
17,0.010556980784780689,-0.8777280959407987,1.0681264898848681,2.4889037128514815
18,0.33747892347977265,-1.3726204130148387,1.6702323018612801,2.941403487178886
19,0.32205222741112705,-1.3789595378369783,1.2975107244907436,2.1196582523751153
20,0.20289002035048787,-0.9368932609474295,0.35590665380390735,0.45838651825057464
21,0.0769623255200245,-0.6016236500394284,-0.406217846063819,-0.8401170024466657
22,0.2875544602081001,-0.1394842356518737,-0.8752738705651533,-1.689069853257483
23,0.3631050381365048,-0.07802736920098627,-0.3149717112413885,-1.7353763723926192
24,0.015531997122166805,-0.04630555297925923,0.6725515298466112,-1.272311181041265
25,-0.7436578646323915,0.14942580832451116,0.970223308441831,-1.4367241326627493
26,-1.1364680778521379,0.6387426952478079,0.9443360105692178,-1.4065504691496515
27,-0.16833752936248927,1.5695539643949696,0.15190907857824645,-1.4095678355009613
28,0.8919190445290351,1.8284887638903249,-0.8023065286644658,-1.4648862186083074
29,1.1838433612684571,1.0933802379422077,-1.2227951214003663,-1.4527041352662335
30,0.30465665514606255,-0.22108623449077053,-0.914076058405947,-1.8513343474496284
31,-0.9926395398560668,-1.6894321354841566,-0.14922093711846637,-1.875841808392565
32,-1.7901134330718131,-2.292912610571439,0.89567028114316,-1.3139922683963563
33,-1.6225757855063319,-1.5676356850296784,1.29560256880881,-0.3777412958047642
34,-1.07781930054932,-0.14008993493995406,0.702895616232487,0.5912795488512644
35,-1.2271501175604698,1.1209760045248325,-0.703177965816261,1.1506713484426403
36,-1.2323764215053028,1.7322398310534657,-1.666841334824556,1.0811053134111046
37,-1.1246232294299865,1.2128752180586646,-1.3068227369333576,0.6087428890827282
38,-0.8640045900275883,0.06767205770127738,-0.26626724265914087,0.5471927602798193
39,-0.6964832939460599,-0.781800670510601,1.1471520640294504,0.4468158030838729
40,-0.7530745760431662,-1.288896029573863,1.6746965481635783,0.4298154293374483
41,-0.43187868972347576,-1.1039887731850015,1.205681961035196,0.5094272256671615
42,0.15345188748405836,-0.47217323551877965,0.09211127955369564,0.47432126970158867
43,0.6742440283372921,-0.217611895699321,-0.7527213961464163,0.5746535821041806
44,0.5937410388906306,-0.0044105744719518305,-1.2420838756108146,0.2912491771418272
45,0.08284021515777355,0.007218588504086661,-1.0237129611789482,-0.12309620895977982
46,-0.3864998899089488,-0.1090730412562963,-0.3432094962347576,-0.4380695248834394
47,-0.29620325187077695,-0.08594121326640977,-0.03179989329374633,-0.6335894676630935
48,0.36445821475556406,-0.05694458964262627,0.20351601594516094,-0.3062858930194463
49,0.7692666808711784,-0.0079356377208787,0.21746625121613397,0.23751992654083015
50,0.8513171872982176,-0.09928176165395351,0.04067054298732554,0.5906424774886436
51,0.6994812737114353,-0.3384175709442932,0.09410904579964363,0.4144549230018116
52,0.8490527377599894,-0.6274343087959632,0.1622246549151234,0.23756113714914995
53,0.8508192763655149,-0.9076763495063128,0.3228530359814613,-0.23337543182670628
54,0.6076087099295863,-1.0275116088725893,0.4565916668425608,-0.44813567219825917
55,-0.13999665808863562,-0.8988286187305357,0.38798190521288,0.07906043037492316
56,-0.7141608817850231,-0.7191684692712905,0.2781887059671959,0.48568341600069564
57,-0.44844406621156097,-0.6041989692276641,0.23367936923348656,0.7583810789105878
58,0.36016135546694483,-0.4829130369406317,0.35398054239699794,0.46075017251242273
59,0.9129983459240205,-0.6502409612199435,0.5481729562735986,-0.09174245435885761
60,-0.11670737802409774,-0.6999106273392938,0.7019351606726815,-0.8074533139878834
61,-1.2438157719690488,-0.4232204275573128,0.6763626811449888,-0.7820671239951387
62,-1.7143031138159182,-0.005301665879454992,0.5743321643789797,-0.08544498303127382
63,-0.6372907068888203,0.6357439594579681,0.5146312066118512,0.39159877665860904
64,0.7902247738837965,0.8979437056386658,0.6241172641556403,0.9405480181732437
65,1.1864262911024506,0.5868198028623988,0.6096757985433565,0.4023622511614491
66,0.7347207479099213,-0.14562695084929114,0.37984419423053445,-0.47640107617817246
67,0.11279906839390852,-0.7421759095493337,-0.020525799004760467,-1.2007715986843683
68,0.5633142814498533,-0.9710793801771919,-0.396886261460124,-0.9755230168238838
69,0.9778669456375508,-0.6659695224665843,-0.6987464581127395,-0.2104902412144739
70,1.124045338585404,-0.15139245328492262,-0.7059850644910445,0.5388746232285511
71,0.6192473338655474,-0.025338084152337882,-0.46444658765763464,1.0093656332611902
72,0.11858902914093954,-0.09696011723871983,-0.329373004479092,0.6708596727960846
73,-0.11080495103477012,-0.3069682884705057,-0.15027044948458929,0.5163368502701651
74,-0.24930809586230357,-0.38432878433520506,-0.04081888809905983,0.3792126692208722
75,-0.4761039631068925,-0.19667522097456056,-0.03484880293257632,0.37695471702117533
76,-0.7770818601107484,0.008607342405751651,-0.09454965459741045,0.40062719350604553
77,-0.7795231282534829,0.13680495654229502,-0.10630694013246783,0.4819041423278565
78,-0.3210096248493668,0.18391243765669396,-0.01133423186246156,0.6625681031730843
79,0.13064561357653134,0.13034668780770647,-0.020831502689461975,0.36540117694685753
80,-0.012977061489728022,0.09998059304225114,-0.15735156375210746,-0.1631585577975022
81,-0.5851408293330085,0.09614626668338117,-0.5106226933663267,-0.7274494864667609
82,-0.9373946188815238,0.12017533940903571,-0.917571969425326,-0.8364266287859327
83,-0.07998258562758828,0.17563534845189316,-0.8715764497944567,-0.39985919957826016
84,0.960662055545322,0.18533872133638343,-0.34273940001212977,0.39766647006780886
85,1.0405372921952063,0.15295989298888046,0.5671217792799362,0.9731172799549018
86,0.46193427483688143,0.09652395728440852,1.2990081716081276,0.7640713846536329
87,-0.11910917746385755,0.05777612226256023,1.2932707961026397,0.23376035741128678
88,0.4057746106594909,0.03903659850723946,0.5300528698363538,-0.48897648385753545
89,1.3389599665103709,0.04073632879457974,-0.620493945461572,-0.9501922173354251
90,1.7561114865535785,0.08487533887824934,-1.3165082818262535,-1.152138318253508
91,0.4322383937765836,0.06404870422131895,-1.3770494117157215,-1.0933876117436867
92,-0.8519834540964014,0.0018667094899120842,-0.8275181536934529,-1.0039329728996154
93,-0.579300133568993,-0.08872250868963732,-0.2353391953265335,-1.1946725131991882
94,0.6222442809551302,-0.17394353438500748,-0.12694826062734407,-1.1594214325267056
95,1.239799528531551,-0.22156223140934883,-0.10254259634933344,-0.8961954617592609
96,0.6683692839392618,-0.22181960857895605,-0.06427415118242692,-0.5093037346791746
97,-0.26507292791690035,-0.19076106479292226,0.28279579291009094,-0.09634152714408753
98,-0.8915062671080668,-0.19397742281831604,0.5817282389716337,0.016334230868397415
99,-0.560490254457875,-0.258079662763112,0.7644091782314654,0.02756986097711263
100,-0.14704227070585782,-0.2216978443997508,0.7743735931001836,0.10761340009745711
101,-0.2952680123471947,-0.07432720296611348,0.6747294444130029,0.4412676956811962
102,-0.9051419209476351,0.21105756430130182,0.6069737912021471,0.8368469536451848
103,-1.0597290767304617,0.5103973146778814,0.909884899521895,1.0244224122524215
104,-0.9652489240251512,0.5041313588306596,0.8795937886899209,0.8954189067113187
105,-0.7707708205369432,0.1788816473678591,0.32425675677038346,0.5604313243329859
106,-1.2974012422825292,-0.34224651066635337,-0.4684277564499888,0.33415263250511806
107,-1.6602822567265152,-0.8258263774119067,-1.7253075166258423,0.29425067367551555
108,-1.1938931620521163,-0.8429417576121423,-2.245829905023719,0.276658537650336
109,-0.5127188226066175,-0.2317260239920141,-1.6378525512919075,0.16995936293677433
110,0.023933004504616523,0.6667610543742228,-0.34882744292696977,-0.15467688809494617
111,-0.25585425090115105,1.0952355390013417,0.7696174100968726,-0.4539221604112078
112,-0.9373655926981048,0.8911652879381675,1.3903882829792669,-0.6367942712711455
113,-1.3141200959216506,0.15514957726954162,1.104413745675398,-0.6467691136816878
114,-0.30479880802304815,-0.5506447893076852,0.231339560017011,-0.5470206895762674
115,0.7134604998180454,-0.7621680729512773,-0.1775393786858956,-0.528450539230009
116,0.34633001729215374,-0.683972150625476,-0.4983285595114259,-0.6839094143742046
117,-0.44324850927029374,-0.5517759941113783,-0.5158261511928187,-0.6683635268597854
118,-0.7876795503796034,-0.5824419462422773,-0.34085023437889345,-0.3833555890954269
119,0.4165056955404429,-0.5937820487654827,-0.38358274545292836,0.053868214581206664
120,1.5306755873488527,-0.639209984649618,-0.43036112904474894,0.6077033052816518
121,1.437919518856869,-0.5851655230957142,-0.425683290685567,0.8839653965192246
122,0.12524714077522886,-0.42694327144674704,-0.3399229207672293,0.7391707643759033
123,-1.1597283865071801,-0.21816174971273378,-0.19958776999176772,0.3213364934281321
124,-1.2401757332508352,-0.040013771901346286,-0.059252619216306146,0.11078072267262123
125,-0.4922376127529327,0.04206224199709407,0.026507750702031502,-0.04955979698511966
126,0.25009569089422096,0.020138570356418913,0.031185589061213624,-0.05830564351190566
127,0.1424215574480872,-0.014445505738584573,-0.015592794530606824,0.02915282175595285
128,0.0,-0.01143791648985061,-0.00721227787629769,-0.006025617925883573
129,0.0,0.04795847323739938,0.024533951235362422,0.0020325901957681802
130,-0.004919798601470038,0.03738312866651185,0.03399809038713313,0.013717121257362755
131,-0.013179612234637624,-0.062419412411336514,-0.03379723374360752,-0.1229891374521482
132,0.04168579277101724,-0.6086103882786995,-0.40897503582823636,-0.4163828478326239
133,0.04489346822694995,-1.0720281947674366,-0.6875816065705197,-0.4851880213062101
134,-0.12589917387246619,-0.7867901821556262,-0.5874959750450954,-0.22135879910428208
135,-0.3243385970554721,0.11717236107613077,-0.1370076758396282,0.2556774237262066
136,-0.8989112507114938,1.8490695817327962,0.5334519325491308,0.741537945930875
137,-1.8639978949106517,2.7602303631123397,0.9357934285327996,0.9618227987995056
138,-0.38808172957558507,2.3016367132595743,0.8865984285173113,0.8945402887053661
139,1.667449555494679,0.8184309640172882,0.5437090490930583,0.8065622100919511
140,2.9368217414946223,-0.4699229168026115,0.369040140749754,0.8445022333786552
141,2.247248822011227,-1.1704743880845732,0.2636729660012048,0.8791059158734004
142,-0.5358684856212432,-1.2114155873398693,0.25729160455302386,0.8711375258117925
143,-4.116729755224901,-0.8020035947869164,0.32110521903483213,0.8102391387901636
144,-5.127567047812282,-0.8653153477569027,0.24103781984861578,0.720337600986489
145,-3.072557981616956,-1.0847920813998966,0.4174264029254564,0.5904824008844595
146,-1.1841032849108495,-1.0628444080355979,0.39978754461777266,0.6655331083402302
147,0.7504912822604116,-0.6604703963567757,0.07640847564356518,0.6526590627698832
148,1.4317461903210973,-0.0020401954277946555,-0.374300378779045,0.44828728652916666
149,1.2003081277054788,0.6038920634096328,-1.1388368124332995,0.12762295820042419
150,0.9896716418560103,1.1637599013631148,-1.4386788129651342,-0.43812461151865323
151,0.810389356390816,1.1699581920999487,-1.0248047498293074,-0.6904973849812794
152,0.7191542336553944,0.6617427769534121,-0.17873354271799968,-0.4111552786646724
153,1.6300975768731145,0.26242020934376337,0.5778706039044503,0.6258279875849184
154,2.562838606141976,-0.20112228352387784,0.998454696576942,1.2923992958161057
155,3.1290359931069176,-0.5166779228964367,0.8216299042172878,1.4346154514675173
156,2.194721410386753,-0.5297456097370015,0.25839435666296395,0.6899584292113746
157,0.3132756246325016,-0.32308736070247995,0.008986388340284097,-0.4494460877435784
158,-1.2758644978406857,-0.2729141598557991,-0.1913754724617437,-1.2619322691039723
159,-1.1224400108716845,-0.24627145117701094,-0.20230430123276355,-1.1661769835890679
160,-0.1482120892113368,-0.22899887681370568,-0.09301601352256678,-0.16651616670892966
161,0.345037010544176,-0.11310254985098599,-0.13754214620526004,0.6455411112207233
162,0.35181204544720945,0.12452641908871726,-0.11325203586737713,1.0709578752830888
163,-0.4046653394538443,0.5709808619222139,-0.11568104690116536,0.7802615884957929
164,-0.7734243093649221,0.7566773410838048,-0.16021291585395064,0.19894187749712353
165,-0.8333807919838099,0.4539916425384024,-0.23627108584258527,-0.277281105449984
166,-0.7339737985363785,-0.12343570054394741,-0.3069616199531135,-0.22835484342924378
167,-0.7376676543052366,-0.8209760527721726,-0.33029868053288103,-0.18292585617092452
168,-0.8006940838852799,-1.0779230278673522,-0.35247592193564414,-0.2636507723436232
169,-0.8102654119818649,-0.7696892478133719,-0.39748682249274414,-0.36066105290342415
170,-0.7635706329856198,0.17360769459789233,-0.5007275569101203,-0.3805243189678478
171,-0.6797094536932428,0.7607481771332492,-0.5595624475510094,-0.38577627681541826
172,-0.6006040233209773,0.7664485233889419,-0.6765843711178379,-0.409679326147416
173,-0.5723539563842285,0.29268915940388174,-0.6616904590240088,-0.49911303141911667
174,-0.5819245590370933,-0.7292058772695791,-0.5043927663840699,-0.5800311079213905
175,-0.594604314503037,-1.067912582185167,-0.2854111511432345,-0.6294810435616688
176,-0.5845899421544396,-0.6736288735636271,-0.0590458158805614,-0.6321783127784114
177,-0.5073132695260721,0.14785381771192713,0.07928855566884996,-0.6052056206109868
178,-0.739457327139461,0.9695946481544604,0.08683406684427251,-0.6302989079009413
179,-0.8308460055414949,1.3669959937836926,0.011378955090048277,-0.5819917381985024
180,-0.08889236805484463,1.0334333780333214,0.049875710395818944,-0.5868224551687462
181,0.6335350283284017,0.22137098119149737,0.009840556232731244,-0.6427008348455733
182,0.5414474902903514,-0.2856331571343494,0.013844071649039918,-0.8813889220515568
183,-0.10978764608487168,-0.642075142273419,0.08724185428136734,-1.0336558666626459
184,-0.6969315911994509,-0.661517432371914,0.20734731677063029,-0.9283033412669943
185,-0.5686928985503983,-0.4670945313869672,0.28867297414496107,-0.6166750508202545
186,0.46126924138764713,-0.5324935513825922,0.4784101721220848,-0.25919799129908483
187,1.3101384470311654,-0.5307193923806641,0.47077974600391426,-0.09124645868858774
188,1.0592485661177569,-0.530896808280857,0.2174556637087001,-0.10931118477802555
189,0.43966899344876326,-0.5341494331177252,-0.11821753093799295,-0.22837528865886336
190,0.22052741640497567,-0.545885287929304,-0.4672357769723818,-0.18625754816583312
191,0.20419304534966876,-0.5319676315177054,-0.6805247051045082,-0.14172814322529464
192,0.1942310237520472,-0.537144269696312,-0.692158646638988,-0.07537785353258702
193,-0.1413296436361863,-0.5725952635283738,-0.5758192312941921,-0.062393673929565796
194,-0.404040345745601,-0.6285415047785947,-0.5643443640067183,-0.08728020015757082
195,-0.32471709010989985,-0.6868532913647198,-0.7151083812139358,-0.21335061453652418
196,-0.0696267437045176,-0.7221268692965888,-0.7000319794932145,-0.3901495280963645
197,0.01395608839559264,-0.7240508826383272,-0.4236312812799823,-0.5739541082221685
198,-0.12714763616738675,-0.7048107492209441,-0.007717534863042233,-0.6894694027025751
199,-0.18323633814042306,-0.686181398230046,0.5537094323727474,-0.7355870378100264
200,-0.09373204364434583,-0.7613095846201235,0.8191966390245661,-0.7443073016801979
201,0.5344487395138193,-0.7537967659811159,0.6341923621193696,-0.685464964751633
202,0.8838656458071322,-0.616061757599307,0.15602359806974056,-0.6574202556261958
203,0.21090710907893345,-0.39067719842907456,-0.12958192448973013,-0.6173880831582067
204,-0.631281748010152,-0.16529263925884216,-0.30429625875725425,-0.5929239777611023
205,-0.9752741228239978,-0.027557630877033383,-0.31774638475450756,-0.5915895720121693
206,-0.5955782705392576,-0.020044812238025518,-0.25511643379742643,-0.604933629501499
207,0.13345132216382394,-0.09517299862810287,-0.36759377207732113,-0.5568590040109102
208,0.5208853519882375,0.001795765854216147,-0.42182846616573255,-0.687738822993347
209,0.2236766646511056,-0.2139823412026634,-0.5339264477831012,-0.6746508410951036
210,-0.13406978293793406,-0.19240453049697595,-0.5299037805229095,-0.43470450629396973
211,0.12757865782136107,0.15506198100224344,-0.38428357173727545,-0.0420650493466599
212,0.39127320457346737,0.8538093393682226,-0.19595996897580217,0.3505744076006499
213,0.524037080355834,1.7656067064668552,-0.0002332126056563688,0.5905207424017836
214,0.10411808014312812,1.868613031357356,0.1161011182535317,0.6036087243000275
215,-0.32996453153910504,1.0312172570430764,0.1435739828976099,0.4727289053175911
216,-0.022533834451885004,-0.7033778382567286,0.07007042099781233,0.5039194939026557
217,0.3464550944625958,-1.7296517063742243,0.04354381533509931,0.5412275471298984
218,0.26483407578274026,-1.7829953059885975,-0.029614589165883044,0.5374967418071742
219,-0.2117446342343562,-0.8634705053890743,-0.07636175986648615,0.469098644223896
220,-0.6568472435988816,0.20665305503591305,-0.18378235130989906,0.357174484542168
221,-0.8298188792043178,0.7083450222281904,-0.1759299320038693,0.24525032486043993
222,-0.45066899358656975,0.7280507252495443,-0.030747858644039516,0.17685222727716174
223,0.010057962790252091,0.29760593278204395,0.1667295513689936,0.16304501099877008
224,-0.09418575601591825,0.1151135063232952,0.3652959860359723,0.20459123875927232
225,-0.22430058063456992,-0.0967502544563929,0.5082632799447572,0.2671054727313849
226,-0.15488246972427633,-0.2078920323744939,0.5132855231145946,0.22254057939527785
227,0.32678744182762964,-0.19138634587304898,0.41217025562112075,-0.0597176193883111
228,0.08496829295469621,-0.13126755127988118,0.3810119266153851,-0.3801415187871698
229,-0.4520404706973363,-0.167031053422299,0.3277187209836806,-0.6264979494232585
230,-1.043388041417293,-0.19049776924982004,0.29300808336811324,-0.5786583256736183
231,-0.8820843726011546,-0.14279318832625956,0.29138986355015983,-0.15452281394285827
232,0.6207973114981326,-0.021440309211840557,0.3126153360161157,0.2592323333002835
233,3.08845883448788,0.13016115879043358,0.31196788104937423,0.44524523271049354
234,3.669554868662405,0.253055089235234,0.33960548200778384,0.26757496716220747
235,1.3712122419262642,0.3030492321353613,0.2759757866982864,-0.3096716377379209
236,-2.8615557988487423,0.2810355075622001,0.28284308365787814,-0.6126977868377216
237,-5.775061118274801,0.26331029924617394,0.40187009206908864,-0.3370215126622733
238,-5.06825322257762,0.26688395390526154,0.5446432634391234,0.6798801727834096
239,-0.0745661815968825,0.28209035183187453,0.9068636269576942,1.3608224856164397
240,4.42397033363393,0.28056971203921327,1.0898731812455091,1.2732394177931095
241,4.791652933274698,0.2526913158404228,0.802334907635412,0.44464144831135266
242,1.925733157105696,0.2070721220605839,-0.26000022912238596,-0.8206786053771102
243,-2.1146677437977224,0.11984692209736365,-1.0997886376647839,-1.211969007654037
244,-5.81999935391541,0.21678654444871734,-1.2613747131902189,-0.8156570306041553
245,-5.832393789782686,0.2027841028010419,-0.6399085398235348,0.44490612218129144
246,-0.7859146389321792,-0.010842533280942576,0.3361504917627811,1.1796790477392085
247,3.6715754673230965,-0.39036538824024547,1.2050206102090613,1.3054514388660239
248,5.544480593905318,-0.7287677928208521,1.0013142873402727,0.4249036149642977
249,4.024466589545476,-1.0657557800389252,0.23765957770979984,-0.8745396678735777
250,0.3327255464373483,-1.0674220865729924,-0.2063752784116294,-1.3299932430491912
251,-2.663215578973463,-0.7443199871388096,-0.4509011156853463,-1.138511784303444
252,-1.4884872114791117,-0.46146113369376357,-0.3729512867121576,-0.4418907138914449
253,0.15914873730488302,-0.13699627406533632,-0.05170950871015571,-0.03753180581352937
254,0.2560699818610252,0.06128780681870262,0.1945479897988025,0.12637737505660931
255,0.023621906783535693,0.07210330213965035,-0.05743844101233673,0.013983633997592386
256,0.0626094487495127,-0.012037428925796234,-0.006743563509627336,0.013867728228671833
257,0.08133459082235794,0.05691821587051825,0.03963924668131429,0.006545759433898556
258,-0.2926315400803223,0.03522001971461863,0.009628821498853662,-0.06086552183574598
259,-0.7140762079017989,-0.11831364863892956,-0.11848030495043252,-0.16550084992569464
260,-0.7169604592746472,-0.627852807173994,-0.30527772678213816,-0.17555936738516092
261,0.4613434606660629,-0.821228250887354,-0.4735672519663764,0.005546196196442992
262,1.6600125568548607,-0.5459787091737637,-0.5584196522153527,0.20051398545581517
263,1.9524581317823972,0.4155140577247745,-0.5427506363993572,0.42898807795063504
264,0.4442079494192922,1.2584488032148653,-0.4928988239627572,0.27955968250174007
265,-2.3600353352850223,1.2385876133087261,-0.5047359405487344,-0.05335143366226787
266,-3.5486178576723786,0.4530585325294958,-0.5045132516799409,-0.2767019636930596
267,-2.3935607572363744,-0.6190523199192731,-0.5067401403678762,-0.20860165639245934
268,0.5112248388524263,-1.4125411116777362,-0.4564693431983683,-0.05633642972324888
269,2.690883236600563,-1.4091041852712458,-0.6050548460189568,0.02134107182233635
270,3.485577078220998,-0.5940782869782625,-0.5901962957368982,-0.09193528464657383
271,2.6978148157752946,0.6256400598211277,-0.31778954056581965,-0.366346252292087
272,1.7387600533444822,1.4741896498390525,0.10115122076303364,-0.3294422653380715
273,1.6119978999685594,1.505263756931175,0.6273549706235333,-0.12034192209044864
274,1.595087687816013,0.7328696664362808,0.8917170016547383,0.11702249744046934
275,1.667634592340396,-0.2437351669615248,0.7590889427057838,0.21878208167289817
276,1.7916370407696351,-0.5469219045670374,0.36916171568899164,0.20730967220485208
277,2.1981542614791687,-0.5767149540060958,0.17734849243298365,0.15923872352380397
278,1.3132224496323566,-0.4367218596909157,0.02429383427499006,0.15521747512120038
279,-0.0547987570024257,-0.6846789892646244,0.028067754701490297,0.10115476959485502
280,-1.5399361676152568,-0.8103738837492618,0.12150108806582943,0.016711820385186104
281,-2.131083493467803,-1.0371674947012957,0.06259542117015807,-0.0823782243382178
282,-1.135574804718,-1.0302818736136328,-0.00964116027772493,-0.12233636360286687
283,0.3796934151786467,-0.7461080869310717,-0.11782210263727856,-0.1269771891763502
284,0.93953636706566,-0.39089248952432565,-0.18399720776379644,-0.12569259635739521
285,0.1455253175478283,-0.020678908847993106,-0.20863137736436294,-0.183631344738852
286,-0.46018992776946427,0.21850092802580806,-0.15510028900429876,-0.23140934076742853
287,-0.9125331413654608,0.22988594409434748,-0.03917126900451747,-0.2606070050071142
288,-0.4636998310434793,0.08558124112504031,0.048212490059160666,-0.2621996048747334
289,0.23556820423917255,0.09486819606668254,0.08894906979723986,-0.24627360619854127
290,0.4988901332428827,0.11017455828213468,0.010112977169337973,-0.26590161725210304
291,0.5857147418520038,-0.052188366508602285,-0.04751374922299681,-0.22294358276760992
292,0.46034207955337797,-0.038997528257920425,-0.0569290524218716,-0.22723938621605913
293,0.4145599881650382,0.2332890486218347,0.0976452043467064,-0.3059957827709632
294,0.414245175789965,0.6576772947624556,0.25348164864879474,-0.4150791081853662
295,0.4132954162045382,1.0407076247645082,0.23206064009279392,-0.5554529130568698
296,0.3384906841310544,1.437067950059967,0.06584626136494864,-0.7718899742976636
297,0.5200250115294445,1.4378514134690794,-0.14257720264471296,-0.6646156264819605
298,0.7675614775515536,1.048019949916219,-0.4623401500746876,-0.18266572048473984
299,0.15467620166545282,0.69110506688456,-0.44874775106317033,0.5205354479019515
300,-1.1808736885807232,0.3133068920190182,-0.06320385763804481,0.9850091645369569
301,-2.1772651867360793,-0.0138746960321946,0.6744073354261194,0.9440671161356539
302,-2.205791902876912,-0.019356220173247923,1.4330857155254662,0.469568258442349
303,-1.2814031999857864,0.26214600003585664,1.4156082940680355,-0.08862885145771293
304,0.0279102071669081,0.4572267035329666,0.5679104379485238,-0.25641132245146503
305,0.5859199507774074,0.6208905281001351,-0.9369821207946315,-0.140668005876154
306,0.3168591033541709,0.9966433850990642,-1.7853903209370625,0.06303299656361303
307,0.13359833909414792,0.9817367972790296,-1.8124078105969559,0.07322260550196809
308,0.17856650995432363,0.4817623751131389,-1.0693779478131717,0.034010379121352824
309,0.20156980350688514,-0.17878771012187591,-0.34788830158843614,-0.05475711949936453
310,0.22400138410997675,-0.8594669723954637,-0.058249140776402517,-0.17989012717440742
311,0.2467521585440031,-1.2990538634456346,-0.03883103880673254,-0.17442784146313706
312,0.28900664605923376,-1.3199992043772422,-0.23301205850342926,-0.04672935193808836
313,0.2863518635073563,-1.0549568210904667,-0.12341274177082885,0.014093167261701955
314,0.6198422329635682,-1.0336365569998731,-0.25802967227193313,0.1615270522625588
315,0.26876167419170394,-1.091234741995589,-0.24456797922182305,0.10544828072610846
316,-0.1557095753653587,-1.0436196960357245,0.002229726696867995,-0.35693395153551905
317,-0.7511067038837422,-0.8281530514603087,0.36090836100890594,-0.5192570953346423
318,-0.7052670689702937,-0.4984013934970614,0.9002756240860418,-0.2140786236316289
319,0.27424410444165537,-0.142490218371131,1.1335216828473507,0.9622166004882491
320,1.5935819291925855,0.07101446241708328,0.8985365113454516,1.7476170228580772
321,2.5316948171717604,0.08266017227825878,0.35828880118843603,1.5957621130982078
322,2.4571684651901062,-0.033796926333494244,-0.006144208562672768,0.5627041795278905
323,2.3333702442694233,0.020727957664133767,-0.25431548259501474,-1.150719843716843
324,1.9309362040389901,-0.02638959571699719,-0.2628146368918285,-1.6953661278725645
325,2.0127954469849056,-0.021677840378884202,-0.11994908479354194,-0.9481044510218614
326,1.9381443781423333,0.06470434081985582,-0.15559070025858404,0.4945376370775232
327,2.358520553177034,0.20605700096324855,-0.1463345607362936,2.186966665694783
328,2.3018423666168086,0.3474096611066413,-0.15155938679533382,3.1285636328349136
329,1.5828792693751133,0.43379184230538126,-0.16838322828855484,2.1500756250155737
330,0.13238026126077648,0.43850359764349445,-0.15363851798996117,-0.6065077070738523
331,-1.4694404198748454,0.39138604426236356,-0.2997051423927534,-3.518327884999808
332,-2.394013037580886,0.42862884336719353,-0.30740251734000673,-4.626355013903293
333,-2.283150058707095,0.3640179994338346,0.007866161347451793,-3.0472059529056508
334,-1.4735635486346708,0.3704790838271703,0.41204623244206895,0.5082015316394907
335,-1.212744649521684,0.4889322977049949,0.899652882265696,3.107339336718351
336,-1.0174543060951047,0.589313503724022,0.610948904523322,3.8283890453722518
337,-1.1245538798025148,1.0635000128672467,-0.11285255430701296,2.70351482854719
338,-1.1225777549704987,1.153917829010757,-0.8342724834828837,1.1526263352042776
339,-1.0418674669812702,0.6463966216083218,-0.7148116890051692,0.5057225350329534
340,-0.8969994261407146,-0.19680445843923233,-0.09428937628329132,0.3174785402401144
341,-0.8713081918710501,-1.2037445302366343,0.43961146695770537,0.5426731557965134
342,-0.9464687036653913,-1.698985313257831,0.8639435883843155,0.38997534153835517
343,-1.1782942076432465,-1.383426383458281,0.20887634660106233,-0.14574845140379672
344,-1.454112121514355,-0.5871714361418118,-0.29086928812209806,-0.6980296561524645
345,-1.7131195726386201,0.020655381106109302,-0.9717573350637634,-1.0545891841314634
346,-1.8557739246115406,0.3515121710338519,-0.6198003584495868,-1.3155434481500845
347,-1.8717226035803332,0.1570413586286199,-0.03194898998470251,-1.1801177911787826
348,-1.8986295886768338,-0.5385554730487367,0.7508204631442376,-0.9024462841603027
349,-1.7166806732731714,-1.0028617680202807,0.998874492653127,-0.49170025450613664
350,-2.1388202383254256,-0.9962062243420212,-0.014949549484744943,-0.03353267995800688
351,-2.109276977051269,-0.3974723457447069,-0.9722753466922309,0.14414909345948054
352,-1.3484461159013024,0.6993453082605339,-1.4367563212471093,0.16697651065627325
353,-0.2393476055105369,1.3917273878165857,-0.8033511586700188,0.15059880925798147
354,1.4075403223980874,1.3537408122332977,-0.10718494657669447,0.504607747471111
355,2.2541387787480858,0.464622711907807,0.6101506685172985,0.8893245209575364
356,1.1319474712506916,-0.45307146624180133,0.6191042512760403,0.7834211416264995
357,-0.4731555816588802,-0.878467293356168,0.3276066956849092,0.3725392364175544
358,-0.8574314810969698,-0.7920605742235628,0.20939956940512974,-0.22873382913799772
359,-0.32928651316751106,-0.34317318112790296,0.16209827192782847,-0.39503853784450177
360,1.0269937126647584,-0.06881385635891465,0.15831422819801452,0.02251258780189147
361,2.004176908098935,-0.05776130515914322,0.19615466549615365,0.6242154482649449
362,1.2142479419977643,-0.17363210747430746,0.18779384886033693,0.9661863871023388
363,-0.26849258264014825,-0.2833977969541469,0.18408770506673344,0.7567014589644994
364,-1.0832286709898562,-0.18440892797412572,0.1582079730145457,0.12307391874347605
365,-1.5238296497960087,-0.2386356138798585,0.18431316964326788,-0.5852765334747476
366,-1.3804439509218123,-0.5254230469806442,0.27237227159930544,-0.7394102424292692
367,-1.078263185356235,-0.9701489839464777,0.3921128261451424,-0.544830505989982
368,-1.0311403063734497,-1.4291194412168253,0.4942405338902695,-0.014334287496812315
369,-0.9714655303398431,-1.6961318274746897,0.5534870569480265,0.34555581504138994
370,-1.0913317745543623,-1.8855832307233307,0.5426260641829915,0.12333638520246767
371,-0.9512267662430294,-1.6360451038696358,0.5047162908749822,-0.56351946311288
372,-1.5845744549259149,-1.2361984804197843,0.46890193362199983,-1.248840953447669
373,-1.6754880915427623,-0.5768165834797738,0.5052735217555913,-1.312309141443852
374,0.3313593306739812,0.10959063293401528,0.48417378260150123,-0.6470263943224887
375,2.439794581807278,0.12834909919882936,0.37421715606537936,0.6898582141318398
376,3.297136249227247,0.38182900338943326,0.19192604007721914,1.4665775758419277
377,2.3318001497616407,0.608385128200304,0.007181654216711075,1.5322099679202932
378,0.42991060589323477,0.8819394934598289,-0.09041890090147206,0.88775943327385
379,-1.2767371155019522,0.7990164545286013,-0.07343670914631296,0.1681406953548285
380,-0.8734569825179355,0.45122840110932516,0.010566658520365011,-0.09976723272181862
381,0.11228700088598567,0.00703947484053782,0.004358616008798553,-0.12178517843278
382,0.07503678622237044,-0.24545449726018714,0.005127783539763019,0.05885484250595619
383,0.048575289304665,0.08488938941751528,-0.002563891769881512,0.0007149988457662666
384,-0.010676924758272581,-0.001946883513437062,-0.01028452431537374,-0.0015558750933560295
385,0.13427216055040594,0.030045886688933744,0.04549113707884949,0.032099968398251084
386,-0.1006657111208339,0.0014744655053301609,0.027230471695448163,0.0006107267315798165
387,-0.36608639478106886,-0.06948075737526657,-0.0611255259300008,-0.08134273667840004
388,-0.3207584387163419,-0.30062799991688594,-0.5498844200870043,-0.31760891297884447
389,-0.13712918240185465,-0.43090540633842705,-0.853450007100802,-0.4426295494997479
390,0.04992225749831133,-0.31869020183733004,-0.588596736834659,-0.35291180592584803
391,0.12851371710469495,-0.03456269411478415,0.048913225803334875,-0.16085008912435886
392,-0.0575284974438503,0.4253110574591757,1.3998491982033212,0.3476853109957433
393,-0.4195223885825049,0.6337115897505248,1.9453590887280439,0.46934231408409793
394,-0.34121281145052595,0.4684445565647551,1.2747781422637892,0.07031708743535309
395,-0.1674845814223047,0.06397443092974332,-0.10779832048173357,-0.5349313055725549
396,-0.09377170548631464,-0.4083266907686146,-1.7714870515437318,-1.615158905245745
397,-0.19221871771789922,-0.6386504323016947,-2.4998308789377384,-2.0678906317110575
398,-0.6435376320645084,-0.44923921891858765,-1.8063592488528952,-1.3832988601387308
399,0.10776815279781402,-0.005184734361619384,-0.24091841910271783,1.0377816868192404
400,1.515532499554781,0.4605509841993845,1.0264140091437288,2.6707415405008295
401,2.103052449025708,0.7671868300922533,1.7422437693413524,2.797286594306004
402,1.304314955395204,0.546133523887634,1.4059362950822258,1.2879455359694132
403,-0.6233057337353439,-0.041228683861695425,0.43552707801510193,-1.080945543199912
404,-2.532139106332451,-0.793604951648211,-0.18850683246650768,-2.293807506950316
405,-3.0335484969858233,-1.406702243399897,-0.5507924547195486,-1.9308987238906263
406,-1.9668691075690963,-1.1755533283240358,-0.3112287410770095,-0.34355578112826524
407,-1.3166034802585012,-0.22919658092572942,0.27244529748839075,0.47305743121905286
408,-1.1170043088002244,1.1626331658654838,0.6700054538005583,0.9382751412713362
409,-1.0826489541244346,2.1739373868441474,1.2373749593890433,0.7375202812763546
410,-1.1494702993209325,1.9200494278994402,1.0416934431045493,0.11350123275014068
411,-1.0421863848609638,-0.3027625699462849,-0.4690200073052178,-0.2445009135980159
412,-1.3919622573589234,-2.309243913479673,-1.6215841300840121,-0.13341652723348535
413,-1.360595318360715,-2.761856941871287,-1.9786740267881706,-0.014206596331298053
414,-0.77312885556063,-1.610815645886538,-1.1991019464504395,-0.005403985798211732
415,0.6067900680538022,0.48075451520702467,0.27869442147068046,0.012648196213723695
416,1.6964286662796453,2.2882158478058368,1.9038801890898758,0.014980945278834994
417,1.6321238476629853,2.221584705591586,1.9257205632338854,0.004398076182140957
418,0.7747417235498292,0.6940910473559947,0.5821542414940198,-0.07078311969832772
419,-0.24346008510275197,-1.1692886202900883,-0.9317098546925872,0.16356876948156218
420,-0.01625600485890817,-2.8538549431699005,-1.930255513050816,0.14015662689549854
421,0.4307239792850278,-2.9406291152032624,-1.6285747959750545,-0.2890659871823445
422,0.7665703808877289,-0.5612600651274278,0.12657383547575807,-0.991430264764269
423,0.05123259943102028,2.2810562914543695,1.798688625701278,-1.6421622049479805
424,-0.6057964259519786,2.9572571089786366,1.7129925374794595,-2.2262818312204624
425,-0.5490426711000576,1.763285683770634,0.6376426353741519,-2.2342042725870632
426,0.22792907545494742,-0.761267961367994,-0.4802945701530458,-1.7161049910362511
427,0.6230868903603427,-3.246253356225229,-1.556437945176091,-1.3294544297392152
428,0.030480127599858076,-3.371928506163077,-1.6251226715299583,-0.864763393155299
429,-1.6038123294330524,-0.2896721664735176,0.006077685284006054,-0.5807855374651281
430,-2.9203618646523544,2.8526944147472078,1.3139218870742282,-0.5652958362456639
431,-2.9387899414217014,4.233070329305332,1.8559294777228827,-0.77443302221177
432,-1.7618039762685287,2.9963588954701432,1.1864532349604697,-0.5990447759513616
433,-0.306418898674487,-1.4232581086570817,-0.25281160695146493,-0.49842299072617985
434,-0.09842046661427573,-4.496298399563713,-2.0124582032731633,-0.7694687177527062
435,-1.0243104342622966,-3.1525072585804743,-1.9888187079129143,-1.5495666258619512
436,-2.8217438636100973,0.9659481323283077,-0.28967419624471485,-2.0808425323415527
437,-3.524688862205951,3.563339789269011,0.9370103500987057,-3.7825654867342173
438,-2.4900075268254867,3.4983844816344742,2.0375366491722504,-3.58485971132815
439,0.01570976530937257,-0.27852104767647673,1.2115826007291088,0.5833968877984369
440,2.8318164523254237,-4.307923335192873,-1.2517663604384883,4.219771689803639
441,6.695289491375329,-4.114254973645431,-3.4059033776960908,8.302476959080469
442,3.16626364980983,-0.6261784891534318,-2.1058306538144027,4.3783525849601315
443,-1.5031715391130018,2.4204928375945496,1.4100918936896365,-4.102559849768527
444,-7.236603254448292,2.4237018682665035,4.929491305817429,-10.212829552908824
445,-5.516560802685296,0.5438312006004125,5.539480741171841,-7.564953880614638
446,3.053144573319959,-5.138966170710062,0.8583427035792518,-0.24749160672615755
447,17.67378302302766,-6.5065256956355375,-5.265301125827004,11.988776891364758
448,21.983889534427338,-2.4300330030452137,-7.425584148019319,17.560712969721
449,4.428619980754341,5.85166524963527,-4.724714328176465,4.344053536646038
450,-15.371973997400417,12.851018501073003,1.3734200013644702,-11.264901927720821
451,-25.89021928675775,12.903019808018488,6.649826324212276,-19.86505590264038
452,-17.156399204475832,2.195405748718321,6.391779191169297,-16.283748530152515
453,1.9650830468190783,-12.018564008524525,2.3430042811850575,0.3616524300511794
454,21.406648416132377,-15.705553840822192,-3.6708776350490586,18.01228481008278
455,20.391705710348834,-10.448291168490234,-6.641467291320052,17.767445485988638
456,5.527656470494387,2.392543945937496,-5.82414378224026,6.672557773997382
457,-9.228535310587313,11.852916756032586,-1.7943480627062587,-5.697709878391828
458,-23.365690126024546,11.43832176042875,1.9338598626494512,-17.94519705685639
459,-23.63813427286559,4.322218836685657,3.726876491375472,-18.794126028374826
460,0.21145188678329996,-2.9674798795826787,3.6057166672941148,-2.4571197764808943
461,24.21527225735069,-8.4924313799447,2.13400484240186,15.148848220489587
462,30.072332908218044,-8.493408712104756,2.1214548133794335,21.73117598621497
463,19.340694446398086,-3.201703153432767,1.8908578546078376,15.45929416123167
464,-1.6926288572681116,5.34660831809489,1.8782798386748418,-2.6832388629007267
465,-20.452907656342468,10.51820290635252,2.0040599980048026,-18.420608676576556
466,-19.12153548465278,9.318219714683263,1.9834477581996046,-17.572647632189373
467,-7.830115343554247,2.74144849609243,1.9195043182852378,-7.152916797288415
468,2.4420598761639067,-6.539529478936794,1.9258986622766743,2.9908240880669164
469,9.984519027377242,-10.140997863849536,2.0431283021196798,10.268675454478903
470,10.093841531854682,-7.938145992078292,2.2349586218627806,10.505427151336196
471,3.5517520717646693,-1.706599242560937,2.3236889825629037,2.4191666061238832
472,-6.657464114589876,2.5631161270721066,2.7502184995348387,-6.566393194301363
473,-9.727924824065589,5.111154136082356,2.725682855813383,-9.79281978882905
474,-6.562053614162867,4.302131391907647,2.0946896411626468,-6.718352007641364
475,2.797564896330708,1.3015335249937683,1.1881044897473154,2.2050289255263014
476,8.30635033461106,0.19321898239095447,0.2602048583605293,8.392703352962426
477,8.47315033058306,-0.6912166679506762,-0.3068449163758402,8.068124477890185
478,3.4040334000204853,-0.6970898105077962,-0.33777490408873356,3.394539540638924
479,-4.214941896729554,-0.34210088095898783,-0.02847502695980532,-1.335866426776845
480,-5.986067912679165,-0.8767374015933789,-0.16362822626324194,-3.169358337103864
481,-2.7359261586044132,-1.2893862006744574,-0.0674685054818605,-2.5774674684737477
482,2.1488326619155513,-1.6455153767374,-0.07708447755999843,-0.4362817403673762
483,3.4344113744645774,-1.7677979690631174,-0.253377298992531,0.14109057154190668
484,1.958179288637639,-1.620754282741361,-0.5418564613366751,0.13945592599078427
485,-0.27529166203059025,-1.4333126369158014,-0.830335623680819,-0.3875710094080418
486,-3.2033127138619673,-1.2888411105170876,-1.0066284451133516,-1.1568178564496718
487,-2.7722804518290847,-1.051686733790251,-1.01624441719149,-1.2008518664829355
488,0.029581784788705573,-1.5059954429338034,-0.9034946086138077,-0.19355209130309267
489,1.8031276551668496,-1.5647296321470645,-0.8876783718053778,0.6123599756700077
490,2.703134564816934,-0.7897271430219883,-1.1756205668398667,0.8550716943522492
491,2.1756782586358008,0.3762753691734471,-1.0892169746187776,0.5318227182159128
492,0.30072246570250694,2.4138680968027053,-0.363992101208389,0.03150243296002265
493,-1.1755585022450794,3.178681576293737,0.7957663830497114,-0.45045757881896087
494,-0.4915477327437323,2.0800123644103308,1.727277247417157,-0.37063469772328383
495,0.49192861848409186,-0.31878461909168554,1.5566667013262951,-0.17699935150994753
496,1.1431425166444549,-2.6193206738413215,0.38229965272883093,0.06187537348313793
497,1.6721081783222753,-3.4699399332889502,-1.126205278665609,-0.0480374315535541
498,1.0417367601415897,-2.1688634446738204,-1.5529240393693815,-0.3914952623918536
499,0.0821838545011935,0.2354457751353211,-0.9367312055387604,-0.6988294953048045
500,-0.2816635551164087,2.2629206864133207,0.4178750487657716,-0.9029270743409267
501,-0.05536605567038875,3.1260855539582435,1.3637388589508346,-0.5036824123516332
502,0.6528307014064285,2.1181295963702063,1.276933859668286,0.3634371854912545
503,1.1098095829679904,0.2635747661877247,0.386559131249358,0.973692200185825
504,0.6395723558714935,-1.2498519351538295,-0.7566772995056988,0.7489465281917906
505,-0.42478819022003045,-2.1270935039227186,-1.2030271728613826,0.17418055948761973
506,-0.8700165489568543,-1.8002302522837657,-0.9257878613937858,-0.4361627124138856
507,-0.8952441894385527,-0.7030425239335263,-0.3481104678785583,-0.6424152671874402
508,-0.4811932297307811,-0.25714309954583064,-0.004455751843934638,-0.31644054116744114
509,-0.0946565306967206,0.11503770242839712,0.08729561586226788,-0.037981897748760235
510,0.05900946836926431,0.13533847344517347,0.013541490639052772,0.040657852473688326
511,0.06942290396384057,-0.06766923672258678,-0.02006642055094275,0.03893967761157656
512,-0.01129396771490699,-0.013719186899042779,0.0004261229152993408,-0.0012699267580962605
513,-0.04024031804763048,0.0676933779445485,0.010490857765021126,0.029637339361411948
514,-0.2466709769366614,0.029765693933674883,-0.0015204162258769006,0.00025729753471327027
515,-0.34264582287787815,-0.08939959858485394,-0.030735910122831958,-0.07463928835080794
516,-0.07808938836167008,-0.7862770132221735,-0.0985521789228358,-0.29592586803167886
517,0.4469835351749996,-1.14575291593158,-0.159418230817099,-0.4109228409590514
518,0.727340103661938,-0.7125276819357943,-0.13219438665447802,-0.32220901590457923
519,-0.1442978864147363,0.1782138249569698,-0.030748824018420294,-0.10580541427141982
520,-0.9539087742076031,2.0753535925343174,0.14842950001121802,0.2836574781348068
521,-1.177758732834938,2.757564668111754,0.2769734831663353,0.4105595403496345
522,0.5725497653626686,1.672130293611489,0.23111325347366019,0.22716716628639932
523,1.9705323190409705,-0.36866039051814137,0.02276571400850049,-0.21856232734820033
524,1.8508957545115154,-3.0040005466969353,-0.22949888519540665,-0.713094562360735
525,-0.8683466993243839,-4.106135165788037,-0.3941660785670973,-0.7993412660623018
526,-3.3281984675340954,-2.779764211556495,-0.4271660049938387,-0.257899022348391
527,-3.2707304858179294,0.07012431799015617,-0.34147436059779435,0.6650487622175937
528,-1.2784591898410154,2.36146116470093,-0.2395885140148418,1.3777772477870753
529,1.2550752814596156,3.7297234951451625,-0.3528954470572417,1.149670809114771
530,1.9103093841142038,3.3816755951361532,-0.3384521950187206,0.33001433491009446
531,1.5158474516512408,1.9290147561115063,-0.11480490555100407,-0.5829479767425292
532,0.4916221305493472,1.3825952207315577,0.2797673242429026,-0.7673607911741904
533,0.49948749003502935,1.275681801470078,0.6192591196698902,-0.21494600252593765
534,0.5238446088063744,1.2208548799079835,1.0081477122383633,0.5459096117918288
535,0.6216247750598711,0.8708772861520062,1.0060668339668095,0.8305022907649908
536,0.504262927580809,-0.15728788082149328,0.5998375891353839,0.41090117968712075
537,0.7257648877195408,-1.0532622547563302,0.19098318465658481,-0.05452502564668415
538,0.7646094628393504,-1.7998122276282946,-0.2611747268637352,-0.5746821746417956
539,0.4857627339579041,-1.814981911278791,-0.5374934505705976,-0.5487332046598511
540,-0.8738506681258955,-1.1948459688276272,-0.5525653809546085,-0.1733447853012499
541,-1.7978288138169203,-0.8045277165759902,-0.40184607711450204,0.14640958911491306
542,-1.3571867282119812,-0.33538768309537303,-0.40185412306806223,0.3535048337948011
543,0.17873759187420304,0.04828291566885014,-0.5525492890474881,0.3864220797408038
544,1.626581480903673,0.056759766387048695,-0.5374797724495459,0.29403212215790697
545,1.7621373611343487,-0.2562704097255232,-0.27117606968232266,0.2196690935466611
546,0.8308732619588569,-0.4428487525995365,0.15917626127301482,0.23591075231676212
547,-0.4418250846619014,-0.6494489226189372,0.7632069434571113,0.25488318576207364
548,-0.5522131553602082,-0.902413617295347,0.9902649113526127,0.26233998377308815
549,-0.39052212699847094,-0.8999433147207655,0.5987274382326547,0.23294044780530093
550,-0.3047529954879289,-0.6263927652561737,-0.1838244925823672,0.20124485602143297
551,-0.3700299995837517,-0.3374491760840436,-0.5572454672776341,0.2806230271849206
552,-0.3255287965082577,-0.03387483440356503,-0.4699785543302801,0.47033961292810833
553,-0.3032732985732858,0.1957834575359807,0.028149752013075624,0.6899144274477154
554,-0.3941445604009717,0.20264298586306742,0.6778620951357891,0.8735686470979198
555,-0.5914261173166931,0.030147429982575996,0.854987313861194,1.0308438654193353
556,-0.9989367104563623,-0.05103094334203715,0.6179377397946367,0.9627944839564048
557,-0.8903834609523289,-0.14227806905235413,0.09977402252578495,0.6336197162416364
558,-0.13429989716057308,-0.19945557177426596,-0.4421336150436575,0.13452860684292478
559,0.6519314380967534,-0.26495939172435257,-0.6407466029204989,-0.38841375772689724
560,0.9488245475765285,-0.2815166125582777,-0.45363694467191384,-0.6984241185813849
561,0.6843053561557183,-0.3555494382290391,0.23558581061380057,-0.8377788109560126
562,0.10211232461216158,-0.2538418231842243,0.6742533087521254,-0.7399298048966054
563,-0.32914462930951993,0.12705971315285924,0.5572979253677252,-0.5824195804233072
564,-0.18943968986980037,0.5016884357820403,0.03749151308130047,-0.3573277154101982
565,-0.08046186561718345,0.7135977166610009,-0.7367716128184032,-0.08881168257056023
566,-0.10919267133624808,0.496964789725961,-1.0675049144651931,-0.02611349938992316
567,-0.14255288118312004,0.07047706185582778,-0.8906215111239677,-0.009675338032767919
568,0.044457870065746516,-0.334702594749092,-0.33012071424994033,0.06461115676288944
569,-0.06498334916824394,-0.4413226203710874,0.059818097352725405,0.29726990172942336
570,-0.36235429245769796,-0.36589491459336443,0.2995929476855654,0.690269112885838
571,-0.5939097162485737,-0.2908827256172877,0.31324718178065586,0.830672238070214
572,-0.5798081417490282,-0.224351976160716,0.17670484082975327,0.581894180820999
573,-0.3322012224953774,-0.2923085602347354,0.22875900181802036,0.1768467168932618
574,-0.09765372266348049,-0.1700138707935671,0.20913885980412183,-0.5161413267627325
575,-0.06951200266366472,-0.4924194383155177,0.21110087400551164,-0.7433238405323289
576,-0.5502032226243476,-0.46017888156332337,0.23279478741633125,-0.20700241822160037
577,-0.7960518546524085,0.13089799222691906,0.31558689780644006,0.6036834496032194
578,-0.7368853569597165,0.9071587360693498,0.4268564892504463,2.1480321719127056
579,-0.5518413755685594,2.44724331480546,0.37863763444662085,2.6293288801370855
580,-0.4724745512499666,2.981033400978678,0.1670744218859988,1.4044669530756517
581,-0.5460140377505931,1.9630161847520646,-0.1940538718098373,-0.7404258342480136
582,-0.6653880365237612,0.11690931158944615,-0.4716824805878348,-3.4893557586685375
583,-0.7626591305643949,-2.0789327630243384,-0.4855884588300257,-4.616184362760032
584,-0.7098299882854637,-3.0707198391421153,-0.16522395079888103,-3.153975421159775
585,-0.6359894948461458,-2.057497256726731,0.12044173230422639,-0.2482198074003324
586,-0.5667756615210899,0.1155043744628933,0.48286530147705714,2.6054357429949753
587,-0.8451636120469121,2.1532754040579625,0.23490920917225783,3.9720055976622803
588,-0.9035599327725814,3.169740237779701,-0.2770718139788254,2.8118336832182766
589,-0.2856867568405993,2.344219758470718,-0.6057974080904317,0.03762253823767553
590,0.8795531419969203,0.3487140259281757,-0.7581164136774193,-2.2288175185509203
591,1.158744348416315,-0.971728296945178,-0.23804093464534656,-3.215619763831872
592,0.0021688937334959357,-1.8348523829164427,0.3750312303266963,-1.998523710580435
593,-1.83532834589621,-1.7272512734005847,1.0060007045929182,0.7978447541504257
594,-3.356860936353828,-1.0069887705586813,0.5484760681127328,2.2061086315675866
595,-3.4543226108097054,-0.8632097416808048,-0.014881219236902735,2.3990841952732325
596,-2.724779425107727,-0.8788224167053982,-0.79134358248047,1.1560526447016881
597,-2.1548112543005264,-0.8539641787891198,-1.001072458116099,-0.26953384773151373
598,-2.3076158809320235,-0.63119952112887,-0.06030743255013618,-0.4827355476149505
599,-2.4401686126156577,-0.10471798753527908,0.7829093192576985,-0.09623858194045887
600,-2.2260911575123106,0.38047737849545366,1.1590896216417583,0.4522269907941073
601,-2.499692835114883,0.7271005388442772,0.5890287767729405,0.4193605553617569
602,-3.119909583638492,0.7395729264916988,-0.05179493456250668,0.1428830009723015
603,-2.14192808685944,0.49688632987138687,-0.8140286732333164,-0.2486602178881448
604,0.11483672420272972,0.42743721875469803,-0.7647682428247744,-0.47668407916299504
605,4.814149587065183,0.31488855813200833,-0.24194837789698131,-0.26268294671292336
606,8.158585494273353,0.20150061002969938,0.45494414185189164,0.1553718647315755
607,7.006299735040191,0.20104313282532021,1.0867726752962659,0.4074929733185829
608,1.3651507715764883,0.3106187708911376,1.090800697279122,0.46438289607694877
609,-6.349160349245505,0.4079181913678609,0.14693299109253108,0.2884779321739343
610,-9.381478694252186,0.5190955789205959,-1.0221298304082245,0.0504496492146739
611,-6.895302035597093,0.5870373157583784,-1.338911756408691,0.05836486582391841
612,1.9408934639821647,0.5907432286768028,-0.689408097391866,0.21418222603121645
613,7.582455993927219,0.5536840994925579,0.4081043677782065,0.21215777012644776
614,7.590893076579544,0.4819973402508075,1.0431338861721873,0.40962184641324695
615,2.560793951872231,0.7341167471603035,0.8865962101569709,0.35843310518385774
616,-3.948502593765331,0.7089048064693545,0.23322050786920193,0.040737959231806495
617,-8.293910814469237,0.24668589380194544,-0.1972811724577595,-0.6741983122953304
618,-5.77439099646747,-0.3639119868391959,-0.27244080096238943,-1.2077036224564817
619,0.4672322572058916,-1.5575512278297206,-0.15325538307828496,-1.1700439213581553
620,5.134268136665858,-1.976042038470927,-0.08887626191278629,-0.5681550452521053
621,6.229503317570083,-1.1995721086814748,-0.022723833465785166,0.21741838006714276
622,2.6856704721887112,0.2292474985557607,-0.09108525572345183,0.5798753118504733
623,-2.369490160083453,1.8624793384138223,-0.11034601375458569,0.6480795337761429
624,-4.780989299821751,2.623618350756713,-0.09584698317861638,0.46811981653593365
625,-1.8496767419317097,1.924060720261874,-0.06496623662254727,0.48119260759033705
626,1.2493148450844402,0.27273497154631915,-0.03686414376113399,0.5474755040571011
627,3.6856359411348962,-0.8045134795071569,-0.04437778765050135,0.5380990905905692
628,2.4879854726485897,-1.5471269073266527,-0.11452132998265699,0.4683180324855913
629,-0.24082305545232685,-1.5753441792691216,-0.11703744013254293,0.27022100529363746
630,-2.781879739864853,-1.149746456847574,0.023603940463059383,-0.050343875430090806
631,-2.8623039987608454,-1.2156496951381606,0.29834219054501604,-0.38194421288505975
632,-0.5872785291243977,-1.3505355523071692,0.3767218644840216,-0.6122640610619534
633,1.7168988957665252,-1.3351421032692166,0.2559022325732226,-0.7580429134913603
634,2.185798699448862,-1.071977504117267,0.026043176436735038,-0.7655036827842103
635,1.3753290364572621,-0.6281021583532864,-0.13586218235308073,-0.5516978386980324
636,0.04216805471812535,-0.18646782826113223,-0.11283628390736722,-0.3036285739875722
637,-0.3963465967699035,0.08341981790629537,-0.008254998508357486,-0.07958213242679198
638,0.028950622864552467,0.09814096224270073,0.05056623007706745,0.04546621059110247
639,0.04019412054236971,-0.049070481121350415,-0.014443748228654782,0.038114433145775374
640,-0.04292777999721967,-0.0022126943514331806,-0.007225457512597828,-0.03660723659707013
641,-0.08803881782124516,-0.00745328623640651,0.029672484266654288,-0.031116151107509732
642,-0.13042338763044553,-0.014234687661831013,0.026837214823765887,0.06955374953443308
643,-0.14923744753823304,-0.012814842970183413,-0.043880906647465606,0.23428631422124852
644,-0.0875926083849956,-0.013451772228484534,-0.3770895872678526,0.37559792776047574
645,-0.055403174269541944,-0.020179360739308216,-0.7348678222391697,0.5465306818451828
646,-0.191525149682024,-0.027129098958534378,-0.6354001575456965,0.5449954819904672
647,-0.7724458371698755,-0.06349589171875589,0.12555733261372132,0.36126939578312756
648,-1.6695277335967158,-0.06972039350162129,1.2840292735651662,0.16878445375336948
649,-0.768207332210377,-0.04304532078830467,1.7999666526637867,-0.04200410657492348
650,1.4788486210009895,0.0706529647399833,1.0795480157351824,-0.17081933788665812
651,3.4495626370200734,0.13465115671999472,-0.43926132414734453,-0.17784562323093467
652,3.4684149410941485,0.09805805899642966,-1.4777929515077595,-0.10758276978817043
653,1.414334710353175,-0.030109036349890712,-1.4927458334058914,-0.18273774085396957
654,-1.4696477497935418,-0.12649368208161452,-0.7314800943319151,-0.027535681099336573
655,-3.1825009385409704,-0.3898541157585378,-0.07422601261841963,-0.043055887074799515
656,-3.0117054736434135,-0.3754225665045047,-0.1079274439015209,-0.32759299662495983
657,-2.8192747629949615,-0.04727433631028047,-0.5850160856126353,-0.7931991758888584
658,-2.7271079004460566,0.6240103592462413,-0.9310033691414101,-1.2588053551527567
659,-2.786327220153592,1.386212199359456,-0.9234364770808372,-1.5433424647029168
660,-2.7115052634768344,1.3882441067442546,-0.6319359364582805,-1.5588626706783804
661,-2.892842358750048,0.46325292291906095,-0.22695989305303213,-1.3817650443771616
662,-3.0542487365464375,-1.2455549752959112,0.05939891373074848,-1.3986406550619737
663,-2.949379887228252,-2.0343758213177137,0.18386766515543607,-1.69370731171747
664,-1.72011374551911,-1.6681579860091786,0.2617728279358301,-1.5495661966127747
665,0.21524141182239673,-0.08616521361577532,0.24198579921138,-0.8148227275889053
666,1.562823472819092,1.4559577940048078,0.06333656840147905,0.37074607861933434
667,1.5423345456860291,1.735500053559729,-0.1939278721441554,1.4055338930633965
668,0.30140258040685775,0.9325850599213914,-0.4603897568861092,1.7148463417970399
669,-0.7518387028022258,-0.5464590390781496,-0.6232275753395256,1.2106509347690417
670,-0.7018011663675322,-1.5316891267825272,-0.6321096381642575,0.375225698929536
671,0.238351357289221,-1.5348350607892272,-0.5245103114648013,0.14324257935425994
672,0.6971155863804653,-0.41204314590104235,-0.5698375433642265,0.15145083957434263
673,0.39924322984592636,1.0043747422817708,-0.6843440304622727,0.44898801759233314
674,-0.1722308566632168,1.516025604983706,-0.5770307309725744,0.6247977869028779
675,-0.563097823877422,0.5919638129338677,-0.21431501074474835,0.6198173044197652
676,-0.464881919324829,-1.0525547859691997,0.41206911859426343,0.46725421977099263
677,-0.1800600466205646,-1.8478412910028699,0.9662158360725787,0.22628651650310827
678,-0.06683073684129409,-1.1650550649230353,0.9882087858942654,0.044238570984021716
679,-0.020002095452676977,0.39049805287086387,0.3568179341479513,-0.012472856440173409
680,-0.034444165842409113,1.8523301398102676,-0.48163972509004305,0.2538314127261084
681,-0.041202751523269784,2.032633087133141,-1.0426502083615357,0.5336686920163383
682,0.019912795197546723,0.49011032220661316,-0.9945599262276852,0.48551375899569715
683,-0.16557486536055416,-1.7276103351190426,-0.40520109095199486,0.09218839602881389
684,-0.2589998514937178,-2.4418733907190293,0.4980194850689588,-0.755457705857173
685,0.36869419888150046,-1.431959018647807,0.9442906484126083,-1.2668860038039715
686,1.0592552345349497,2.2909339615468847,0.7655065143677866,-1.090034822209107
687,1.0807696882370654,5.0015458907495844,0.218176845979135,-0.41952118000400634
688,-0.02046517500823676,4.235126550929562,-0.6260475451559407,0.2743708168927204
689,-1.840271441196303,0.3998385741950275,-0.9101096001540548,0.5334874390660288
690,-2.68787993734583,-4.772957873710199,-0.5846266789613482,0.34104197917353385
691,-1.3403860776051986,-6.574501020468965,0.07811793931722257,-0.04026847267444102
692,1.2626260128442868,-4.549819680676907,0.8215685444192887,-0.12415623416048352
693,2.913101564702958,0.4433555444559322,1.1386900388099377,-0.03459563306641607
694,3.053330566397728,4.433086333238273,0.705689237130668,0.4084231543096231
695,1.9767953597477326,5.571618849712263,-0.11925806276212661,0.8361133059452092
696,0.880017384335017,3.305969622401622,-1.0728360881217789,0.9071151776130771
697,0.5956445886567784,-0.9021168658565235,-1.5689725863595037,0.6857199324404525
698,0.724678534508608,-3.164802511387168,-1.0743600436410237,0.11081162794805663
699,0.869891233166851,-3.382721913147149,0.2523134289062812,-0.327005939264239
700,0.7127980407858929,-1.4018051335417163,1.5191433489171455,0.03613988527860642
701,0.9960422820304549,0.9046806978794679,2.1059002469947177,0.6444901316010092
702,0.9677178579059993,1.5617084461602988,1.4653792228347176,0.7908312575085327
703,0.4484367489576361,0.9399680883508748,-0.11936870107146623,0.40259931566556983
704,-0.2653416051444163,-0.30056582190711323,-1.3894348690190679,-0.45267593005007584
705,-1.478356001858636,-0.8081277357112499,-1.8344555793741841,-1.2617990668518813
706,-2.0905951076605964,-0.5366019958349504,-1.309018651885205,-1.2263141790446774
707,-1.3577960680367673,0.17727698365857308,-0.40331320461103815,-0.6085107633397797
708,0.2136995918754807,1.0136891225980174,0.16138610223968683,-0.02735519490507378
709,2.008044549946787,0.9892183629486743,0.40249330565154207,0.42491245279807754
710,3.9358756486835405,0.45898588816921304,0.3203407303253317,0.6387078681942941
711,3.5675361227363993,-0.21274599045011078,0.21491670266120774,0.5733101244794399
712,-1.208450564276417,-0.585940998817071,0.23790366767550525,0.5005412067375153
713,-5.163816670872108,-0.010289949468994215,0.3063305858459171,0.49566189971965774
714,-6.799701060939183,0.9400827064471753,0.2994878940288761,0.4998976720312938
715,-4.227133845767132,1.1971970190187502,0.17403854404978783,0.5775534977446246
716,1.21969491961428,0.5409938066754618,-0.03124221046144743,0.697580204977335
717,6.198764506935223,-0.5016176853413865,-0.23157274926465446,0.8457927606755509
718,6.3137607693013935,-1.8071734818382108,-0.3619127858404532,0.9213346477539689
719,2.5699345059457017,-1.8573383061522848,-0.39715029452720746,0.8868148784255344
720,-0.9544003049619161,-0.2170667789661805,-0.29850920180442914,0.7810389962617841
721,-3.866020379935953,1.6126882190266234,-0.22198645025509087,0.7158213160441842
722,-3.9269310634455388,2.5046336614676914,-0.08779486413647401,0.6803019464687297
723,-2.5335763806719345,1.7880092548766,0.029070967004044414,0.8069727228582612
724,-0.9416459421414076,-0.31903242705963847,0.08533581461700851,0.7272028826891812
725,-0.9017647912052082,-2.1808755742493107,0.07347315565113635,0.33202693059871546
726,-1.069123018346388,-2.1397278058932607,0.04854348977704326,-0.21192296034370833
727,-1.347795720695135,-0.682228192250753,0.04616692609421659,-0.7006160450648926
728,-1.2847587042591986,0.5751495666498371,0.08317649872481783,-0.9488757192899169
729,-0.891080543435064,1.2865623499137986,0.0794755414617578,-0.9146131254847116
730,-0.25156731287699863,0.9850350350775428,0.01162465830565556,-0.7994952823129837
731,0.4661965386816493,0.21480200467203495,-0.07888337432257383,-0.7169897573949628
732,1.0219979622139255,-0.42605688087103744,-0.23250748987389042,-1.1145856902054407
733,0.8906724974118392,-0.6761937910924678,-0.35110214184454946,-1.0777628105900423
734,0.014908889577853503,-0.6885638751542245,-0.23624933271858872,-0.35654580714316
735,-1.1456293456437443,-0.7224426159640674,0.050275683611049324,0.6441212852013076
736,-1.206502198579935,-0.6028919785165594,0.4661780585839066,2.2947474717238863
737,-0.24910287287749847,-0.6195819508304887,0.8747232123590619,3.179682462103594
738,0.7315550790314933,-0.6187643029390204,0.781683526692805,2.30889370454437
739,0.7898862124342027,-0.6269407818537038,0.09526864750607418,-0.2913060690939022
740,-0.36645331772367096,-0.5735025790696913,-0.8539997813169506,-2.8295099581017986
741,-1.931683952889252,-0.6925505869678251,-1.3489817284747385,-3.9029567870011275
742,-2.672556292427792,-0.7766071386417506,-1.0940472245092827,-2.6743472813574627
743,-2.0596184934105035,-0.5591200599547319,0.0060342775321071355,0.4600834134204135
744,-1.6205091845915156,0.26083511303692974,0.9928530797496791,2.763885525983234
745,-1.3433416038159334,1.091256043726399,1.1444771202999942,3.156198508695201
746,-1.2283116128199314,1.2964072099859636,0.6060167273608011,1.8065139334067108
747,-1.20446692940065,0.5823338302128513,-0.23821929747966275,-0.21355651639441464
748,-1.4386827692073043,-0.40023190586452334,-0.8809805438930877,-1.2860282262337033
749,-1.4583043193193943,-1.2272202811134942,-0.8632002918105958,-1.3000929168769326
750,-1.122800709813973,-1.185785317853592,-0.2694226661391255,-0.3660838607480708
751,-0.21876215232974797,0.0008830936577275753,0.534157716052299,0.4625559832046113
752,0.40387568805563245,1.160995893422282,1.2188629880684965,0.9945575707172383
753,0.41760352113570326,1.6689172861184411,1.2338331257677044,0.7219044316577976
754,-0.5441836527945844,1.3642261454843774,0.4648797455236026,-0.10943429747836922
755,-1.4943422859061606,0.5798193200755517,-0.6794176242370756,-0.5436741973465868
756,-1.51893567588821,-0.4699277407725219,-1.1829801134435693,-0.5424836587925995
757,-0.689004945133964,-0.6075446219549888,-0.9676590146008305,0.13668509300637544
758,0.2950728707610848,-0.22330461317646094,-0.07525502374439097,1.0498321305703155
759,0.38320346145904394,0.06694482316087944,0.6294620712628394,1.292262375213782
760,-0.1251073560535204,0.3874233190487353,0.6459133797032642,0.3172716444059892
761,-0.7734155154820762,0.5572395558744869,0.19514355638247766,-0.6092814891949628
762,-0.7782388579373543,0.46567652907607676,-0.28415820192563035,-1.0674581001975336
763,-0.5004483834134776,0.20336741345372644,-0.3495134779030536,-0.8625701508153427
764,-0.05849528756682791,0.06994015090163332,-0.22584849970841492,-0.2505012663927017
765,0.10399566010261967,-0.031289014877046245,-0.004309274652916716,0.13983119809902966
766,0.026834968748131162,-0.03681060573770158,0.05292356390497311,0.10579549102451402
767,-0.02396111251259915,0.018405302868850806,0.002382129121165529,-0.05289774551225706
768,0.0,0.01679976657305457,-0.01098717300325585,-0.008847097621888131
769,0.0,-0.0830667288366713,0.04719806866497743,-0.007520032978604942
770,0.0,-0.03360428407858701,0.036942415125024025,0.016809485481587408
771,0.0,0.11292641905940817,-0.06714439504054374,0.05662142478008397
772,0.0,0.938189459337012,-0.5861777652845324,0.11862686108591604
773,0.0,1.3528504544569744,-1.0762728582128074,0.0875739150179203
774,0.0,0.8381854702454712,-0.818960037367708,0.06196494928194855
775,0.0,-0.3161147586446481,0.06336824558466231,0.17411794433760713
776,0.0,-2.195600468674567,1.8777592517382662,0.36243995292370973
777,0.0,-3.0069814369450283,2.8319643427236527,0.8444488040947542
778,0.0,-2.3339234287035135,2.31776000034331,1.1964996404571955
779,-0.007084212875980491,-0.6409564647098996,0.6874611854923957,0.8404709066875297
780,-0.002962043932399381,0.5537635134780357,-0.7992191689881414,-0.14659962624563125
781,0.03384726881283428,1.3270074504542344,-1.592809686822504,-1.616244506340432
782,0.037028445286546946,1.3699568212959181,-1.6393019135969285,-2.3646708678088304
783,-0.15187923459673558,0.9404631128790905,-1.1743796458526903,-1.9490691667138067
784,-0.28893898741196555,1.0897558269895826,-1.281277224562904,-0.6655661887709085
785,-0.9454368305109652,1.0713713930749338,-1.4255067561765011,0.46680085414434613
786,-1.3834337147594682,1.0732098364663987,-1.4110838030151416,0.9839971130804367
787,0.07732405481798779,1.0246171897219596,-1.1466629950568805,0.895802743752335
788,2.128101971545692,1.2913739680161958,-0.7139744002160898,0.5037999509142179
789,2.9046483546988013,1.427704587724545,-0.29461231583623354,0.4586966926550443
790,1.5533622734759385,1.0334756459837946,0.009788023504829844,0.38209136131855287
791,-0.8946220564904143,0.07001707922372297,0.020213023527909588,0.4628446273311881
792,-2.8178808336663455,-1.2147153261129233,-0.19731231562082482,0.5803806157862552
793,-2.7932658900608853,-1.7841763203211536,-0.2691743992313665,0.8241273047936101
794,-1.7727079803380146,-1.27615431161016,-0.35325831141999836,0.8193479091975228
795,-1.7256374959350527,-0.06835762215236538,-0.5042280478790964,0.32003808206604384
796,-2.4242051277177863,1.15098095885695,-0.5871399472955419,-0.4150002547738286
797,-2.942897914225397,1.5403649416993463,-0.3409926300473656,-0.7925547873579522
798,-2.601629671542031,1.0129231221676163,0.1327686403841901,-0.6052859447462697
799,-1.8842537643348896,-0.19412942367525,0.7244718306204598,-0.0007503301463556433
800,-1.310717307618092,-0.9431494067481277,1.1131640158965008,0.6483021073697727
801,-0.8714157055281332,-1.0966774574241696,1.5208749180419907,0.7591021308783591
802,-0.7419150303170428,-0.5844776700120211,1.3990220218189708,0.6252973901844879
803,-0.8929092273643271,0.19782466676068278,0.9188484533570658,0.5088560236208521
804,-0.9238069284093673,0.42772977300432924,0.251062007403296,0.5011532713485103
805,-0.9532188245245548,0.42610282717487574,-0.44661455550583956,0.5132583118835364
806,-1.0004968178732494,0.2219081426956831,-0.8729724550614224,0.5161382045953326
807,-1.0437519765747336,0.21064926804579598,-0.8962283404917273,0.48716285089621086
808,-0.9851862669492852,0.3056633588948096,-0.6636694861886825,0.5012879394698101
809,-1.01734892190238,0.29323391041369484,-0.726701696668226,0.6873680629500422
810,-1.0567435175023598,0.09464108222205664,-0.7701639195326404,0.6541155680362832
811,-1.277077174145516,-0.2506843543646757,-0.7658176972461991,-0.23450076778551537
812,-1.2550390005486354,-0.5801843121717356,-0.686136955328106,-1.0674334851770646
813,-0.5824956484569765,-0.8262535767023904,-0.5557502867348629,-1.3215710501805098
814,0.11752641119376558,-0.8339353815496038,-0.4118702265817136,-0.8635429403429292
815,0.461684350685062,-0.6518811574123933,-0.37266965934333945,0.010346630244904134
816,0.07165963461456419,-0.5514977129146983,-0.3642754195889262,0.8580529995768289
817,-0.4657175174361218,-0.5170242823385908,-0.3239001643831062,0.8326444864959824
818,-0.789492574016852,-0.45248070113022976,-0.2168437061947271,0.32671270353854776
819,-0.4204427788141936,-0.29941306678236385,-0.10213985929909536,-0.05780765798875715
820,0.09206429716397287,-0.0883981545219695,0.051550477441839986,-0.6042546659286947
821,0.22854032863007673,0.2483674627860975,0.14508983345346665,-0.5939298448146082
822,0.22552139523439135,0.42675890325789445,0.14123552565528646,0.2263289085504889
823,0.14534953490287578,0.3700189624980479,0.10788947107631382,1.1194357267519197
824,0.21725804944658444,0.16504062593801555,-0.002230570082834742,1.197860802974879
825,0.1503124984637223,0.003506881336194964,-0.10757676851039077,0.43410584273905095
826,-0.031155754223136847,-0.10743395638701608,-0.1719873900580999,-0.8214392328381217
827,-0.49732396502943405,-0.022645304494694866,-0.14332137014501836,-1.339483323957408
828,-0.4473076050781224,0.19970700381319353,0.029366380870496117,-0.6324885670186329
829,-0.07166675190710306,0.44393226312463835,0.11429894381652127,0.4045262708212752
830,0.28222698469184454,0.8067789834347242,-0.01572202144661239,1.1515128508974293
831,0.2989389683949116,0.7930586214245022,-0.6812389847415189,0.8503403892840871
832,-0.026609205379776728,-0.08661083908705702,-1.360158552811321,-0.03932383142995762
833,-0.46246785164431037,-0.8568565718936989,-1.270534339193845,-0.9322544179397914
834,-0.6804746136057989,-1.1662657117540085,-0.41829603987565556,-0.7172587347152796
835,-0.4308251081218451,-0.6753940004557705,1.3628075520249503,-0.024376473263892515
836,-0.43020214533302803,0.3433421822680818,2.255869162038959,0.8387220891400207
837,-0.44257307801993806,1.2504679551523996,1.707360317822776,1.1160875128113568
838,-0.4567842180365057,0.9257914095349079,0.14903851026255183,0.2561333570502099
839,-0.43904826404356867,-0.03151991731958564,-1.786594071916629,-0.5306242533524397
840,-0.4111016528948881,-0.7029240281957221,-2.4953458940421056,-0.9102993859681547
841,-0.5261388639107246,-1.25257890086499,-1.66836891712432,-0.49287738461004565
842,-0.590596467873834,-0.5371619094540504,0.1876295884086619,-0.0250507503946096
843,-0.38449138019210793,0.45506131424130036,1.7077653559729093,0.536662524859492
844,-0.15544342900744745,1.01673990381734,2.317436508597217,0.3458535829513642
845,-0.024565359080840746,0.7008804969172839,1.5484178296378857,-0.1978782509891243
846,-0.1983732944702582,0.14820771776967423,-0.026747571226623856,-0.5723820438169732
847,-0.45846353774094706,-0.8540055292170254,-1.0692840531330696,-0.8403491835325964
848,-0.5458724872119024,-1.0574770319471327,-1.4870279136069502,-0.5808684716395514
849,-0.318231744430447,-0.019566747405580523,-0.9680132745181723,0.0694840037611412
850,0.34971012303809057,0.73194112659773,-0.04066421720064239,0.6003474263041183
851,0.3107262625370908,1.1450043844384508,0.42673799014597474,0.5779718552661319
852,-0.059295057800250336,0.6927491213163015,0.6676900989696686,0.23036766038212453
853,-0.86517810926937,-0.6538739980998717,0.5790811082802128,-0.21896809491257407
854,-0.19992297721458527,-1.6672724745225949,0.44049247111197565,-0.5219766819740344
855,0.9469823282410997,-1.1278312715309982,0.49966902494409215,-0.48256042982238667
856,2.55960616292071,0.22758585556211944,0.5442049662632615,-0.4556109060583039
857,2.8805806522280193,1.393520637237396,0.5882309968505213,-0.4893683409062414
858,0.251897119369245,1.6506716541601174,0.5617574899245702,-0.5356211504791767
859,-2.334906895551984,0.5270320388982634,0.4934870425958671,-0.5450995491564696
860,-3.3698446806202593,-1.1310214604219893,0.42950876574039626,-0.5715117321343959
861,-2.040552411152631,-1.8690941731398338,0.32969886029144285,-0.6109288588271448
862,-0.3006667346541543,-0.7609486201746619,0.4431108576918498,-0.5210186816111182
863,1.4276772728529277,0.7535879827122458,0.45428860549618366,-0.28305229594923653
864,1.3726871321360046,1.8937973607771414,0.2075208796306343,0.06292176068585804
865,0.7256591898754474,1.3220495713366198,-0.1712844478470112,0.3443848111566692
866,0.8445026819720169,-0.03545956233790384,-0.8368538738313576,0.3953796786391843
867,0.5087093891043257,-1.6287960502772327,-1.1006098218059341,0.19397243668244107
868,0.4620929504910372,-1.5293908549780593,-0.7381718988920437,-0.04420524074693098
869,0.7232277864995602,-0.027489719195017838,-0.024740395109096647,-0.20225494990895138
870,1.9518752561819246,0.9383068126067816,0.7932903717668041,-0.03842701108503691
871,2.601780958167974,1.7935427854458454,1.1534532395723531,0.3440240000867769
872,2.127882337321721,0.7805766887063456,0.7960418517217768,0.4991549253570331
873,0.6606339713536307,-0.6197748279404091,-0.01833855328766537,0.3643995200008746
874,-0.9230526224139771,-1.7425617338252848,-0.7576220117072147,-0.2061184012121357
875,-2.273152718225542,-1.2673713809509732,-1.0763256100420593,-0.609226407019722
876,-2.4417199962048493,-0.36578174687794707,-0.626676596811324,-0.5421191432741992
877,-0.5154945780513605,0.928305509946455,0.32711867129681854,0.038213200816063095
878,0.7408478112823967,1.5131301820726262,0.7695518002302133,0.5798071531909817
879,1.7229368748668357,0.6037069381756629,0.7595405938122269,0.9366403777773754
880,0.8832292590719404,-0.7171576563165629,0.24691979471944897,0.3659322885182138
881,-1.7245991121898676,-1.805917159169379,-0.26266247410772237,-0.4514215288366603
882,-3.8137975010418055,-1.7731276688899034,-0.176734886245007,-0.8514341846470269
883,-3.006956597640105,-0.5466863448704429,0.191852526802609,-0.6875659084381723
884,0.641749352759432,1.067486312740321,0.6216687128858747,-0.11576845080357794
885,3.569187383530986,1.705164638767634,0.768026833489426,0.46319916821926277
886,4.242275364787245,1.5278542783181133,0.5984786700977374,0.7462634342522926
887,1.2947348378036068,0.7483510543284493,0.13282905645378038,0.1685689005439955
888,-2.37715873378058,0.2558602530983295,-0.040221354327098655,-0.2795843504101972
889,-4.053340825260863,0.13893064705041658,-1.4269288823587356e-06,-0.6585863879941828
890,-3.281480909687504,0.22581818973952794,0.15393077777411196,-0.6309621065263723
891,-1.0803605068235047,0.2552019807245449,0.26414533043723665,-0.4082343797590399
892,0.002416465054353445,0.15211937498543732,0.1836222259841755,-0.03638553741247362
893,0.30066950160283573,0.06739923859145924,-0.0012367721504133768,0.13982749885012244
894,0.03116812612782635,0.003325844108829995,-0.08327067919335585,-0.016707465740588616
895,-0.06368521997517355,-0.017772413165232048,0.02762109702131171,-0.011650013198487894
896,0.009723287158368347,-0.008769482664204733,-0.011479983688755795,0.003564961186743132
897,-0.08142702133895537,0.029768298727602033,0.04113942813041131,-0.005403606033359262
898,-0.016110829432769223,0.039703026212852405,0.048219935341941786,-0.051906856489132076
899,0.2705102983954534,-0.03766934189329012,-0.04954831561329631,0.07323346573477256
900,0.5458649596447903,-0.4903158393470279,-0.5988058961136546,0.19962403649137522
901,-0.0390498303680992,-0.8152342216727816,-1.1470071947265643,0.19661339146652232
902,-0.8185629526311522,-0.6754567604856767,-0.9117365447995945,0.015696602228593814
903,-2.61317684272274,-0.1351038465656056,-0.04864250670276371,-0.26912718781242706
904,-3.1774788871376325,0.7557920887027924,2.0139990719950775,-0.638085586410077
905,-0.4301404637885248,1.2389789034465415,3.0377392269297943,-0.716322496914071
906,2.854310737353234,1.0529087872918301,2.245586274740438,-0.44311459014892934
907,4.315613184316558,0.4280566642379564,0.29035874940223627,-0.1385817196649094
908,3.222011510415879,0.01630515607133821,-2.2529543913428016,0.1622520331583726
909,0.7235609182454416,-0.23647082799815905,-3.2902039940535284,0.3255959340748509
910,-2.0450986772320454,-0.2509941113933591,-2.395506053494967,0.3218063573876227
911,-2.086388173324089,-0.10576127744136099,-0.05232078157607916,0.2583719307376843
912,-1.0764383306303857,-0.14906942629542913,1.5609923161772425,0.2208442761546543
913,-1.0001658890692948,-0.15384026868519227,2.2948751055586767,0.19618565507532357
914,-0.2751442507126855,-0.16900119033146513,1.5823537253391897,0.3975259375013261
915,-0.09807610225073543,-0.18253717379468648,0.039731189464840624,0.5941748821130299
916,-0.6849342523373476,-0.07417925174068503,-0.614402704611589,0.7647368013769834
917,-2.42873096929474,0.1432260774328759,-0.9866272428138565,0.6359483381907528
918,-3.6802370475005004,0.40718654974401336,-0.8699753777289039,-0.005143471776966451
919,-3.7183139380259185,0.61729242671475,-0.7197775750877935,-0.593804393206782
920,-2.0474273349010277,0.686149234258111,-0.7715636519609632,-0.8050393838057819
921,0.2916406645951293,0.5704482092354733,-0.8118072396201725,-0.526084512551255
922,1.5407527145311803,0.32186445259429347,-0.8077828808542518,0.09105944371114488
923,1.8457751350633207,0.10130475478593184,-0.7340029701457015,0.6590664281787947
924,1.2588156839581108,-0.04169101971909976,-0.5757869862733854,0.7173162815979017
925,1.0314920624341364,0.2121728129166115,-0.5507940571133187,0.5010706297270617
926,0.905569313271692,0.43777423288589035,-0.5128096878971078,0.22365905213046738
927,0.9892665091744897,0.32343986104400135,-0.3069384020667494,0.011280201663140726
928,0.9553999351377529,-0.2338929179613387,0.06323656303836742,0.13416411323464475
929,0.8797084501929401,-1.0334138155731305,0.5364280110176282,0.5636138866035361
930,1.167099828599884,-1.3373090620483545,1.2230917402893913,0.7328595830813867
931,1.1434260347358283,-0.8460058393690926,1.3201278384768882,0.7757138232252204
932,0.7273331741288068,0.11070927500051861,0.251287330163647,0.1623823063157025
933,-0.5682196654175213,0.5959177224990007,-1.0138551892485075,-0.6411069185317377
934,-1.5561528877951063,0.5167635894682113,-1.6139061064008835,-1.2384516868131794
935,-0.9739935528044951,-0.08285695397598722,-1.250871687873206,-0.9747778241273464
936,0.16005371641053423,-0.6180687450497752,0.002131633116359666,-0.18882769824852463
937,0.9282480207085361,-0.6921030174990982,1.1859366131749633,0.49390903339296793
938,0.5031233604937811,-0.4349877350382698,1.1846996549465023,0.6897058342718466
939,-1.0941691862478264,0.11540567151439127,0.5851037052883906,0.23334877592060976
940,-2.3340548283257414,0.5604800348488356,0.17630550817931104,-0.1129292590127974
941,-1.0554279939522324,0.7115236927621515,-0.08811806733279218,-0.37988838177167683
942,0.617112047297875,0.5104850894743949,-0.15553371588323928,-0.03439680927147502
943,1.0026107219821982,0.2117646360262141,-0.019462053164961777,0.1864679606304519
944,0.23436493378686774,-0.10638946633986646,0.13046099833215236,0.5080704604044077
945,-1.0296242674236424,-0.23257670416802012,0.21737785045090152,0.45691600227120377
946,-1.8762302955239303,-0.2463459870677232,0.19188090021293094,-0.006710989554443347
947,-1.14340681625512,-0.3660418929021199,0.049972396924314266,-0.6672953221876761
948,-0.06077706438497573,-0.3858659711126857,-0.10191550283272857,-0.9339856870967251
949,0.19751870992165857,-0.39481004330217107,-0.306754530120718,-0.5344811580104811
950,0.17095531580733322,-0.4602327000762993,-0.22705961042511583,0.2724513865778513
951,-0.015398401190219204,-0.6313999171373719,-0.0008773468553983019,0.8192885350918034
952,0.11974172556320249,-0.8085732815050537,0.16575406154477218,0.5451125809285284
953,-0.08436285926401782,-0.9074589595955188,0.19894299219412254,-0.3923031869901768
954,-0.0737330895619584,-0.8887240380554223,0.010427300076830404,-1.130994570351809
955,0.1975395656639258,-0.794465249429501,-0.35895073639667824,-1.2077530152115015
956,1.0994454633936968,-0.7415917383317441,-0.700295809310018,-0.6936712845504902
957,1.9968672597928336,-0.8040522151198772,-0.6023261623619287,0.018925362682070887
958,1.6402031947610565,-0.8167256606952189,-0.19910428206369804,0.4309662684730092
959,0.16836568537791724,-0.6543781033455581,0.3742016644004932,0.5226686248265946
960,-1.4161650427186927,-0.32357841671112175,0.6049321543448367,0.2969380124994621
961,-1.4790264551692498,0.030168937429956317,0.38426129578596313,0.1603013012622462
962,-0.48177271797856913,0.26719708247939555,-0.30741141610754474,0.01044302107113047
963,1.0507516054179367,0.3357921018829026,-0.6926865818147484,-0.07515334329285446
964,2.220956655391957,0.22128226320402866,-0.43808931256573225,-0.03936239246633978
965,0.7455071397675117,0.28114256083099104,0.3812793338666115,0.05846850928312031
966,-0.9867284304742816,0.21101977159276217,1.074419231476498,0.16421431694580316
967,-2.0018677989291827,-0.04271996698189545,0.9596669051040784,0.19273683689634905
968,-1.6120591155054715,-0.3740902551122831,0.23852385901626744,0.10127037722174008
969,-0.3015805791753072,-0.7788409123234724,-0.7302257761372456,-0.11405636928368967
970,2.261879192034762,-0.9376633692260403,-1.0640776841538606,-0.1356276680739526
971,3.136407306772999,-0.8022162291453315,-0.6441338550324976,0.04663749027920884
972,-0.06156801518755248,-0.3088916621553608,0.4621032797630734,0.46589659202860306
973,-2.2958523915622315,0.031606600769668564,1.1223857092752723,0.826795997654157
974,-3.893903647720538,0.10165423838794518,0.9669204788329786,0.9171945757025437
975,-2.2692910146551735,-0.5249310316858826,0.39224181503761885,0.5405339678761828
976,2.0988220878686796,-1.1576076567719769,-0.622167595556475,-0.04578501695660236
977,5.242254858267927,-1.0547960048552678,-0.9598378038093626,-0.3625198406064017
978,3.7025936294069153,-0.4094451667380562,-0.5669439554208342,-0.3878820892093134
979,-0.9280388644273945,0.9343831755034605,0.43012223154356344,-0.04669296621088964
980,-4.788007301760383,1.6571558203155845,1.0847414021071335,0.2332550843788708
981,-4.929304857001337,1.2134706879579253,1.0828749741694212,0.28298474258576184
982,-1.2227558347903367,0.034028386870931404,0.36363650505953476,0.033293395971694936
983,2.7782199007735615,-1.4631225694558292,-0.8483284036715146,-0.2000960865395241
984,3.6536168792941757,-2.294033456910482,-1.3156416226596261,-0.28208839954476184
985,1.9811065795261833,-1.7357788341074494,-1.082173783185518,-0.19473612754220673
986,-0.6871124976978976,-0.20393558387567812,-0.2948241928502072,-0.004322569352262464
987,-1.9075682435474033,1.6293316269449631,0.2791091522192855,0.1766810686333419
988,-1.3840551287256602,2.597796298776466,0.5335312200647709,0.2741401661405913
989,-1.23081270329244,2.119559252308574,0.5276195615684646,0.18535899000814385
990,-0.7705424192184267,0.5800257288384163,0.4300645520091013,-0.034972786420726674
991,-0.9171349108935392,-0.585582261028666,0.5902354323126283,-0.19900221045933517
992,-0.9356651006949748,-1.263319666272205,0.684727481552097,-0.32081194091796367
993,-1.020674959184666,-1.274921222340218,0.7425187087885112,-0.34355555139252786
994,-1.4080132466984276,-0.8398665910722929,0.8419741701621801,-0.29385613258264104
995,-1.4408591226546754,-0.925064975759722,0.7473609087361932,-0.3026132560557467
996,-0.9185963795573149,-0.8976475556310828,0.4957067583395335,-0.3012931583033635
997,0.7804903992059078,-0.8961520599877024,0.11734310771106814,-0.30174657257396487
998,1.9398362882654137,-0.9111070164215056,-0.22907537454903792,-0.30782246531032115
999,1.7235322579882721,-0.8555288171497268,-0.41283621248423624,-0.2906137004049568
1000,0.3553422904124194,-1.0073084585312597,-0.39532860399597036,-0.4332495683654365
1001,-1.2859706703327278,-0.9921304943931069,-0.3057161509693689,-0.36658225692873175
1002,-1.9288981727946304,-0.7138678185269635,-0.28442343137461584,-0.1456803682668461
1003,-1.7315279582889338,-0.25852889438236537,-0.44704123414786473,0.12259733387571002
1004,-1.0488197087984883,0.19681002976223264,-0.43077945387054023,0.31623082492349686
1005,-1.354563347145922,0.4750727056283759,-0.15487113745712688,0.36906239364856863
1006,-1.4149466675904614,0.4902506697665293,0.3416578686796872,0.28040580622774836
1007,-1.1713324272133752,0.338471028384997,0.9968360849848512,0.166493043412457
1008,-0.5151574989841017,0.40862663243376096,1.1553357419206547,0.2577708965790262
1009,-0.16925131303677127,0.3499394616690017,0.6910440053335813,0.24183670975651944
1010,-0.39804011433598385,0.35580817874547743,-0.28937526603830005,0.2711725686164956
1011,-0.5629995865795893,0.46340132514753607,-0.9264835305285036,0.14009838325087967
1012,-0.3346121267884691,0.5391474432035254,-1.0543388911980256,0.25430360174569433
1013,0.7841656522557932,1.0161551382126686,-0.4972383438563141,0.38494010776438764
1014,1.744936217342534,1.0936536663432415,0.1770630913551028,0.5776996383996877
1015,2.021037145951065,0.6133428971323887,0.4244758192195328,0.5436830042171248
1016,1.2951274467708151,-0.5448483678467393,0.32577009948971664,0.05561098532563894
1017,0.5578168104952895,-1.408457971129438,-0.0462392677227692,-0.48092266403159734
1018,0.35137022213615976,-1.599639138312107,-0.23786128197944492,-0.7382634330414273
1019,0.3462452045174013,-1.039737118374275,-0.2239409908305094,-0.4857219531562712
1020,0.42361276521098107,-0.14879429745009143,-0.09939221281056183,-0.20631357858537025
1021,0.21468354786560911,0.11144380943953747,-0.024410652346587458,0.0973723057794285
1022,0.06373417827260282,0.13111036404651505,0.02455075603692896,0.07083669580589319
1023,-0.028512658700901052,-0.06555518202325758,0.00339233724335394,-0.03541834790294662
1024,0.018553723042868828,-0.04748219960478228,-0.004079316643569947,0.010885108505613823
1025,-0.1603679189669381,-0.04748219960478228,0.005729847867863437,-0.05469909068060709
1026,-0.011259401448373306,-0.04748219960478228,0.015344995736706543,-0.0207508882699467
1027,0.6093739940915979,-0.04748219960478228,0.01935820259341931,0.09539685625924293
1028,0.920555624144745,-0.04900737790919636,-0.08698811735914092,0.5782769060715706
1029,0.3049081563983826,-0.04443184299595411,-0.1330456778269055,0.8225136500181289
1030,-1.3453333588147893,-0.04488939648727833,-0.08009657136271447,0.5981975929422341
1031,-3.1481654599526947,-0.05327787716155576,0.06919911157270059,0.04570487425911382
1032,-2.9218972898582716,-0.0670044819012825,0.4201541157513471,-0.8126868844589247
1033,-0.6685274802777696,-0.03537173732012744,0.6585683029509521,-1.1537808539597687
1034,1.303328452971749,-0.1798382659570502,0.3772957883281572,-0.8396932119824309
1035,1.2929868531969766,-0.1666880146521102,-0.3975871917395252,-0.10421744421362576
1036,-0.06292574567158452,0.08736394152598162,-1.0548945541496713,0.40980476912466585
1037,-1.4523177978491761,0.494072907109503,-1.0977466920079828,0.7381400721218333
1038,-1.481305512182396,0.8526311410095125,-0.34771329652522576,0.6853611615721349
1039,-0.04827810077532749,1.2511352922381394,0.9141517778703725,0.38814316060229365
1040,0.8483061119076607,1.249840324038027,1.4325758106518423,0.3325269951297106
1041,0.8266436200498535,0.8405447711417898,1.0113611080363194,0.2616279469177176
1042,0.33501225820801506,0.4388209305713391,0.016071393345132724,0.2577607261061543
1043,-0.05051644562603441,0.019512104406025344,-0.8652095879658105,0.2964329342217868
1044,-0.3306506892905641,-0.33702849170562166,-1.025325267237793,0.33113908811406517
1045,-0.3584762848540921,-0.3435989555841943,-0.4719718973428725,0.1883484183215976
1046,-0.2572142394712404,-0.04181222512731632,0.3321702286247369,0.202627485300844
1047,-0.311859555931382,0.15848113841892292,0.7097190139261385,0.4644103799203677
1048,-0.20677246759943047,0.4319334666830977,0.6790368983268434,0.89278238929777
1049,0.10747319048582166,0.5142433029861688,0.15126316636350265,1.285580979517794
1050,-0.7823459441425263,0.5296205285229771,-0.3043606080312442,1.6379829203747656
1051,-1.9360694208033553,0.5754542383599768,-0.48652499988690007,1.689893595310858
1052,-2.485119980209825,0.8180889713441359,-0.37236132105502284,1.3466187567824062
1053,-2.049936881586969,1.0188978338500703,-0.09076479794134303,0.9854982125060514
1054,-0.821069902700355,1.1491084978715402,0.25111346123954514,0.5204265389774723
1055,0.49845698599441346,1.1754742360748272,0.3980599457417951,0.17986183249971643
1056,0.9501449936133484,1.1366409620772624,0.3496942282037956,0.08063314496172824
1057,0.46971444486568315,1.1380191618972648,0.22241431082984936,0.18252303906345618
1058,0.5302203748080236,1.275537302276023,-0.0016049799852919586,0.195253253610137
1059,0.5392596504055325,1.3893696918905236,-0.07406432599344706,0.21648565748819537
1060,0.607838852135921,1.07047748874889,-0.03101348946875177,0.10448481214996144
1061,0.44623823576115057,0.3541966175935115,0.09767767336494497,0.11568489668378457
1062,0.27801128541403763,-0.5159743387452158,0.15963053060216792,0.25038742057521035
1063,0.9720404060061443,-1.1955410153253816,0.20768674004659876,0.7870703224633787
1064,1.592185583367855,-1.4557092964770335,0.21030798783447685,1.1355332861471057
1065,1.818468633821511,-1.3066620346135276,0.18409550995569646,0.9490251799657559
1066,1.253622774099835,-1.217288834127671,0.2090143867625202,0.2740588282851144
1067,0.09311882556160658,-1.1361127395813744,0.16047023422082932,-0.5183620816492919
1068,-1.2437030839248737,-1.3959392249150595,0.1653246494749983,-1.236706965700417
1069,-1.6686267143711373,-1.4104373203594092,0.2543222624680983,-1.288767823327459
1070,-1.3362001674698727,-0.8925830731000778,0.34134346374205404,-0.35474871704068034
1071,-1.191996843094242,0.17057310551390323,0.6618672245915708,0.6196583823265878
1072,-0.7041380280470834,1.4361604461006887,0.7361088581660546,1.1803944640837754
1073,-0.5896939751200031,2.031116307403267,0.4183186237404094,0.9704857689819656
1074,-0.5126666416452641,1.4092175648793206,-0.10335667584029312,-0.14796040038731728
1075,-1.172438001078758,-0.46302291506110343,-0.7759849337839297,-1.2543593646993059
1076,-2.0604327244163194,-1.6568550112288432,-1.1664679916294467,-1.2137785506250203
1077,-2.369834929390714,-1.809512430359882,-0.8539389513928171,-0.5369305207321571
1078,-1.4948703237297283,-0.9205132970033557,-0.08445542584067946,0.20156438916973987
1079,0.4738129848515258,0.2534923422891657,0.8806903379532878,0.824416962305472
1080,2.0215341294704348,1.0465900012199183,1.414565469767837,0.8134310632839508
1081,2.0467104923160804,1.0021621996984216,1.1117342229788745,0.21216462068245256
1082,0.8825625520499928,0.3851025716157916,0.22293389239106884,-0.5641997705579831
1083,0.07249827776153225,-0.07011501133282658,-0.670519324323235,-1.1348007768210446
1084,0.44249076684609595,-0.45739171371962906,-1.0956533812639775,-1.2556932738911888
1085,1.143327224105514,-0.5685099099265829,-0.9041797030849562,-0.9091755567877946
1086,1.4425495857766972,-0.3887819759364938,-0.30566074983090763,-0.4509251681209511
1087,0.5360806140207086,-0.1386758807622437,-0.009558765275894818,-0.35226129247929144
1088,-0.35943521786190213,-0.13790779420317129,0.20459618555555464,-0.33892799424249476
1089,-0.06391334695834182,-0.16666582854932713,0.16945043653991207,-0.3811005822580956
1090,0.5398607851822305,-0.18505229125076295,-0.01707385727695607,-0.2307965367836222
1091,0.9191747504481066,-0.14745785211575688,-0.08452269480137044,-0.20628547302427439
1092,0.5633807735728974,-0.1296913893091013,-0.11995027126113375,-0.1140360960936652
1093,-0.01850174506831562,-0.11735244855211659,-0.09269820142459614,-0.000277578419085581
1094,-0.44664685753816785,-0.11513636813509777,0.06940016804799495,0.14345325158927402
1095,-0.2573683853019372,-0.12136104312683398,0.06692565895461383,0.17671416190980677
1096,-0.015677119580759555,-0.1212264738020807,-0.10768777814628043,0.020433320191710187
1097,-0.28137487082950136,-0.12354430295312264,-0.4331822334408851,-0.38488794825302747
1098,-0.5203045147083131,-0.1018294878832299,-0.7934585133003108,-0.6857397091266842
1099,-0.42507896413316426,-0.16591522307582626,-0.8834562245854777,-0.5901717150886022
1100,-0.033242541052561025,-0.18856298923764542,-0.6700722343833906,-0.287436234302101
1101,-0.23864052532885868,-0.051804077161849774,-0.20429485845131923,0.06623310358234452
1102,-1.1951876599141305,0.2201556163835459,0.03371581967972615,0.21964898255991333
1103,-1.8321144946456818,0.5271762392838841,0.11393690775739938,0.18743486985801497
1104,-1.6877372231928165,0.7512474198489258,-0.34683247781265625,0.13272791478713167
1105,-0.7028860814704634,0.8081866308847823,-0.6245469864011499,0.11601927993502034
1106,0.5377614248947425,0.7391441713411343,-0.3134042219582103,-0.016671135359115075
1107,1.1669828812780467,0.7426290561297304,0.32206561122131455,-0.22183572116127137
1108,0.9273876013762448,0.7061844225805882,1.5115738830698906,-0.44124876301675175
1109,0.7361852170532823,0.9050886759408635,1.9555522210132517,-0.5743778193686756
1110,0.8402687559801684,0.8958208891626926,1.3759233293456163,-0.5816108301079614
1111,0.845414757489807,0.5590475175498941,0.12543085407429902,-0.5092807227151052
1112,0.8088181086991061,0.027364257363606648,-1.1582180695685151,-0.5357257536218577
1113,0.6229344782689611,-0.5984582749343289,-1.7322155761049656,-0.5287207682944564
1114,0.7663924427484129,-0.9281712011387538,-1.2299355193966643,-0.5294212668271965
1115,0.9473438027812208,-0.8079974887634088,-0.0178939515977099,-0.5422637399274323
1116,0.8910221286185325,-0.3972798731519255,0.851560128994532,-0.5632786959096363
1117,0.5490083551244831,-0.21367996682306872,1.2114684583430777,-0.6170229990818906
1118,0.00864091357349115,-0.1296211813641725,0.7583690564851745,-0.5316774306119754
1119,-0.4637874654626437,-0.1166116454028716,-0.19811828923943708,-0.5421967333017303
1120,-0.6268237266241973,-0.09225763118426011,-0.819741751044809,-0.6325151626937597
1121,-0.4345518653675114,0.0964716052341504,-1.0026613686295658,-1.1544667946649347
1122,-0.40202306509573077,0.24653654917409312,-0.5908543908824263,-1.5162704102314326
1123,-0.5507260349332047,0.3772803060553064,0.11940690578707691,-1.213412736792554
1124,-0.5978613370873778,0.38849373496653467,0.5357758207488106,-0.25065693731334404
1125,-0.24941098501511377,0.3140366422368269,0.6248064311322024,0.7624131294368011
1126,0.5024292557896749,0.15246086388434982,0.30077991880166965,0.9456623173184886
1127,0.1419320400031177,-0.15972876359102586,-0.08500900937010132,0.20444111525272435
1128,-0.41555904861914184,-0.4912962686380612,-0.27502775284170733,-1.0143186862963083
1129,-1.4946567134839917,-0.719210428665661,-0.32227133157846394,-1.4065594217039543
1130,-0.9661243570025291,-0.7862165375069788,-0.2383981208932123,-0.9994876654099389
1131,1.020578746684329,-0.7765786874519468,-0.2096191175785963,-0.0726851302239933
1132,2.649892489412856,-0.7291631513499395,-0.248617790368207,0.6369260499158962
1133,2.3698454151320076,-0.6888327464008642,-0.2967972355812694,0.6425087304426079
1134,0.3023498731242208,-0.8668426321228984,-0.31256854236564224,-0.10300970574770307
1135,-2.458237140062436,-0.8490416435506953,-0.28697881695248273,-0.8239574586698932
1136,-3.7834453911156563,-0.522690186393633,-0.23643279684059013,-1.0606057405184137
1137,-1.1646960055943332,-0.0014057561161853332,-0.2621607775790926,-0.850930885847072
1138,1.7527111693733062,0.5708595817158794,-0.294588545525081,-0.4005795836539662
1139,3.5256012094616436,0.8933874708063454,-0.2419808920173177,-0.15430474417807194
1140,2.9296443930633256,0.8410897114909504,-0.1036289493991129,-0.1693348736832441
1141,-0.07375475119460129,0.548372783771028,0.10601035158333044,-0.2829933111320816
1142,-3.6025065701249863,0.4930023703471507,0.330364198659745,-0.18751456043840445
1143,-3.7407554303729746,0.4055375869841511,0.35190981723094295,-0.40831048130284775
1144,-0.7468847264344454,0.45381212534375764,0.05147970548782407,-0.24697838114288054
1145,2.149007395447096,0.48683799536710026,-0.2368528316805668,0.05537551381313355
1146,3.6938579575285644,0.37857957336374076,-0.37106617598841635,0.309609373432343
1147,2.9600035983813537,0.22228525408513222,-0.3188911605136653,0.3957798612386797
1148,0.9465122293624456,0.06599093480652374,-0.11886181124113589,0.28037623197412387
1149,-0.48588921342099956,-0.029522260308181454,0.05403750876859321,0.033554429159972046
1150,-0.3599120521378413,-0.034732070950801816,0.044416332572808116,-0.15362881734189632
1151,0.1730131253693139,0.017366035475400925,-0.021255861407080207,0.0480181062322493
1152,-0.025577058119150266,0.0116635487376864,0.0,-0.021135704203160376
1153,-0.060401142792801114,0.010537758869375226,0.0,-0.01794796508047749
1154,0.20563714164705385,-0.05088742712184171,0.0,0.008638899595895803
1155,0.3947833067338509,-0.15905010748342227,0.0,0.011806750445112622
1156,0.17119478131206758,-0.4616695676933613,0.0,-0.13958967906321817
1157,-0.5357973794245814,-0.6916944285859288,0.0,-0.3213161642944167
1158,-1.8776240132988549,-0.04193200152890819,0.0,-0.2647784381118739
1159,-2.376570910031851,0.6653821610826276,0.0,0.04708033810510803
1160,-0.7854937080068246,1.0944987398169552,0.0,0.5056600642448456
1161,1.519764454186629,0.8264124372916184,0.0,1.1959292606188405
1162,2.385873888708322,-0.08467548992117509,0.0,1.1910827557352273
1163,1.2593135917389824,-1.3407133129392417,-0.0033167346946928627,0.36546843088540965
1164,-0.957239473352282,-1.5262891018748563,-0.0023819744458591988,-1.015788716281669
1165,-2.492299656850683,-0.48064274632324616,0.023669336651467716,-1.8715009666256157
1166,-1.9753003522794494,0.6763643758289178,0.0027226626800835735,-1.7839256928077005
1167,-0.6271455614558842,1.6255260427275848,-0.048344160039794,-0.8252615832793929
1168,0.016966279342270334,1.4267729897847448,-0.24443995868784932,0.2939138488279392
1169,0.07383449600794373,0.37166131774341543,-0.3353103748380028,0.6078567285747644
1170,-0.0729169235839739,-0.8518738878181035,-0.22986231789612954,0.5671842949254672
1171,-0.09444094845209351,-1.283044611710522,-0.014959741784910649,0.40640466417881577
1172,-0.11824339509000513,-1.2407233437272174,0.4070731420363737,0.5747976714133375
1173,-0.12729939356227965,-1.0316381687596636,0.5397872455078175,0.6412607479970238
1174,0.04184605559421545,-0.8471341071433321,0.2861592271759524,0.7619229519970259
1175,0.36123287070680465,-0.8940157469082989,-0.13981451974802073,0.7637154107700364
1176,0.9738777254764123,-0.8809011294914834,-0.8046596604784985,0.6086637993671418
1177,1.2383433560539712,-0.7525526248321565,-1.0403723242748764,0.4040804327478017
1178,0.4496658113952988,-0.4646069474874913,-0.652910870709142,0.15251829866675812
1179,-0.4550786234126736,-0.1898478757878022,0.5203108899416177,0.08889488371174799
1180,-0.7771834680102724,-0.021939554193547768,1.2726864824129227,0.10311449476917785
1181,0.06902252020112011,-0.01278091847022466,1.3042566244925882,-0.0012389557074111712
1182,1.0322004093177193,-0.10436727570345421,0.5171643269745377,-0.32311016142812576
1183,1.3377031196572857,-0.10736346956449806,-0.4940027284177516,-0.7441608089935164
1184,-0.0075681011967630996,-0.006788530748136928,-1.2612571883171624,-1.388666433894517
1185,-1.3089595430128547,-0.016846024629772804,-1.3075709386332552,-1.1834259249031525
1186,-1.0653493686486764,-0.2012334124597681,-0.07911476087694438,0.2080692722372519
1187,-0.08877942297229123,-0.3890364543157689,0.8601308191111433,1.3559300886583827
1188,0.9465660610471448,-1.0325265945440987,1.2341244240895088,1.6218601666401533
1189,1.0335308114072956,-1.18273744999617,0.8127877243684485,0.8406944664776954
1190,0.6228316141330432,-0.6343225262486049,-0.09543592637707736,-0.8932390627639349
1191,0.04948059123410986,0.6102680788696647,-1.3139358854736636,-2.04290149584551
1192,0.14283560742362172,1.838326866614373,-1.2418365422335933,-1.3802377540821047
1193,0.282955827602065,2.0717017552401935,-0.07857095530672663,-0.11005890157329568
1194,0.20759225482664076,1.079877854823106,0.7588643637283927,1.190790206307498
1195,0.2734498384457759,-0.8399814555115233,1.1540984989116223,1.794187653725613
1196,0.325191532217076,-1.924140226834426,0.7313058380819724,1.0912990685418125
1197,0.18165799244947486,-1.946983538340378,-0.22422322541816084,-0.5742220929232412
1198,-0.16652468068186072,-0.6784179604654045,-1.2902753457295328,-1.550790819233778
1199,-0.8414843159431501,0.5688852055469855,-1.034469892301034,-1.476740666002734
1200,-1.1259741130955052,1.205830209401187,0.03793727424251288,-0.21323154437731012
1201,-0.4333523622324439,0.9749968075886379,0.8707923881542299,1.155247441712976
1202,0.6946796351998186,0.03826552214214513,1.2530506116866944,1.2582800341984228
1203,1.2755493629163448,-0.5539453982595623,0.6565379617458377,0.49212636917880076
1204,0.1866086966589185,-0.6469332078269409,-0.3242840011055246,-0.5951366163532911
1205,-1.13201462193826,-0.37290775083460836,-1.2150841640551309,-1.4102096661967378
1206,-1.3959955153254544,-0.06679895513175339,-1.0572255566834212,-1.392403353599455
1207,0.4532728211071763,0.18977179931925872,-0.13196986430208302,-0.6048554187317171
1208,2.424404331857245,0.08137176359365245,0.7634824513010949,0.3874426325652228
1209,2.618264607507518,0.0576366341075275,1.061715233630624,1.1511037377182132
1210,0.9983073094014452,0.1295982201732689,0.721954755468566,1.3216223493953911
1211,-1.3984794179723343,0.1909960287235992,0.08983128627736034,0.8667817255351008
1212,-2.3948800433212134,0.2521298499565327,-0.5021940075047688,0.24346169539455959
1213,-2.2846440709848723,0.27428910672946355,-0.4611496012054405,0.065466946629379
1214,-1.5706968961824685,0.24263014790862217,-0.12396247917792486,0.051608789103300134
1215,-1.2062465413138528,0.18471203471733882,0.11654980709283488,0.19019036436408646
1216,-1.1170037770918013,0.1800471277452888,0.32401334972357054,0.10282893436375723
1217,-1.188191889125385,0.22720455315912336,0.33214132616120035,0.2263316491039586
1218,-1.741496484557197,0.32295666189370204,0.09234117324468433,0.2139813776299387
1219,-2.166508884053406,0.4265091707767577,-0.21036708784805103,-0.012440266060430277
1220,-1.8550141240925,0.4789768809674608,-0.37570637227510023,-0.3138761377207713
1221,-0.7039102935661712,0.4361177237039204,-0.31594984375691804,-0.8916010996221627
1222,0.8314429448668501,0.5751970983561886,-0.08051084180561971,-1.0973010615444532
1223,1.8226776116166379,0.5681269806215449,0.2364330313786864,-0.739815251225239
1224,2.010931265239408,0.29075375937759157,0.3106565007985286,-0.04003518954044879
1225,1.495487621983406,-0.15349409901769978,0.20977748522496625,0.7641013406225896
1226,1.141254068103454,-0.599372596490575,-0.0476805076320367,1.0681432733259206
1227,1.114758426184469,-0.8718539005017765,-0.1781965795265577,0.6497063442862686
1228,1.155278932417715,-0.8867165170842058,-0.20882713842476613,-0.5013557689394333
1229,1.205619669314315,-0.7380903512599144,-0.03381009422027966,-1.3172333037168567
1230,1.1679202290221173,-0.676319620202181,0.22443197883677754,-1.1670116691764885
1231,1.027256267161282,-1.0102579791996726,0.389109644662258,-0.3062703983767917
1232,1.3508440465363698,-0.9768641432999243,0.4039054477273377,0.9743224581325225
1233,1.5141739995648964,-0.36464381847118976,0.06249735857780933,1.3224171327451955
1234,0.7371058164228205,0.5094558895365588,-0.30007164182951274,0.7070083665158663
1235,-0.5332356861606106,1.8944170734832098,-0.47384616793743,-0.5020907920324278
1236,-2.2818340801939128,2.4683227876165272,-0.3041643162504543,-1.151762376889057
1237,-3.0746265186345987,1.806996096452113,0.1297618555908425,-0.7929581880683583
1238,-0.9719631041498258,0.3527902234157791,0.5093206671572096,0.06572669063050202
1239,1.766470929905161,-0.839959552046206,0.5309310198994357,0.9601676122667534
1240,2.7718990832623485,-1.488978843722961,0.28173803274695575,0.9070813965606581
1241,1.937379402167508,-1.1649992593523866,0.08831745832324615,0.25573007635552725
1242,0.12367036141998525,-0.21611601058348753,-0.020620800524374205,-0.4906450473301842
1243,-1.7951380485982689,0.1498084641619321,-0.0333916737699523,-0.8028308519666133
1244,-1.8061056635341426,0.32563905957727923,0.01998662658864849,-0.6042032723187867
1245,-0.7723952596788386,0.18465555502058398,0.00840318624789754,-0.2036040557247305
1246,-0.492962158605525,-0.020526545448369512,0.004068616947791183,-0.005922594064988018
1247,-0.04690967759664469,0.08149625085234494,0.004316445176032442,-0.04962407989061822
1248,0.20707960714798854,0.22625708921692414,0.008859962693788942,-0.24773161041367892
1249,0.2482908705354851,0.3403175969768963,0.01629480954102685,-0.4509166126001584
1250,0.0347709818965333,0.32514904384562815,0.02372965638826475,-0.7281515408788246
1251,-0.10524084268089967,0.2486241730917276,0.028273173906021257,-0.7101258776058914
1252,0.12429570447312865,0.20060001653578288,0.02852100213426252,0.12686610200296256
1253,1.1393217060140324,0.32323542269144623,0.026042719851849888,0.9004137926932065
1254,1.9455308468332575,0.4209592564540905,0.015025663609672031,1.2625565424568752
1255,3.3787468610731435,0.33750015146044987,0.050555114618618224,0.9196091319203106
1256,2.5718768608889686,0.049648015478230875,0.047002169517723694,-0.08818905509383825
1257,0.3488361995624306,-0.40781637477233373,-0.008587732214484438,-0.9988529265106636
1258,-1.731005109777883,-0.763357984463437,-0.13570558969238306,-1.043157268600978
1259,-1.7581432294943795,-0.2820062960613294,-0.26376802788852177,-0.5701505041441461
1260,-0.1793955246560959,0.41651603847286384,-0.27396068532140483,-0.26382652844612214
1261,1.4019411172041272,0.7367350568614079,-0.14696656440620431,0.04554450889383364
1262,3.005365001690132,0.5673583694677556,0.04215871798113259,0.10062673001964742
1263,0.8571818651469817,0.051894021906373884,0.17187914228395443,0.02233023461853602
1264,-0.9155166137276175,-0.7194123924199476,0.21775982993966242,0.013337810246869596
1265,-3.000356164078067,-0.8113295102575524,0.16214875549591623,-0.003633655688684477
1266,-2.0340297787766395,-0.26599923724823066,0.09924447277168397,0.021661877400224072
1267,-0.23743995326761003,0.4312174983814646,0.05924384853600275,0.10944259782797197
1268,2.2887201977823133,1.125382089265087,0.02984121817438016,0.24082938703286175
1269,3.0186260495974433,1.1104410040814825,0.02823743833647345,0.37088934432513876
1270,-0.44559065110275764,0.44063080077207784,0.03868360446400007,0.40478105718966456
1271,-4.085584282444946,-0.9113534969557417,0.050112568425598414,0.32758467196478563
1272,-5.322394204608617,-1.3900039700038866,0.052506035067203236,0.2066359837482519
1273,-2.9980925670907115,-1.1466403325450338,0.009539188732531588,0.15451469308811983
1274,-0.6015330051210453,-0.38387999404910794,-0.039564214636210196,0.11734935635546768
1275,1.510948978691436,0.1342235811689715,-0.06749864515620435,0.0993302041067951
1276,1.084675764017974,0.27090706953603677,-0.06161401568607387,0.06980126005104587
1277,-0.15688330017901597,0.11478881051687426,-0.026652898507934404,0.018856752384735703
1278,-0.3428138670239685,-0.15158110777522968,0.012512257990553785,-0.008435915540539594
1279,0.10755726167060731,0.033047965795365834,0.008141912634133663,-0.009924606518281906
1280,-0.009116535706139581,-0.008323489641141504,-0.004479419947566947,-0.0068076026571338
1281,-0.017279724606617017,0.04228091228508206,0.02754932069421292,0.013642480177984619
1282,0.037515163311232516,0.016392135813254577,0.03159164774494977,0.04678578073879139
1283,0.16401149261719072,-0.06252490054196386,-0.12867666528881397,-0.014094525720648302
1284,-0.299080727656243,-0.4596816219187697,-0.2657930707334597,-0.32655337383597216
1285,-0.6523573415209505,-0.6931981939570062,-0.2420734733408003,-0.8361837869317156
1286,-1.3045547022385118,-0.4520076037530859,-0.05154530145808464,-0.7979490849313479
1287,0.043368798861490226,0.13552636345357455,0.1914148551650287,-0.19160313150617775
1288,1.6476234327011097,1.128152486428763,0.5766260146682347,1.242702524792955
1289,4.113804812832622,1.5846792307494169,0.5563006060936708,2.312101808606876
1290,3.6727513103018756,1.2694117154734326,0.1795013101683726,2.0276310648577778
1291,-0.018456624315346393,0.4350240096552174,-0.4835154644029653,0.6393475996546334
1292,-3.386352210891406,-0.32706573458247523,-1.1582199148124543,-1.3465165185199783
1293,-4.645337480454302,-0.7166786601850978,-1.1461277521192954,-2.347026957176452
1294,-2.6952020046388263,-0.5502963022953432,-0.4469316459898067,-2.136050308637041
1295,-0.418559575156338,-0.04907036831106802,1.00317518944427,-0.9487676403792524
1296,1.7357215472943928,0.28045168908229645,1.757666190231486,-0.09448991105086824
1297,1.0337787921953216,0.4814601548827815,1.4691743431762947,0.36753234299625626
1298,0.5865458482442311,0.300527058774369,0.2576329598430992,0.3953309457384854
1299,0.8279954428832066,-0.1109564088346412,-1.3360934418577364,0.11734491831619881
1300,0.4917387654248083,-0.5924828182511532,-1.9347980402915341,0.23714653355741958
1301,0.622269952399977,-0.8205617034754902,-1.3398024649916154,0.13674942991031536
1302,1.147982868653269,-0.5645369588241367,0.09174548867277996,0.18872392751108147
1303,1.9947145798311896,-0.17135387083507947,1.2879020710057303,0.37160499625955684
1304,2.1270757032536642,-0.0873718542729766,1.7507474639691407,0.5075502096822083
1305,1.400759754562124,-0.21792541131687054,1.2515897256793183,0.5143843490174838
1306,-0.47495415315083356,-0.6105021789452284,0.26805519790622456,0.35859373003311223
1307,-1.814174337300739,-0.9374627110583003,-0.2534621577500554,0.1460682522653576
1308,-1.327660684442939,-0.7203861577285702,-0.5844127697633298,0.016838783942448775
1309,0.22319385128673172,-0.29481249927510805,-0.5544123495357732,0.14598374007908163
1310,1.510920642727535,0.15512633911938412,-0.3964347635390893,0.2153133416119807
1311,1.1017786912138476,0.4094261722214527,-0.46518393802505925,0.24871839168892726
1312,-0.04640224969636205,0.07066707835885302,-0.42707504503420957,0.2006653640057996
1313,-1.1532047293973402,-0.459709752504567,-0.573588903752665,0.1450894518650882
1314,-0.9938827925137159,-0.5145428991591778,-0.5597793364280205,0.37079207692621474
1315,-0.3494151264135896,-0.11676424698682479,-0.2981857500041908,0.5204527170743822
1316,0.23883685550401024,0.8349826320843626,0.12402426782645638,0.4425238023985597
1317,0.17037930995639383,1.395001718906163,0.5479438475821343,0.06916909551904293
1318,-0.011557559719283836,1.1201069785698459,0.804408748230871,-0.43052215542716543
1319,0.04544404785288109,0.3207201268638557,0.8187311841330255,-0.5955273216888262
1320,0.06457485409644528,-0.34284422746271664,0.6816199160022406,-0.06473870632190165
1321,0.01789136330026924,-0.7132631219110751,0.7026563389403254,0.7070139150608541
1322,0.002435868328971802,-0.7347755523095957,0.8065046055470214,0.9387457465823206
1323,0.007247735956237886,-0.519651248324393,0.8007225767335101,0.7018613335128145
1324,0.49301672772422245,-0.617184418974989,0.6224164323033576,0.041231929468681594
1325,0.783243074603589,-0.539709211008404,0.32813212441011286,-0.4792489884775877
1326,0.1734008615424079,-0.5474567318050624,0.03672456517134194,-0.48871824124939467
1327,-0.7400364348883322,-0.6894946130771349,-0.14179733540789602,0.017207736653745087
1328,-1.1553694220374933,-0.8921479548871886,-0.15153489362130915,0.37607738285252207
1329,-0.5865103246820749,-1.2138904250560467,-0.054159311487179514,0.4822255240766369
1330,0.9700767807723114,-1.346996621701209,-0.07469600027986184,0.19322736790175885
1331,2.0533271115682576,-1.190996591004512,-0.11046151603594448,-0.4352239420776739
1332,0.72192915908545,-0.8455708442306178,-0.1068849644603363,-0.7190697643603424
1333,-0.9686890762365219,-0.6034453747455035,-0.04131485224085152,-0.529301589594656
1334,-1.4552517688852842,-0.43969782325214785,0.06598169502739627,0.06360439522418032
1335,-0.7627789553087336,-0.43076613862523744,0.1521711290251961,0.46429249320639193
1336,1.6659294394600175,-0.5200829848943403,0.279754266960513,0.6097374865611934
1337,2.853070187480504,-0.4571810659586252,0.2809236268415219,0.3392233202963924
1338,1.6309128235664172,-0.5565699764966675,0.1286764938693225,0.037752747902417706
1339,-2.026647001888791,-0.5466310854428635,-0.05656141450466148,-0.027928463437599842
1340,-4.289047493317942,-0.36441808278978605,-0.25699194670278525,-0.03577423689390388
1341,-4.1899078389332765,-0.06625135117565947,-0.3883443130443092,-0.006884945009679448
1342,-1.7754425449348754,0.231915380438467,-0.39100894002056286,-0.08184151633507153
1343,2.304777488395783,0.4141283830915443,-0.35609436220826735,-0.1822022100783378
1344,3.777172493371004,0.42406727414534867,-0.3555667191728099,-0.22607710156493965
1345,2.9196127664951814,0.3246783636073067,-0.27637972705223324,-0.06618670563529738
1346,0.49011611222417656,0.3521908638639612,-0.15923240829821508,0.024595868993671194
1347,-1.5950475012994416,0.3681384452172003,-0.029333436533929096,-0.3251474365434372
1348,-3.143547525120961,0.365477313784485,-0.022230065593530343,-0.7008036024633498
1349,-2.232230626211562,0.34537434111983256,-0.04043377959459659,-0.8221427248371564
1350,1.574662870427839,0.28874281282385317,0.04342292574951327,-0.5926345166876443
1351,4.9365745779877965,0.21346048713414928,0.24446205675134125,-0.07574018177321613
1352,7.524314919647752,0.1310859001688518,0.6611649986951501,0.34939436353066955
1353,5.94224545447116,0.07212831675525797,0.8847857256485703,0.36250149050862357
1354,-1.015910560966027,0.1056109982405894,0.6599586509215646,0.22090576926648856
1355,-6.757458676590245,0.23082192066323037,0.10009597569983034,0.27537887561269864
1356,-7.61938476626689,0.20934134341437066,-0.6704844102516836,0.20290753499942893
1357,-3.7252011707149855,-0.05102721821343528,-1.0077003256290125,0.21081243195448007
1358,1.838999754633385,-0.769374178302011,-0.7004618589011912,0.3165452899892163
1359,6.426783457829055,-1.3959330780491734,-0.0032150109082108858,0.671262957064369
1360,4.065765492133196,-1.2850956520733163,0.7464962477470581,0.9108188450066866
1361,-0.7726184793892998,-0.4833319931269179,1.0494863636536274,0.8376645890482014
1362,-4.288545297233638,0.764731722761974,0.714759577814277,0.37720546014750506
1363,-6.231100169429365,1.4991358050140666,0.05074021775932383,0.03534767527090388
1364,-2.2640357595120313,1.4417698958374738,-0.592744161283758,0.15349778822997956
1365,2.797302026590323,0.7739027427997917,-0.9087350779281889,0.7346754219521321
1366,6.408054519619693,0.24201259731479421,-0.6384249972588474,1.320372193669494
1367,3.4651685355579196,0.08868645087621095,0.007810735744232071,1.2953479959947627
1368,-0.7086306766074313,0.06448934400346261,0.5292794529972094,0.8266088426533973
1369,-6.4861985659947905,0.05486865384257874,0.8042564368407953,0.11226887357342083
1370,-7.280485525139857,-0.26258061272622135,0.5201478769541621,-0.12612676037760287
1371,-0.6785104993363074,-0.5289718868433155,-0.02024363091007552,0.20641470902071268
1372,4.886291416904233,-0.6917665543593172,-0.18166403586861057,0.8200679045990978
1373,7.51225977168893,-0.700646263496554,-0.09189127885430255,1.1590756238872213
1374,4.520519091632335,-0.6118491721241894,0.250242516758863,1.1857786435992188
1375,0.12152827145876034,-0.548715696939396,0.5277236267642813,0.9230027784846517
1376,-5.128949269517461,-0.8269132138661408,0.38598075132046916,0.8103964476671579
1377,-4.732717317391172,-0.7990934621734669,0.04035139842416828,0.8340947457906761
1378,-1.603121692639423,-0.2890646811411018,-0.26421191612976014,0.6836559954502099
1379,2.188355973004641,0.4450448619732999,-0.4110860277033896,0.31027496182812075
1380,5.051857894021514,1.5810864357510281,-0.22247554924117632,-0.0415784738906669
1381,4.741198187633932,2.0609703144836438,0.0716941816695096,-0.2566000179410372
1382,0.8374950879177445,1.5361335240142449,0.26187090551995523,-0.2683284657983303
1383,-3.7131017535860806,0.3581322833220342,0.2852187879777781,-0.15104398722540127
1384,-5.452981417727281,-0.4671123157092563,0.175459379679632,-0.17230560301115289
1385,-4.903520536214694,-1.0184058543032248,0.05102434484551689,-0.22580523422682705
1386,-2.7196165840099162,-1.0235623578543758,0.03284828859307683,-0.22045527110525975
1387,-1.987054495423928,-0.6812232278137194,0.09061744782075616,-0.12237261387652386
1388,-1.893110843174812,-0.6790721198058634,0.07278131923347193,-0.02140578458551024
1389,-2.179721432010956,-0.8393157469488401,0.07819132797803868,0.317689302129538
1390,-2.1134287794190403,-0.8194295407915776,0.07765032710358202,0.4202950944540431
1391,-1.9814804537898738,-0.49346752900474244,0.06773197773854299,0.06821975036328592
1392,-1.7333872669689847,0.06677189389700332,0.05150195150484274,-0.6012523312592767
1393,-1.9466963346826374,0.6147041837817723,0.035271925271142514,-1.058605454868142
1394,-2.4049620549700585,0.9775875946195364,0.02535357590610349,-1.0345134278884838
1395,-1.7147156967767376,0.993781660871707,0.02481257503164681,-0.196812699907925
1396,0.6680834908055248,0.7658488021353603,0.030222583776213546,0.6419502855260477
1397,4.3870810017411275,0.7577187206562602,0.004942546824505869,0.6755895474601579
1398,5.858619275937649,0.63228748608269,0.07537264893506213,0.24674091548301588
1399,4.0995316812135885,0.7860987374630429,0.09069621257096196,-0.5323541074096282
1400,-0.8871778142882901,0.6775805052870055,-0.10552536283925697,-0.9145294239520823
1401,-4.692874122380781,0.40425976935516994,-0.3101056970168391,-0.5854222407525439
1402,-5.143649826231586,0.06060526097279656,-0.39837984719025354,0.02034905905496605
1403,-3.0216365506952076,-0.1708431817031072,-0.32620253643700914,0.2719063515985484
1404,-0.4533227054533804,-0.20784161875520396,-0.13194638202546755,0.3459386652896072
1405,0.338987344234007,-0.06038518251129865,0.06149987624334245,0.1734079335076712
1406,0.39880864027530355,0.11523844613052252,0.04473314769391044,-0.08260292160641036
1407,-0.1994043201376519,-0.029840650833288872,-0.022366573846955236,-0.041441247273278976
1408,-0.02887955519331903,-0.00847248501194812,-0.008787316826203546,-0.00793936874964691
1409,0.04251937122240736,0.04341907541376569,0.045264179114514844,0.017440984882156278
1410,-0.03832195022850571,0.016180513544001934,0.03448376386122898,0.0517207258843775
1411,-0.12789178725856226,-0.06404915505111627,-0.1281466027507445,-0.019000404693678613
1412,-0.4849861045178232,-0.4808784065423698,-0.4802408331882082,-0.3707750610342933
1413,-1.460219190158327,-0.6813100603299653,-0.5727004712199185,-0.9627520447503394
1414,-2.4568848210158514,-0.4753396547182226,-0.31797486577929956,-0.9701741816250662
1415,-0.4508856145914719,0.21187519269820876,0.35698361493668745,-0.08109578282899985
1416,2.1294191932855804,1.0296904723934455,1.0433022300436121,1.6496914702071568
1417,3.765861432760487,1.1944503203748809,0.9441400577676868,2.8220980002977916
1418,2.9815247402897413,0.5565306300198776,0.25184297897663477,2.3217260835280906
1419,-0.4986469421005518,-0.464703484288111,-0.4384161126925583,0.21198168208387547
1420,-3.9954199152872807,-1.2202241745661828,-0.5062061024042848,-2.4370743262947636
1421,-4.562615215721647,-1.1937839583351675,-0.027775697465494936,-3.3158181930532806
1422,-2.421173432821873,0.022843227821052872,0.7631962048723293,-2.2895391721847735
1423,-0.9379001779926142,1.229043019615573,1.1556405221745305,-0.10657041970294648
1424,0.4805256841310485,1.8943373484655261,0.7125751373829378,1.7944630180967036
1425,0.6477414640655692,1.154622643112037,0.021274457172927044,2.3133935682561764
1426,0.34290757622800216,-0.15157751158721694,-0.6855305354554118,1.068424790446297
1427,0.3817584984600252,-1.634538237555629,-0.7483702907550226,-0.4612510375072148
1428,0.03365946246927237,-1.7895345580866513,0.18816741216288746,-1.0804143793642405
1429,0.3602941262260273,-0.4313245066807484,1.6406051176671546,-0.7380312092049978
1430,0.8601876962645386,0.9005246075604002,1.8825418019649645,0.3160087868921914
1431,1.3810234985303518,1.5065703924087646,0.7633915393733334,1.4392184332902138
1432,1.368462031532104,0.8737667944360019,-1.9143647425059953,1.3996322340174128
1433,0.5163025415575327,0.04883375105006602,-3.9990735411933187,0.3778342032618228
1434,-0.791764532178992,-1.019332232428536,-3.48728166225772,-0.5891540374005788
1435,-1.4267529346630248,-0.9285107967864069,-0.7172307109924394,-1.3662317588143926
1436,-0.2794553563684958,-0.34791547049882626,3.247226259704079,-0.8712760455396715
1437,0.6909751986408421,0.16416252957828012,4.755619883320283,0.14755600488622808
1438,2.17889448038,0.6173777517712153,3.358153739139457,0.8837465902470124
1439,0.8520697101029726,0.6830958043042289,-0.33387232889332297,0.5794668486521648
1440,-1.4843784027296993,0.3630224274113143,-3.5915036158904226,-0.33408597395058415
1441,-3.387289611919991,-0.16811806658815517,-4.47533580029431,-1.1616989641522277
1442,-2.679557142587386,-0.32063021118589374,-2.8006012643468554,-1.30471779986107
1443,0.37299766921465,-0.25182435094948213,0.12480219053337156,-0.5131397905283176
