timestamps,TP9,AF7,AF8,TP10,Right AUX
1728700030.125,-38.086,-29.785,-28.809,-30.273,0.000
1728700030.129,12.695,-28.809,-29.297,-0.977,0.000
1728700030.133,10.254,-26.855,-32.227,-5.371,0.000
1728700030.137,-8.789,-26.855,-27.344,-26.367,0.000
1728700030.141,-31.250,-24.414,-25.391,-40.527,0.000
1728700030.145,-24.414,-25.879,-25.879,-15.625,0.000
1728700030.149,-0.977,-32.227,-20.020,8.789,0.000
1728700030.153,3.418,-24.414,-19.531,5.371,0.000
1728700030.156,-14.648,-22.949,-22.949,-12.207,0.000
1728700030.160,-47.363,-27.832,-27.344,-39.551,0.000
1728700030.164,-40.039,-25.391,-28.809,-26.855,0.000
1728700030.168,-1.953,-22.949,-27.832,8.789,0.000
1728700030.172,7.324,-21.484,-26.855,12.695,0.000
1728700030.176,-9.766,-23.926,-27.832,-11.719,0.000
1728700030.180,-39.551,-32.715,-33.203,-43.457,0.000
1728700030.184,-28.320,-31.738,-27.832,-29.785,0.000
1728700030.188,8.301,-28.320,-22.461,6.348,0.000
1728700030.192,10.742,-28.320,-25.879,-2.441,0.000
1728700030.196,2.441,-24.902,-25.391,-21.973,0.000
1728700030.199,-19.043,-28.320,-22.949,-41.504,0.000
1728700030.203,-35.645,-35.156,-27.832,-41.504,0.000
1728700030.207,-24.902,-35.156,-35.156,-17.578,0.000
1728700030.211,-11.230,-34.180,-25.391,-9.277,0.000
1728700030.215,-9.766,-25.391,-23.438,-15.625,0.000
1728700030.219,-41.016,-20.996,-26.367,-45.410,0.000
1728700030.223,-56.152,-22.949,-21.973,-56.641,0.000
1728700030.227,-18.555,-23.926,-20.020,-25.879,0.000
1728700030.231,1.465,-26.367,-25.391,-5.859,0.000
1728700030.235,-9.277,-28.809,-30.273,-14.160,0.000
1728700030.239,-32.715,-33.691,-28.320,-41.992,0.000
1728700030.242,-43.945,-30.273,-28.320,-54.688,0.000
1728700030.246,-23.926,-29.785,-32.227,-20.996,0.000
1728700030.250,-5.859,-37.109,-31.250,-5.859,0.000
1728700030.254,-13.672,-37.109,-28.320,-20.508,0.000
1728700030.258,-40.527,-32.227,-33.691,-46.875,0.000
1728700030.262,-59.570,-29.297,-34.668,-57.129,0.000
1728700030.266,-31.738,-25.879,-32.227,-20.020,0.000
1728700030.270,-5.371,-25.391,-37.598,-1.953,0.000
1728700030.274,-1.465,-21.973,-31.738,-11.719,0.000
1728700030.278,-26.855,-18.066,-20.020,-37.109,0.000
1728700030.281,-59.570,-20.996,-26.367,-55.664,0.000
1728700030.285,-31.738,-18.555,-32.227,-28.809,0.000
1728700030.289,-2.930,-19.531,-24.902,-4.883,0.000
1728700030.293,-4.883,-24.414,-20.020,-6.348,0.000
1728700030.297,-23.438,-23.926,-26.855,-32.715,0.000
1728700030.301,-55.176,-24.902,-26.855,-62.012,0.000
1728700030.305,-48.828,-30.762,-23.438,-34.180,0.000
1728700030.309,-20.020,-31.250,-24.902,-8.301,0.000
1728700030.313,-15.137,-24.414,-28.320,-19.531,0.000
1728700030.317,-31.738,-27.832,-29.297,-39.062,0.000
1728700030.321,-54.199,-29.297,-27.832,-56.152,0.000
1728700030.324,-47.363,-29.785,-26.855,-34.668,0.000
1728700030.328,-15.625,-29.785,-15.625,-4.395,0.000
1728700030.332,-8.789,-31.250,-20.020,-4.883,0.000
1728700030.336,-25.391,-39.062,-27.344,-24.902,0.000
1728700030.340,-55.176,-40.039,-29.297,-61.523,0.000
1728700030.344,-52.734,-38.574,-26.367,-54.199,0.000
1728700030.348,-16.113,-42.969,-26.367,-21.484,0.000
1728700030.352,-4.883,-41.016,-33.203,-20.996,0.000
1728700030.356,-22.461,-39.551,-36.621,-33.203,0.000
1728700030.360,-56.152,-37.598,-31.250,-57.617,0.000
1728700030.363,-54.688,-33.203,-28.320,-46.387,0.000
1728700030.367,-21.973,-30.273,-30.762,-11.230,0.000
1728700030.371,-13.672,-31.250,-35.645,-14.160,0.000
1728700030.375,-30.762,-41.992,-37.109,-29.785,0.000
1728700030.379,-56.152,-44.922,-29.785,-41.992,0.000
1728700030.383,-59.570,-40.039,-31.250,-38.574,0.000
1728700030.387,-30.273,-40.527,-32.715,-8.789,0.000
1728700030.391,-13.184,-36.133,-33.691,-9.766,0.000
1728700030.395,-21.484,-37.109,-36.621,-17.578,0.000
1728700030.399,-50.293,-38.574,-37.109,-25.879,0.000
1728700030.403,-52.246,-33.203,-34.180,-32.715,0.000
1728700030.406,-14.648,-30.762,-28.809,-4.395,0.000
1728700030.410,4.395,-29.297,-29.785,1.953,0.000
1728700030.414,-13.672,-30.273,-29.297,-11.719,0.000
1728700030.418,-44.434,-33.691,-31.738,-39.062,0.000
1728700030.422,-51.758,-35.156,-31.250,-48.340,0.000
1728700030.426,-24.414,-38.086,-26.855,-8.789,0.000
1728700030.430,-10.254,-37.598,-24.902,2.441,0.000
1728700030.434,-20.508,-35.645,-28.809,-21.484,0.000
1728700030.438,-44.922,-36.621,-31.250,-53.223,0.000
1728700030.442,-56.641,-38.086,-28.809,-58.594,0.000
1728700030.446,-27.344,-39.062,-29.297,-29.297,0.000
1728700030.449,-11.230,-37.109,-29.297,-19.531,0.000
1728700030.453,-20.020,-37.109,-30.762,-20.996,0.000
1728700030.457,-32.227,-41.016,-34.180,-39.551,0.000
1728700030.461,-54.688,-40.527,-38.574,-58.594,0.000
1728700030.465,-35.645,-36.133,-31.738,-28.320,0.000
1728700030.469,-6.836,-33.203,-24.902,2.441,0.000
1728700030.473,-5.371,-33.691,-29.785,-1.465,0.000
1728700030.477,-22.949,-34.668,-35.645,-27.832,0.000
1728700030.481,-54.688,-28.320,-30.762,-57.617,0.000
1728700030.485,-36.621,-28.320,-28.809,-26.855,0.000
1728700030.489,-4.395,-36.133,-31.250,3.906,0.000
1728700030.492,-9.277,-37.109,-36.621,-5.859,0.000
1728700030.496,-21.484,-32.227,-35.156,-30.762,0.000
1728700030.500,-46.875,-30.273,-30.273,-59.570,0.000
1728700030.504,-42.969,-31.738,-27.832,-31.250,0.000
1728700030.508,-12.695,-34.180,-29.297,0.977,0.000
1728700030.512,-16.602,-35.645,-33.203,-15.137,0.000
1728700030.516,-34.180,-38.574,-29.785,-34.180,0.000
1728700030.520,-57.129,-37.109,-31.250,-52.734,0.000
1728700030.524,-49.316,-38.574,-32.227,-33.203,0.000
1728700030.528,-14.160,-38.086,-26.855,-2.441,0.000
1728700030.531,-11.230,-33.203,-30.762,-0.977,0.000
1728700030.535,-23.926,-32.227,-34.668,-20.996,0.000
1728700030.539,-38.086,-31.250,-37.109,-44.434,0.000
1728700030.543,-29.297,-37.598,-35.645,-24.902,0.000
1728700030.547,-5.371,-37.109,-24.902,1.953,0.000
1728700030.551,-11.230,-41.016,-27.832,-13.184,0.000
1728700030.555,-30.762,-42.480,-29.297,-32.227,0.000
1728700030.559,-59.570,-43.945,-25.879,-53.711,0.000
1728700030.563,-63.477,-46.387,-22.461,-40.527,0.000
1728700030.567,-28.320,-37.598,-27.344,-2.930,0.000
1728700030.571,-11.230,-37.109,-32.227,-3.418,0.000
1728700030.574,-13.672,-36.621,-25.879,-12.207,0.000
1728700030.578,-34.180,-31.250,-24.902,-39.062,0.000
1728700030.582,-41.504,-32.227,-29.785,-49.805,0.000
1728700030.586,-7.324,-33.203,-28.809,-14.648,0.000
1728700030.590,5.859,-27.832,-22.949,-6.348,0.000
1728700030.594,-9.766,-27.832,-20.996,-13.672,0.000
1728700030.598,-34.180,-32.715,-20.020,-40.039,0.000
1728700030.602,-47.852,-37.109,-19.531,-48.828,0.000
1728700030.606,-13.184,-33.691,-21.484,-7.812,0.000
1728700030.610,8.789,-31.250,-22.461,4.395,0.000
1728700030.614,-5.371,-33.691,-21.973,-9.277,0.000
1728700030.617,-29.785,-32.715,-23.438,-30.273,0.000
1728700030.621,-44.434,-38.574,-22.949,-33.691,0.000
1728700030.625,-21.973,-40.039,-24.902,-2.930,0.000
1728700030.629,2.930,-33.691,-27.832,7.324,0.000
1728700030.633,10.254,-28.320,-26.367,2.441,0.000
1728700030.637,-22.949,-26.855,-27.832,-24.902,0.000
1728700030.641,-49.805,-32.715,-26.855,-41.992,0.000
1728700030.645,-18.555,-35.645,-29.785,-8.789,0.000
1728700030.649,5.371,-30.762,-26.367,5.859,0.000
1728700030.653,-1.953,-35.645,-20.996,-2.930,0.000
1728700030.656,-20.020,-34.180,-23.926,-25.391,0.000
1728700030.660,-42.480,-24.902,-26.855,-47.852,0.000
1728700030.664,-19.531,-29.785,-33.203,-11.719,0.000
1728700030.668,15.137,-26.367,-32.715,18.066,0.000
1728700030.672,5.371,-25.391,-30.273,0.977,0.000
1728700030.676,-17.578,-32.715,-31.250,-15.137,0.000
1728700030.680,-41.504,-26.855,-31.250,-34.668,0.000
1728700030.684,-27.344,-24.902,-31.250,-21.484,0.000
1728700030.688,1.953,-29.297,-24.902,2.930,0.000
1728700030.692,-0.977,-29.297,-25.879,-5.859,0.000
1728700030.695,-18.066,-30.762,-33.691,-31.250,0.000
1728700030.699,-43.945,-28.320,-32.227,-55.176,0.000
1728700030.703,-27.832,-19.531,-30.762,-27.344,0.000
1728700030.707,11.719,-21.973,-38.574,12.695,0.000
1728700030.711,20.508,-23.438,-37.598,32.227,0.000
1728700030.715,-12.695,-29.785,-23.926,-8.301,0.000
1728700030.719,-65.918,-37.598,-28.809,-74.219,0.000
1728700030.723,-58.594,-35.156,-45.898,-50.781,0.000
1728700030.727,-29.297,-37.598,-34.180,-18.555,0.000
1728700030.731,-34.668,-38.574,-26.367,-36.133,0.000
1728700030.735,-58.105,-40.039,-22.949,-68.359,0.000
1728700030.738,-101.074,-48.828,-11.719,-104.004,0.000
1728700030.742,-115.234,-62.012,-5.371,-98.145,0.000
1728700030.746,-86.426,-63.965,0.000,-62.500,0.000
1728700030.750,-81.055,-62.988,2.441,-74.219,0.000
1728700030.754,-98.145,-67.383,4.883,-93.262,0.000
1728700030.758,-131.836,-71.777,-3.418,-116.211,0.000
1728700030.762,-148.438,-73.242,-35.156,-117.676,0.000
1728700030.766,-114.258,-72.754,-39.062,-76.660,0.000
1728700030.770,-118.164,-79.102,-6.836,-81.543,0.000
1728700030.774,-133.789,-83.984,13.672,-97.656,0.000
1728700030.777,-141.602,-83.008,21.973,-114.258,0.000
1728700030.781,-149.902,-85.449,18.555,-114.746,0.000
1728700030.785,-115.234,-83.984,-3.906,-71.289,0.000
1728700030.789,-83.496,-78.125,-8.301,-48.828,0.000
1728700030.793,-83.984,-73.730,9.277,-58.105,0.000
1728700030.797,-99.121,-71.289,0.488,-77.148,0.000
1728700030.801,-100.586,-68.848,-20.508,-80.078,0.000
1728700030.805,-74.219,-63.477,-46.387,-45.898,0.000
1728700030.809,-62.988,-60.547,-42.969,-33.203,0.000
1728700030.813,-59.570,-62.500,-18.555,-41.504,0.000
1728700030.817,-71.289,-64.941,-15.137,-59.082,0.000
1728700030.820,-89.355,-63.477,-10.742,-69.336,0.000
1728700030.824,-56.641,-59.082,-8.301,-34.668,0.000
1728700030.828,-29.785,-59.082,-1.465,-12.695,0.000
1728700030.832,-30.762,-61.523,1.465,-19.043,0.000
1728700030.836,-41.016,-54.688,-31.250,-35.645,0.000
1728700030.840,-65.430,-48.828,-31.250,-52.246,0.000
1728700030.844,-56.152,-59.570,-5.859,-27.832,0.000
1728700030.848,-34.668,-57.129,-13.672,-17.578,0.000
1728700030.852,-33.691,-52.246,-15.625,-27.344,0.000
1728700030.856,-52.734,-52.734,-21.973,-43.945,0.000
1728700030.860,-72.754,-47.852,-28.320,-65.918,0.000
1728700030.863,-48.340,-44.434,-23.926,-27.832,0.000
1728700030.867,-20.996,-43.457,-26.855,-5.859,0.000
1728700030.871,-12.695,-47.852,-21.484,-12.207,0.000
1728700030.875,-20.508,-49.316,-27.344,-20.996,0.000
1728700030.879,-53.711,-50.293,-59.082,-47.363,0.000
1728700030.883,-37.109,-48.828,-43.945,-26.855,0.000
1728700030.887,6.348,-45.898,-21.484,8.789,0.000
1728700030.891,7.812,-48.828,-19.531,6.348,0.000
1728700030.895,-10.742,-47.363,2.441,-7.324,0.000
1728700030.899,-36.133,-44.922,0.000,-30.762,0.000
1728700030.903,-28.320,-44.434,-19.531,-17.578,0.000
1728700030.906,4.395,-38.574,-27.832,11.230,0.000
1728700030.910,5.859,-40.039,-22.461,-0.488,0.000
1728700030.914,-7.812,-41.504,-32.715,-12.695,0.000
1728700030.918,-30.762,-40.527,-49.805,-29.297,0.000
1728700030.922,-38.574,-41.016,-28.809,-27.344,0.000
1728700030.926,-11.230,-44.434,-17.578,2.930,0.000
1728700030.930,9.277,-39.551,-11.230,15.137,0.000
1728700030.934,10.254,-34.180,-33.691,11.719,0.000
1728700030.938,-19.531,-38.086,-41.992,-21.973,0.000
1728700030.942,-38.086,-41.992,5.371,-33.203,0.000
1728700030.945,-5.371,-44.434,24.902,-1.465,0.000
1728700030.949,11.230,-39.062,22.461,10.742,0.000
1728700030.953,11.230,-35.156,-47.363,16.602,0.000
1728700030.957,-22.461,-37.598,-83.984,-15.137,0.000
1728700030.961,-50.781,-37.109,-1.953,-40.039,0.000
1728700030.965,-22.461,-37.109,22.461,-13.184,0.000
1728700030.969,12.695,-27.832,-38.574,14.160,0.000
1728700030.973,24.414,-11.230,-63.965,18.066,0.000
1728700030.977,-33.691,-30.273,0.977,-29.297,0.000
1728700030.981,-63.965,-57.617,59.570,-55.176,0.000
1728700030.985,-10.742,-37.598,27.344,-9.277,0.000
1728700030.988,33.691,-41.504,-48.828,27.344,0.000
1728700030.992,26.855,-51.758,-66.895,8.789,0.000
1728700030.996,4.395,-16.602,-77.148,-3.418,0.000
1728700031.000,20.508,-30.273,-169.922,23.926,0.000
1728700031.004,79.102,-89.844,-148.926,83.496,0.000
1728700031.008,152.832,-38.574,-100.586,153.809,0.000
1728700031.012,177.246,-40.527,-321.777,157.715,0.000
1728700031.016,169.434,-123.535,-106.934,140.137,0.000
1728700031.020,134.766,-100.586,350.098,128.418,0.000
1728700031.024,65.918,-2.930,336.914,75.195,0.000
1728700031.027,2.930,95.215,97.656,-1.953,0.000
1728700031.031,22.949,-7.324,73.730,15.137,0.000
1728700031.035,-54.199,-1.465,261.719,-61.523,0.000
1728700031.039,-139.160,218.750,90.820,-160.645,0.000
1728700031.043,-4.395,211.426,-68.848,-35.645,0.000
1728700031.047,19.043,189.941,430.664,-23.438,0.000
1728700031.051,-6.836,237.305,519.531,-46.875,0.000
1728700031.055,43.457,156.250,308.105,11.230,0.000
1728700031.059,-39.551,339.355,580.566,-63.477,0.000
1728700031.063,0.000,479.980,606.445,-232.910,0.000
1728700031.067,0.000,354.980,395.508,-101.562,0.000
1728700031.070,0.000,458.008,416.992,25.879,0.000
1728700031.074,0.000,478.516,535.645,-92.285,0.000
1728700031.078,0.000,462.402,551.758,-227.051,0.000
1728700031.082,0.000,593.262,752.441,-321.777,0.000
1728700031.086,0.000,540.039,798.340,-276.855,0.000
1728700031.090,0.000,511.230,750.000,-156.738,0.000
1728700031.094,0.000,642.578,607.422,-104.004,0.000
1728700031.098,0.000,609.863,676.270,-199.219,0.000
1728700031.102,0.000,443.848,975.586,-254.395,0.000
1728700031.106,0.000,624.512,945.312,-290.527,0.000
1728700031.109,-290.039,706.543,810.059,-310.059,0.000
1728700031.113,-265.137,625.977,771.973,-278.320,0.000
1728700031.117,-266.602,571.777,916.016,-280.762,0.000
1728700031.121,-250.000,545.898,939.941,-250.977,0.000
1728700031.125,-250.000,584.961,957.520,-238.281,0.000
1728700031.129,-293.457,553.223,971.680,-276.367,0.000
1728700031.133,-276.855,529.297,966.309,-264.160,0.000
1728700031.137,-242.188,482.910,968.750,-230.957,0.000
1728700031.141,-225.098,479.004,968.262,-207.031,0.000
1728700031.145,-224.609,574.219,968.262,-200.195,0.000
1728700031.149,-246.094,565.918,968.262,-230.469,0.000
1728700031.152,-223.145,503.418,968.262,-221.191,0.000
1728700031.156,-204.102,540.527,968.262,-198.730,0.000
1728700031.160,-238.770,532.715,967.773,-225.586,0.000
1728700031.164,-228.027,467.773,967.773,-209.473,0.000
1728700031.168,-187.500,436.523,968.262,-175.293,0.000
1728700031.172,-176.270,416.504,967.773,-177.246,0.000
1728700031.176,-182.129,381.836,966.309,-189.941,0.000
1728700031.180,-188.965,359.375,972.168,-181.152,0.000
1728700031.184,-154.297,356.445,929.688,-120.117,0.000
1728700031.188,-113.770,306.641,875.000,-88.379,0.000
1728700031.192,-111.816,295.898,833.496,-101.562,0.000
1728700031.195,-141.113,342.773,829.102,-128.906,0.000
1728700031.199,-153.809,332.031,826.172,-149.902,0.000
1728700031.203,-115.723,299.805,768.066,-103.516,0.000
1728700031.207,-91.309,272.461,719.238,-82.520,0.000
1728700031.211,-92.773,257.812,672.363,-88.379,0.000
1728700031.215,-94.727,257.324,617.188,-95.703,0.000
1728700031.219,-105.469,251.465,585.938,-105.957,0.000
1728700031.223,-82.520,242.676,558.594,-75.195,0.000
1728700031.227,-47.852,235.352,500.977,-59.082,0.000
1728700031.231,-40.527,229.004,442.871,-59.082,0.000
1728700031.234,-54.199,219.238,400.879,-65.918,0.000
1728700031.238,-73.242,212.402,360.352,-85.938,0.000
1728700031.242,-63.477,205.566,312.988,-68.359,0.000
1728700031.246,-27.832,200.684,291.016,-32.715,0.000
1728700031.250,-22.461,191.895,250.000,-24.414,0.000
1728700031.254,-39.551,184.082,187.012,-37.109,0.000
1728700031.258,-55.176,180.664,167.480,-51.270,0.000
1728700031.262,-50.781,172.363,158.203,-33.203,0.000
1728700031.266,-20.020,159.180,122.070,-10.254,0.000
1728700031.270,3.418,151.855,69.824,6.836,0.000
1728700031.274,-7.812,142.578,37.598,-2.441,0.000
1728700031.277,-35.645,131.348,18.555,-28.809,0.000
1728700031.281,-18.555,122.070,-46.875,1.465,0.000
1728700031.285,15.625,108.887,-82.520,27.344,0.000
1728700031.289,17.578,94.238,-27.832,8.789,0.000
1728700031.293,15.137,81.055,-19.043,0.000,0.000
1728700031.297,-5.859,68.848,-62.500,-17.578,0.000
1728700031.301,-13.184,57.617,-98.145,-8.789,0.000
1728700031.305,15.137,47.852,-144.043,28.320,0.000
1728700031.309,30.762,39.062,-181.152,36.621,0.000
1728700031.313,25.391,27.832,-173.828,30.762,0.000
1728700031.317,-6.836,8.301,-181.152,-5.371,0.000
1728700031.320,-15.625,-14.648,-188.965,-1.465,0.000
1728700031.324,12.695,-31.738,-179.688,36.133,0.000
1728700031.328,33.203,-43.945,-184.082,47.363,0.000
1728700031.332,30.762,-60.547,-200.684,35.156,0.000
1728700031.336,3.418,-83.008,-209.961,1.465,0.000
1728700031.340,-8.301,-97.168,-208.008,-1.465,0.000
1728700031.344,25.879,-110.352,-216.309,27.344,0.000
1728700031.348,51.270,-120.605,-227.539,40.527,0.000
1728700031.352,36.133,-131.348,-231.445,38.086,0.000
1728700031.356,17.090,-143.066,-246.094,7.812,0.000
1728700031.359,5.371,-152.344,-263.184,-5.371,0.000
1728700031.363,25.879,-157.227,-258.301,35.645,0.000
1728700031.367,45.410,-161.621,-255.859,49.805,0.000
1728700031.371,35.156,-178.223,-243.652,42.969,0.000
1728700031.375,8.789,-190.918,-243.164,15.137,0.000
1728700031.379,-5.859,-200.195,-251.465,-5.859,0.000
1728700031.383,25.391,-210.938,-264.648,33.203,0.000
1728700031.387,40.039,-221.191,-274.414,44.434,0.000
1728700031.391,30.762,-233.398,-255.371,28.809,0.000
1728700031.395,7.812,-249.023,-246.094,8.301,0.000
1728700031.399,-15.625,-259.277,-254.395,-8.789,0.000
1728700031.402,5.859,-266.113,-256.348,32.715,0.000
1728700031.406,37.598,-269.043,-261.719,60.059,0.000
1728700031.410,39.062,-272.461,-282.715,38.574,0.000
1728700031.414,18.555,-281.738,-303.711,13.184,0.000
1728700031.418,-0.977,-286.133,-311.035,2.930,0.000
1728700031.422,2.930,-283.203,-270.508,24.414,0.000
1728700031.426,29.785,-278.809,-240.234,41.504,0.000
1728700031.430,41.504,-282.227,-248.047,40.527,0.000
1728700031.434,23.926,-282.715,-265.625,25.879,0.000
1728700031.438,-4.883,-272.461,-287.598,2.930,0.000
1728700031.441,5.859,-270.020,-295.898,20.020,0.000
1728700031.445,43.457,-267.090,-279.785,41.992,0.000
1728700031.449,50.781,-260.742,-274.414,44.922,0.000
1728700031.453,32.715,-263.672,-300.781,31.738,0.000
1728700031.457,-1.953,-268.066,-286.621,-12.695,0.000
1728700031.461,2.441,-266.113,-271.484,-0.977,0.000
1728700031.465,37.109,-259.766,-274.902,39.062,0.000
1728700031.469,42.480,-258.301,-260.742,37.109,0.000
1728700031.473,30.273,-259.766,-268.555,24.414,0.000
1728700031.477,-0.977,-261.719,-258.789,-14.648,0.000
1728700031.481,-1.953,-250.977,-236.816,-12.695,0.000
1728700031.484,32.715,-239.746,-248.535,30.273,0.000
1728700031.488,50.293,-241.211,-269.043,37.598,0.000
1728700031.492,40.527,-240.234,-260.254,23.926,0.000
1728700031.496,-3.418,-244.141,-255.371,-8.301,0.000
1728700031.500,-21.973,-236.328,-251.465,-14.160,0.000
1728700031.504,2.441,-225.586,-243.164,22.461,0.000
1728700031.508,20.020,-230.469,-250.000,35.645,0.000
1728700031.512,13.184,-235.352,-243.164,8.301,0.000
1728700031.516,-17.578,-234.863,-245.117,-22.461,0.000
1728700031.520,-16.602,-222.656,-250.000,-10.742,0.000
1728700031.523,16.602,-218.262,-239.746,23.926,0.000
1728700031.527,25.391,-217.285,-246.582,24.902,0.000
1728700031.531,29.297,-210.449,-266.602,22.461,0.000
1728700031.535,15.137,-209.961,-270.996,-8.789,0.000
1728700031.539,-8.789,-208.008,-246.094,-31.738,0.000
1728700031.543,13.672,-200.195,-232.422,2.930,0.000
1728700031.547,27.832,-201.172,-230.469,12.207,0.000
1728700031.551,4.883,-203.613,-208.008,0.977,0.000
1728700031.555,-19.531,-196.289,-191.895,-25.879,0.000
1728700031.559,-33.691,-197.754,-220.703,-26.367,0.000
1728700031.563,-7.812,-198.242,-229.004,7.324,0.000
1728700031.566,20.996,-198.242,-202.148,14.648,0.000
1728700031.570,13.672,-192.871,-197.266,8.789,0.000
1728700031.574,-7.812,-186.035,-209.961,-17.578,0.000
1728700031.578,-27.344,-187.012,-221.680,-28.320,0.000
1728700031.582,-7.812,-186.035,-209.961,14.160,0.000
1728700031.586,27.344,-182.129,-207.031,39.062,0.000
1728700031.590,23.438,-175.293,-240.723,18.555,0.000
1728700031.594,-1.953,-166.504,-234.375,-8.301,0.000
1728700031.598,-39.062,-165.039,-202.637,-41.016,0.000
1728700031.602,-31.738,-170.898,-197.266,-27.832,0.000
1728700031.606,1.465,-162.598,-191.406,6.348,0.000
1728700031.609,0.000,-155.762,-183.105,3.906,0.000
1728700031.613,-19.043,-154.785,-172.852,-17.578,0.000
1728700031.617,-47.852,-147.949,-172.363,-46.387,0.000
1728700031.621,-34.668,-146.973,-184.082,-16.113,0.000
1728700031.625,7.812,-136.230,-203.125,14.648,0.000
1728700031.629,20.020,-126.953,-194.336,10.742,0.000
1728700031.633,-1.465,-128.906,-157.227,-10.254,0.000
1728700031.637,-29.785,-127.930,-150.879,-49.805,0.000
1728700031.641,-14.648,-131.836,-153.320,-19.531,0.000
1728700031.645,6.836,-130.371,-160.156,18.066,0.000
1728700031.648,0.000,-125.000,-181.641,10.742,0.000
1728700031.652,-10.254,-125.000,-169.434,-11.230,0.000
1728700031.656,-35.156,-123.535,-154.297,-33.691,0.000
1728700031.660,-40.039,-125.000,-176.758,-24.414,0.000
1728700031.664,-16.113,-122.070,-164.062,-3.418,0.000
1728700031.668,3.418,-116.699,-135.742,1.465,0.000
1728700031.672,-4.395,-116.699,-156.250,-15.625,0.000
1728700031.676,-36.133,-116.211,-195.312,-41.016,0.000
1728700031.680,-31.250,-112.793,-171.387,-26.367,0.000
1728700031.684,0.977,-116.211,-131.348,-4.883,0.000
1728700031.688,7.812,-114.746,-134.277,-7.812,0.000
1728700031.691,-8.301,-107.422,-148.438,-20.508,0.000
1728700031.695,-34.668,-105.469,-154.785,-40.039,0.000
1728700031.699,-33.691,-105.957,-155.273,-32.715,0.000
1728700031.703,-4.395,-107.422,-148.438,1.953,0.000
1728700031.707,-0.977,-104.980,-160.645,2.441,0.000
1728700031.711,-3.906,-96.191,-171.875,-8.789,0.000
1728700031.715,-31.738,-95.703,-159.180,-34.180,0.000
1728700031.719,-59.082,-99.609,-135.742,-48.828,0.000
1728700031.723,-34.180,-100.098,-111.816,-12.207,0.000
1728700031.727,-12.695,-98.145,-111.816,-0.977,0.000
1728700031.730,-20.020,-103.516,-127.441,-9.766,0.000
1728700031.734,-44.922,-103.027,-131.836,-28.320,0.000
1728700031.738,-58.594,-98.145,-145.996,-41.504,0.000
1728700031.742,-32.715,-98.633,-148.438,-13.184,0.000
1728700031.746,-7.324,-98.145,-126.465,10.742,0.000
1728700031.750,-7.324,-95.215,-124.023,2.930,0.000
1728700031.754,-36.621,-92.285,-133.301,-35.645,0.000
1728700031.758,-54.199,-87.891,-125.000,-56.152,0.000
1728700031.762,-21.484,-82.031,-136.230,-16.113,0.000
1728700031.766,4.395,-77.148,-153.809,2.930,0.000
1728700031.770,2.930,-77.637,-133.301,-12.207,0.000
1728700031.773,-17.090,-81.055,-113.770,-27.344,0.000
1728700031.777,-40.039,-77.148,-103.516,-51.270,0.000
1728700031.781,-24.902,-74.707,-107.910,-24.902,0.000
1728700031.785,-5.859,-73.242,-114.258,-1.953,0.000
1728700031.789,-3.906,-69.336,-117.188,-12.695,0.000
1728700031.793,-13.672,-72.266,-120.117,-25.391,0.000
1728700031.797,-39.551,-68.848,-108.398,-51.270,0.000
1728700031.801,-24.902,-62.500,-113.281,-32.227,0.000
1728700031.805,16.602,-60.547,-120.605,3.418,0.000
1728700031.809,14.648,-62.012,-114.258,-3.906,0.000
1728700031.812,-12.695,-65.918,-101.074,-23.438,0.000
1728700031.816,-42.969,-65.430,-93.262,-53.223,0.000
1728700031.820,-39.551,-65.430,-106.934,-35.645,0.000
1728700031.824,-7.812,-67.871,-114.746,2.441,0.000
1728700031.828,3.418,-64.453,-121.094,-0.977,0.000
1728700031.832,-0.977,-57.129,-102.539,-11.719,0.000
1728700031.836,-26.367,-62.500,-85.449,-27.832,0.000
1728700031.840,-33.691,-67.383,-99.121,-22.461,0.000
1728700031.844,-8.301,-63.477,-99.121,-9.766,0.000
1728700031.848,3.418,-62.012,-90.820,-4.883,0.000
1728700031.852,-2.441,-61.523,-90.820,-10.254,0.000
1728700031.855,-32.715,-61.035,-95.215,-39.551,0.000
1728700031.859,0.000,-63.477,-99.121,-32.227,0.000
1728700031.863,0.000,-62.500,-106.934,2.441,0.000
1728700031.867,0.000,-67.383,-102.539,5.859,0.000
1728700031.871,0.000,-70.312,-92.285,0.977,0.000
1728700031.875,0.000,-72.266,-86.914,-29.297,0.000
1728700031.879,0.000,-72.754,-89.355,-21.484,0.000
1728700031.883,0.000,-70.312,-97.656,13.184,0.000
1728700031.887,0.000,-67.383,-99.609,4.395,0.000
1728700031.891,0.000,-64.941,-102.539,-4.395,0.000
1728700031.894,0.000,-62.012,-104.004,-24.414,0.000
1728700031.898,0.000,-58.594,-99.609,-34.180,0.000
1728700031.902,0.000,-56.641,-92.773,-10.254,0.000
1728700031.906,7.812,-55.664,-86.426,0.000,0.000
1728700031.910,-3.418,-59.082,-95.703,-15.137,0.000
1728700031.914,-29.297,-64.453,-122.559,-42.480,0.000
1728700031.918,-39.551,-64.941,-109.863,-43.457,0.000
1728700031.922,-13.184,-64.941,-88.867,-10.254,0.000
1728700031.926,0.000,-74.219,-101.074,-7.324,0.000
1728700031.930,-9.766,-72.266,-91.797,-14.648,0.000
1728700031.934,-32.227,-63.965,-86.426,-31.738,0.000
1728700031.937,-56.641,-66.895,-84.473,-62.012,0.000
1728700031.941,-32.715,-68.848,-91.309,-33.203,0.000
1728700031.945,-3.418,-61.035,-101.074,1.465,0.000
1728700031.949,-7.812,-58.105,-85.449,-1.953,0.000
1728700031.953,-34.180,-64.941,-77.148,-35.645,0.000
1728700031.957,-57.129,-72.754,-84.473,-61.035,0.000
1728700031.961,-36.133,-66.406,-84.961,-32.227,0.000
1728700031.965,-7.812,-60.059,-89.844,-1.953,0.000
1728700031.969,-8.301,-63.965,-91.309,-6.836,0.000
1728700031.973,-29.785,-64.453,-81.055,-30.273,0.000
1728700031.977,-56.152,-65.430,-72.754,-47.852,0.000
1728700031.980,-31.250,-62.500,-86.426,-22.949,0.000
1728700031.984,-5.371,-55.664,-99.609,-1.953,0.000
1728700031.988,-9.277,-49.316,-94.727,-12.207,0.000
1728700031.992,-27.832,-53.711,-82.520,-43.457,0.000
1728700031.996,-57.129,-60.059,-77.148,-73.242,0.000
1728700032.000,-48.340,-60.547,-79.102,-42.969,0.000
1728700032.004,-18.066,-61.523,-78.613,-17.090,0.000
1728700032.008,-17.090,-63.477,-86.426,-15.625,0.000
1728700032.012,-33.203,-65.430,-84.473,-29.297,0.000
1728700032.016,-62.988,-65.918,-96.191,-62.988,0.000
1728700032.020,-53.711,-60.547,-87.402,-43.457,0.000
1728700032.023,-14.648,-59.570,-72.754,-10.742,0.000
1728700032.027,-7.324,-59.082,-78.125,-10.254,0.000
1728700032.031,-18.066,-52.734,-66.895,-15.625,0.000
1728700032.035,-44.922,-56.152,-56.641,-40.039,0.000
1728700032.039,-50.293,-57.129,-64.941,-37.109,0.000
1728700032.043,-14.648,-56.641,-69.336,-2.441,0.000
1728700032.047,10.254,-56.152,-67.871,13.672,0.000
1728700032.051,-6.836,-56.152,-68.848,0.977,0.000
1728700032.055,-35.645,-57.129,-70.801,-36.133,0.000
1728700032.059,-36.621,-52.734,-67.383,-29.785,0.000
1728700032.062,2.930,-52.734,-68.848,20.508,0.000
1728700032.066,38.086,-51.758,-91.309,37.598,0.000
1728700032.070,23.438,-45.898,-104.004,7.812,0.000
1728700032.074,-30.762,-46.387,-86.426,-40.527,0.000
1728700032.078,-47.363,-45.898,-69.336,-37.598,0.000
1728700032.082,-9.277,-46.875,-61.035,4.883,0.000
1728700032.086,7.812,-45.898,-66.406,11.719,0.000
1728700032.090,3.906,-46.875,-69.824,1.465,0.000
1728700032.094,-17.090,-51.270,-73.242,-17.578,0.000
1728700032.098,-23.438,-44.922,-82.031,-20.020,0.000
1728700032.102,14.160,-41.016,-79.102,24.902,0.000
1728700032.105,30.762,-43.945,-75.684,33.203,0.000
1728700032.109,14.648,-47.363,-79.102,15.137,0.000
1728700032.113,-10.254,-49.316,-84.961,-8.789,0.000
1728700032.117,-36.133,-52.246,-94.238,-33.203,0.000
1728700032.121,-8.789,-53.711,-85.938,1.953,0.000
1728700032.125,17.090,-49.316,-84.961,17.090,0.000
1728700032.129,10.742,-40.527,-90.332,-3.418,0.000
1728700032.133,-18.066,-41.016,-70.801,-25.391,0.000
1728700032.137,-45.898,-45.410,-53.223,-54.688,0.000
1728700032.141,-23.926,-46.875,-54.688,-28.809,0.000
1728700032.144,-2.441,-44.434,-71.289,-1.953,0.000
1728700032.148,-1.465,-46.875,-73.242,-12.207,0.000
1728700032.152,-30.273,-55.176,-62.500,-40.039,0.000
1728700032.156,-55.176,-53.711,-62.500,-52.246,0.000
1728700032.160,-25.391,-49.805,-61.523,-22.461,0.000
1728700032.164,1.953,-51.270,-53.711,3.418,0.000
1728700032.168,0.000,-53.711,-60.059,14.648,0.000
1728700032.172,-19.531,-51.270,-59.570,-12.207,0.000
1728700032.176,-46.875,-51.758,-52.734,-41.504,0.000
1728700032.180,-36.133,-54.688,-57.129,-19.531,0.000
1728700032.184,-2.930,-49.316,-60.547,2.930,0.000
1728700032.187,0.977,-50.293,-64.453,-1.465,0.000
1728700032.191,-11.230,-51.270,-67.871,-15.625,0.000
1728700032.195,-42.969,-56.152,-60.547,-42.480,0.000
1728700032.199,-41.992,-65.430,-60.547,-32.715,0.000
1728700032.203,-6.836,-60.059,-68.359,-3.418,0.000
1728700032.207,-6.348,-59.082,-71.777,-0.488,0.000
1728700032.211,-24.902,-61.523,-71.289,-13.184,0.000
1728700032.215,-55.664,-53.223,-62.988,-42.480,0.000
1728700032.219,-52.734,-52.246,-58.105,-30.273,0.000
1728700032.223,-21.973,-54.199,-52.246,-7.324,0.000
1728700032.227,-11.719,-49.316,-66.406,-10.254,0.000
1728700032.230,-15.625,-45.898,-91.309,-12.695,0.000
1728700032.234,-46.875,-48.340,-81.055,-42.480,0.000
1728700032.238,-50.293,-45.410,-73.730,-34.668,0.000
1728700032.242,-8.301,-36.133,-86.426,11.719,0.000
1728700032.246,7.324,-35.645,-64.453,15.137,0.000
1728700032.250,-7.812,-41.992,-65.430,-11.230,0.000
1728700032.254,-35.156,-38.574,-80.566,-42.969,0.000
1728700032.258,-54.688,-41.504,-56.152,-49.805,0.000
1728700032.262,-28.320,-47.363,-39.551,-14.648,0.000
1728700032.266,-10.742,-44.434,-41.992,-2.930,0.000
1728700032.269,-16.602,-46.387,-52.246,-11.719,0.000
1728700032.273,-34.180,-47.363,-58.105,-32.715,0.000
1728700032.277,-53.711,-44.922,-65.430,-46.875,0.000
1728700032.281,-27.832,-42.969,-67.383,-14.160,0.000
1728700032.285,-4.395,-41.016,-60.059,0.977,0.000
1728700032.289,-10.742,-44.434,-56.641,-12.207,0.000
1728700032.293,-38.574,-46.387,-65.430,-42.480,0.000
1728700032.297,-56.152,-47.363,-72.754,-54.688,0.000
1728700032.301,-23.438,-48.828,-72.754,-14.160,0.000
1728700032.305,20.508,-47.852,-83.008,22.461,0.000
1728700032.309,19.531,-48.828,-78.613,21.484,0.000
1728700032.312,-20.020,-46.387,-62.012,-26.855,0.000
1728700032.316,-53.711,-46.387,-53.711,-55.176,0.000
1728700032.320,-36.621,-50.293,-56.152,-25.391,0.000
1728700032.324,0.000,-52.246,-68.359,-6.348,0.000
1728700032.328,-4.395,-58.105,-66.895,-15.137,0.000
1728700032.332,-24.414,-54.688,-69.336,-33.691,0.000
1728700032.336,-40.527,-51.270,-70.312,-44.922,0.000
1728700032.340,-25.391,-46.387,-65.430,-16.602,0.000
1728700032.344,7.324,-45.898,-75.195,7.324,0.000
1728700032.348,11.719,-48.828,-76.172,4.395,0.000
1728700032.352,-9.766,-46.387,-75.684,-20.508,0.000
1728700032.355,-39.062,-49.805,-83.984,-42.969,0.000
1728700032.359,-26.855,-50.781,-70.312,-19.531,0.000
1728700032.363,0.488,-45.410,-60.059,6.836,0.000
1728700032.367,2.441,-45.410,-77.637,0.977,0.000
1728700032.371,-10.254,-43.945,-80.078,-23.926,0.000
1728700032.375,-35.156,-38.574,-65.918,-43.945,0.000
1728700032.379,-33.691,-41.992,-58.105,-25.391,0.000
1728700032.383,0.977,-39.062,-63.477,-0.488,0.000
1728700032.387,9.277,-41.992,-66.406,-5.859,0.000
1728700032.391,-17.578,-48.340,-63.965,-32.715,0.000
1728700032.395,-43.457,-49.316,-62.988,-61.035,0.000
1728700032.398,-32.227,-52.246,-62.012,-40.039,0.000
1728700032.402,2.441,-44.434,-58.105,-3.906,0.000
1728700032.406,12.207,-41.504,-56.641,1.953,0.000
1728700032.410,-4.395,-41.992,-74.707,-8.789,0.000
1728700032.414,-33.203,-41.504,-82.520,-39.551,0.000
1728700032.418,-34.668,-42.480,-76.172,-34.180,0.000
1728700032.422,-7.324,-45.898,-66.406,-1.953,0.000
1728700032.426,1.953,-51.758,-52.246,0.000,0.000
1728700032.430,-17.578,-51.758,-48.340,-22.461,0.000
1728700032.434,-43.945,-53.223,-55.176,-55.664,0.000
1728700032.438,-41.016,-52.246,-57.129,-47.363,0.000
1728700032.441,-13.184,-44.922,-55.664,-18.555,0.000
1728700032.445,-4.395,-44.434,-66.406,-16.113,0.000
1728700032.449,-11.719,-43.945,-66.895,-13.672,0.000
1728700032.453,-35.645,-42.969,-59.570,-40.039,0.000
1728700032.457,-48.828,-42.969,-70.312,-56.641,0.000
1728700032.461,-13.184,-35.645,-84.473,-14.648,0.000
1728700032.465,7.324,-29.785,-68.359,0.000,0.000
1728700032.469,-2.441,-31.250,-51.270,-11.719,0.000
1728700032.473,-27.344,-31.250,-49.805,-38.086,0.000
1728700032.477,-45.898,-36.133,-42.969,-52.734,0.000
1728700032.480,-18.555,-43.457,-45.898,-16.113,0.000
1728700032.484,6.348,-36.621,-44.922,-9.277,0.000
1728700032.488,-2.930,-34.180,-42.480,-28.320,0.000
1728700032.492,-26.855,-41.504,-55.176,-40.527,0.000
1728700032.496,-49.316,-43.457,-58.105,-44.922,0.000
1728700032.500,-27.832,-38.086,-57.617,-14.648,0.000
1728700032.504,4.395,-32.227,-62.012,0.000,0.000
1728700032.508,-0.488,-36.621,-75.684,-6.836,0.000
1728700032.512,-26.367,-36.133,-84.961,-27.344,0.000
1728700032.516,-51.270,-33.203,-52.734,-47.852,0.000
1728700032.520,-40.039,-41.992,-33.691,-23.438,0.000
1728700032.523,-10.254,-41.992,-42.969,-5.859,0.000
1728700032.527,-6.348,-38.574,-39.062,-13.672,0.000
1728700032.531,-30.762,-38.574,-50.293,-29.297,0.000
1728700032.535,-54.199,-40.527,-66.895,-49.316,0.000
1728700032.539,-36.621,-43.945,-48.340,-21.973,0.000
1728700032.543,-0.977,-37.109,-48.828,12.207,0.000
1728700032.547,3.906,-34.180,-67.383,3.418,0.000
1728700032.551,-18.555,-39.062,-59.570,-33.203,0.000
1728700032.555,-46.875,-40.039,-53.223,-62.988,0.000
1728700032.559,-41.992,-41.016,-55.664,-35.645,0.000
1728700032.562,-18.066,-39.551,-59.570,-5.859,0.000
1728700032.566,-10.254,-32.227,-60.059,-0.977,0.000
1728700032.570,-27.832,-31.250,-55.664,-20.020,0.000
1728700032.574,-60.547,-30.762,-55.664,-55.176,0.000
1728700032.578,-53.711,-32.227,-54.199,-37.598,0.000
1728700032.582,-20.020,-39.551,-48.340,-12.207,0.000
1728700032.586,-11.719,-39.062,-51.758,-12.207,0.000
1728700032.590,-22.461,-36.133,-54.199,-18.555,0.000
1728700032.594,-51.270,-39.062,-62.012,-52.734,0.000
1728700032.598,-53.711,-40.527,-64.453,-50.781,0.000
1728700032.602,-15.137,-38.574,-52.246,-10.742,0.000
1728700032.605,0.488,-44.922,-53.711,-3.906,0.000
1728700032.609,-5.371,-46.875,-55.664,-11.230,0.000
1728700032.613,-34.180,-37.598,-55.664,-40.039,0.000
1728700032.617,-52.246,-41.992,-59.570,-46.875,0.000
1728700032.621,-26.855,-43.457,-60.059,-15.137,0.000
1728700032.625,-5.859,-36.133,-65.918,-8.789,0.000
1728700032.629,-1.953,-38.574,-71.289,-15.137,0.000
1728700032.633,-31.250,-35.156,-72.754,-47.363,0.000
1728700032.637,-50.293,-33.691,-69.336,-53.223,0.000
1728700032.641,-9.766,-32.715,-70.801,-8.301,0.000
1728700032.644,20.508,-29.297,-68.359,11.230,0.000
1728700032.648,15.137,-29.297,-63.477,2.930,0.000
1728700032.652,-17.578,-31.738,-62.988,-28.320,0.000
1728700032.656,-40.039,-31.250,-52.246,-38.086,0.000
1728700032.660,-10.742,-30.273,-48.340,-5.859,0.000
1728700032.664,12.207,-25.391,-48.828,5.371,0.000
1728700032.668,3.906,-21.484,-72.266,-3.418,0.000
1728700032.672,-17.578,-25.879,-85.938,-23.438,0.000
1728700032.676,-29.785,-28.809,-62.988,-39.062,0.000
1728700032.680,-11.230,-28.809,-62.012,-1.953,0.000
1728700032.684,5.371,-36.133,-71.289,13.672,0.000
1728700032.687,1.465,-41.992,-54.688,-4.395,0.000
1728700032.691,-19.531,-39.062,-38.086,-17.578,0.000
1728700032.695,-46.875,-41.504,-47.363,-31.250,0.000
1728700032.699,-29.297,-41.016,-67.383,-2.930,0.000
1728700032.703,0.000,-44.434,-65.430,12.695,0.000
1728700032.707,-6.836,-51.758,-43.945,-2.930,0.000
1728700032.711,-32.227,-48.340,-45.410,-25.879,0.000
1728700032.715,-50.293,-42.969,-55.664,-48.828,0.000
1728700032.719,-22.949,-39.551,-49.805,-15.625,0.000
1728700032.723,3.418,-41.504,-43.945,14.160,0.000
1728700032.727,7.324,-39.062,-43.945,16.113,0.000
1728700032.730,-10.254,-35.156,-48.340,-9.766,0.000
1728700032.734,-41.504,-38.086,-57.617,-38.574,0.000
1728700032.738,-32.227,-40.039,-52.246,-8.789,0.000
1728700032.742,-12.207,-37.598,-47.852,9.277,0.000
1728700032.746,-9.766,-37.598,-54.199,6.836,0.000
1728700032.750,-22.461,-38.574,-54.688,-2.930,0.000
1728700032.754,-53.711,-39.551,-43.457,-36.621,0.000
1728700032.758,-43.457,-41.016,-33.203,-20.508,0.000
1728700032.762,-15.137,-40.527,-40.039,5.371,0.000
1728700032.766,-5.859,-40.039,-54.199,0.977,0.000
1728700032.769,-6.348,-41.992,-55.176,-9.277,0.000
1728700032.773,-28.320,-39.551,-47.363,-32.715,0.000
1728700032.777,-28.320,-36.621,-49.316,-21.973,0.000
1728700032.781,0.488,-42.969,-57.617,13.184,0.000
1728700032.785,8.789,-48.340,-57.617,16.113,0.000
1728700032.789,-5.859,-45.898,-56.641,-4.395,0.000
1728700032.793,-29.297,-44.922,-52.734,-30.273,0.000
1728700032.797,-34.668,-42.969,-44.434,-30.273,0.000
1728700032.801,-3.906,-45.410,-43.457,-2.441,0.000
1728700032.805,0.000,-47.852,-47.363,-1.953,0.000
1728700032.809,-12.695,-44.434,-45.898,-14.648,0.000
1728700032.812,-31.250,-42.480,-45.898,-39.062,0.000
1728700032.816,-40.527,-38.086,-63.965,-40.039,0.000
1728700032.820,-19.043,-37.598,-61.035,-7.812,0.000
1728700032.824,-8.301,-45.898,-38.574,-8.789,0.000
1728700032.828,-11.230,-47.363,-45.410,-10.254,0.000
1728700032.832,-35.645,-45.410,-57.129,-39.062,0.000
1728700032.836,-53.223,-47.852,-41.504,-52.734,0.000
1728700032.840,-26.855,-45.410,-37.598,-12.695,0.000
1728700032.844,-7.812,-45.410,-40.039,-11.230,0.000
1728700032.848,-14.648,-41.992,-43.457,-23.438,0.000
1728700032.852,-34.180,-39.551,-58.594,-45.898,0.000
1728700032.855,-48.828,-43.945,-64.941,-58.594,0.000
1728700032.859,-27.344,-41.992,-56.152,-21.973,0.000
1728700032.863,-8.789,-41.016,-38.086,-3.906,0.000
1728700032.867,-12.207,-40.527,-40.527,-11.719,0.000
1728700032.871,-39.062,-42.969,-61.035,-31.250,0.000
1728700032.875,-65.430,-43.457,-62.500,-51.758,0.000
1728700032.879,-36.133,-39.551,-64.941,-24.902,0.000
1728700032.883,2.441,-36.621,-51.270,-3.418,0.000
1728700032.887,-3.906,-38.086,-27.832,-7.812,0.000
1728700032.891,-29.785,-42.480,-31.738,-27.344,0.000
1728700032.894,-49.805,-37.598,-37.598,-50.293,0.000
1728700032.898,-32.715,-34.668,-27.344,-25.391,0.000
1728700032.902,-0.977,-29.297,-31.738,-3.418,0.000
1728700032.906,1.465,-27.344,-55.176,-7.324,0.000
1728700032.910,-24.902,-33.203,-50.781,-32.715,0.000
1728700032.914,-56.641,-36.621,-37.598,-59.082,0.000
1728700032.918,-41.992,-39.551,-46.875,-33.691,0.000
1728700032.922,-9.277,-39.551,-59.570,-12.695,0.000
1728700032.926,-7.324,-32.227,-53.223,-11.719,0.000
1728700032.930,-25.391,-29.297,-41.992,-28.809,0.000
1728700032.934,-49.805,-30.273,-35.645,-56.641,0.000
1728700032.937,-42.969,-32.227,-38.574,-34.668,0.000
1728700032.941,-10.742,-30.762,-38.086,0.977,0.000
1728700032.945,-3.418,-31.738,-35.645,-2.441,0.000
1728700032.949,-20.508,-36.133,-42.480,-19.043,0.000
1728700032.953,-47.363,-33.691,-52.246,-42.969,0.000
1728700032.957,-34.668,-32.227,-53.223,-34.180,0.000
1728700032.961,5.371,-28.809,-48.340,6.348,0.000
1728700032.965,11.719,-30.762,-46.387,12.207,0.000
1728700032.969,-5.371,-35.156,-47.363,-11.719,0.000
1728700032.973,-35.645,-36.621,-50.293,-38.086,0.000
1728700032.976,-45.898,-37.598,-67.383,-34.668,0.000
1728700032.980,-16.113,-37.109,-53.711,-6.348,0.000
1728700032.984,-7.324,-39.062,-20.020,-7.812,0.000
1728700032.988,-16.113,-35.645,-16.113,-22.949,0.000
1728700032.992,-40.527,-27.344,-21.484,-44.922,0.000
1728700032.996,-51.758,-21.973,-11.719,-43.945,0.000
1728700033.000,-28.809,-23.926,-11.719,-14.648,0.000
1728700033.004,-20.996,-28.809,-30.762,-12.207,0.000
1728700033.008,-27.832,-44.434,-46.387,-22.461,0.000
1728700033.012,-53.223,-53.223,-54.199,-49.316,0.000
1728700033.015,-68.848,-41.992,-55.664,-62.500,0.000
1728700033.019,-43.945,-41.504,-54.199,-32.227,0.000
1728700033.023,-29.785,-47.363,-40.039,-20.996,0.000
1728700033.027,-45.898,-36.133,-35.645,-42.969,0.000
1728700033.031,-67.871,-35.156,-41.016,-68.359,0.000
1728700033.035,-92.285,-43.457,-31.250,-83.496,0.000
1728700033.039,-83.496,-35.645,-25.391,-65.918,0.000
1728700033.043,-68.848,-33.691,-35.645,-57.617,0.000
1728700033.047,-75.195,-44.922,-49.805,-73.730,0.000
1728700033.051,-102.051,-39.062,-46.387,-104.004,0.000
1728700033.055,-133.301,-28.809,-34.668,-126.953,0.000
1728700033.058,-118.652,-29.785,-23.926,-110.840,0.000
1728700033.062,-104.004,-34.668,-24.414,-97.168,0.000
1728700033.066,-104.980,-37.109,-18.555,-94.238,0.000
1728700033.070,-120.605,-38.086,-14.648,-117.188,0.000
1728700033.074,-148.926,-43.945,-23.438,-145.020,0.000
1728700033.078,-113.281,-40.039,-51.270,-103.516,0.000
1728700033.082,-73.730,-38.086,-73.242,-71.289,0.000
1728700033.086,-81.055,-43.457,-38.574,-75.684,0.000
1728700033.090,-97.168,-47.363,-20.020,-90.332,0.000
1728700033.094,-119.629,-47.852,-56.641,-109.375,0.000
1728700033.098,-104.004,-43.945,-48.340,-81.543,0.000
1728700033.101,-74.219,-41.992,-18.066,-56.641,0.000
1728700033.105,-67.383,-45.898,-22.461,-57.617,0.000
1728700033.109,-82.520,-56.152,-29.785,-64.453,0.000
1728700033.113,-115.234,-56.152,-31.250,-99.121,0.000
1728700033.117,-93.262,-44.434,-45.410,-76.660,0.000
1728700033.121,-43.457,-40.527,-68.848,-28.320,0.000
1728700033.125,0.000,-39.551,0.000,-34.180,0.000
1728700033.129,0.000,-38.574,0.000,-55.176,0.000
1728700033.133,0.000,-43.945,0.000,-77.637,0.000
1728700033.137,0.000,-42.480,0.000,-62.012,0.000
1728700033.141,0.000,-41.992,0.000,-30.273,0.000
1728700033.144,0.000,-46.387,0.000,-27.344,0.000
1728700033.148,0.000,-40.039,0.000,-42.480,0.000
1728700033.152,0.000,-39.062,0.000,-60.547,0.000
1728700033.156,0.000,-49.316,0.000,-43.457,0.000
1728700033.160,0.000,-49.805,0.000,-12.695,0.000
1728700033.164,0.000,-40.039,0.000,-10.254,0.000
1728700033.168,0.000,-38.086,0.000,-16.113,0.000
1728700033.172,-45.898,-39.551,-55.664,-46.875,0.000
1728700033.176,-54.199,-36.133,-57.617,-39.551,0.000
1728700033.180,-19.043,-35.645,-69.336,0.977,0.000
1728700033.184,6.348,-35.645,-73.730,0.488,0.000
1728700033.187,7.812,-30.273,-62.500,-0.488,0.000
1728700033.191,-20.996,-30.273,-42.969,-26.367,0.000
1728700033.195,-37.598,-35.156,-44.922,-38.574,0.000
1728700033.199,-7.324,-40.527,-44.434,4.883,0.000
1728700033.203,11.230,-40.527,-24.902,25.391,0.000
1728700033.207,-8.301,-41.504,-24.902,0.977,0.000
1728700033.211,-35.645,-45.410,-41.016,-36.621,0.000
1728700033.215,-41.504,-41.504,-51.270,-38.086,0.000
1728700033.219,-7.812,-34.180,-53.223,-2.930,0.000
1728700033.223,12.207,-33.691,-56.641,6.348,0.000
1728700033.226,5.859,-37.109,-63.965,0.977,0.000
1728700033.230,-17.578,-41.504,-59.082,-29.297,0.000
1728700033.234,-41.992,-46.387,-39.062,-46.875,0.000
1728700033.238,-19.531,-42.480,-31.738,-8.789,0.000
1728700033.242,4.883,-40.039,-50.293,3.906,0.000
1728700033.246,0.977,-47.852,-51.758,0.000,0.000
1728700033.250,-24.414,-45.898,-41.504,-23.926,0.000
1728700033.254,-47.852,-40.039,-46.875,-52.734,0.000
1728700033.258,-18.066,-39.551,-55.176,-15.625,0.000
1728700033.262,5.371,-35.645,-46.875,9.766,0.000
1728700033.266,-4.883,-39.062,-36.621,0.977,0.000
1728700033.269,-20.996,-40.039,-42.969,-23.438,0.000
1728700033.273,-46.875,-36.133,-52.246,-55.664,0.000
1728700033.277,-33.203,-38.574,-56.152,-31.250,0.000
1728700033.281,-0.488,-37.109,-86.914,1.465,0.000
1728700033.285,0.000,-32.715,-84.473,0.000,0.000
1728700033.289,-26.855,-38.574,-28.809,-20.996,0.000
1728700033.293,-54.199,-45.410,-11.230,-56.152,0.000
1728700033.297,-41.016,-43.945,-29.785,-44.434,0.000
1728700033.301,-15.625,-40.527,-31.738,-13.184,0.000
1728700033.305,-16.113,-42.480,-31.738,-14.160,0.000
1728700033.308,-27.832,-39.062,-43.457,-28.809,0.000
1728700033.312,-45.410,-35.645,-48.828,-49.805,0.000
1728700033.316,-38.086,-35.156,-62.988,-35.156,0.000
1728700033.320,-8.789,-30.273,-65.918,-7.812,0.000
1728700033.324,-0.488,-28.320,-56.641,-2.441,0.000
1728700033.328,-15.625,-30.273,-53.223,-14.648,0.000
1728700033.332,-43.945,-33.691,-63.965,-49.316,0.000
1728700033.336,-37.598,-36.621,-60.547,-28.320,0.000
1728700033.340,-1.953,-33.691,-57.617,9.277,0.000
1728700033.344,7.812,-33.203,-45.410,0.488,0.000
1728700033.348,1.465,-31.250,-23.926,-11.719,0.000
1728700033.351,-23.926,-24.902,-36.621,-40.527,0.000
1728700033.355,-32.227,-26.855,-50.293,-30.273,0.000
1728700033.359,-3.906,-29.297,-39.551,6.348,0.000
1728700033.363,11.719,-27.832,-33.691,8.301,0.000
1728700033.367,4.883,-31.250,-34.668,-6.348,0.000
1728700033.371,-29.297,-35.156,-32.715,-37.598,0.000
1728700033.375,-44.434,-35.645,-41.016,-36.621,0.000
1728700033.379,0.000,-32.227,-57.617,9.277,0.000
1728700033.383,21.484,-30.273,-58.594,17.578,0.000
1728700033.387,8.301,-29.297,-60.547,7.324,0.000
1728700033.390,-11.230,-29.785,-66.895,-15.625,0.000
1728700033.394,-23.926,-28.809,-46.875,-19.531,0.000
1728700033.398,-2.441,-29.785,-23.438,13.184,0.000
1728700033.402,13.184,-31.250,-23.926,15.137,0.000
1728700033.406,-4.395,-35.156,-23.926,0.977,0.000
1728700033.410,-30.273,-39.551,-25.391,-28.320,0.000
1728700033.414,-47.852,-38.086,-28.320,-44.434,0.000
1728700033.418,-28.809,-35.156,-39.551,-15.137,0.000
1728700033.422,0.000,-38.574,-44.922,2.930,0.000
1728700033.426,-3.906,-40.039,-41.992,-4.395,0.000
1728700033.430,-28.320,-36.621,-50.293,-34.668,0.000
1728700033.433,-46.875,-40.527,-54.688,-56.152,0.000
1728700033.437,-23.926,-43.457,-49.316,-17.090,0.000
1728700033.441,3.906,-37.109,-41.016,5.371,0.000
1728700033.445,3.418,-35.645,-40.527,-7.812,0.000
1728700033.449,-25.879,-44.434,-46.875,-30.273,0.000
1728700033.453,-55.176,-44.434,-51.758,-52.734,0.000
1728700033.457,-31.738,-39.062,-53.711,-22.461,0.000
1728700033.461,-16.113,-36.621,-53.223,-0.488,0.000
1728700033.465,-18.555,-30.273,-61.523,-15.137,0.000
1728700033.469,-19.531,-30.762,-53.711,-22.461,0.000
1728700033.473,-42.969,-33.691,-32.227,-33.203,0.000
1728700033.476,-37.109,-35.645,-36.133,-20.508,0.000
1728700033.480,-8.301,-37.109,-46.387,7.324,0.000
1728700033.484,0.000,-33.691,-47.852,6.348,0.000
1728700033.488,-20.996,-34.180,-57.129,-14.160,0.000
1728700033.492,-52.246,-35.645,-49.316,-42.480,0.000
1728700033.496,-43.945,-29.297,-35.645,-37.109,0.000
1728700033.500,-11.230,-27.344,-39.062,-6.836,0.000
1728700033.504,-11.230,-35.645,-24.414,-7.324,0.000
1728700033.508,-28.809,-35.156,-10.254,-31.250,0.000
1728700033.512,-50.293,-30.762,-48.340,-57.617,0.000
1728700033.515,-50.293,-37.598,-71.289,-41.992,0.000
1728700033.519,-21.973,-44.434,-41.504,-13.672,0.000
1728700033.523,-8.789,-45.898,-22.949,-10.254,0.000
1728700033.527,-14.160,-35.645,-33.203,-17.578,0.000
1728700033.531,-43.457,-31.738,-45.410,-33.691,0.000
1728700033.535,-42.480,-43.945,-47.363,-25.391,0.000
1728700033.539,-7.812,-41.504,-77.148,0.488,0.000
1728700033.543,15.137,-28.809,-80.566,20.508,0.000
1728700033.547,17.578,-26.367,-55.176,14.648,0.000
1728700033.551,1.465,-56.641,-80.078,-5.859,0.000
1728700033.555,-11.230,-98.145,-13.184,-5.859,0.000
1728700033.558,12.207,-22.949,-76.660,25.391,0.000
1728700033.562,44.922,19.531,-226.074,47.852,0.000
1728700033.566,-4.395,-16.113,-69.336,4.883,0.000
1728700033.570,-20.508,-69.336,59.082,-14.648,0.000
1728700033.574,59.082,-97.656,-64.941,60.547,0.000
1728700033.578,64.941,-23.926,8.301,66.895,0.000
1728700033.582,84.473,-37.598,-14.160,79.102,0.000
1728700033.586,215.820,29.297,-148.438,200.195,0.000
1728700033.590,108.398,125.977,-5.371,93.750,0.000
1728700033.594,26.367,-124.512,167.480,17.090,0.000
1728700033.598,3.906,-82.031,166.016,6.348,0.000
1728700033.601,-48.828,159.668,91.309,-40.039,0.000
1728700033.605,-38.574,151.367,217.285,-37.109,0.000
1728700033.609,-120.605,192.383,177.734,-145.996,0.000
1728700033.613,-44.922,-49.805,170.898,-74.707,0.000
1728700033.617,-64.453,86.426,124.512,-90.820,0.000
1728700033.621,89.355,504.395,232.910,54.688,0.000
1728700033.625,144.043,611.816,580.078,120.117,0.000
1728700033.629,-339.844,357.910,392.090,-381.836,0.000
1728700033.633,-431.641,231.445,375.488,-469.238,0.000
1728700033.637,-266.113,583.008,451.172,-297.363,0.000
1728700033.640,-77.637,513.672,345.703,-129.883,0.000
1728700033.644,83.496,348.633,532.227,34.180,0.000
1728700033.648,-196.289,531.250,685.059,-229.980,0.000
1728700033.652,-481.445,510.254,484.375,-506.348,0.000
1728700033.656,-302.734,354.004,477.051,-304.199,0.000
1728700033.660,-241.699,517.090,655.762,-246.582,0.000
1728700033.664,-398.926,729.004,443.848,-416.504,0.000
1728700033.668,-206.543,602.539,427.246,-214.355,0.000
1728700033.672,-161.133,621.582,689.453,-157.715,0.000
1728700033.676,-316.406,659.668,820.312,-322.266,0.000
1728700033.680,-229.004,577.637,865.723,-240.723,0.000
1728700033.683,-299.805,553.711,843.750,-308.105,0.000
1728700033.687,-390.625,562.012,851.074,-413.086,0.000
1728700033.691,-332.520,534.180,883.789,-341.309,0.000
1728700033.695,-209.473,488.770,805.176,-210.449,0.000
1728700033.699,-41.504,657.715,867.676,-54.688,0.000
1728700033.703,-250.488,772.461,960.938,-257.812,0.000
1728700033.707,-399.902,665.527,831.055,-414.551,0.000
1728700033.711,-311.523,604.004,841.797,-317.383,0.000
1728700033.715,-263.672,610.840,859.375,-251.465,0.000
1728700033.719,-210.938,611.328,873.535,-209.473,0.000
1728700033.722,-238.770,477.051,947.266,-238.770,0.000
1728700033.726,-303.711,419.922,806.641,-297.363,0.000
1728700033.730,-271.973,533.203,773.926,-277.344,0.000
1728700033.734,-267.090,433.594,881.348,-265.137,0.000
1728700033.738,-301.758,305.664,860.352,-296.387,0.000
1728700033.742,-270.996,329.102,865.723,-278.809,0.000
1728700033.746,-244.629,276.855,857.910,-252.930,0.000
1728700033.750,-264.648,186.035,769.531,-269.531,0.000
1728700033.754,-265.625,121.094,703.125,-263.672,0.000
1728700033.758,-238.770,100.586,675.293,-227.051,0.000
1728700033.761,-228.516,73.730,644.531,-217.285,0.000
1728700033.765,-218.262,40.039,619.141,-212.891,0.000
1728700033.769,-223.633,13.184,626.465,-220.215,0.000
1728700033.773,-231.445,-3.418,594.727,-225.586,0.000
1728700033.777,-204.102,-14.160,541.992,-198.242,0.000
1728700033.781,-177.246,-19.043,520.996,-175.781,0.000
1728700033.785,-177.246,-20.508,501.465,-184.082,0.000
1728700033.789,-172.852,-23.438,474.609,-187.988,0.000
1728700033.793,-179.199,-27.344,427.246,-183.105,0.000
1728700033.797,-163.574,-3.418,372.559,-155.762,0.000
1728700033.801,-122.559,38.574,341.309,-132.324,0.000
1728700033.804,-119.629,49.805,318.848,-133.301,0.000
1728700033.808,-146.484,48.828,273.438,-154.785,0.000
1728700033.812,-154.785,57.617,236.328,-161.133,0.000
1728700033.816,-123.047,64.453,219.727,-120.605,0.000
1728700033.820,-93.262,74.219,190.918,-92.773,0.000
1728700033.824,-81.543,90.332,116.699,-82.031,0.000
1728700033.828,-87.891,89.844,68.359,-86.914,0.000
1728700033.832,-120.605,85.449,78.125,-112.793,0.000
1728700033.836,-106.934,104.980,47.852,-85.938,0.000
1728700033.840,-61.523,114.746,-4.395,-52.734,0.000
1728700033.844,-46.875,108.887,-56.641,-46.387,0.000
1728700033.847,-52.246,109.375,-116.211,-45.410,0.000
1728700033.851,-74.707,110.840,-127.441,-69.824,0.000
1728700033.855,-52.734,112.793,-93.750,-39.062,0.000
1728700033.859,-0.488,110.840,-79.102,16.602,0.000
1728700033.863,7.812,110.840,-114.746,20.996,0.000
1728700033.867,-7.812,106.934,-146.973,-5.371,0.000
1728700033.871,-24.414,101.074,-147.949,-31.250,0.000
1728700033.875,-8.789,96.680,-158.203,-3.418,0.000
1728700033.879,28.809,84.961,-179.199,26.367,0.000
1728700033.883,44.922,83.984,-210.938,31.738,0.000
1728700033.887,37.109,83.008,-184.082,29.785,0.000
1728700033.890,15.137,72.754,-156.250,4.883,0.000
1728700033.894,14.160,59.082,-187.988,12.207,0.000
1728700033.898,47.852,56.641,-200.195,44.922,0.000
1728700033.902,59.570,52.246,-193.848,54.199,0.000
1728700033.906,47.852,37.109,-197.754,53.711,0.000
1728700033.910,18.555,23.926,-206.543,19.043,0.000
1728700033.914,18.066,22.949,-221.680,7.324,0.000
1728700033.918,64.453,21.973,-219.238,46.875,0.000
1728700033.922,80.566,13.184,-204.102,59.082,0.000
1728700033.926,74.219,2.441,-196.289,58.105,0.000
1728700033.930,62.988,-5.371,-187.988,46.875,0.000
1728700033.933,39.062,-16.113,-186.523,30.273,0.000
1728700033.937,41.504,-28.809,-200.195,46.875,0.000
1728700033.941,60.547,-45.410,-209.961,61.523,0.000
1728700033.945,78.125,-59.082,-210.449,71.777,0.000
1728700033.949,61.035,-68.359,-201.660,50.781,0.000
1728700033.953,31.250,-75.195,-219.238,32.227,0.000
1728700033.957,56.152,-67.871,-246.094,59.082,0.000
1728700033.961,82.520,-73.730,-233.887,72.266,0.000
1728700033.965,71.289,-90.820,-212.402,61.035,0.000
1728700033.969,44.922,-103.516,-206.055,32.715,0.000
1728700033.972,22.461,-124.512,-198.242,20.508,0.000
1728700033.976,44.922,-134.766,-191.895,56.152,0.000
1728700033.980,67.383,-128.906,-195.801,72.266,0.000
1728700033.984,72.266,-128.906,-198.242,70.801,0.000
1728700033.988,55.664,-141.113,-233.398,45.898,0.000
1728700033.992,22.461,-140.137,-260.742,13.184,0.000
1728700033.996,41.992,-142.578,-235.840,52.246,0.000
1728700034.000,69.824,-149.414,-227.539,77.637,0.000
1728700034.004,59.082,-154.785,-221.191,57.617,0.000
1728700034.008,38.574,-157.715,-218.750,42.969,0.000
1728700034.012,22.949,-158.203,-243.652,26.855,0.000
1728700034.015,40.039,-157.227,-255.859,45.410,0.000
1728700034.019,65.918,-155.273,-247.559,66.895,0.000
1728700034.023,61.523,-161.133,-250.488,58.594,0.000
1728700034.027,42.480,-164.062,-249.512,37.109,0.000
1728700034.031,16.602,-168.457,-233.887,10.742,0.000
1728700034.035,21.973,-179.199,-220.215,28.320,0.000
1728700034.039,44.922,-186.523,-214.355,47.852,0.000
1728700034.043,51.270,-182.617,-245.117,54.688,0.000
1728700034.047,40.527,-169.922,-269.043,41.504,0.000
1728700034.051,7.324,-172.852,-238.770,-2.930,0.000
1728700034.054,18.555,-177.246,-237.793,13.184,0.000
1728700034.058,42.480,-167.969,-257.324,39.551,0.000
1728700034.062,34.668,-170.898,-239.746,28.809,0.000
1728700034.066,26.367,-171.387,-215.820,15.625,0.000
1728700034.070,4.395,-170.898,-235.352,-7.324,0.000
1728700034.074,9.766,-176.270,-233.398,0.488,0.000
1728700034.078,35.645,-168.945,-209.473,33.691,0.000
1728700034.082,35.156,-166.016,-203.125,28.809,0.000
1728700034.086,29.785,-162.109,-213.379,18.066,0.000
1728700034.090,12.695,-155.762,-238.770,2.441,0.000
1728700034.094,3.906,-154.297,-262.207,3.906,0.000
1728700034.097,29.785,-154.785,-236.328,35.156,0.000
1728700034.101,30.273,-162.598,-195.312,29.785,0.000
1728700034.105,10.254,-165.527,-190.918,15.625,0.000
1728700034.109,-16.113,-168.945,-200.684,-16.113,0.000
1728700034.113,-24.414,-167.480,-208.984,-16.113,0.000
1728700034.117,10.742,-162.109,-205.566,27.344,0.000
1728700034.121,37.598,-161.133,-214.844,34.668,0.000
1728700034.125,30.273,-161.133,-214.844,23.438,0.000
1728700034.129,-0.488,-166.992,-192.383,-5.371,0.000
1728700034.133,-18.066,-168.945,-180.176,-15.137,0.000
1728700034.137,12.207,-153.320,-189.941,26.367,0.000
1728700034.140,41.016,-142.090,-205.566,44.922,0.000
1728700034.144,27.344,-140.137,-204.590,30.762,0.000
1728700034.148,2.930,-139.160,-211.426,4.395,0.000
1728700034.152,-14.160,-135.254,-216.797,-11.719,0.000
1728700034.156,7.812,-132.812,-181.641,19.043,0.000
1728700034.160,32.715,-135.254,-168.945,34.180,0.000
1728700034.164,28.809,-133.301,-166.992,21.484,0.000
1728700034.168,1.953,-134.766,-159.180,0.977,0.000
1728700034.172,-11.230,-137.207,-166.016,-9.766,0.000
1728700034.176,22.461,-127.930,-184.570,25.879,0.000
1728700034.180,43.945,-121.094,-191.406,47.852,0.000
1728700034.183,35.156,-117.676,-177.734,33.203,0.000
1728700034.187,15.625,-113.281,-145.020,9.766,0.000
1728700034.191,-5.371,-114.746,-137.207,-8.789,0.000
1728700034.195,8.301,-123.535,-173.340,17.090,0.000
1728700034.199,40.039,-119.141,-183.594,42.480,0.000
1728700034.203,42.969,-109.863,-155.273,40.039,0.000
1728700034.207,16.602,-113.281,-122.559,15.625,0.000
1728700034.211,-17.578,-114.746,-115.723,-14.160,0.000
1728700034.215,-11.719,-115.234,-133.301,3.906,0.000
1728700034.219,28.320,-119.141,-146.973,36.133,0.000
1728700034.222,42.969,-123.047,-146.484,34.180,0.000
1728700034.226,20.020,-117.188,-144.531,14.648,0.000
1728700034.230,-18.066,-111.816,-151.855,-5.859,0.000
1728700034.234,-3.418,-108.398,-161.133,12.207,0.000
1728700034.238,23.926,-107.910,-160.156,34.180,0.000
1728700034.242,21.484,-106.934,-158.691,24.902,0.000
1728700034.246,15.625,-101.562,-154.785,7.812,0.000
1728700034.250,-15.625,-114.746,-151.855,-27.344,0.000
1728700034.254,-16.113,-125.000,-157.715,-11.230,0.000
1728700034.258,21.484,-116.699,-164.062,30.273,0.000
1728700034.262,25.391,-111.328,-168.457,26.367,0.000
1728700034.265,13.184,-111.816,-168.945,11.230,0.000
1728700034.269,-18.066,-116.211,-146.484,-24.414,0.000
1728700034.273,-27.344,-121.582,-118.164,-31.738,0.000
1728700034.277,2.441,-117.676,-108.887,0.000,0.000
1728700034.281,17.578,-110.352,-121.582,23.926,0.000
1728700034.285,30.762,-104.492,-134.277,35.156,0.000
1728700034.289,2.930,-104.980,-139.160,-1.465,0.000
1728700034.293,-34.668,-114.258,-136.230,-31.738,0.000
1728700034.297,-11.719,-113.770,-125.977,-4.883,0.000
1728700034.301,20.020,-108.398,-119.629,21.973,0.000
1728700034.305,20.020,-109.863,-129.395,14.648,0.000
1728700034.308,-10.742,-116.699,-135.742,-18.066,0.000
1728700034.312,-16.113,-112.305,-128.906,-17.578,0.000
1728700034.316,18.066,-104.004,-141.602,20.996,0.000
1728700034.320,28.320,-105.957,-149.902,26.855,0.000
1728700034.324,20.508,-104.004,-139.160,14.648,0.000
1728700034.328,-1.465,-97.168,-135.254,-10.742,0.000
1728700034.332,-24.902,-99.609,-145.996,-27.344,0.000
1728700034.336,4.395,-101.074,-145.508,7.812,0.000
1728700034.340,25.391,-99.609,-127.930,14.648,0.000
1728700034.344,14.160,-96.191,-119.141,3.418,0.000
1728700034.347,-11.230,-99.121,-118.652,-11.230,0.000
1728700034.351,-25.391,-99.609,-124.512,-32.227,0.000
1728700034.355,-2.441,-93.262,-120.117,-5.371,0.000
1728700034.359,14.160,-93.262,-121.582,10.742,0.000
1728700034.363,18.066,-85.449,-149.902,16.113,0.000
1728700034.367,1.465,-78.613,-142.578,-5.371,0.000
1728700034.371,-36.621,-85.449,-97.168,-34.668,0.000
1728700034.375,-20.020,-86.914,-90.820,-5.371,0.000
1728700034.379,17.090,-80.566,-100.586,13.672,0.000
1728700034.383,16.602,-80.078,-103.027,6.348,0.000
1728700034.387,-4.395,-81.055,-104.980,-14.160,0.000
1728700034.390,-33.203,-81.543,-107.422,-37.109,0.000
1728700034.394,-22.461,-83.008,-113.770,-7.324,0.000
1728700034.398,7.812,-76.172,-113.770,31.738,0.000
1728700034.402,4.883,-72.754,-104.980,23.926,0.000
1728700034.406,-15.137,-77.148,-104.492,-0.977,0.000
1728700034.410,-41.016,-81.055,-103.516,-25.391,0.000
1728700034.414,-30.273,-80.078,-96.191,-9.766,0.000
1728700034.418,1.465,-76.660,-95.703,26.367,0.000
1728700034.422,8.301,-72.754,-118.652,16.113,0.000
1728700034.426,-2.930,-74.707,-135.254,-12.695,0.000
1728700034.429,-41.992,-84.473,-119.141,-36.621,0.000
1728700034.433,-47.363,-87.891,-101.074,-27.344,0.000
1728700034.437,-12.207,-87.891,-99.121,3.418,0.000
1728700034.441,4.395,-85.449,-101.074,7.324,0.000
1728700034.445,-2.441,-81.055,-106.934,1.953,0.000
1728700034.449,-31.738,-80.566,-117.676,-20.996,0.000
1728700034.453,-38.574,-83.496,-110.840,-22.461,0.000
1728700034.457,-13.672,-85.938,-104.004,1.953,0.000
1728700034.461,-1.953,-88.867,-106.445,12.695,0.000
1728700034.465,-9.277,-89.844,-101.562,10.742,0.000
1728700034.469,-41.992,-84.961,-104.980,-24.902,0.000
1728700034.472,-48.340,-78.125,-116.211,-29.785,0.000
1728700034.476,-15.137,-74.707,-107.910,6.836,0.000
1728700034.480,-0.488,-74.219,-95.215,16.113,0.000
1728700034.484,-5.859,-73.730,-92.285,9.766,0.000
1728700034.488,-31.250,-77.148,-97.656,-20.508,0.000
1728700034.492,-41.992,-77.637,-101.074,-29.785,0.000
1728700034.496,-16.602,-78.125,-104.980,7.324,0.000
1728700034.500,3.418,-76.660,-110.840,19.531,0.000
1728700034.504,-1.953,-76.660,-102.051,5.371,0.000
1728700034.508,-22.949,-74.707,-94.727,-30.762,0.000
1728700034.511,-40.527,-71.289,-102.051,-47.363,0.000
1728700034.515,-19.043,-73.242,-99.121,-19.531,0.000
1728700034.519,8.789,-68.848,-87.402,3.906,0.000
1728700034.523,1.465,-66.895,-85.449,1.953,0.000
1728700034.527,-24.414,-69.824,-88.867,-32.715,0.000
1728700034.531,-41.504,-72.266,-89.355,-42.480,0.000
1728700034.535,-21.484,-71.289,-89.355,-4.883,0.000
1728700034.539,1.953,-67.383,-96.680,6.836,0.000
1728700034.543,7.324,-63.965,-96.680,8.301,0.000
1728700034.547,0.488,-63.477,-94.727,8.789,0.000
1728700034.551,-28.809,-70.801,-106.445,-20.020,0.000
1728700034.554,-32.715,-69.336,-114.746,-24.414,0.000
1728700034.558,-13.184,-59.082,-103.516,-19.531,0.000
1728700034.562,-2.441,-58.594,-100.098,-12.695,0.000
1728700034.566,-13.184,-58.105,-103.516,-18.066,0.000
1728700034.570,-40.527,-59.082,-99.121,-41.992,0.000
1728700034.574,-20.508,-59.570,-106.934,-14.160,0.000
1728700034.578,19.043,-60.059,-129.883,25.391,0.000
1728700034.582,24.902,-58.105,-128.418,22.461,0.000
1728700034.586,1.465,-54.688,-95.215,-5.371,0.000
1728700034.590,-29.297,-53.711,-77.148,-32.227,0.000
1728700034.594,-20.020,-60.547,-83.496,-9.277,0.000
1728700034.597,4.395,-62.012,-77.637,22.461,0.000
1728700034.601,13.184,-55.664,-73.242,12.695,0.000
1728700034.605,-2.441,-56.152,-81.543,-11.719,0.000
1728700034.609,-30.273,-58.594,-85.938,-34.668,0.000
1728700034.613,-24.414,-56.641,-93.262,-18.555,0.000
1728700034.617,3.418,-51.758,-102.539,2.930,0.000
1728700034.621,11.230,-45.898,-107.422,2.930,0.000
1728700034.625,1.953,-41.504,-108.887,-9.766,0.000
1728700034.629,-25.879,-45.410,-97.656,-42.969,0.000
1728700034.633,-32.227,-55.176,-95.215,-32.715,0.000
1728700034.637,0.977,-54.688,-101.074,4.883,0.000
1728700034.640,14.160,-47.363,-99.121,15.625,0.000
1728700034.644,-3.418,-49.805,-105.957,-0.488,0.000
1728700034.648,-31.250,-50.293,-111.816,-29.297,0.000
1728700034.652,-42.480,-51.270,-108.887,-30.762,0.000
1728700034.656,-11.230,-53.223,-107.422,5.371,0.000
1728700034.660,5.371,-47.852,-111.816,15.137,0.000
1728700034.664,-1.953,-43.945,-111.328,-3.418,0.000
1728700034.668,-24.902,-43.945,-102.051,-28.809,0.000
1728700034.672,-41.992,-51.270,-98.145,-38.574,0.000
1728700034.676,-13.672,-52.734,-94.727,-9.277,0.000
1728700034.679,2.930,-43.945,-91.309,6.836,0.000
1728700034.683,-4.883,-44.434,-85.938,-7.812,0.000
1728700034.687,-26.855,-60.547,-83.984,-36.621,0.000
1728700034.691,-43.945,-62.012,-84.961,-40.527,0.000
1728700034.695,-14.648,-57.129,-90.820,-6.348,0.000
1728700034.699,-0.488,-60.547,-105.957,5.371,0.000
1728700034.703,-12.695,-57.617,-100.586,1.465,0.000
1728700034.707,-32.715,-52.734,-87.402,-26.855,0.000
1728700034.711,-52.246,-56.152,-84.473,-43.945,0.000
1728700034.715,-27.344,-61.035,-88.379,-13.184,0.000
1728700034.719,-1.465,-51.758,-91.309,3.418,0.000
1728700034.722,-4.395,-46.387,-90.332,-6.836,0.000
1728700034.726,-31.738,-56.152,-88.379,-38.086,0.000
1728700034.730,-54.688,-55.176,-83.496,-56.152,0.000
1728700034.734,-33.691,-46.875,-86.914,-20.020,0.000
1728700034.738,-9.277,-44.922,-92.285,-2.441,0.000
1728700034.742,-9.277,-46.875,-91.309,-8.789,0.000
1728700034.746,-29.297,-48.828,-91.309,-19.531,0.000
1728700034.750,-53.223,-42.969,-95.215,-46.875,0.000
1728700034.754,-37.598,-43.945,-90.332,-26.367,0.000
1728700034.758,-5.859,-47.852,-89.844,6.348,0.000
1728700034.761,-5.859,-47.852,-87.402,-13.672,0.000
1728700034.765,-28.809,-46.875,-67.383,-37.598,0.000
1728700034.769,-54.688,-44.434,-63.477,-51.758,0.000
1728700034.773,-41.992,-42.480,-67.871,-29.297,0.000
1728700034.777,-8.301,-39.062,-72.266,1.465,0.000
1728700034.781,-0.977,-36.133,-80.566,-0.488,0.000
1728700034.785,-10.742,-37.598,-80.566,-16.602,0.000
1728700034.789,-37.109,-40.039,-79.102,-43.945,0.000
1728700034.793,-33.203,-40.039,-82.031,-20.996,0.000
1728700034.797,-9.766,-42.969,-83.984,5.371,0.000
1728700034.801,-1.465,-42.969,-84.961,-11.230,0.000
1728700034.804,-17.090,-44.434,-102.539,-21.973,0.000
1728700034.808,-50.781,-47.363,-101.562,-53.711,0.000
1728700034.812,-53.711,-48.828,-71.289,-49.805,0.000
1728700034.816,-19.043,-48.340,-64.453,-12.207,0.000
1728700034.820,-12.207,-50.781,-72.266,-13.184,0.000
1728700034.824,-28.320,-50.293,-69.824,-31.738,0.000
1728700034.828,-46.875,-44.922,-77.637,-62.500,0.000
1728700034.832,-49.805,-40.527,-97.656,-56.152,0.000
1728700034.836,-17.578,-47.363,-94.238,-9.766,0.000
1728700034.840,-0.488,-50.293,-72.754,-0.488,0.000
1728700034.843,-12.207,-42.480,-75.684,-22.461,0.000
1728700034.847,-31.738,-42.480,-101.074,-38.086,0.000
1728700034.851,-39.551,-42.480,-111.816,-43.945,0.000
1728700034.855,-14.648,-40.527,-77.637,-23.438,0.000
1728700034.859,-6.836,-45.898,-33.691,-10.742,0.000
1728700034.863,-22.461,-50.781,-24.414,-26.367,0.000
1728700034.867,-39.551,-44.922,-38.086,-46.387,0.000
1728700034.871,-44.922,-42.480,-50.781,-44.922,0.000
1728700034.875,-16.113,-41.504,-65.430,-11.230,0.000
1728700034.879,1.465,-35.156,-82.031,3.418,0.000
1728700034.883,-7.324,-42.480,-69.336,0.977,0.000
1728700034.886,-27.344,-45.898,-50.781,-20.996,0.000
1728700034.890,-44.922,-40.039,-44.434,-43.945,0.000
1728700034.894,-23.438,-43.457,-48.340,-10.254,0.000
1728700034.898,-0.977,-44.922,-61.035,8.789,0.000
1728700034.902,0.000,-42.480,-71.777,1.953,0.000
1728700034.906,-7.324,-40.527,-70.801,-1.465,0.000
1728700034.910,-21.484,-42.969,-66.895,-1.953,0.000
1728700034.914,-3.418,-39.062,-63.477,19.043,0.000
1728700034.918,4.883,-38.086,-60.059,5.859,0.000
1728700034.922,3.906,-36.621,-62.988,-2.930,0.000
1728700034.925,-7.324,-39.062,-71.777,-21.484,0.000
1728700034.929,-42.480,-41.504,-73.242,-56.152,0.000
1728700034.933,-25.879,-36.133,-80.078,-20.020,0.000
1728700034.937,12.695,-33.203,-77.637,4.395,0.000
1728700034.941,10.742,-32.715,-75.195,-6.836,0.000
1728700034.945,-10.254,-33.691,-82.520,-21.484,0.000
1728700034.949,-34.668,-32.227,-66.895,-46.387,0.000
1728700034.953,-19.531,-31.738,-48.340,-23.926,0.000
1728700034.957,6.348,-37.598,-52.246,-9.766,0.000
1728700034.961,10.254,-38.574,-62.012,-14.648,0.000
1728700034.965,2.930,-37.109,-59.570,-20.020,0.000
1728700034.968,-24.414,-38.086,-65.430,-39.551,0.000
1728700034.972,-18.066,-38.086,-70.801,-16.602,0.000
1728700034.976,8.301,-41.504,-61.523,15.625,0.000
1728700034.980,8.301,-41.504,-67.383,9.766,0.000
1728700034.984,-6.836,-37.109,-82.031,-1.465,0.000
1728700034.988,-43.457,-39.062,-73.242,-25.391,0.000
1728700034.992,-46.875,-40.039,-60.059,-24.414,0.000
1728700034.996,-5.371,-36.621,-54.688,7.324,0.000
1728700035.000,3.418,-35.156,-51.270,13.672,0.000
1728700035.004,-10.742,-39.062,-68.848,-2.930,0.000
1728700035.008,-30.762,-39.062,-87.402,-33.203,0.000
1728700035.011,-34.180,-35.156,-63.965,-32.715,0.000
1728700035.015,-7.324,-37.598,-53.711,0.000,0.000
1728700035.019,7.324,-35.156,-54.688,6.348,0.000
1728700035.023,0.977,-31.738,-53.223,-12.207,0.000
1728700035.027,-24.414,-32.227,-58.594,-42.480,0.000
1728700035.031,-35.156,-38.086,-62.012,-32.715,0.000
1728700035.035,-8.789,-38.574,-58.105,-0.977,0.000
1728700035.039,3.906,-32.227,-51.270,-0.488,0.000
1728700035.043,-0.977,-29.297,-57.617,-7.324,0.000
1728700035.047,-25.391,-30.762,-72.266,-30.762,0.000
1728700035.051,-38.086,-31.250,-63.965,-30.273,0.000
1728700035.054,-13.672,-33.203,-50.293,-3.418,0.000
1728700035.058,3.418,-36.621,-44.922,9.277,0.000
1728700035.062,-0.977,-36.133,-45.410,7.812,0.000
1728700035.066,-24.414,-36.621,-61.523,-19.531,0.000
1728700035.070,-39.062,-42.969,-66.895,-38.574,0.000
1728700035.074,-11.719,-41.016,-64.941,-16.602,0.000
1728700035.078,7.324,-38.086,-75.195,6.836,0.000
1728700035.082,-4.395,-40.039,-81.055,0.488,0.000
1728700035.086,-32.227,-40.527,-69.824,-34.668,0.000
1728700035.090,-51.758,-39.551,-39.551,-50.293,0.000
1728700035.093,-29.785,-37.109,-41.016,-19.043,0.000
1728700035.097,-6.348,-37.598,-46.875,0.000,0.000
1728700035.101,-4.395,-41.992,-29.785,-8.301,0.000
1728700035.105,-20.020,-36.133,-25.879,-26.367,0.000
1728700035.109,-45.898,-36.133,-39.062,-42.969,0.000
1728700035.113,-25.879,-40.527,-35.645,-18.066,0.000
1728700035.117,2.441,-31.250,-38.574,4.395,0.000
1728700035.121,-6.348,-32.715,-46.387,10.254,0.000
1728700035.125,-29.785,-36.133,-40.527,-15.137,0.000
1728700035.129,-59.570,-37.109,-58.105,-63.477,0.000
1728700035.133,-36.133,-30.762,-77.637,-28.809,0.000
1728700035.136,-1.465,-29.297,-59.082,11.230,0.000
1728700035.140,-9.766,-37.598,-36.621,0.000,0.000
1728700035.144,-27.832,-34.668,-40.527,0.000,0.000
1728700035.148,-43.457,-36.621,-47.363,0.000,0.000
1728700035.152,-28.809,-41.016,-51.270,0.000,0.000
1728700035.156,-0.488,-39.551,-69.336,0.000,0.000
1728700035.160,-3.906,-40.527,-68.848,0.000,0.000
1728700035.164,-20.020,-42.969,-42.480,0.000,0.000
1728700035.168,-40.527,-41.504,-26.367,0.000,0.000
1728700035.172,-42.480,-37.109,-32.715,0.000,0.000
1728700035.175,-15.625,-37.598,-41.992,0.000,0.000
1728700035.179,-2.930,-36.621,-48.828,0.000,0.000
1728700035.183,-15.137,-35.645,-58.594,0.000,0.000
1728700035.187,-43.945,-35.156,-61.523,-47.363,0.000
1728700035.191,-44.922,-35.156,-46.875,-37.598,0.000
1728700035.195,-15.625,-38.086,-56.152,-4.395,0.000
1728700035.199,-4.883,-39.062,-61.523,-4.883,0.000
1728700035.203,-12.207,-37.598,-28.320,-12.695,0.000
1728700035.207,-40.527,-34.668,-34.180,-40.039,0.000
1728700035.211,-47.363,-37.109,-58.105,-38.574,0.000
1728700035.215,-19.043,-38.086,-57.617,-0.977,0.000
1728700035.218,-10.742,-41.016,-44.434,-6.348,0.000
1728700035.222,-13.184,-47.852,-32.227,-15.137,0.000
1728700035.226,-37.598,-41.504,-36.133,-40.527,0.000
1728700035.230,-58.105,-46.875,-34.668,-49.805,0.000
1728700035.234,-24.414,-46.875,-44.434,-11.719,0.000
1728700035.238,5.371,-36.133,-55.664,3.418,0.000
1728700035.242,-5.371,-41.016,-44.434,-7.812,0.000
1728700035.246,-30.762,-41.992,-47.363,-31.738,0.000
1728700035.250,-41.504,-37.109,-45.898,-44.434,0.000
1728700035.254,-19.043,-41.992,-32.715,-13.672,0.000
1728700035.257,-3.418,-42.969,-30.762,0.488,0.000
1728700035.261,-6.836,-41.016,-39.062,-15.625,0.000
1728700035.265,-26.855,-41.016,-43.945,-42.480,0.000
1728700035.269,-46.387,-41.992,-54.688,-45.410,0.000
1728700035.273,-22.949,-38.086,-64.941,-13.184,0.000
1728700035.277,-3.418,-40.039,-62.500,-5.371,0.000
1728700035.281,-5.371,-45.898,-45.410,-5.371,0.000
1728700035.285,-19.043,-40.039,-36.621,-22.461,0.000
1728700035.289,-47.363,-38.086,-49.316,-49.316,0.000
1728700035.293,-42.480,-41.992,-51.758,-26.367,0.000
1728700035.297,-8.301,-47.363,-40.527,0.977,0.000
1728700035.300,-1.953,-44.434,-61.035,-2.930,0.000
1728700035.304,-27.344,-37.598,-89.844,-24.902,0.000
1728700035.308,-47.852,-37.598,-62.500,-50.293,0.000
1728700035.312,-35.645,-42.969,-27.344,-21.973,0.000
1728700035.316,-4.883,-42.969,-29.785,15.137,0.000
1728700035.320,1.465,-34.668,-42.969,5.371,0.000
1728700035.324,-21.484,-41.504,-42.969,-22.949,0.000
1728700035.328,-54.688,-50.293,-36.621,-50.293,0.000
1728700035.332,-40.039,-42.969,-44.434,-36.133,0.000
1728700035.336,-6.836,-40.527,-58.105,-15.137,0.000
1728700035.340,-8.789,-48.340,-61.523,-20.020,0.000
1728700035.343,-15.625,-46.387,-64.453,-24.902,0.000
1728700035.347,-35.156,-42.969,-57.617,-41.016,0.000
1728700035.351,-31.738,-46.875,-51.758,-39.551,0.000
1728700035.355,1.465,-42.969,-52.734,-0.977,0.000
1728700035.359,8.789,-40.527,-53.711,10.254,0.000
1728700035.363,-3.906,-41.016,-54.688,-10.254,0.000
1728700035.367,-37.109,-36.133,-49.805,-35.156,0.000
1728700035.371,-45.410,-35.156,-51.758,-29.785,0.000
1728700035.375,-10.742,-37.109,-51.758,0.488,0.000
1728700035.379,2.930,-35.156,-42.969,5.859,0.000
1728700035.383,-8.301,-30.273,-46.875,-2.930,0.000
1728700035.386,-40.527,-34.668,-55.176,-30.762,0.000
1728700035.390,-45.898,-38.574,-50.781,-33.691,0.000
1728700035.394,-13.184,-40.039,-41.016,-3.418,0.000
1728700035.398,0.488,-38.574,-42.969,-3.418,0.000
1728700035.402,2.930,-34.668,-72.266,-12.695,0.000
1728700035.406,-17.090,-35.156,-78.613,-17.578,0.000
1728700035.410,-45.898,-43.945,-44.434,-36.621,0.000
1728700035.414,-22.461,-46.387,-28.809,-15.137,0.000
1728700035.418,0.977,-38.574,-35.156,1.465,0.000
1728700035.422,-9.277,-35.156,-38.574,-11.719,0.000
1728700035.425,-27.344,-37.598,-36.621,-32.227,0.000
1728700035.429,-41.504,-42.480,-20.508,-46.387,0.000
1728700035.433,-21.973,-46.387,-27.832,-19.531,0.000
1728700035.437,-0.977,-44.434,-53.711,-0.977,0.000
1728700035.441,-0.488,-42.969,-52.246,-3.906,0.000
1728700035.445,-30.762,-44.922,-42.480,-32.227,0.000
1728700035.449,-50.293,-43.945,-47.852,-50.293,0.000
1728700035.453,-29.297,-43.945,-51.270,-8.789,0.000
1728700035.457,-16.602,-42.480,-45.898,2.930,0.000
1728700035.461,-13.672,-39.551,-55.664,-9.277,0.000
1728700035.465,-23.438,-40.039,-73.242,-24.902,0.000
1728700035.468,-50.293,-36.621,-45.898,-52.734,0.000
1728700035.472,-34.180,-34.668,-19.531,-34.180,0.000
1728700035.476,-6.836,-39.551,-35.156,-8.301,0.000
1728700035.480,-5.859,-37.598,-48.340,-8.789,0.000
1728700035.484,-22.949,-38.086,-40.527,-37.109,0.000
1728700035.488,-56.152,-43.945,-31.250,-67.383,0.000
1728700035.492,-46.387,-41.992,-36.621,-50.293,0.000
1728700035.496,-16.602,-39.551,-46.387,-14.160,0.000
1728700035.500,-19.531,-42.969,-54.688,-15.137,0.000
1728700035.504,-37.109,-41.504,-58.105,-48.340,0.000
1728700035.507,-58.594,-41.504,-55.664,-72.754,0.000
1728700035.511,-50.781,-44.434,-65.430,-48.828,0.000
1728700035.515,-20.508,-43.945,-94.727,-17.578,0.000
1728700035.519,-15.625,-36.133,-88.379,-8.301,0.000
1728700035.523,-38.574,-39.062,-46.875,-35.645,0.000
1728700035.527,-61.035,-45.898,-28.320,-73.730,0.000
1728700035.531,-55.664,-47.852,-21.973,-54.199,0.000
1728700035.535,-34.180,-50.293,-28.809,-30.762,0.000
1728700035.539,-24.414,-49.805,-37.598,-20.508,0.000
1728700035.543,-34.180,-49.316,-43.457,-20.996,0.000
1728700035.547,-59.082,-46.387,-51.758,-54.688,0.000
1728700035.550,-58.594,-44.434,-62.500,-48.340,0.000
1728700035.554,-25.879,-39.062,-69.824,-19.531,0.000
1728700035.558,-17.090,-36.133,-63.477,-20.020,0.000
1728700035.562,-25.879,-40.039,-62.012,-26.855,0.000
1728700035.566,-51.758,-43.945,-46.875,-53.711,0.000
1728700035.570,-65.918,-47.363,-35.156,-59.082,0.000
1728700035.574,-23.926,-42.480,-49.316,-21.973,0.000
1728700035.578,-10.742,-39.551,-53.223,-13.184,0.000
1728700035.582,-29.297,-40.527,-36.621,-28.320,0.000
1728700035.586,-45.410,-44.922,-32.227,-42.480,0.000
1728700035.589,-58.105,-43.945,-54.199,-45.410,0.000
1728700035.593,-35.156,-38.086,-54.199,-19.531,0.000
1728700035.597,-13.184,-37.109,-35.645,-6.348,0.000
1728700035.601,-11.719,-36.621,-33.691,-17.090,0.000
1728700035.605,-39.062,-35.645,-44.922,-37.598,0.000
1728700035.609,-62.988,-40.527,-43.945,-43.945,0.000
1728700035.613,-37.598,-38.574,-37.598,-18.555,0.000
1728700035.617,-16.602,-29.785,-38.574,-11.719,0.000
1728700035.621,-11.719,-28.320,-50.781,-17.090,0.000
1728700035.625,-26.367,-34.180,-51.758,-35.645,0.000
1728700035.629,-43.945,-39.062,-52.734,-45.898,0.000
1728700035.632,-16.113,-34.668,-63.965,-13.672,0.000
1728700035.636,1.953,-35.645,-52.246,-0.977,0.000
1728700035.640,-10.254,-36.621,-46.875,-10.254,0.000
1728700035.644,-24.902,-33.691,-49.316,-27.832,0.000
1728700035.648,-45.898,-36.133,-42.480,-43.945,0.000
1728700035.652,-31.250,-39.551,-42.969,-22.949,0.000
1728700035.656,-11.230,-40.527,-55.664,-11.719,0.000
1728700035.660,-18.555,-37.598,-62.012,-12.207,0.000
1728700035.664,-31.738,-38.086,-57.129,-31.250,0.000
1728700035.668,-58.594,-41.016,-47.852,-61.523,0.000
1728700035.672,-48.828,-40.527,-28.809,-38.574,0.000
1728700035.675,-12.695,-41.992,-24.902,-16.602,0.000
1728700035.679,-10.254,-46.387,-28.320,-17.578,0.000
1728700035.683,-33.691,-47.852,-30.762,-39.062,0.000
1728700035.687,-54.688,-45.898,-40.527,-60.059,0.000
1728700035.691,-38.574,-44.434,-46.875,-24.902,0.000
1728700035.695,-11.719,-43.945,-47.852,-6.836,0.000
1728700035.699,-11.230,-43.457,-53.711,-21.973,0.000
1728700035.703,-22.461,-39.062,-62.012,-30.762,0.000
1728700035.707,-44.922,-39.551,-53.223,-62.012,0.000
1728700035.711,-48.828,-44.434,-39.062,-52.246,0.000
1728700035.714,-16.602,-39.062,-30.762,-20.020,0.000
1728700035.718,0.000,-37.109,-35.645,-19.043,0.000
1728700035.722,-28.320,-44.434,-41.992,-28.320,0.000
1728700035.726,-60.547,-46.875,-42.480,-52.246,0.000
1728700035.730,-52.734,-44.922,-41.504,-49.316,0.000
1728700035.734,-19.043,-38.574,-34.180,-8.789,0.000
1728700035.738,-5.371,-34.668,-31.250,10.254,0.000
1728700035.742,-21.484,-33.203,-40.527,-6.836,0.000
1728700035.746,-49.805,-33.691,-46.875,-39.551,0.000
1728700035.750,-52.246,-34.180,-44.434,-36.621,0.000
1728700035.754,-19.043,-33.203,-41.504,-8.301,0.000
1728700035.757,-5.371,-28.809,-36.133,0.977,0.000
1728700035.761,-14.160,-28.809,-42.969,-8.789,0.000
1728700035.765,-38.574,-34.180,-49.805,-44.434,0.000
1728700035.769,-52.734,-34.668,-39.551,-46.387,0.000
1728700035.773,-27.344,-33.691,-39.551,-17.090,0.000
1728700035.777,-5.859,-32.227,-42.969,-8.301,0.000
1728700035.781,-6.836,-32.227,-40.039,-6.348,0.000
1728700035.785,-36.621,-32.227,-44.922,-33.203,0.000
1728700035.789,-45.410,-29.297,-48.340,-48.828,0.000
1728700035.793,-7.324,-21.484,-49.316,-9.766,0.000
1728700035.797,11.719,-18.555,-42.480,0.488,0.000
1728700035.800,0.488,-25.391,-20.508,-15.625,0.000
1728700035.804,-28.320,-24.902,-10.254,-41.504,0.000
1728700035.808,-52.246,-29.297,-17.578,-58.594,0.000
1728700035.812,-26.367,-33.691,-31.738,-26.855,0.000
1728700035.816,-2.441,-29.785,-35.156,-10.254,0.000
1728700035.820,-12.695,-34.180,-42.969,-25.391,0.000
1728700035.824,-34.668,-39.551,-56.641,-42.969,0.000
1728700035.828,-48.828,-36.133,-65.918,-47.363,0.000
1728700035.832,-28.809,-32.227,-68.359,-26.855,0.000
1728700035.836,-10.254,-29.297,-65.918,-9.277,0.000
1728700035.839,-7.812,-31.738,-64.453,-4.395,0.000
1728700035.843,-24.902,-38.574,-61.523,-32.715,0.000
1728700035.847,-51.758,-45.410,-51.758,-60.059,0.000
1728700035.851,-35.645,-44.922,-49.316,-35.645,0.000
1728700035.855,-8.789,-36.621,-54.688,-9.766,0.000
1728700035.859,-11.719,-35.156,-62.500,-5.859,0.000
1728700035.863,-32.715,-43.945,-56.152,-21.484,0.000
1728700035.867,-58.594,-47.363,-44.434,-57.617,0.000
1728700035.871,-43.945,-47.363,-47.363,-32.227,0.000
1728700035.875,-9.766,-46.387,-59.082,4.395,0.000
1728700035.879,3.418,-38.086,-58.594,-2.930,0.000
1728700035.882,-9.766,-42.480,-49.805,-8.301,0.000
1728700035.886,-46.875,-43.457,-42.480,-47.852,0.000
1728700035.890,-33.691,-35.156,-46.387,-37.598,0.000
1728700035.894,0.000,-32.715,-62.500,5.371,0.000
1728700035.898,7.812,-29.297,-46.387,11.719,0.000
1728700035.902,-3.418,-29.785,-23.438,-10.254,0.000
1728700035.906,-33.203,-30.762,-28.320,-46.875,0.000
1728700035.910,-39.062,-34.180,-31.250,-32.715,0.000
1728700035.914,-6.348,-34.180,-29.297,12.695,0.000
1728700035.918,13.184,-29.785,-34.668,14.160,0.000
1728700035.922,-3.418,-32.715,-49.316,-13.672,0.000
1728700035.925,-28.320,-38.086,-40.527,-28.809,0.000
1728700035.929,-18.066,-38.086,-27.344,-4.883,0.000
1728700035.933,7.812,-32.715,-26.367,22.949,0.000
1728700035.937,0.000,-28.809,-36.133,2.930,0.000
1728700035.941,0.000,-26.855,-41.992,-9.277,0.000
1728700035.945,0.000,-25.879,-42.969,-29.785,0.000
1728700035.949,0.000,-26.855,-51.270,-31.250,0.000
1728700035.953,0.000,-24.414,-52.246,1.465,0.000
1728700035.957,0.000,-26.367,-48.340,-0.977,0.000
1728700035.961,0.000,-30.762,-46.387,-2.441,0.000
1728700035.964,0.000,-32.715,-54.688,-22.461,0.000
1728700035.968,0.000,-30.762,-41.504,-41.504,0.000
1728700035.972,0.000,-28.809,-32.227,-2.441,0.000
1728700035.976,0.000,-25.391,-66.895,9.277,0.000
1728700035.980,0.000,-28.320,-69.336,-4.883,0.000
1728700035.984,-25.879,-31.738,-25.879,-30.762,0.000
1728700035.988,-43.457,-28.320,-2.441,-48.340,0.000
1728700035.992,-19.531,-27.832,-12.207,-18.066,0.000
1728700035.996,-0.488,-32.715,-35.156,-2.930,0.000
1728700036.000,-7.324,-36.621,-39.551,-14.160,0.000
1728700036.003,-32.227,-35.156,-40.527,-38.574,0.000
1728700036.007,-56.641,-37.109,-35.156,-50.781,0.000
1728700036.011,-37.598,-35.645,-34.180,-26.855,0.000
1728700036.015,-7.812,-32.715,-48.340,-14.648,0.000
1728700036.019,-15.137,-34.180,-63.965,-14.160,0.000
1728700036.023,-42.969,-37.109,-67.871,-28.320,0.000
1728700036.027,-58.105,-41.992,-55.176,-54.688,0.000
1728700036.031,-37.598,-42.480,-47.852,-32.227,0.000
1728700036.035,-9.277,-37.109,-30.273,-6.348,0.000
1728700036.039,-6.348,-33.691,-20.020,-8.301,0.000
1728700036.043,-20.020,-34.180,-30.762,-28.320,0.000
1728700036.046,-43.457,-36.621,-35.645,-62.988,0.000
1728700036.050,-29.297,-32.715,-33.691,-35.645,0.000
1728700036.054,-4.395,-36.621,-45.898,-7.812,0.000
1728700036.058,-1.953,-40.527,-52.734,-9.766,0.000
1728700036.062,-12.207,-35.645,-45.898,-24.414,0.000
1728700036.066,-41.992,-29.785,-50.781,-53.711,0.000
1728700036.070,-41.016,-29.785,-49.805,-27.832,0.000
1728700036.074,-14.160,-33.203,-57.129,-0.977,0.000
1728700036.078,1.953,-31.250,-64.941,-5.859,0.000
1728700036.082,-9.766,-36.621,-41.992,-19.043,0.000
1728700036.086,-46.875,-44.922,-14.160,-52.246,0.000
1728700036.089,-51.270,-48.340,-16.113,-46.875,0.000
1728700036.093,-16.602,-48.828,-26.367,-5.859,0.000
1728700036.097,-2.441,-42.969,-25.879,1.465,0.000
1728700036.101,-22.461,-41.992,-30.273,-16.113,0.000
1728700036.105,-56.152,-42.969,-41.504,-51.270,0.000
1728700036.109,-58.594,-44.434,-46.387,-52.246,0.000
1728700036.113,-19.531,-44.434,-50.293,-12.695,0.000
1728700036.117,0.000,-40.039,-47.852,1.953,0.000
1728700036.121,-5.371,-39.062,-55.176,-10.742,0.000
1728700036.125,-32.227,-38.574,-60.547,-40.527,0.000
1728700036.129,-48.340,-44.922,-53.223,-38.574,0.000
1728700036.132,-21.484,-46.387,-38.086,-6.836,0.000
1728700036.136,-0.488,-37.109,-35.156,-1.953,0.000
1728700036.140,-1.953,-33.691,-54.688,-2.930,0.000
1728700036.144,-21.973,-32.715,-62.988,-22.461,0.000
1728700036.148,-46.875,-34.180,-37.109,-41.016,0.000
1728700036.152,-23.926,-38.574,-20.508,-7.812,0.000
1728700036.156,1.465,-40.527,-7.812,13.184,0.000
1728700036.160,-5.859,-41.016,-2.441,0.488,0.000
1728700036.164,-37.598,-44.922,-15.625,-35.156,0.000
1728700036.168,-58.594,-47.363,-23.926,-47.852,0.000
1728700036.171,-29.297,-41.992,-56.641,-5.859,0.000
1728700036.175,-1.465,-35.645,-68.848,3.418,0.000
1728700036.179,-6.348,-31.738,-41.504,-13.672,0.000
1728700036.183,-32.227,-32.227,-30.273,-35.156,0.000
1728700036.187,-45.410,-33.691,-32.715,-38.574,0.000
1728700036.191,-22.461,-33.691,-43.945,0.000,0.000
1728700036.195,0.977,-35.156,-44.434,8.789,0.000
1728700036.199,-3.906,-40.039,-36.621,-1.953,0.000
1728700036.203,-31.250,-39.551,-27.832,-21.973,0.000
1728700036.207,-54.688,-35.645,-27.832,-46.875,0.000
1728700036.211,-32.227,-34.180,-25.391,-16.113,0.000
1728700036.214,-5.371,-36.621,-31.250,8.301,0.000
1728700036.218,-6.836,-37.109,-45.410,0.977,0.000
1728700036.222,-23.438,-33.203,-48.828,-17.578,0.000
1728700036.226,-53.711,-39.551,-27.344,-48.828,0.000
1728700036.230,-38.574,-41.992,-31.738,-27.344,0.000
1728700036.234,-2.441,-33.203,-61.035,7.812,0.000
1728700036.238,-7.324,-38.086,-64.941,-3.906,0.000
1728700036.242,-24.902,-37.598,-64.453,-24.902,0.000
1728700036.246,-45.898,-37.598,-45.898,-43.945,0.000
1728700036.250,-56.152,-47.852,-9.766,-34.180,0.000
1728700036.254,-25.391,-47.363,9.277,-18.555,0.000
1728700036.257,1.953,-52.246,-2.441,-18.555,0.000
1728700036.261,-29.785,-47.852,-47.363,-31.250,0.000
1728700036.265,-47.852,-20.996,-93.750,-52.246,0.000
1728700036.269,-27.344,-26.855,-74.219,-36.133,0.000
1728700036.273,-15.625,-43.945,-35.645,-16.113,0.000
1728700036.277,-11.719,-26.367,-21.484,-24.414,0.000
1728700036.281,-5.859,-42.969,-31.250,-24.902,0.000
1728700036.285,-8.789,-84.473,-110.352,-8.789,0.000
1728700036.289,-11.719,-62.988,-92.285,-9.277,0.000
1728700036.293,18.555,-46.387,-66.406,16.113,0.000
1728700036.296,11.719,-13.184,-124.023,18.555,0.000
1728700036.300,19.043,-6.836,-212.402,22.461,0.000
1728700036.304,52.734,-75.684,-205.078,54.688,0.000
1728700036.308,-15.625,-98.145,124.023,-14.648,0.000
1728700036.312,33.203,-23.926,291.016,40.039,0.000
1728700036.316,158.203,-103.516,-48.828,177.246,0.000
1728700036.320,103.516,-85.449,-165.039,104.980,0.000
1728700036.324,29.785,86.426,33.691,21.973,0.000
1728700036.328,-37.109,157.715,-1.465,-27.832,0.000
1728700036.332,26.855,23.438,177.246,17.090,0.000
1728700036.335,101.074,-24.414,285.156,89.355,0.000
1728700036.339,-53.711,155.762,150.391,-48.828,0.000
1728700036.343,-143.066,256.836,190.918,-165.527,0.000
1728700036.347,-58.105,276.855,294.434,-92.773,0.000
1728700036.351,96.680,140.137,170.898,73.730,0.000
1728700036.355,112.793,121.582,123.535,77.637,0.000
1728700036.359,-55.176,247.070,318.848,-109.375,0.000
1728700036.363,-116.699,408.691,297.852,-168.945,0.000
1728700036.367,-111.816,519.043,264.648,-139.648,0.000
1728700036.371,-26.367,448.242,317.871,-52.734,0.000
1728700036.375,57.617,338.867,471.680,20.020,0.000
1728700036.378,-9.277,388.184,366.211,-35.156,0.000
1728700036.382,-16.113,421.875,215.332,-47.852,0.000
1728700036.386,7.812,517.090,342.773,-26.367,0.000
1728700036.390,-20.020,602.051,392.578,-33.691,0.000
1728700036.394,-12.207,650.879,553.223,-19.043,0.000
1728700036.398,-169.922,687.500,627.441,-183.105,0.000
1728700036.402,-284.668,601.074,478.027,-296.387,0.000
1728700036.406,-208.496,543.457,435.059,-220.215,0.000
1728700036.410,-210.938,529.297,345.703,-205.566,0.000
1728700036.414,-199.219,503.418,432.617,-190.430,0.000
1728700036.418,-114.258,514.160,624.512,-113.770,0.000
1728700036.421,-108.398,536.133,611.816,-124.512,0.000
1728700036.425,-236.816,591.797,602.539,-256.836,0.000
1728700036.429,-269.043,590.332,593.750,-262.207,0.000
1728700036.433,-201.172,559.082,537.109,-185.059,0.000
1728700036.437,-134.277,498.047,561.035,-147.949,0.000
1728700036.441,-157.227,496.094,626.465,-173.828,0.000
1728700036.445,-216.309,554.199,602.051,-222.656,0.000
1728700036.449,-198.242,511.230,574.219,-202.637,0.000
1728700036.453,-161.133,466.797,700.195,-164.551,0.000
1728700036.457,-149.902,465.820,670.898,-154.785,0.000
1728700036.461,-147.949,451.172,470.703,-150.879,0.000
1728700036.464,-158.691,458.496,453.125,-168.457,0.000
1728700036.468,-191.406,375.000,652.344,-181.641,0.000
1728700036.472,-195.801,307.129,729.492,-184.570,0.000
1728700036.476,-177.734,319.336,642.578,-189.453,0.000
1728700036.480,-176.270,303.711,575.684,-180.176,0.000
1728700036.484,-171.387,315.918,475.586,-168.457,0.000
1728700036.488,-168.945,264.160,424.316,-160.645,0.000
1728700036.492,-146.973,203.125,488.281,-142.090,0.000
1728700036.496,-142.090,202.148,477.539,-156.738,0.000
1728700036.500,-164.551,182.617,437.012,-179.688,0.000
1728700036.503,-170.898,171.387,413.086,-185.059,0.000
1728700036.507,-166.992,151.367,378.906,-172.363,0.000
1728700036.511,-132.812,141.602,343.750,-130.371,0.000
1728700036.515,-108.887,134.766,305.176,-104.492,0.000
1728700036.519,-105.957,126.465,297.852,-110.352,0.000
1728700036.523,-115.723,123.535,282.715,-132.324,0.000
1728700036.527,-128.906,114.258,241.699,-131.348,0.000
1728700036.531,-98.145,103.516,220.703,-95.703,0.000
1728700036.535,-77.637,98.633,206.055,-85.938,0.000
1728700036.539,-81.543,92.285,174.316,-94.238,0.000
1728700036.543,-97.168,89.355,144.043,-112.793,0.000
1728700036.546,-111.328,84.961,112.305,-128.906,0.000
1728700036.550,-97.168,60.547,68.359,-105.957,0.000
1728700036.554,-83.008,51.270,41.016,-87.402,0.000
1728700036.558,-79.590,52.734,11.719,-85.449,0.000
1728700036.562,-98.145,46.387,-26.367,-99.121,0.000
1728700036.566,-120.605,47.363,-52.734,-112.305,0.000
1728700036.570,-97.168,49.805,-78.125,-81.055,0.000
1728700036.574,-64.453,41.504,-105.469,-46.875,0.000
1728700036.578,-62.012,29.785,-142.090,-39.551,0.000
1728700036.582,-78.613,23.926,-173.340,-67.383,0.000
1728700036.586,-83.984,25.391,-177.246,-82.520,0.000
1728700036.589,-53.711,24.902,-182.129,-39.062,0.000
1728700036.593,-25.391,16.113,-201.660,-16.602,0.000
1728700036.597,-20.996,10.254,-198.730,-18.066,0.000
1728700036.601,-32.715,3.418,-201.660,-28.809,0.000
1728700036.605,-57.617,-10.254,-220.215,-56.641,0.000
1728700036.609,-40.527,-17.090,-247.559,-26.855,0.000
1728700036.613,1.953,-30.273,-262.207,23.438,0.000
1728700036.617,10.254,-54.688,-278.809,20.508,0.000
1728700036.621,4.395,-68.848,-286.621,15.625,0.000
1728700036.625,-20.508,-78.613,-251.953,-8.301,0.000
1728700036.628,-14.648,-90.820,-257.324,-4.395,0.000
1728700036.632,21.973,-103.516,-267.578,30.762,0.000
1728700036.636,34.180,-113.281,-255.371,33.203,0.000
1728700036.640,16.113,-122.559,-263.184,18.066,0.000
1728700036.644,-14.160,-131.836,-274.902,-2.441,0.000
1728700036.648,-1.465,-141.113,-268.555,20.020,0.000
1728700036.652,42.969,-145.020,-254.883,65.430,0.000
1728700036.656,56.152,-153.320,-267.090,71.289,0.000
1728700036.660,39.551,-170.410,-257.812,46.387,0.000
1728700036.664,12.207,-179.688,-242.188,15.625,0.000
1728700036.668,9.766,-187.988,-247.070,27.344,0.000
1728700036.671,41.992,-188.965,-244.141,57.129,0.000
1728700036.675,59.570,-188.477,-232.422,55.664,0.000
1728700036.679,60.547,-203.613,-223.145,58.105,0.000
1728700036.683,39.062,-208.984,-217.773,33.691,0.000
1728700036.687,23.926,-207.520,-226.074,16.113,0.000
1728700036.691,50.293,-216.309,-241.211,58.594,0.000
1728700036.695,62.500,-223.633,-230.957,65.918,0.000
1728700036.699,56.641,-223.145,-225.586,54.688,0.000
1728700036.703,35.156,-223.145,-230.957,34.668,0.000
1728700036.707,22.461,-227.051,-216.797,24.414,0.000
1728700036.710,47.363,-235.352,-198.730,61.523,0.000
1728700036.714,58.594,-241.211,-200.684,67.871,0.000
1728700036.718,46.875,-243.164,-212.891,44.922,0.000
1728700036.722,28.809,-243.652,-223.633,23.926,0.000
1728700036.726,19.043,-244.629,-222.168,14.648,0.000
1728700036.730,36.621,-245.117,-203.125,51.758,0.000
1728700036.734,55.664,-244.629,-194.824,67.871,0.000
1728700036.738,60.059,-242.676,-201.660,49.316,0.000
1728700036.742,37.598,-244.141,-205.078,23.438,0.000
1728700036.746,13.184,-240.234,-213.379,17.578,0.000
1728700036.749,37.109,-240.234,-229.980,53.711,0.000
1728700036.753,65.918,-249.512,-211.914,63.477,0.000
1728700036.757,65.430,-242.188,-195.312,55.664,0.000
1728700036.761,38.574,-239.746,-205.566,25.879,0.000
1728700036.765,2.441,-253.906,-177.734,-10.742,0.000
1728700036.769,17.578,-260.254,-156.738,17.090,0.000
1728700036.773,45.898,-264.648,-170.898,40.527,0.000
1728700036.777,44.434,-252.930,-182.617,28.320,0.000
1728700036.781,31.738,-245.117,-185.547,13.672,0.000
1728700036.785,10.254,-247.070,-188.477,-3.906,0.000
1728700036.789,20.508,-238.281,-188.965,18.555,0.000
1728700036.792,45.410,-234.863,-190.918,38.086,0.000
1728700036.796,40.527,-234.375,-182.129,34.180,0.000
1728700036.800,17.578,-232.422,-158.203,17.578,0.000
1728700036.804,-15.625,-235.352,-157.715,-19.043,0.000
1728700036.808,-2.930,-234.863,-161.133,-3.418,0.000
1728700036.812,26.855,-232.422,-158.203,32.715,0.000
1728700036.816,29.785,-228.027,-174.316,33.203,0.000
1728700036.820,20.020,-218.750,-188.965,17.578,0.000
1728700036.824,-15.137,-219.238,-192.871,-25.391,0.000
1728700036.828,-3.906,-219.238,-179.199,-10.254,0.000
1728700036.832,40.039,-207.031,-150.879,37.598,0.000
1728700036.835,29.297,-201.660,-140.137,33.203,0.000
1728700036.839,-11.719,-206.543,-135.254,-10.254,0.000
1728700036.843,-38.574,-208.496,-122.070,-44.922,0.000
1728700036.847,-27.344,-205.566,-121.582,-21.484,0.000
1728700036.851,0.488,-200.195,-124.023,0.977,0.000
1728700036.855,8.789,-190.918,-123.535,9.277,0.000
1728700036.859,-0.488,-192.383,-132.812,13.184,0.000
1728700036.863,-23.926,-196.289,-131.348,-8.301,0.000
1728700036.867,-41.992,-189.941,-119.141,-21.973,0.000
1728700036.871,-13.672,-187.500,-128.418,5.859,0.000
1728700036.875,14.160,-186.035,-134.277,14.160,0.000
1728700036.878,7.324,-189.941,-127.441,1.953,0.000
1728700036.882,-25.879,-187.500,-119.629,-25.391,0.000
1728700036.886,-41.992,-178.223,-111.816,-32.227,0.000
1728700036.890,-12.695,-172.852,-110.352,13.184,0.000
1728700036.894,11.230,-172.363,-111.816,26.367,0.000
1728700036.898,0.000,-169.922,-115.723,7.812,0.000
1728700036.902,-24.902,-166.016,-117.188,-20.996,0.000
1728700036.906,-39.551,-166.992,-137.207,-23.438,0.000
1728700036.910,-20.996,-164.062,-156.250,4.883,0.000
1728700036.914,-2.930,-155.762,-142.090,5.859,0.000
1728700036.918,0.488,-148.438,-124.512,6.348,0.000
1728700036.921,-9.766,-149.414,-101.074,-9.277,0.000
1728700036.925,-34.180,-151.855,-85.938,-32.227,0.000
1728700036.929,-17.090,-148.438,-85.938,2.930,0.000
1728700036.933,12.207,-143.066,-88.379,25.879,0.000
1728700036.937,15.625,-136.719,-109.863,18.555,0.000
1728700036.941,-6.348,-136.230,-125.488,-4.883,0.000
1728700036.945,-36.133,-132.324,-130.371,-26.367,0.000
1728700036.949,-24.902,-132.812,-132.812,-5.859,0.000
1728700036.953,6.836,-129.883,-120.117,25.879,0.000
1728700036.957,8.789,-126.465,-97.168,11.719,0.000
1728700036.960,-8.789,-127.930,-69.336,-19.043,0.000
1728700036.964,-32.715,-122.559,-67.871,-35.645,0.000
1728700036.968,-26.367,-119.629,-79.102,-19.531,0.000
1728700036.972,3.906,-117.188,-91.309,-0.977,0.000
1728700036.976,4.883,-119.629,-94.238,-0.977,0.000
1728700036.980,-9.766,-119.141,-97.168,-18.066,0.000
1728700036.984,-41.016,-115.234,-104.492,-46.875,0.000
1728700036.988,-40.527,-117.676,-96.680,-29.785,0.000
1728700036.992,-7.324,-115.723,-112.305,-2.930,0.000
1728700036.996,2.441,-106.445,-129.883,3.906,0.000
1728700037.000,-12.207,-96.191,-104.492,-10.254,0.000
1728700037.003,-38.574,-95.703,-89.355,-53.711,0.000
1728700037.007,-34.668,-97.656,-98.633,-39.062,0.000
1728700037.011,-4.395,-94.727,-96.680,0.000,0.000
1728700037.015,1.465,-96.680,-102.539,-5.859,0.000
1728700037.019,-10.742,-93.750,-108.887,-19.043,0.000
1728700037.023,-37.598,-91.797,-89.355,-46.387,0.000
1728700037.027,-39.551,-92.285,-71.289,-49.805,0.000
1728700037.031,-9.766,-88.867,-79.590,-15.625,0.000
1728700037.035,1.465,-89.355,-84.961,-2.441,0.000
1728700037.039,-4.395,-87.402,-78.613,-4.395,0.000
1728700037.042,-27.832,-87.402,-80.078,-28.320,0.000
1728700037.046,-40.039,-86.426,-77.637,-40.039,0.000
1728700037.050,-9.277,-83.008,-80.078,-3.418,0.000
1728700037.054,8.301,-81.543,-82.520,12.695,0.000
1728700037.058,3.906,-75.195,-88.867,1.465,0.000
1728700037.062,-17.578,-78.125,-93.750,-23.438,0.000
1728700037.066,-29.297,-84.473,-91.309,-26.367,0.000
1728700037.070,-5.371,-77.637,-92.773,10.254,0.000
1728700037.074,8.301,-77.637,-65.918,19.531,0.000
1728700037.078,12.695,-84.473,-55.664,13.184,0.000
1728700037.082,-10.742,-85.449,-79.590,-22.461,0.000
1728700037.085,-46.875,-81.055,-65.430,-41.992,0.000
1728700037.089,-34.668,-79.590,-48.340,-10.254,0.000
1728700037.093,-18.555,-80.078,-56.152,-11.719,0.000
1728700037.097,-32.227,-84.473,-68.848,-36.133,0.000
1728700037.101,-63.477,-83.984,-83.496,-69.336,0.000
1728700037.105,-88.379,-83.008,-85.449,-89.844,0.000
1728700037.109,-55.176,-83.984,-82.031,-47.852,0.000
1728700037.113,-23.926,-78.125,-79.590,-18.555,0.000
1728700037.117,-32.227,-71.289,-76.172,-24.414,0.000
1728700037.121,-54.199,-72.266,-77.637,-47.852,0.000
1728700037.124,-75.684,-72.266,-80.078,-77.637,0.000
1728700037.128,-50.781,-75.195,-87.891,-43.457,0.000
1728700037.132,-12.695,-76.660,-88.379,-10.742,0.000
1728700037.136,-12.207,-79.102,-71.777,-21.973,0.000
1728700037.140,-39.551,-79.102,-56.641,-41.992,0.000
1728700037.144,-65.430,-74.219,-51.270,-57.617,0.000
1728700037.148,-43.457,-76.660,-71.777,-20.996,0.000
1728700037.152,-6.348,-72.266,-88.379,9.277,0.000
1728700037.156,-8.789,-68.359,-65.430,-0.488,0.000
1728700037.160,-35.645,-78.613,-45.898,-32.715,0.000
1728700037.164,-61.035,-76.172,-41.504,-65.918,0.000
1728700037.167,-54.688,-75.195,-54.688,-45.410,0.000
1728700037.171,-26.855,-77.637,-81.055,-13.672,0.000
1728700037.175,-16.113,-73.242,-79.590,-13.672,0.000
1728700037.179,-28.320,-73.730,-49.805,-26.855,0.000
1728700037.183,-53.223,-73.730,-43.945,-59.570,0.000
1728700037.187,-53.711,-72.754,-50.293,-51.270,0.000
1728700037.191,-25.879,-75.684,-56.641,-14.160,0.000
1728700037.195,-23.926,-78.125,-67.383,-21.484,0.000
1728700037.199,-35.156,-75.684,-76.172,-28.809,0.000
1728700037.203,-49.805,-70.801,-81.543,-50.293,0.000
1728700037.207,-56.152,-67.871,-63.965,-54.199,0.000
1728700037.210,-28.320,-62.500,-50.293,-11.230,0.000
1728700037.214,-11.719,-60.059,-63.477,-5.371,0.000
1728700037.218,-18.066,-57.129,-82.031,-19.531,0.000
1728700037.222,-43.945,-55.176,-79.102,-46.875,0.000
1728700037.226,-52.734,-53.711,-71.289,-53.711,0.000
1728700037.230,-26.367,-55.176,-69.336,-19.531,0.000
1728700037.234,-17.090,-64.941,-74.707,-12.695,0.000
1728700037.238,-21.484,-65.918,-72.754,-14.160,0.000
1728700037.242,-40.039,-56.641,-65.918,-32.715,0.000
1728700037.246,-49.805,-55.176,-70.801,-46.875,0.000
1728700037.250,-25.391,-60.547,-72.266,-16.602,0.000
1728700037.253,-11.230,-63.965,-64.453,-3.418,0.000
1728700037.257,-18.555,-59.082,-74.219,-23.438,0.000
1728700037.261,-40.527,-55.664,-88.867,-44.922,0.000
1728700037.265,-54.688,-61.523,-78.613,-52.246,0.000
1728700037.269,-25.879,-62.012,-67.383,-20.508,0.000
1728700037.273,2.441,-56.152,-68.848,3.906,0.000
1728700037.277,-2.441,-55.664,-78.613,-1.953,0.000
1728700037.281,-19.043,-60.547,-68.848,-20.996,0.000
1728700037.285,-32.227,-60.059,-46.387,-33.691,0.000
1728700037.289,-15.625,-57.129,-49.316,-6.836,0.000
1728700037.292,1.953,-60.547,-59.082,7.812,0.000
1728700037.296,-3.906,-63.477,-58.594,-2.930,0.000
1728700037.300,-22.949,-62.500,-59.570,-29.785,0.000
1728700037.304,-44.922,-61.035,-61.035,-56.641,0.000
1728700037.308,-30.762,-61.523,-62.500,-25.879,0.000
1728700037.312,-7.324,-58.105,-65.430,6.836,0.000
1728700037.316,-2.930,-55.176,-61.523,-3.418,0.000
1728700037.320,-27.344,-57.129,-59.570,-30.762,0.000
1728700037.324,-53.223,-54.199,-60.059,-55.664,0.000
1728700037.328,-34.180,-56.641,-53.711,-26.855,0.000
1728700037.332,-12.207,-58.594,-56.152,-7.324,0.000
1728700037.335,-10.742,-56.641,-62.500,-15.137,0.000
1728700037.339,-17.578,-53.223,-66.406,-22.461,0.000
1728700037.343,-49.805,-59.570,-68.848,-55.176,0.000
1728700037.347,-42.480,-60.547,-63.965,-44.922,0.000
1728700037.351,-4.883,-55.664,-57.617,-12.207,0.000
1728700037.355,4.395,-51.270,-47.363,-5.371,0.000
1728700037.359,-11.230,-46.875,-49.316,-19.043,0.000
1728700037.363,-41.504,-47.852,-53.711,-42.969,0.000
1728700037.367,-32.715,-48.340,-56.641,-25.391,0.000
1728700037.371,9.277,-43.457,-66.895,22.949,0.000
1728700037.374,37.598,-45.410,-62.012,41.992,0.000
1728700037.378,22.461,-50.293,-53.711,24.902,0.000
1728700037.382,-29.785,-44.922,-61.523,-20.508,0.000
1728700037.386,-45.410,-38.574,-57.617,-38.574,0.000
1728700037.390,-6.836,-39.062,-40.039,-8.789,0.000
1728700037.394,15.137,-41.504,-39.062,-4.883,0.000
1728700037.398,8.301,-43.945,-51.270,-10.254,0.000
1728700037.402,-17.578,-40.527,-54.199,-32.715,0.000
1728700037.406,-27.832,-45.410,-54.688,-37.598,0.000
1728700037.410,3.906,-51.270,-60.059,7.324,0.000
1728700037.414,28.320,-46.875,-60.547,20.996,0.000
1728700037.417,23.438,-47.852,-60.059,15.137,0.000
1728700037.421,-4.395,-44.434,-62.500,-5.859,0.000
1728700037.425,-15.137,-41.016,-67.871,-18.555,0.000
1728700037.429,20.020,-39.551,-54.688,11.719,0.000
1728700037.433,38.086,-38.086,-47.852,16.602,0.000
1728700037.437,25.879,-40.527,-79.590,6.836,0.000
1728700037.441,-6.348,-42.480,-74.219,-10.254,0.000
1728700037.445,-31.250,-47.363,-46.875,-26.367,0.000
1728700037.449,-2.441,-44.434,-68.359,3.418,0.000
1728700037.453,25.391,-35.645,-61.523,15.137,0.000
1728700037.456,16.602,-41.504,-37.109,-1.465,0.000
1728700037.460,-12.695,-44.434,-42.969,-20.020,0.000
1728700037.464,-33.691,-41.992,-53.223,-33.203,0.000
1728700037.468,-16.113,-43.457,-44.922,-14.648,0.000
1728700037.472,-0.977,-47.852,-39.062,2.441,0.000
1728700037.476,-6.836,-50.781,-35.645,-1.465,0.000
1728700037.480,-20.996,-49.316,-39.062,-18.555,0.000
1728700037.484,-41.504,-47.363,-54.199,-37.598,0.000
1728700037.488,-21.973,-43.457,-49.316,-7.812,0.000
1728700037.492,7.324,-37.598,-43.457,14.160,0.000
1728700037.496,3.418,-40.527,-54.199,12.207,0.000
1728700037.499,-13.672,-38.574,-68.359,-1.953,0.000
1728700037.503,-33.691,-35.156,-68.848,-27.832,0.000
1728700037.507,-20.020,-35.156,-47.852,-6.348,0.000
1728700037.511,4.395,-35.156,-45.410,16.113,0.000
1728700037.515,2.930,-36.621,-53.711,12.207,0.000
1728700037.519,-5.859,-36.133,-34.668,-1.953,0.000
1728700037.523,-27.832,-35.156,-36.133,-33.691,0.000
1728700037.527,-25.879,-32.227,-50.781,-25.391,0.000
1728700037.531,4.395,-29.785,-48.340,4.883,0.000
1728700037.535,11.719,-32.715,-42.969,2.930,0.000
1728700037.539,-6.348,-37.598,-51.758,-13.672,0.000
1728700037.542,-32.715,-37.109,-54.199,-41.016,0.000
1728700037.546,-34.668,-34.668,-37.598,-28.809,0.000
1728700037.550,-9.277,-32.715,-35.645,4.883,0.000
1728700037.554,-2.930,-32.227,-58.105,-0.488,0.000
1728700037.558,-19.043,-33.691,-68.848,-14.160,0.000
1728700037.562,-43.945,-32.715,-64.453,-36.133,0.000
1728700037.566,-44.434,-33.203,-42.480,-33.691,0.000
1728700037.570,-15.625,-37.109,-30.762,-4.395,0.000
1728700037.574,-7.812,-41.504,-43.457,-2.441,0.000
1728700037.578,-15.137,-41.992,-54.688,-12.695,0.000
1728700037.581,-40.039,-41.504,-61.523,-35.645,0.000
1728700037.585,-49.316,-41.504,-53.711,-41.016,0.000
1728700037.589,-18.555,-41.016,-41.992,-9.277,0.000
1728700037.593,1.465,-32.715,-45.898,11.719,0.000
1728700037.597,-2.930,-31.738,-75.195,-4.395,0.000
1728700037.601,-36.621,-40.527,-69.336,-44.434,0.000
1728700037.605,-57.617,-39.062,-31.738,-52.734,0.000
1728700037.609,-29.785,-34.668,-21.973,-13.672,0.000
1728700037.613,-11.230,-37.598,-31.250,-1.953,0.000
1728700037.617,-20.020,-40.039,-37.598,-21.973,0.000
1728700037.621,-41.504,-34.180,-39.062,-43.457,0.000
1728700037.624,-54.688,-34.180,-39.062,-43.945,0.000
1728700037.628,-20.996,-34.668,-50.781,-0.977,0.000
1728700037.632,3.418,-33.691,-51.270,7.812,0.000
1728700037.636,-2.441,-33.203,-50.293,-15.137,0.000
1728700037.640,-25.391,-36.133,-62.988,-34.180,0.000
1728700037.644,-50.293,-40.527,-55.176,-47.363,0.000
1728700037.648,-26.855,-38.086,-48.340,-31.250,0.000
1728700037.652,-6.836,-42.480,-50.781,-15.137,0.000
1728700037.656,-8.789,-45.898,-48.828,-10.742,0.000
1728700037.660,-27.832,-41.992,-49.805,-28.809,0.000
1728700037.664,-53.711,-37.598,-58.594,-54.199,0.000
1728700037.667,-33.203,-28.320,-66.406,-18.555,0.000
1728700037.671,-9.766,-26.855,-53.223,4.883,0.000
1728700037.675,-18.066,-31.738,-33.203,-14.160,0.000
1728700037.679,-35.645,-30.762,-39.551,-39.551,0.000
1728700037.683,-49.316,-30.762,-54.199,-57.617,0.000
1728700037.687,-26.855,-30.273,-57.129,-33.691,0.000
1728700037.691,0.488,-27.832,-51.270,-0.488,0.000
1728700037.695,2.441,-29.297,-44.434,1.465,0.000
1728700037.699,-5.859,-29.785,-58.105,-16.602,0.000
1728700037.703,-35.645,-30.273,-60.059,-39.062,0.000
1728700037.707,-40.527,-36.621,-38.086,-25.391,0.000
1728700037.710,-14.648,-41.504,-34.668,-4.395,0.000
1728700037.714,-4.395,-41.504,-51.758,-7.812,0.000
1728700037.718,-13.672,-43.945,-53.711,-17.578,0.000
1728700037.722,-46.875,-48.340,-47.363,-46.875,0.000
1728700037.726,-49.316,-48.828,-43.457,-33.691,0.000
1728700037.730,-12.695,-43.457,-48.340,1.953,0.000
1728700037.734,-4.883,-41.504,-53.223,-0.488,0.000
1728700037.738,-19.531,-40.527,-58.105,-16.602,0.000
1728700037.742,-48.828,-40.039,-58.594,-47.852,0.000
1728700037.746,-48.340,-36.133,-36.621,-30.762,0.000
1728700037.749,-11.719,-32.715,-35.645,10.254,0.000
1728700037.753,0.977,-31.738,-41.016,6.348,0.000
1728700037.757,-5.371,-32.715,-32.715,0.977,0.000
1728700037.761,-34.180,-37.598,-34.668,-31.738,0.000
1728700037.765,-47.852,-40.039,-41.016,-37.109,0.000
1728700037.769,-32.715,-41.992,-38.574,-9.277,0.000
1728700037.773,-21.484,-44.434,-37.598,-9.277,0.000
1728700037.777,-24.414,-43.457,-43.945,-24.414,0.000
1728700037.781,-49.805,-37.109,-45.898,-53.711,0.000
1728700037.785,-62.500,-34.668,-50.293,-52.734,0.000
1728700037.789,-35.156,-34.668,-67.383,-13.184,0.000
1728700037.792,-5.859,-34.180,-84.961,3.906,0.000
1728700037.796,-3.418,-34.668,-73.242,-14.648,0.000
1728700037.800,-28.809,-36.133,-27.344,-38.574,0.000
1728700037.804,-46.387,-36.133,-9.766,-49.316,0.000
1728700037.808,-27.344,-39.062,-27.832,-26.367,0.000
1728700037.812,-13.672,-42.969,-40.527,-13.184,0.000
1728700037.816,-12.207,-40.039,-55.176,-16.602,0.000
1728700037.820,-27.344,-34.180,-71.777,-33.203,0.000
1728700037.824,-51.758,-34.180,-57.617,-51.270,0.000
1728700037.828,-34.668,-39.551,-41.504,-31.250,0.000
1728700037.831,-9.277,-42.969,-31.738,-11.719,0.000
1728700037.835,1.465,-48.340,-18.066,-1.465,0.000
1728700037.839,-10.742,-52.734,-22.461,-7.812,0.000
1728700037.843,-49.805,-42.480,-41.992,-46.387,0.000
1728700037.847,-44.922,-32.715,-53.223,-51.270,0.000
1728700037.851,-25.391,-37.598,-40.527,-36.621,0.000
1728700037.855,-29.297,-42.480,-45.410,-38.086,0.000
1728700037.859,-50.781,-35.645,-67.383,-60.547,0.000
1728700037.863,-90.820,-35.645,-61.523,-94.727,0.000
1728700037.867,-84.961,-38.086,-51.270,-81.055,0.000
1728700037.870,-59.570,-39.062,-46.875,-54.688,0.000
1728700037.874,-68.848,-44.434,-49.805,-70.801,0.000
1728700037.878,-94.238,-55.176,-59.082,-107.422,0.000
1728700037.882,-121.094,-60.547,-40.039,-127.930,0.000
1728700037.886,-112.793,-49.805,-30.762,-107.910,0.000
1728700037.890,-85.938,-38.086,-60.059,-81.543,0.000
1728700037.894,-60.547,-29.297,-98.145,-66.406,0.000
1728700037.898,-62.988,-35.645,-81.055,-72.266,0.000
1728700037.902,-101.074,-47.852,-32.227,-108.887,0.000
1728700037.906,-93.750,-50.781,-20.996,-93.262,0.000
1728700037.910,-52.246,-50.781,-39.551,-41.992,0.000
1728700037.913,-38.574,-51.270,-50.781,-34.668,0.000
1728700037.917,-44.434,-52.246,-57.129,-50.781,0.000
1728700037.921,-68.359,-49.805,-40.039,-75.195,0.000
1728700037.925,-64.941,-46.875,-15.625,-60.059,0.000
1728700037.929,-29.785,-43.457,-38.574,-16.113,0.000
1728700037.933,-16.602,-45.898,-59.570,-13.184,0.000
1728700037.937,-18.066,-47.363,-76.172,-20.996,0.000
1728700037.941,-39.062,-40.039,-90.820,-48.828,0.000
1728700037.945,-56.152,-40.527,-59.082,-59.082,0.000
1728700037.949,-31.738,-38.574,-15.137,-24.902,0.000
1728700037.953,-16.602,-40.039,-15.137,-17.090,0.000
1728700037.956,-23.438,-50.293,-34.668,-29.785,0.000
1728700037.960,-47.852,-53.223,-41.992,-51.758,0.000
1728700037.964,-62.500,-54.688,-45.410,-53.223,0.000
1728700037.968,-27.832,-52.734,-52.734,-7.812,0.000
1728700037.972,-8.789,-43.945,-59.082,1.953,0.000
1728700037.976,-16.113,-39.062,-52.246,-29.297,0.000
1728700037.980,-34.668,-41.016,-46.387,-58.105,0.000
1728700037.984,-52.734,-41.504,-52.734,-56.152,0.000
1728700037.988,-27.344,-44.922,-42.969,-19.043,0.000
1728700037.992,-7.812,-41.016,-42.480,-13.672,0.000
1728700037.996,-19.531,-37.598,-46.387,-24.902,0.000
1728700037.999,-44.434,-45.410,-54.688,-45.410,0.000
1728700038.003,-57.617,-43.945,-59.082,-56.641,0.000
1728700038.007,-32.227,-41.992,-35.645,-21.973,0.000
1728700038.011,-6.348,-40.039,-19.043,4.395,0.000
1728700038.015,-4.883,-32.227,-15.137,-12.695,0.000
1728700038.019,-19.043,-33.203,-18.555,-34.180,0.000
1728700038.023,-41.992,-35.156,-41.016,-46.387,0.000
1728700038.027,-19.043,-33.691,-59.082,-23.926,0.000
1728700038.031,8.789,-32.227,-46.875,7.324,0.000
1728700038.035,-1.953,-31.250,-31.250,0.488,0.000
1728700038.039,-24.414,-32.227,-41.992,-31.738,0.000
1728700038.042,-50.781,-34.668,-53.223,-53.711,0.000
1728700038.046,-40.039,-40.039,-60.059,-29.785,0.000
1728700038.050,-6.348,-35.645,-55.664,-6.836,0.000
1728700038.054,5.859,-28.809,-39.551,-10.254,0.000
1728700038.058,-12.695,-34.180,-34.668,-20.996,0.000
1728700038.062,-50.293,-37.109,-27.832,-47.852,0.000
1728700038.066,-40.039,-40.039,-30.762,-35.156,0.000
1728700038.070,-4.395,-38.086,-53.711,-4.395,0.000
1728700038.074,6.348,-32.715,-42.480,-5.859,0.000
1728700038.078,-15.625,-40.527,-22.461,-26.367,0.000
1728700038.081,-49.316,-41.504,-59.082,-58.594,0.000
1728700038.085,-43.945,-35.156,-58.594,-42.969,0.000
1728700038.089,-14.648,-40.039,-16.602,-8.301,0.000
1728700038.093,-4.395,-42.969,-15.625,-9.277,0.000
1728700038.097,-19.531,-40.527,-38.574,-22.461,0.000
1728700038.101,-48.828,-40.039,-39.551,-46.875,0.000
1728700038.105,-45.898,-41.992,-46.387,-39.551,0.000
1728700038.109,-9.766,-42.480,-45.898,-0.488,0.000
1728700038.113,-1.465,-38.574,-35.156,-0.488,0.000
1728700038.117,-14.160,-41.992,-45.898,-22.949,0.000
1728700038.121,-33.691,-42.969,-57.617,-40.039,0.000
1728700038.124,-36.621,-36.133,-67.383,-29.297,0.000
1728700038.128,-15.137,-37.598,-58.594,-5.859,0.000
1728700038.132,-8.789,-43.945,-34.668,-4.395,0.000
1728700038.136,-12.695,-41.016,-29.297,-17.578,0.000
1728700038.140,-33.203,-41.992,-30.273,-47.363,0.000
1728700038.144,-47.852,-47.852,-40.527,-56.641,0.000
1728700038.148,-20.020,-49.316,-44.434,-27.344,0.000
1728700038.152,-1.465,-46.875,-27.832,-10.254,0.000
1728700038.156,-9.766,-49.316,-25.391,-7.812,0.000
1728700038.160,-33.203,-47.852,-43.457,-31.738,0.000
1728700038.163,-44.434,-42.480,-41.992,-36.621,0.000
1728700038.167,-21.973,-49.805,-25.391,4.883,0.000
1728700038.171,-7.324,-50.781,-21.973,8.789,0.000
1728700038.175,-13.672,-37.598,-30.273,-9.277,0.000
1728700038.179,-39.551,-33.203,-35.645,-38.086,0.000
1728700038.183,-59.082,-32.715,-56.152,-53.711,0.000
1728700038.187,-27.344,-30.762,-69.336,-10.742,0.000
1728700038.191,-7.324,-33.691,-48.828,6.836,0.000
1728700038.195,-20.020,-41.504,-36.133,-13.672,0.000
1728700038.199,-36.133,-44.434,-38.574,-32.715,0.000
1728700038.203,-56.152,-44.434,-36.133,-54.688,0.000
1728700038.206,-30.762,-42.969,-26.367,-34.180,0.000
1728700038.210,2.930,-40.527,-26.367,-1.953,0.000
1728700038.214,3.418,-32.715,-40.039,-0.488,0.000
1728700038.218,-15.137,-38.574,-49.316,-18.066,0.000
1728700038.222,-50.293,-49.316,-58.105,-47.852,0.000
1728700038.226,-38.574,-43.457,-60.059,-20.508,0.000
1728700038.230,-0.488,-37.598,-35.645,20.020,0.000
1728700038.234,-3.418,-36.133,-26.367,5.371,0.000
1728700038.238,-13.184,-33.691,-39.062,-20.996,0.000
1728700038.242,-32.715,-38.086,-31.250,-49.805,0.000
1728700038.245,-36.133,-37.598,-19.531,-31.738,0.000
1728700038.249,-3.418,-37.598,-21.973,1.953,0.000
1728700038.253,-2.441,-39.551,-34.180,-3.906,0.000
1728700038.257,-26.367,-41.016,-39.551,-12.207,0.000
1728700038.261,-49.805,-49.805,-45.410,-41.016,0.000
1728700038.265,-41.016,-46.875,-57.129,-33.691,0.000
1728700038.269,-4.395,-47.363,-47.363,3.418,0.000
1728700038.273,3.418,-48.828,-30.762,1.465,0.000
1728700038.277,-20.996,-44.434,-24.902,-20.508,0.000
1728700038.281,-44.922,-35.645,-15.137,-52.734,0.000
1728700038.285,-36.621,-32.715,-24.414,-34.668,0.000
1728700038.288,-6.348,-33.691,-31.250,12.207,0.000
1728700038.292,-0.977,-30.762,-27.344,17.578,0.000
1728700038.296,-22.949,-42.969,-29.297,-5.859,0.000
1728700038.300,-53.223,-47.363,-30.273,-41.504,0.000
1728700038.304,-59.082,-43.945,-36.621,-42.480,0.000
1728700038.308,-22.461,-40.527,-36.133,-14.160,0.000
1728700038.312,-8.789,-39.551,-28.320,-7.324,0.000
1728700038.316,-24.414,-46.875,-28.320,-18.066,0.000
1728700038.320,-43.457,-53.223,-29.297,-43.945,0.000
1728700038.324,-53.223,-50.293,-34.180,-53.223,0.000
1728700038.328,-24.414,-39.551,-29.785,-19.043,0.000
1728700038.331,-5.371,-34.668,-40.527,-12.695,0.000
1728700038.335,-3.418,-32.715,-73.730,-10.742,0.000
1728700038.339,-25.879,-32.715,-74.219,-26.367,0.000
1728700038.343,-54.688,-44.434,-34.180,-55.176,0.000
1728700038.347,-36.133,-50.781,-11.719,-31.250,0.000
1728700038.351,-14.648,-46.875,-19.043,-17.578,0.000
1728700038.355,-17.578,-42.969,-31.250,-29.785,0.000
1728700038.359,-37.109,-42.480,-43.457,-50.293,0.000
1728700038.363,-54.199,-41.504,-36.621,-52.246,0.000
1728700038.367,-28.320,-36.133,-20.996,-15.137,0.000
1728700038.371,0.000,-30.273,-32.227,0.977,0.000
1728700038.374,0.488,-28.320,-40.527,-12.207,0.000
1728700038.378,-17.578,-25.879,-22.949,-30.762,0.000
1728700038.382,-40.039,-21.973,-38.574,-43.457,0.000
1728700038.386,-16.113,-26.367,-61.035,-11.230,0.000
1728700038.390,8.301,-36.621,-28.320,8.789,0.000
1728700038.394,1.953,-38.086,-19.531,-1.465,0.000
1728700038.398,-13.184,-37.598,-33.203,-16.602,0.000
1728700038.402,-38.574,-30.762,-30.273,-36.621,0.000
1728700038.406,-25.879,-31.250,-21.973,-0.977,0.000
1728700038.410,4.395,-31.738,-34.668,25.391,0.000
1728700038.413,10.254,-22.949,-43.457,4.883,0.000
1728700038.417,-4.883,-24.414,-21.973,-11.719,0.000
1728700038.421,-30.273,-26.855,-23.926,-34.180,0.000
1728700038.425,-20.020,-23.438,-37.109,-19.531,0.000
1728700038.429,6.836,-28.320,-37.109,6.348,0.000
1728700038.433,7.812,-28.320,-24.414,8.301,0.000
1728700038.437,-5.859,-27.344,-27.832,-5.859,0.000
1728700038.441,-41.016,-31.738,-48.340,-35.645,0.000
1728700038.445,-41.992,-31.250,-51.270,-28.320,0.000
1728700038.449,-9.766,-36.621,-44.922,-11.719,0.000
1728700038.453,-4.395,-42.969,-41.504,-11.719,0.000
1728700038.456,-12.695,-38.086,-38.086,-23.926,0.000
1728700038.460,-41.992,-39.551,-54.688,-58.594,0.000
1728700038.464,-48.828,-43.945,-44.434,-55.176,0.000
1728700038.468,-15.625,-44.922,-15.137,-14.160,0.000
1728700038.472,0.000,-37.598,-25.879,-2.930,0.000
1728700038.476,-15.137,-28.320,-36.133,-16.113,0.000
1728700038.480,-47.363,-33.203,-34.668,-48.828,0.000
1728700038.484,-42.480,-39.062,-34.180,-49.805,0.000
1728700038.488,-20.508,-44.434,-36.621,-16.113,0.000
1728700038.492,-13.184,-49.805,-32.715,-13.184,0.000
1728700038.496,-19.043,-51.270,-30.762,-6.836,0.000
1728700038.499,-43.457,-48.828,-49.805,-29.785,0.000
1728700038.503,-57.617,-45.898,-53.711,-52.246,0.000
1728700038.507,-30.762,-47.363,-43.945,-15.137,0.000
1728700038.511,4.883,-45.410,-30.273,12.695,0.000
1728700038.515,6.348,-43.945,-14.648,9.277,0.000
1728700038.519,-36.621,-42.969,-17.578,-35.156,0.000
1728700038.523,-57.617,-36.621,-29.785,-52.734,0.000
1728700038.527,-29.297,-38.086,-52.734,-25.391,0.000
1728700038.531,-8.789,-40.527,-62.500,-16.602,0.000
1728700038.535,-18.555,-44.434,-36.621,-23.438,0.000
1728700038.538,-38.574,-47.852,-34.668,-43.945,0.000
1728700038.542,-44.434,-46.875,-50.293,-41.016,0.000
1728700038.546,-13.184,-44.922,-66.895,-3.906,0.000
1728700038.550,7.812,-39.551,-78.125,10.254,0.000
1728700038.554,2.441,-37.598,-63.477,2.441,0.000
1728700038.558,-18.066,-41.016,-54.688,-22.949,0.000
1728700038.562,-39.062,-40.039,-44.922,-55.176,0.000
1728700038.566,-20.508,-41.016,-14.648,-27.344,0.000
1728700038.570,2.930,-41.016,-4.883,1.465,0.000
1728700038.574,0.000,-43.457,-15.625,-10.254,0.000
1728700038.578,-17.578,-41.992,-30.762,-38.574,0.000
1728700038.581,-54.199,-41.016,-44.434,-54.688,0.000
1728700038.585,-35.645,-40.527,-47.363,-13.672,0.000
1728700038.589,7.324,-36.621,-82.520,7.324,0.000
1728700038.593,10.742,-33.203,-98.633,3.906,0.000
1728700038.597,-12.695,-38.574,-41.992,-15.625,0.000
1728700038.601,-40.527,-41.992,-3.418,-51.758,0.000
1728700038.605,-21.973,-33.691,-29.785,-20.996,0.000
1728700038.609,-0.977,-31.738,-46.875,3.418,0.000
1728700038.613,-0.488,-47.852,-25.879,-6.836,0.000
1728700038.617,-15.625,-55.664,-0.488,-28.320,0.000
1728700038.620,-48.828,-52.734,-1.465,-59.082,0.000
1728700038.624,-40.039,-42.969,-31.250,-31.738,0.000
1728700038.628,-9.277,-38.086,-61.035,-2.441,0.000
1728700038.632,-10.742,-44.922,-48.828,-14.160,0.000
1728700038.636,-21.484,-41.992,-35.156,-24.902,0.000
1728700038.640,-52.734,-45.410,-54.688,-52.734,0.000
1728700038.644,-46.387,-46.387,-46.875,-42.969,0.000
1728700038.648,-5.371,-35.645,-34.668,-4.883,0.000
1728700038.652,-6.836,-39.062,-16.113,-14.648,0.000
1728700038.656,-26.855,-47.363,-31.250,-39.551,0.000
1728700038.660,-48.340,-43.945,-56.641,-57.617,0.000
1728700038.663,-46.875,-44.922,-63.477,-43.945,0.000
1728700038.667,-21.484,-44.922,-51.758,-12.695,0.000
1728700038.671,-18.066,-47.852,-9.766,-25.879,0.000
1728700038.675,-31.250,-61.035,-0.488,-41.504,0.000
1728700038.679,-45.898,-46.387,-18.555,-60.547,0.000
1728700038.683,-48.340,-32.227,-51.270,-63.965,0.000
1728700038.687,-12.695,-42.969,-64.453,-11.719,0.000
1728700038.691,0.000,-40.039,-38.574,-2.441,0.000
1728700038.695,-14.160,-31.738,-53.223,-24.414,0.000
1728700038.699,-42.480,-31.250,-85.938,-39.062,0.000
1728700038.703,-43.945,-30.273,-51.758,-46.875,0.000
1728700038.706,-27.344,-36.621,-27.344,-42.480,0.000
1728700038.710,-27.832,-35.156,-34.668,-29.785,0.000
1728700038.714,-32.715,-55.176,-17.578,-37.109,0.000
1728700038.718,-53.223,-60.547,0.977,-63.477,0.000
1728700038.722,-62.500,-30.762,-2.441,-66.406,0.000
1728700038.726,-19.531,-32.227,-43.457,-13.672,0.000
1728700038.730,17.090,-34.180,-111.328,13.184,0.000
1728700038.734,-3.906,-30.273,-84.961,-15.625,0.000
1728700038.738,9.277,-20.996,-2.930,-6.836,0.000
1728700038.742,35.156,-67.383,69.824,29.785,0.000
1728700038.745,-13.184,-57.617,67.871,-11.719,0.000
1728700038.749,-44.922,7.324,-111.328,-53.223,0.000
1728700038.753,14.160,-14.648,-189.453,14.648,0.000
1728700038.757,0.000,-34.668,-21.484,5.859,0.000
1728700038.761,29.785,-0.977,-128.906,38.086,0.000
1728700038.765,129.395,-155.762,-111.816,129.883,0.000
1728700038.769,164.062,-93.750,-52.734,154.297,0.000
1728700038.773,100.098,183.105,-30.273,97.168,0.000
1728700038.777,-52.734,46.875,216.797,-58.105,0.000
1728700038.781,-49.805,23.438,118.164,-50.781,0.000
1728700038.785,50.781,97.656,67.871,64.941,0.000
1728700038.788,174.316,-70.801,145.996,176.758,0.000
1728700038.792,99.121,113.281,107.910,88.867,0.000
1728700038.796,-31.250,313.965,94.727,-56.641,0.000
1728700038.800,103.516,160.645,305.176,93.262,0.000
1728700038.804,62.500,363.770,433.594,45.898,0.000
1728700038.808,-110.840,405.762,293.457,-147.461,0.000
1728700038.812,-25.391,359.863,164.062,-58.105,0.000
1728700038.816,107.910,377.930,156.738,43.457,0.000
1728700038.820,-125.000,205.566,442.871,-159.668,0.000
1728700038.824,-328.613,289.551,558.594,-335.449,0.000
1728700038.828,-100.098,510.742,425.781,-112.305,0.000
1728700038.831,-111.328,505.371,537.109,-113.770,0.000
1728700038.835,-311.523,459.473,568.848,-340.332,0.000
1728700038.839,-90.332,521.484,552.246,-112.305,0.000
1728700038.843,53.711,520.508,557.617,51.758,0.000
1728700038.847,-191.895,242.676,551.758,-190.430,0.000
1728700038.851,-268.555,373.535,623.047,-275.879,0.000
1728700038.855,-302.734,630.859,685.059,-316.406,0.000
1728700038.859,-410.156,580.566,785.645,-426.270,0.000
1728700038.863,-449.219,410.156,653.320,-460.938,0.000
1728700038.867,-291.016,314.453,644.531,-314.453,0.000
1728700038.870,-257.324,395.996,912.109,-269.043,0.000
1728700038.874,-498.535,382.812,916.016,-496.094,0.000
1728700038.878,-504.395,405.273,797.852,-520.508,0.000
1728700038.882,-439.941,433.594,734.863,-455.078,0.000
1728700038.886,-388.184,453.125,596.680,-385.742,0.000
1728700038.890,-475.098,176.758,720.703,-451.172,0.000
1728700038.894,-704.590,111.816,980.957,-693.359,0.000
1728700038.898,-798.828,405.273,968.750,-803.711,0.000
1728700038.902,-816.406,275.879,929.199,-816.895,0.000
1728700038.906,-749.512,183.594,862.793,-733.398,0.000
1728700038.910,-700.195,209.961,797.852,-688.965,0.000
1728700038.913,-697.266,143.066,826.660,-682.617,0.000
1728700038.917,-708.008,47.852,896.973,-689.941,0.000
1728700038.921,-707.031,-81.543,854.004,-691.895,0.000
1728700038.925,-677.246,-96.680,835.449,-657.715,0.000
1728700038.929,-732.422,10.742,907.227,-710.449,0.000
1728700038.933,-779.785,-23.926,869.629,-767.578,0.000
1728700038.937,-758.789,-120.117,809.570,-749.023,0.000
1728700038.941,-717.773,-162.598,762.695,-697.754,0.000
1728700038.945,-699.707,-220.215,756.348,-666.992,0.000
1728700038.949,-685.547,-266.113,794.434,-649.902,0.000
1728700038.952,-642.578,-295.410,733.398,-608.887,0.000
1728700038.956,-618.164,-303.223,644.043,-592.285,0.000
1728700038.960,-636.719,-305.664,695.801,-607.910,0.000
1728700038.964,-602.051,-317.383,729.004,-556.641,0.000
1728700038.968,-545.898,-316.895,666.016,-509.277,0.000
1728700038.972,-500.000,-304.688,615.723,-475.098,0.000
1728700038.976,-486.328,-293.945,574.219,-458.008,0.000
1728700038.980,-495.117,-286.621,546.387,-474.121,0.000
1728700038.984,-461.426,-285.156,529.297,-435.547,0.000
1728700038.988,-420.898,-291.504,514.648,-394.531,0.000
1728700038.992,-385.742,-277.344,470.215,-375.488,0.000
1728700038.995,-376.953,-262.207,398.926,-366.211,0.000
1728700038.999,-395.996,-249.023,363.770,-375.488,0.000
1728700039.003,-373.047,-228.027,356.934,-341.797,0.000
1728700039.007,-326.660,-209.473,318.848,-303.223,0.000
1728700039.011,-291.992,-201.172,260.254,-282.715,0.000
1728700039.015,-277.344,-201.172,201.660,-260.742,0.000
1728700039.019,-286.621,-171.387,151.855,-267.090,0.000
1728700039.023,-270.020,-137.207,126.465,-249.512,0.000
1728700039.027,-220.703,-123.535,90.332,-200.684,0.000
1728700039.031,-193.359,-114.258,39.551,-183.105,0.000
1728700039.035,-180.664,-102.051,11.719,-167.969,0.000
1728700039.038,-196.289,-100.586,-5.371,-188.477,0.000
1728700039.042,-199.219,-99.609,-7.812,-195.312,0.000
1728700039.046,-152.832,-94.238,-20.508,-137.207,0.000
1728700039.050,-115.723,-85.938,-70.801,-93.262,0.000
1728700039.054,-105.957,-76.172,-109.375,-91.797,0.000
