timestamps,TP9,AF7,AF8,TP10,Right AUX
1728625977.898,-32.715,-31.250,-36.621,-0.977,0.000
1728625977.902,-38.086,-34.180,-36.133,-4.883,0.000
1728625977.905,-44.434,-41.504,-44.434,-54.688,0.000
1728625977.909,-18.066,-27.832,-46.875,-63.477,0.000
1728625977.913,-30.273,-14.160,-47.363,-37.109,0.000
1728625977.917,-42.480,-24.902,-47.852,-2.441,0.000
1728625977.921,-29.297,-37.109,-46.387,2.441,0.000
1728625977.925,-30.273,-40.039,-50.293,-34.180,0.000
1728625977.929,-25.391,-26.855,-54.688,-60.547,0.000
1728625977.933,-31.738,-21.973,-50.293,-47.852,0.000
1728625977.937,-23.926,-22.461,-40.527,-7.324,0.000
1728625977.941,-18.066,-20.996,-37.109,0.488,0.000
1728625977.944,-31.738,-20.996,-39.551,-37.598,0.000
1728625977.948,-22.461,-16.602,-42.969,-52.734,0.000
1728625977.952,-35.156,-23.438,-50.293,-47.363,0.000
1728625977.956,-37.598,-22.461,-39.551,-9.277,0.000
1728625977.960,-31.250,-17.090,-29.297,7.812,0.000
1728625977.964,-46.387,-24.902,-36.133,-40.039,0.000
1728625977.968,-30.762,-28.809,-39.551,-64.941,0.000
1728625977.972,-31.250,-34.180,-34.180,-55.176,0.000
1728625977.976,-48.828,-41.016,-28.809,-27.344,0.000
1728625977.980,-53.711,-43.945,-39.551,-13.184,0.000
1728625977.983,-61.523,-47.363,-50.293,-43.945,0.000
1728625977.987,-35.156,-36.133,-36.621,-63.477,0.000
1728625977.991,-37.598,-27.344,-24.414,-55.664,0.000
1728625977.995,-52.734,-24.902,-21.484,-26.855,0.000
1728625977.999,-38.086,-30.762,-26.855,1.465,0.000
1728625978.003,-52.734,-41.992,-39.551,-40.039,0.000
1728625978.007,-38.574,-33.203,-38.574,-74.707,0.000
1728625978.011,-27.832,-37.598,-27.344,-56.641,0.000
1728625978.014,-51.270,-46.875,-30.762,-25.879,0.000
1728625978.018,-46.875,-31.738,-32.715,-6.348,0.000
1728625978.022,-46.387,-28.320,-36.133,-29.785,0.000
1728625978.026,-38.574,-33.691,-41.016,-55.664,0.000
1728625978.030,-39.062,-38.574,-42.969,-66.406,0.000
1728625978.034,-53.711,-30.762,-42.480,-43.945,0.000
1728625978.038,-37.598,-16.602,-28.809,5.371,0.000
1728625978.042,-31.250,-27.344,-28.809,-16.602,0.000
1728625978.045,-31.250,-33.691,-40.527,-62.012,0.000
1728625978.049,-39.551,-29.297,-42.969,-64.941,0.000
1728625978.053,-48.828,-29.785,-38.574,-39.551,0.000
1728625978.057,-17.578,-29.785,-41.504,3.906,0.000
1728625978.061,-21.973,-31.738,-48.828,-12.207,0.000
1728625978.065,-30.762,-34.668,-47.363,-59.570,0.000
1728625978.069,-16.602,-32.227,-37.109,-63.477,0.000
1728625978.073,-36.621,-34.668,-28.809,-36.133,0.000
1728625978.077,-33.691,-23.438,-24.414,7.324,0.000
1728625978.081,-38.574,-16.113,-22.949,-3.906,0.000
1728625978.085,-48.340,-32.227,-23.438,-52.246,0.000
1728625978.089,-30.762,-41.992,-16.113,-61.035,0.000
1728625978.093,-41.992,-39.551,-17.090,-43.457,0.000
1728625978.097,-37.598,-31.738,-21.484,4.395,0.000
1728625978.100,-23.926,-31.250,-18.066,6.836,0.000
1728625978.104,-36.133,-37.109,-24.414,-49.316,0.000
1728625978.108,-42.969,-34.668,-23.438,-72.754,0.000
1728625978.112,-48.340,-37.109,-22.461,-56.641,0.000
1728625978.116,-24.902,-36.133,-21.484,-12.207,0.000
1728625978.120,-19.531,-29.297,-16.113,2.930,0.000
1728625978.124,-35.156,-20.996,-14.160,-38.086,0.000
1728625978.128,-17.090,-22.461,-17.578,-56.152,0.000
1728625978.132,-40.039,-39.062,-30.762,-50.293,0.000
1728625978.136,-46.875,-41.504,-39.062,-18.555,0.000
1728625978.140,-26.855,-34.180,-37.109,-2.930,0.000
1728625978.144,-38.086,-39.062,-38.574,-38.086,0.000
1728625978.147,-28.320,-39.551,-34.668,-55.664,0.000
1728625978.151,-28.809,-37.598,-39.062,-54.199,0.000
1728625978.155,-27.832,-30.762,-37.109,-23.438,0.000
1728625978.159,-19.531,-21.973,-25.879,2.930,0.000
1728625978.163,-21.484,-27.832,-33.691,-29.297,0.000
1728625978.167,-16.113,-24.902,-39.551,-60.059,0.000
1728625978.171,-37.109,-18.066,-33.691,-60.547,0.000
1728625978.175,-48.340,-22.461,-31.250,-28.809,0.000
1728625978.179,-30.762,-24.414,-36.133,-2.441,0.000
1728625978.183,-42.480,-22.949,-43.945,-41.992,0.000
1728625978.187,-28.320,-14.648,-37.598,-68.359,0.000
1728625978.191,-14.648,-11.230,-32.715,-55.664,0.000
1728625978.194,-28.320,-13.672,-28.809,-30.273,0.000
1728625978.198,-18.066,-17.578,-25.391,-6.836,0.000
1728625978.202,-30.762,-30.273,-29.785,-42.480,0.000
1728625978.206,-32.715,-38.574,-28.320,-67.383,0.000
1728625978.210,-25.879,-39.062,-21.973,-48.340,0.000
1728625978.214,-48.340,-35.156,-20.020,-33.691,0.000
1728625978.218,-39.551,-34.668,-26.367,-13.184,0.000
1728625978.222,-42.480,-35.645,-37.109,-35.156,0.000
1728625978.226,-46.875,-36.133,-43.945,-68.359,0.000
1728625978.230,-28.809,-39.551,-38.086,-57.617,0.000
1728625978.234,-39.062,-41.992,-28.320,-28.809,0.000
1728625978.237,-37.598,-36.621,-21.484,5.859,0.000
1728625978.241,-39.062,-32.715,-27.832,-14.648,0.000
1728625978.245,-42.480,-38.574,-39.062,-63.965,0.000
1728625978.249,-41.504,-44.434,-44.922,-70.312,0.000
1728625978.253,-60.547,-42.480,-48.340,-46.875,0.000
1728625978.257,-36.621,-31.250,-40.527,-4.883,0.000
1728625978.261,-31.250,-33.203,-45.410,-11.719,0.000
1728625978.265,-47.852,-41.504,-51.270,-59.570,0.000
1728625978.269,-27.344,-40.527,-43.945,-64.453,0.000
1728625978.273,-35.645,-39.062,0.000,-42.969,0.000
1728625978.277,-38.086,-37.109,0.000,-14.160,0.000
1728625978.280,-32.715,-39.551,0.000,-11.719,0.000
1728625978.284,-38.574,-38.574,0.000,-47.852,0.000
1728625978.288,-15.137,-34.180,0.000,-53.711,0.000
1728625978.292,-27.344,-39.551,0.000,-39.551,0.000
1728625978.296,-27.832,-42.969,0.000,-6.348,0.000
1728625978.300,-18.555,-43.945,0.000,5.371,0.000
1728625978.304,-46.875,-42.969,0.000,-47.852,0.000
1728625978.308,-41.504,-46.875,0.000,-74.707,0.000
1728625978.312,-34.180,-41.992,0.000,-56.152,0.000
1728625978.316,-32.227,-35.645,0.000,-12.695,0.000
1728625978.319,-27.832,-35.156,-33.691,2.930,0.000
1728625978.323,-41.992,-37.598,-33.691,-38.086,0.000
1728625978.327,-31.738,-29.785,-27.832,-55.664,0.000
1728625978.331,-37.109,-30.762,-26.367,-41.992,0.000
1728625978.335,-42.480,-35.645,-30.762,-3.418,0.000
1728625978.339,-31.250,-37.598,-36.133,17.090,0.000
1728625978.343,-33.691,-41.992,-35.645,-28.320,0.000
1728625978.347,-31.250,-36.133,-38.086,-59.082,0.000
1728625978.351,-42.969,-20.996,-32.715,-47.363,0.000
1728625978.355,-50.293,-17.578,-26.367,-13.672,0.000
1728625978.358,-35.156,-23.926,-27.832,3.418,0.000
1728625978.362,-47.363,-32.715,-37.598,-32.715,0.000
1728625978.366,-35.645,-37.598,-41.016,-58.105,0.000
1728625978.370,-36.621,-39.551,-35.645,-56.641,0.000
1728625978.374,-40.527,-41.504,-35.156,-34.668,0.000
1728625978.378,-10.742,-27.344,-31.250,1.465,0.000
1728625978.382,-26.855,-25.391,-31.738,-22.461,0.000
1728625978.386,-31.738,-31.738,-39.062,-58.105,0.000
1728625978.389,-20.020,-44.922,-42.480,-47.363,0.000
1728625978.393,-32.227,-41.992,-28.320,-16.113,0.000
1728625978.397,-22.461,-21.484,-14.160,26.367,0.000
1728625978.401,-27.832,-31.250,-31.738,3.418,0.000
1728625978.405,-30.762,-54.199,-49.805,-37.598,0.000
1728625978.409,-21.973,-51.758,-46.387,-43.945,0.000
1728625978.413,-32.715,-37.109,-37.598,-23.438,0.000
1728625978.417,-12.207,-26.855,-30.762,18.066,0.000
1728625978.420,-20.020,-29.785,-31.738,-2.930,0.000
1728625978.424,-43.457,-37.109,-44.434,-60.059,0.000
1728625978.428,-34.180,-35.156,-49.805,-67.871,0.000
1728625978.432,-43.945,-39.551,-47.363,-40.039,0.000
1728625978.436,-33.203,-41.504,-45.410,-2.441,0.000
1728625978.440,-31.738,-40.527,-43.945,-17.578,0.000
1728625978.444,-35.645,-37.109,-33.203,-55.664,0.000
1728625978.448,-20.996,-40.527,-26.367,-58.105,0.000
1728625978.452,-45.410,-40.527,-33.691,-54.199,0.000
1728625978.456,-37.109,-30.762,-29.785,-14.160,0.000
1728625978.460,-39.062,-33.691,-24.902,-8.301,0.000
1728625978.464,-52.734,-41.504,-30.273,-55.176,0.000
1728625978.468,-37.109,-35.156,-31.250,-69.336,0.000
1728625978.472,-56.152,-27.832,-34.668,-61.035,0.000
1728625978.475,-57.129,-28.809,-38.086,-20.508,0.000
1728625978.479,-45.410,-42.480,-36.133,-5.859,0.000
1728625978.483,-51.758,-42.480,-36.133,-59.570,0.000
1728625978.487,-22.461,-27.344,-32.227,-66.895,0.000
1728625978.491,-21.973,-39.551,-33.691,-45.410,0.000
1728625978.495,-35.156,-45.410,-35.645,-11.230,0.000
1728625978.499,-37.598,-34.180,-28.320,-1.465,0.000
1728625978.503,-38.086,-34.668,-29.297,-45.898,0.000
1728625978.507,-18.066,-32.715,-36.621,-64.453,0.000
1728625978.511,-35.645,-33.203,-39.062,-56.641,0.000
1728625978.515,-45.898,-36.621,-38.574,-24.902,0.000
1728625978.519,-25.391,-35.645,-42.969,-0.977,0.000
1728625978.522,-31.250,-33.203,-49.316,-30.273,0.000
1728625978.526,-22.461,-35.156,-49.316,-55.176,0.000
1728625978.530,-23.438,-36.621,-36.621,-43.945,0.000
1728625978.534,-45.898,-35.645,-26.855,-10.742,0.000
1728625978.538,-40.039,-39.062,-27.344,18.066,0.000
1728625978.542,-46.875,-36.133,-34.668,-22.949,0.000
1728625978.546,-38.086,-34.180,-33.203,-63.965,0.000
1728625978.550,-41.992,-43.457,-28.320,-63.965,0.000
1728625978.554,-57.617,-45.898,-28.320,-41.016,0.000
1728625978.558,-30.762,-34.668,-24.414,-0.488,0.000
1728625978.562,-26.855,-30.762,-22.461,-22.461,0.000
1728625978.566,-26.855,-31.250,-23.438,-61.035,0.000
1728625978.569,-16.602,-26.367,-29.297,-50.781,0.000
1728625978.573,-21.973,-22.949,-31.738,-19.531,0.000
1728625978.577,-20.996,-16.602,-29.297,9.766,0.000
1728625978.581,-19.043,-23.438,-30.273,-11.230,0.000
1728625978.585,-25.879,-41.016,-40.039,-49.316,0.000
1728625978.589,-39.062,-37.109,-43.457,-62.500,0.000
1728625978.593,-61.035,-31.738,-41.016,-50.293,0.000
1728625978.597,-54.199,-38.086,-41.504,-12.207,0.000
1728625978.601,-50.293,-37.109,-43.945,-21.484,0.000
1728625978.605,-49.805,-40.527,-42.480,-67.383,0.000
1728625978.609,-40.527,-38.574,-46.387,-65.918,0.000
1728625978.612,-57.617,-34.668,-49.805,-42.480,0.000
1728625978.616,-35.645,-25.391,-38.086,-15.137,0.000
1728625978.620,-31.250,-24.414,-33.203,-18.066,0.000
1728625978.624,-51.758,-35.156,-36.133,-56.641,0.000
1728625978.628,-32.715,-40.039,-37.109,-54.688,0.000
1728625978.632,-30.762,-22.949,-28.809,-23.438,0.000
1728625978.636,-19.531,-11.230,-26.855,8.789,0.000
1728625978.640,-19.531,-31.250,-34.180,0.000,0.000
1728625978.644,-33.691,-34.668,-37.598,-51.270,0.000
1728625978.648,-17.090,-27.344,-38.086,-64.941,0.000
1728625978.651,-40.527,-41.504,-46.875,-51.758,0.000
1728625978.655,-54.688,-50.293,-50.781,-22.461,0.000
1728625978.659,-39.551,-45.410,-35.645,-8.301,0.000
1728625978.663,-42.480,-43.457,-34.668,-45.898,0.000
1728625978.667,-31.738,-44.434,-42.480,-64.453,0.000
1728625978.671,-39.551,-43.457,-38.086,-49.805,0.000
1728625978.675,-36.133,-33.691,-23.926,5.371,0.000
1728625978.679,-28.809,-18.066,-17.578,20.996,0.000
1728625978.683,-42.480,-30.273,-33.203,-37.598,0.000
1728625978.687,-28.809,-40.527,-38.574,-63.965,0.000
1728625978.690,-35.156,-27.832,-30.273,-60.059,0.000
1728625978.694,-45.898,-30.273,-28.809,-28.809,0.000
1728625978.698,-22.461,-37.109,-38.086,-2.441,0.000
1728625978.702,-31.738,-39.062,-51.270,-45.898,0.000
1728625978.706,-39.062,-34.180,-48.828,-78.613,0.000
1728625978.710,-34.668,-28.809,-39.062,-65.430,0.000
1728625978.714,-47.363,-31.738,-37.598,-30.762,0.000
1728625978.718,-41.504,-37.109,-39.062,0.000,0.000
1728625978.722,-41.992,-38.574,-40.039,-30.762,0.000
1728625978.726,-30.762,-29.785,-34.668,-59.570,0.000
1728625978.729,-25.879,-25.391,-38.086,-50.781,0.000
1728625978.733,-35.645,-29.297,-47.363,-23.926,0.000
1728625978.737,-22.461,-26.367,-42.969,0.488,0.000
1728625978.741,-36.133,-24.902,-41.992,-39.062,0.000
1728625978.745,-41.992,-31.738,-41.504,-71.777,0.000
1728625978.749,-40.527,-35.156,-41.504,-63.477,0.000
1728625978.753,-51.758,-35.645,-44.922,-40.039,0.000
1728625978.757,-38.086,-35.645,-40.527,-4.883,0.000
1728625978.760,-44.434,-44.922,-40.527,-24.414,0.000
1728625978.764,-37.109,-50.781,-43.945,-52.246,0.000
1728625978.768,-24.414,-37.109,-42.480,-49.316,0.000
1728625978.772,-47.852,-32.715,-36.133,-27.344,0.000
1728625978.776,-34.180,-29.785,-28.320,6.348,0.000
1728625978.780,-28.809,-32.715,-39.062,-16.113,0.000
1728625978.784,-29.297,-39.551,-36.133,-61.035,0.000
1728625978.788,-16.113,-35.645,-24.902,-63.477,0.000
1728625978.792,-31.738,-33.203,-29.785,-39.062,0.000
1728625978.796,-21.973,-26.367,-25.879,8.789,0.000
1728625978.800,-20.020,-26.855,-27.344,8.789,0.000
1728625978.804,-28.320,-34.180,-39.062,-31.738,0.000
1728625978.808,-25.391,-43.457,-42.969,-40.527,0.000
1728625978.812,-44.434,-45.410,-39.551,-37.109,0.000
1728625978.816,-28.320,-31.738,-29.785,0.977,0.000
1728625978.819,-20.996,-28.809,-31.250,3.906,0.000
1728625978.823,-45.410,-44.434,-47.363,-45.898,0.000
1728625978.827,-31.250,-41.992,-51.758,-62.012,0.000
1728625978.831,-37.109,-39.062,-50.293,-60.547,0.000
1728625978.835,-37.109,-38.574,-44.434,-20.508,0.000
1728625978.839,-20.996,-37.109,-38.086,4.883,0.000
1728625978.843,-26.367,-36.133,-42.480,-37.598,0.000
1728625978.847,-16.113,-24.902,-36.133,-47.363,0.000
1728625978.851,-27.832,-27.344,-27.344,-28.320,0.000
1728625978.855,-34.180,-35.156,-32.227,-1.953,0.000
1728625978.859,-21.973,-40.527,-40.039,0.488,0.000
1728625978.863,-38.574,-40.527,-45.898,-48.340,0.000
1728625978.867,-26.367,-32.715,-43.945,-62.988,0.000
1728625978.870,-23.438,-34.668,-44.434,-48.340,0.000
1728625978.874,-29.297,-34.180,-40.039,-25.391,0.000
1728625978.878,-21.973,-30.762,-31.738,0.488,0.000
1728625978.882,0.000,-34.668,-37.109,-30.762,0.000
1728625978.886,0.000,-33.203,-39.062,-56.641,0.000
1728625978.890,0.000,-34.180,-36.621,-49.316,0.000
1728625978.894,0.000,-29.297,-37.598,-15.137,0.000
1728625978.898,0.000,-25.879,-40.039,12.207,0.000
1728625978.902,0.000,-33.691,-50.293,-36.621,0.000
1728625978.906,0.000,-36.621,-51.270,-69.336,0.000
1728625978.910,0.000,-44.434,-48.828,-62.500,0.000
1728625978.914,0.000,-45.898,-43.457,-31.250,0.000
1728625978.918,0.000,-34.180,-33.691,7.324,0.000
1728625978.921,0.000,-34.180,-37.598,-24.902,0.000
1728625978.925,0.000,-36.133,-41.016,-66.406,0.000
1728625978.929,-22.949,-41.504,-40.039,-70.312,0.000
1728625978.933,-25.879,-38.574,-38.086,-40.527,0.000
1728625978.937,1.953,-24.902,-32.227,1.953,0.000
1728625978.941,-23.926,-38.574,-34.180,-25.391,0.000
1728625978.945,-54.199,-52.734,-40.039,-68.359,0.000
1728625978.949,-41.016,-46.387,-41.016,-68.359,0.000
1728625978.953,-42.480,-34.668,-35.156,-40.039,0.000
1728625978.957,-19.531,-30.273,-29.297,13.672,0.000
1728625978.961,-10.742,-39.551,-33.203,4.883,0.000
1728625978.965,-35.645,-28.320,-30.273,-51.270,0.000
1728625978.968,-39.551,-28.320,-24.414,-60.547,0.000
1728625978.972,-53.223,-46.875,-30.273,-43.945,0.000
1728625978.976,-30.273,-36.133,-30.273,-1.953,0.000
1728625978.980,-20.508,-32.227,-23.926,0.000,0.000
1728625978.984,-39.062,-47.852,-29.785,-51.270,0.000
1728625978.988,-28.809,-53.711,-39.551,-62.500,0.000
1728625978.992,-41.504,-54.688,-44.922,-49.316,0.000
1728625978.996,-25.879,-46.387,-36.133,-12.207,0.000
1728625979.000,-16.602,-28.809,-30.273,-0.488,0.000
1728625979.004,-38.086,-36.133,-42.480,-52.246,0.000
1728625979.008,-33.203,-45.898,-42.480,-79.590,0.000
1728625979.011,-42.969,-38.574,-34.668,-59.082,0.000
1728625979.015,-26.855,-35.645,-35.156,-7.812,0.000
1728625979.019,-17.090,-39.551,-37.598,0.000,0.000
1728625979.023,-47.363,-42.480,-36.621,-49.805,0.000
1728625979.027,-35.156,-35.645,-27.832,-58.594,0.000
1728625979.031,-31.738,-28.809,-22.949,-35.156,0.000
1728625979.035,-29.297,-28.320,-27.832,-4.883,0.000
1728625979.039,-26.367,-33.691,-36.621,-1.953,0.000
1728625979.043,-42.969,-39.062,-40.527,-43.945,0.000
1728625979.046,-27.832,-37.109,-38.574,-57.129,0.000
1728625979.050,-29.297,-38.574,-42.480,-45.410,0.000
1728625979.054,-42.480,-34.180,-38.086,-19.531,0.000
1728625979.058,-24.414,-25.879,-26.855,8.301,0.000
1728625979.062,-25.391,-24.902,-32.227,-29.297,0.000
1728625979.066,-12.207,-27.832,-34.668,-51.758,0.000
1728625979.070,-2.441,-26.367,-31.250,-42.969,0.000
1728625979.074,-12.695,-22.949,-28.320,-7.324,0.000
1728625979.078,-19.531,-32.227,-24.414,22.461,0.000
1728625979.081,-56.152,-42.969,-37.598,-34.180,0.000
1728625979.085,-52.246,-43.945,-49.805,-68.848,0.000
1728625979.089,-42.480,-46.875,-38.086,-53.223,0.000
1728625979.093,-45.410,-41.504,-22.949,-27.344,0.000
1728625979.097,-21.973,-28.320,-14.648,1.953,0.000
1728625979.101,-34.668,-28.320,-24.414,-23.438,0.000
1728625979.105,-32.715,-34.668,-34.180,-48.828,0.000
1728625979.109,-29.297,-40.527,-33.691,-43.945,0.000
1728625979.113,-43.945,-33.691,-29.297,-25.391,0.000
1728625979.116,-23.926,-31.738,-24.902,14.648,0.000
1728625979.120,-23.926,-37.598,-31.738,-2.441,0.000
1728625979.124,-23.926,-35.645,-37.109,-34.180,0.000
1728625979.128,-10.254,-29.785,-31.738,-40.039,0.000
1728625979.132,-28.809,-36.621,-28.809,-28.809,0.000
1728625979.136,-16.602,-43.457,-31.738,18.066,0.000
1728625979.140,-13.184,-42.480,-39.551,-2.441,0.000
1728625979.144,-14.160,-30.762,-34.180,-53.223,0.000
1728625979.148,-6.836,-27.832,-30.762,-59.082,0.000
1728625979.152,-31.738,-34.668,-39.551,-42.480,0.000
1728625979.155,-30.273,-25.879,-37.109,-4.395,0.000
1728625979.159,-36.621,-23.926,-35.645,-17.090,0.000
1728625979.163,-43.945,-28.809,-44.434,-56.641,0.000
1728625979.167,-23.438,-29.785,-43.457,-52.246,0.000
1728625979.171,-35.645,-29.785,-33.691,-24.902,0.000
1728625979.175,-37.109,-34.668,-36.133,-3.906,0.000
1728625979.179,-31.250,-43.457,-47.852,-21.973,0.000
1728625979.183,-29.297,-43.457,-47.852,-53.711,0.000
1728625979.186,-20.020,-37.598,-41.992,-64.453,0.000
1728625979.190,-41.016,-32.715,-37.598,-49.316,0.000
1728625979.194,-42.480,-31.250,-35.156,-7.324,0.000
1728625979.198,-36.621,-35.645,-41.992,-11.719,0.000
1728625979.202,-50.781,-36.133,-44.434,-57.617,0.000
1728625979.206,-38.086,-27.832,-41.504,-63.965,0.000
1728625979.210,-36.621,-32.227,-44.434,-49.805,0.000
1728625979.214,-33.203,-35.645,-46.387,-21.484,0.000
1728625979.218,-20.996,-32.715,-40.039,-3.418,0.000
1728625979.222,-37.109,-32.715,-39.551,-40.527,0.000
1728625979.226,-36.621,-35.156,-44.922,-56.152,0.000
1728625979.230,-31.250,-32.715,-40.527,-28.809,0.000
1728625979.234,-28.809,-28.809,-26.855,-1.953,0.000
1728625979.237,-29.297,-25.391,-26.367,12.695,0.000
1728625979.241,-29.785,-28.320,-37.109,-19.043,0.000
1728625979.245,-6.836,-32.227,-38.086,-37.109,0.000
1728625979.249,-26.367,-31.250,-33.203,-36.133,0.000
1728625979.253,-52.734,-34.668,-36.133,-16.602,0.000
1728625979.257,-37.109,-41.016,-39.551,3.906,0.000
1728625979.261,-44.922,-43.945,-42.969,-30.762,0.000
1728625979.265,-38.086,-30.762,-34.668,-54.688,0.000
1728625979.269,-33.203,-15.625,-31.738,-48.828,0.000
1728625979.273,-40.039,-20.508,-32.715,-15.625,0.000
1728625979.277,-29.785,-29.297,-25.879,25.391,0.000
1728625979.281,-42.480,-29.297,-24.902,-12.695,0.000
1728625979.284,-41.992,-27.344,-33.691,-54.688,0.000
1728625979.288,-40.527,-30.273,-40.527,-54.199,0.000
1728625979.292,-60.059,-30.273,-41.504,-34.180,0.000
1728625979.296,-39.062,-22.461,-31.738,-3.906,0.000
1728625979.300,-29.297,-26.367,-32.715,-27.832,0.000
1728625979.304,-38.086,-29.785,-32.715,-66.895,0.000
1728625979.308,-39.551,-27.344,-31.250,-65.430,0.000
1728625979.312,-41.016,-27.344,-28.809,-28.809,0.000
1728625979.316,-31.250,-26.855,-22.949,-0.977,0.000
1728625979.320,-41.016,-34.668,-34.180,-27.344,0.000
1728625979.324,-44.922,-33.691,-50.293,-68.848,0.000
1728625979.328,-37.598,-28.320,-48.828,-79.102,0.000
1728625979.331,-44.922,-30.762,-37.598,-49.316,0.000
1728625979.335,-25.879,-31.738,-30.273,5.371,0.000
1728625979.339,-31.250,-29.297,-32.227,-10.742,0.000
1728625979.343,-32.227,-29.785,-31.738,-50.781,0.000
1728625979.347,-16.113,-26.855,-30.762,-65.430,0.000
1728625979.351,-19.043,-29.785,-32.227,-54.688,0.000
1728625979.355,-1.465,-30.762,-28.320,-4.395,0.000
1728625979.359,-18.066,-35.156,-37.598,-9.277,0.000
1728625979.363,-33.203,-35.156,-44.922,-52.734,0.000
1728625979.367,-20.996,-26.855,-35.645,-59.570,0.000
1728625979.371,-44.434,-40.527,-39.551,-51.758,0.000
1728625979.374,-41.504,-51.270,-42.480,-13.184,0.000
1728625979.378,-9.277,-32.227,-19.531,13.184,0.000
1728625979.382,-17.090,-30.273,-19.043,-32.715,0.000
1728625979.386,11.719,-30.273,-18.066,-27.832,0.000
1728625979.390,24.414,-2.441,-0.488,21.484,0.000
1728625979.394,-0.488,0.488,-20.996,34.668,0.000
1728625979.398,17.578,2.930,-40.527,54.688,0.000
1728625979.402,19.043,-50.781,-40.039,9.277,0.000
1728625979.406,25.879,-91.309,-38.086,-36.133,0.000
1728625979.410,31.738,-19.043,-12.695,23.438,0.000
1728625979.413,-53.223,-38.574,-41.016,-0.977,0.000
1728625979.417,-48.828,-74.707,-79.102,-16.113,0.000
1728625979.421,40.527,-38.086,-26.855,53.711,0.000
1728625979.425,147.949,12.207,76.660,121.094,0.000
1728625979.429,118.164,-4.395,64.941,83.984,0.000
1728625979.433,41.504,-39.062,-60.059,69.824,0.000
1728625979.437,96.191,-47.363,-98.145,128.418,0.000
1728625979.441,-49.316,-173.828,-59.082,-39.062,0.000
1728625979.445,-177.246,-229.492,-52.734,-173.828,0.000
1728625979.448,-69.336,-115.234,-29.785,-77.148,0.000
1728625979.452,-38.574,-48.340,7.324,10.254,0.000
1728625979.456,75.195,-5.859,68.359,141.113,0.000
1728625979.460,154.785,1.465,31.738,186.035,0.000
1728625979.464,49.316,-21.484,-34.180,73.242,0.000
1728625979.468,-5.859,8.789,-54.199,39.062,0.000
1728625979.472,-24.414,45.898,-77.637,66.895,0.000
1728625979.476,11.719,95.703,-52.734,140.625,0.000
1728625979.480,27.832,123.535,-53.223,150.879,0.000
1728625979.484,29.297,145.020,-57.129,142.578,0.000
1728625979.487,60.059,175.293,-35.156,173.828,0.000
1728625979.491,35.645,169.922,-57.129,179.199,0.000
1728625979.495,30.273,172.852,-82.031,196.777,0.000
1728625979.499,28.809,170.410,-78.125,184.570,0.000
1728625979.503,20.020,157.715,-67.871,155.762,0.000
1728625979.507,35.645,170.410,-61.035,158.203,0.000
1728625979.511,27.832,181.641,-62.988,172.852,0.000
1728625979.515,40.527,176.758,-55.176,220.703,0.000
1728625979.519,39.551,164.062,-57.129,209.961,0.000
1728625979.522,25.879,154.297,-55.664,152.344,0.000
1728625979.526,47.363,153.809,-35.645,146.484,0.000
1728625979.530,30.273,159.668,-34.180,153.320,0.000
1728625979.534,17.090,162.598,-38.574,165.039,0.000
1728625979.538,11.719,150.391,-46.387,147.461,0.000
1728625979.542,3.906,152.344,-54.199,98.145,0.000
1728625979.546,6.836,162.109,-64.941,64.453,0.000
1728625979.549,-24.414,147.461,-76.172,64.941,0.000
1728625979.553,-20.996,133.301,-79.590,104.004,0.000
1728625979.557,-9.277,135.254,-81.543,110.352,0.000
1728625979.561,-17.578,140.625,-79.590,66.895,0.000
1728625979.565,13.184,149.902,-73.730,55.176,0.000
1728625979.569,14.648,150.391,-65.918,66.895,0.000
1728625979.573,16.113,137.695,-61.035,104.980,0.000
1728625979.577,30.273,131.348,-56.641,117.188,0.000
1728625979.581,22.461,130.371,-51.758,63.965,0.000
1728625979.585,39.062,132.324,-41.992,56.641,0.000
1728625979.589,63.965,149.414,-22.461,71.777,0.000
1728625979.593,78.125,179.688,7.324,102.051,0.000
1728625979.597,91.309,187.988,34.180,135.254,0.000
1728625979.601,91.309,166.992,52.246,106.445,0.000
1728625979.604,104.980,142.090,70.312,71.777,0.000
1728625979.608,114.746,128.906,84.961,70.312,0.000
1728625979.612,98.145,124.512,96.680,104.004,0.000
1728625979.616,100.098,108.398,111.816,131.348,0.000
1728625979.620,104.980,91.797,107.910,94.238,0.000
1728625979.624,115.723,89.844,99.121,49.316,0.000
1728625979.628,115.234,63.477,104.980,41.504,0.000
1728625979.632,99.121,23.926,103.516,64.941,0.000
1728625979.636,92.285,6.836,95.215,89.844,0.000
1728625979.640,75.684,-11.719,79.102,46.875,0.000
1728625979.644,77.637,-36.133,67.871,7.324,0.000
1728625979.648,73.730,-58.105,71.777,20.996,0.000
1728625979.651,55.176,-78.613,56.641,29.297,0.000
1728625979.655,42.969,-92.773,41.504,28.809,0.000
1728625979.659,11.230,-103.516,38.574,-21.484,0.000
1728625979.663,13.184,-107.422,43.457,-59.570,0.000
1728625979.667,16.602,-116.211,54.688,-57.617,0.000
1728625979.671,-8.789,-132.812,43.457,-56.641,0.000
1728625979.675,0.000,-159.180,25.391,-30.273,0.000
1728625979.679,-11.230,-177.246,22.949,-42.480,0.000
1728625979.683,-28.320,-166.992,18.555,-99.121,0.000
1728625979.687,-24.414,-158.691,4.883,-123.535,0.000
1728625979.691,-54.688,-152.344,1.465,-111.816,0.000
1728625979.695,-50.293,-150.391,9.277,-77.637,0.000
1728625979.698,-58.105,-169.434,3.906,-78.125,0.000
1728625979.702,-66.406,-173.340,-4.883,-114.258,0.000
1728625979.706,-41.992,-165.039,-2.441,-122.559,0.000
1728625979.710,-59.082,-177.246,-0.977,-108.398,0.000
1728625979.714,-52.734,-159.668,21.484,-70.312,0.000
1728625979.718,-25.879,-139.648,33.203,-66.895,0.000
1728625979.722,-36.621,-159.180,17.090,-110.352,0.000
1728625979.726,-56.152,-171.387,14.160,-123.535,0.000
1728625979.730,-67.383,-173.828,19.043,-119.141,0.000
1728625979.734,-54.688,-163.086,20.996,-80.078,0.000
1728625979.738,-60.547,-159.668,8.789,-72.754,0.000
1728625979.741,-77.637,-149.414,-6.348,-121.582,0.000
1728625979.745,-60.547,-150.391,-10.742,-126.953,0.000
1728625979.749,-72.266,-172.852,-14.648,-112.305,0.000
1728625979.753,-72.754,-177.734,-16.602,-81.543,0.000
1728625979.757,-52.734,-158.203,-23.438,-65.918,0.000
1728625979.761,-70.801,-124.023,-24.414,-110.352,0.000
1728625979.765,-77.148,-109.863,-20.508,-137.695,0.000
1728625979.769,-95.215,-119.141,-25.879,-129.395,0.000
1728625979.773,-99.609,-105.957,-14.160,-93.750,0.000
1728625979.777,-81.055,-90.820,-13.184,-67.871,0.000
1728625979.780,-90.332,-98.145,-29.297,-105.469,0.000
1728625979.784,-81.543,-83.008,-24.414,-128.418,0.000
1728625979.788,-72.266,-54.199,-16.602,-118.652,0.000
1728625979.792,-77.148,-48.340,-19.043,-79.590,0.000
1728625979.796,-62.988,-55.176,-26.855,-51.758,0.000
1728625979.800,-64.941,-87.402,-33.691,-92.773,0.000
1728625979.804,-63.477,-104.980,-32.715,-127.441,0.000
1728625979.808,-59.570,-99.609,-32.715,-119.629,0.000
1728625979.812,-60.547,-83.008,-24.414,-71.777,0.000
1728625979.816,-56.152,-70.312,-29.785,-45.410,0.000
1728625979.819,-66.895,-65.430,-44.922,-87.402,0.000
1728625979.823,-60.059,-65.918,-42.969,-117.188,0.000
1728625979.827,-54.688,-84.473,-37.598,-109.863,0.000
1728625979.831,-48.828,-89.355,-37.109,-85.449,0.000
1728625979.835,-38.574,-72.754,-36.133,-43.457,0.000
1728625979.839,-63.477,-77.148,-51.758,-76.660,0.000
1728625979.843,-72.754,-87.402,-56.152,-115.723,0.000
1728625979.847,-70.801,-73.730,-46.387,-107.910,0.000
1728625979.851,-76.660,-42.480,-41.504,-84.961,0.000
1728625979.854,-64.453,-49.316,-37.109,-45.410,0.000
1728625979.858,-70.312,-73.242,-45.410,-59.082,0.000
1728625979.862,-61.523,-68.359,-47.363,-94.238,0.000
1728625979.866,-49.316,-61.523,-40.039,-101.074,0.000
1728625979.870,-55.664,-58.105,-45.898,-80.566,0.000
1728625979.874,-41.992,-55.664,-48.828,-40.527,0.000
1728625979.878,-55.664,-55.176,-44.434,-46.875,0.000
1728625979.882,-61.523,-58.105,-44.434,-97.656,0.000
1728625979.886,-42.969,-63.965,-42.480,-104.004,0.000
1728625979.889,-55.664,-66.895,-47.363,-73.730,0.000
1728625979.893,-48.828,-58.105,-48.828,-39.062,0.000
1728625979.897,-39.062,-52.246,-38.086,-37.598,0.000
1728625979.901,-44.434,-46.387,-34.668,-78.613,0.000
1728625979.905,-39.551,-44.922,-40.039,-95.215,0.000
1728625979.909,-52.246,-44.922,-48.828,-78.613,0.000
1728625979.913,-35.645,-26.367,-48.828,-29.785,0.000
1728625979.917,-18.066,-22.949,-40.527,-15.625,0.000
1728625979.920,-37.598,-37.598,-37.109,-56.152,0.000
1728625979.924,-40.527,-37.598,-37.598,-84.473,0.000
1728625979.928,-37.598,-27.832,-36.621,-68.359,0.000
1728625979.932,-37.598,-26.855,-38.574,-21.484,0.000
1728625979.936,-43.457,-21.973,-44.922,-14.160,0.000
1728625979.940,-54.688,-12.695,-42.969,-61.523,0.000
1728625979.944,-32.227,-13.184,-34.668,-79.102,0.000
1728625979.948,-27.832,-9.277,-34.180,-62.500,0.000
1728625979.952,-44.434,-5.859,-32.227,-25.391,0.000
1728625979.956,-49.316,-15.137,-30.762,-9.766,0.000
1728625979.960,-60.059,-35.156,-44.434,-58.105,0.000
1728625979.964,-41.992,-43.457,-46.875,-91.797,0.000
1728625979.968,-54.199,-40.039,-45.410,-83.984,0.000
1728625979.972,-58.105,-33.203,-41.992,-45.898,0.000
1728625979.975,-30.762,-20.996,-35.645,-5.371,0.000
1728625979.979,-37.598,-19.531,-50.781,-39.062,0.000
1728625979.983,-35.645,-17.090,-52.246,-72.266,0.000
1728625979.987,-43.457,-11.230,-50.781,-72.266,0.000
1728625979.991,-47.852,-15.625,-50.293,-50.293,0.000
1728625979.995,-27.344,-18.066,-43.945,-12.695,0.000
1728625979.999,-47.363,-11.719,-42.480,-45.410,0.000
1728625980.003,-47.852,-4.395,-41.504,-89.355,0.000
1728625980.007,-38.086,-4.395,-41.504,-88.867,0.000
1728625980.011,-59.082,-11.230,-41.992,-58.594,0.000
1728625980.015,-55.176,-9.277,-40.527,-25.879,0.000
1728625980.019,-48.340,-1.953,-49.805,-48.828,0.000
1728625980.023,-48.340,0.977,-60.547,-85.449,0.000
1728625980.026,-50.293,3.906,-54.688,-86.426,0.000
1728625980.030,-65.430,13.672,-43.457,-66.895,0.000
1728625980.034,-62.500,21.973,-36.621,-41.016,0.000
1728625980.038,-62.500,2.441,-41.992,-52.734,0.000
1728625980.042,-57.129,-7.324,-45.410,-83.984,0.000
1728625980.046,-40.039,8.301,-31.738,-84.961,0.000
1728625980.050,-48.340,2.441,-27.344,-65.430,0.000
1728625980.054,-42.480,0.977,-29.297,-19.531,0.000
1728625980.058,-46.387,4.883,-35.645,-39.062,0.000
1728625980.062,-55.176,3.906,-37.598,-88.867,0.000
1728625980.066,-49.805,-3.418,-27.344,-82.520,0.000
1728625980.069,-59.082,-7.812,-18.555,-50.293,0.000
1728625980.073,-42.969,1.953,-11.230,-3.906,0.000
1728625980.077,-33.691,-6.836,-17.090,-14.648,0.000
1728625980.081,-42.480,-29.297,-22.949,-57.129,0.000
1728625980.085,-34.668,-34.180,-24.902,-61.035,0.000
1728625980.089,-45.898,-11.719,-20.996,-46.387,0.000
1728625980.093,-25.879,4.883,-14.648,-6.348,0.000
1728625980.097,-23.438,-0.977,-15.137,-1.465,0.000
1728625980.101,-51.270,-11.230,-26.855,-55.176,0.000
1728625980.105,-43.945,-14.160,-38.086,-78.613,0.000
1728625980.109,-51.270,-16.113,-40.527,-67.871,0.000
1728625980.112,-42.969,-17.090,-40.039,-24.414,0.000
1728625980.116,-27.832,-4.883,-29.297,-0.488,0.000
1728625980.120,-39.551,-5.371,-31.250,-45.898,0.000
1728625980.124,-26.855,-25.879,-36.133,-74.219,0.000
1728625980.128,-38.574,-35.156,-46.875,-61.035,0.000
1728625980.132,-38.086,-23.926,-53.223,-21.484,0.000
1728625980.136,-10.742,-9.766,-42.969,-3.906,0.000
1728625980.140,-26.367,-16.602,-51.758,-51.758,0.000
1728625980.144,-33.691,-25.391,-57.129,-70.312,0.000
1728625980.148,-43.457,-25.879,-37.109,-54.688,0.000
1728625980.151,-52.734,-23.926,-28.809,-29.297,0.000
1728625980.155,-39.551,-21.973,-34.180,-1.953,0.000
1728625980.159,-36.133,-29.785,-43.945,-28.809,0.000
1728625980.163,-15.137,-30.273,-48.340,-66.406,0.000
1728625980.167,-16.113,-38.086,-46.875,-64.453,0.000
1728625980.171,-27.832,-58.105,-44.922,-37.109,0.000
1728625980.175,-10.742,-54.199,-38.086,-1.465,0.000
1728625980.179,-46.875,-40.527,-38.086,-38.086,0.000
1728625980.183,-55.664,-40.039,-43.945,-80.078,0.000
1728625980.187,-33.691,-38.086,-47.363,-74.707,0.000
1728625980.191,-38.086,-34.668,-45.410,-46.387,0.000
1728625980.194,-29.297,-27.344,-36.621,0.977,0.000
1728625980.198,-38.086,-30.762,-41.504,-27.344,0.000
1728625980.202,-33.691,-39.062,-45.898,-70.801,0.000
1728625980.206,-29.785,-37.598,-36.621,-63.965,0.000
1728625980.210,-48.340,-40.039,-33.203,-38.574,0.000
1728625980.214,-31.738,-41.504,-38.574,-10.254,0.000
1728625980.218,-34.668,-46.387,-43.457,-26.367,0.000
1728625980.222,-52.734,-41.504,-46.387,-66.406,0.000
1728625980.226,-47.363,-21.484,-45.410,-79.102,0.000
1728625980.229,-57.617,-20.020,-37.598,-59.082,0.000
1728625980.233,-55.176,-25.879,-28.809,-11.719,0.000
1728625980.237,-54.199,-34.180,-41.016,-34.668,0.000
1728625980.241,-54.199,-35.156,-45.898,-91.309,0.000
1728625980.245,-47.852,-27.832,-41.992,-91.309,0.000
1728625980.249,-53.711,-22.949,-43.457,-64.941,0.000
1728625980.253,-38.086,-14.160,-39.551,-21.973,0.000
1728625980.257,-44.922,-8.789,-53.711,-22.949,0.000
1728625980.261,-57.129,-19.531,-60.547,-62.012,0.000
1728625980.264,-38.574,-37.109,-43.945,-69.336,0.000
1728625980.268,-55.176,-22.461,-37.598,-60.059,0.000
1728625980.272,-58.594,-16.113,-44.922,-42.969,0.000
1728625980.276,-49.805,-29.297,-54.199,-34.668,0.000
1728625980.280,-48.340,-26.367,-50.293,-65.430,0.000
1728625980.284,-26.367,-22.461,-49.316,-83.496,0.000
1728625980.288,0.000,-23.926,-47.852,-61.523,0.000
1728625980.292,0.000,-23.438,-39.062,-21.973,0.000
1728625980.295,0.000,-20.996,-37.598,-6.348,0.000
1728625980.299,0.000,-25.879,-47.363,-47.852,0.000
1728625980.303,0.000,-25.879,-45.410,-72.266,0.000
1728625980.307,0.000,-21.973,-41.992,-60.547,0.000
1728625980.311,0.000,-11.719,-38.574,-15.625,0.000
1728625980.315,0.000,-8.789,-35.156,2.441,0.000
1728625980.319,0.000,-22.461,-41.016,-48.340,0.000
1728625980.323,0.000,-31.250,-45.898,-76.660,0.000
1728625980.327,0.000,-25.391,-47.852,-80.566,0.000
1728625980.331,0.000,-17.090,-41.504,-41.504,0.000
1728625980.335,-38.574,-15.137,-27.344,-3.906,0.000
1728625980.339,-51.758,-20.996,-28.809,-39.551,0.000
1728625980.343,-53.223,-25.391,-27.832,-70.312,0.000
1728625980.347,-54.688,-24.414,-29.785,-73.242,0.000
1728625980.350,-61.523,-21.973,-33.691,-40.527,0.000
1728625980.354,-44.434,-25.879,-37.598,-7.324,0.000
1728625980.358,-55.664,-29.297,-45.898,-49.805,0.000
1728625980.362,-47.852,-31.250,-41.992,-83.496,0.000
1728625980.366,-22.949,-32.715,-33.203,-69.336,0.000
1728625980.370,-29.297,-21.973,-23.926,-28.809,0.000
1728625980.374,-32.227,-12.207,-24.414,-4.883,0.000
1728625980.378,-47.852,-33.691,-38.574,-57.617,0.000
1728625980.382,-51.758,-42.969,-45.898,-91.797,0.000
1728625980.386,-41.016,-28.809,-46.875,-75.684,0.000
1728625980.390,-50.781,-27.344,-41.016,-48.340,0.000
1728625980.394,-40.527,-25.879,-31.250,-19.043,0.000
1728625980.398,-27.344,-21.484,-32.227,-27.344,0.000
1728625980.401,-12.207,-15.625,-33.203,-55.176,0.000
1728625980.405,-15.625,-23.438,-33.691,-60.547,0.000
1728625980.409,-39.551,-29.297,-34.180,-47.363,0.000
1728625980.413,-28.320,-22.949,-30.273,-6.348,0.000
1728625980.417,-40.527,-31.250,-34.668,-18.555,0.000
1728625980.421,-54.688,-38.086,-39.551,-66.895,0.000
1728625980.425,-30.273,-30.762,-41.504,-67.383,0.000
1728625980.429,-43.945,-37.598,-43.457,-49.805,0.000
1728625980.433,-45.410,-38.574,-39.551,-10.254,0.000
1728625980.437,-42.480,-19.531,-33.203,4.395,0.000
1728625980.441,-39.062,-12.207,-30.762,-52.734,0.000
1728625980.445,-29.785,-26.367,-25.879,-80.078,0.000
1728625980.448,-49.805,-33.691,-27.344,-50.293,0.000
1728625980.452,-46.875,-28.320,-33.203,-10.254,0.000
1728625980.456,-41.504,-34.668,-38.086,-11.719,0.000
1728625980.460,-46.875,-48.340,-41.504,-45.410,0.000
1728625980.464,-40.039,-43.945,-36.133,-58.594,0.000
1728625980.468,-44.434,-33.691,-32.715,-47.852,0.000
1728625980.472,-39.551,-31.250,-37.109,-13.184,0.000
1728625980.476,0.000,-43.945,-40.039,-1.953,0.000
1728625980.480,0.000,-54.688,-48.340,-48.340,0.000
1728625980.484,0.000,-47.363,-41.016,-69.824,0.000
1728625980.488,0.000,-49.805,-34.180,-63.965,0.000
1728625980.491,0.000,-54.199,-36.621,-36.621,0.000
1728625980.495,0.000,-52.246,-31.250,-14.160,0.000
1728625980.499,0.000,-44.922,-24.414,-42.480,0.000
1728625980.503,0.000,-49.316,-20.508,-54.199,0.000
1728625980.507,0.000,-61.523,-27.344,-52.246,0.000
1728625980.511,0.000,-53.223,-30.762,-37.598,0.000
1728625980.515,0.000,-48.340,-34.668,-15.137,0.000
1728625980.519,0.000,-59.082,-44.434,-62.012,0.000
1728625980.523,-26.855,-43.945,-39.062,-83.496,0.000
1728625980.527,-20.020,-36.621,-41.016,-70.801,0.000
1728625980.530,-28.320,-42.969,-43.457,-47.363,0.000
1728625980.534,-16.113,-33.691,-40.039,-13.184,0.000
1728625980.538,-37.109,-38.574,-42.969,-44.922,0.000
1728625980.542,-33.203,-32.227,-38.574,-73.730,0.000
1728625980.546,-27.344,-20.996,-39.551,-70.312,0.000
1728625980.550,-46.875,-38.086,-48.340,-34.180,0.000
1728625980.554,-28.809,-34.180,-40.527,10.742,0.000
1728625980.558,-40.039,-24.414,-45.410,-28.809,0.000
1728625980.562,-38.086,-25.391,-46.875,-57.129,0.000
1728625980.566,-24.902,-29.297,-45.410,-40.039,0.000
1728625980.569,-48.340,-31.738,-44.434,-30.762,0.000
1728625980.573,-36.133,-17.578,-21.484,1.953,0.000
1728625980.577,-34.668,-20.020,-23.438,-13.184,0.000
1728625980.581,-39.551,-33.203,-41.992,-62.500,0.000
1728625980.585,-26.367,-28.320,-39.551,-62.988,0.000
1728625980.589,-38.574,-26.367,-38.574,-46.387,0.000
1728625980.593,-31.250,-26.855,-38.086,-7.812,0.000
1728625980.597,-37.598,-28.320,-35.156,-8.301,0.000
1728625980.601,-39.551,-21.973,-38.574,-60.059,0.000
1728625980.605,-26.367,-26.367,-40.039,-59.570,0.000
1728625980.608,-46.875,-32.715,-32.227,-34.668,0.000
1728625980.612,-48.828,-29.785,-26.367,-10.254,0.000
1728625980.616,-42.969,-26.367,-27.832,-10.742,0.000
1728625980.620,-39.062,-27.832,-31.250,-50.781,0.000
1728625980.624,-25.879,-29.785,-33.691,-62.500,0.000
1728625980.628,-41.992,-28.320,-34.180,-46.875,0.000
1728625980.632,-26.855,-18.555,-29.297,-12.695,0.000
1728625980.636,-14.648,-21.973,-31.738,-2.441,0.000
1728625980.639,-21.973,-31.250,-34.668,-38.574,0.000
1728625980.643,-11.230,-22.949,-34.180,-62.988,0.000
1728625980.647,-35.645,-28.320,-38.086,-51.758,0.000
1728625980.651,-33.691,-23.438,-34.180,-4.395,0.000
1728625980.655,-16.113,-19.043,-29.785,0.000,0.000
1728625980.659,-37.598,-27.832,-31.250,-54.688,0.000
1728625980.663,-28.320,-27.344,-34.668,-69.336,0.000
1728625980.667,-42.969,-41.504,-44.922,-56.152,0.000
1728625980.670,-64.453,-48.828,-45.898,-28.809,0.000
1728625980.674,-54.199,-30.762,-41.992,-10.254,0.000
1728625980.678,-56.152,-30.273,-41.992,-56.641,0.000
1728625980.682,-37.598,-42.969,-47.852,-75.195,0.000
1728625980.686,-42.969,-48.828,-55.664,-62.988,0.000
1728625980.690,-45.898,-35.645,-45.410,-33.203,0.000
1728625980.694,-32.715,-29.785,-40.527,-4.395,0.000
1728625980.698,-49.316,-48.340,-46.875,-47.363,0.000
1728625980.702,-38.574,-43.945,-43.457,-70.801,0.000
1728625980.706,-38.574,-32.227,-36.133,-61.035,0.000
1728625980.710,-55.664,-37.109,0.000,-37.109,0.000
1728625980.714,-30.762,-36.133,0.000,-5.371,0.000
1728625980.718,-36.133,-33.691,0.000,-36.621,0.000
1728625980.722,-41.016,-30.273,0.000,-68.848,0.000
1728625980.725,-36.621,-29.297,0.000,-64.453,0.000
1728625980.729,-54.688,-40.527,0.000,-31.738,0.000
1728625980.733,-33.203,-44.434,0.000,-3.906,0.000
1728625980.737,-40.039,-43.457,0.000,-38.574,0.000
1728625980.741,-41.016,-41.016,0.000,-68.359,0.000
1728625980.745,-23.926,-45.898,0.000,-65.918,0.000
1728625980.749,-44.434,-40.527,0.000,-48.340,0.000
1728625980.753,-49.805,-30.762,0.000,-2.441,0.000
1728625980.757,-52.246,-38.086,-38.574,-26.855,0.000
1728625980.761,-48.340,-45.898,-45.898,-76.660,0.000
1728625980.765,-33.203,-35.156,-46.387,-62.988,0.000
1728625980.769,-47.852,-27.344,-46.875,-43.457,0.000
1728625980.773,-39.551,-30.273,-40.527,-8.789,0.000
1728625980.776,-33.203,-27.832,-40.039,-20.020,0.000
1728625980.780,-37.598,-16.602,-39.062,-64.941,0.000
1728625980.784,-30.762,-16.113,-37.109,-68.848,0.000
1728625980.788,-35.156,-32.715,-41.016,-62.500,0.000
1728625980.792,-32.715,-27.832,-43.945,-29.785,0.000
1728625980.796,-40.527,-22.949,-47.852,-31.250,0.000
1728625980.800,-46.875,-29.785,-43.457,-63.477,0.000
1728625980.804,-29.297,-24.902,-44.434,-59.082,0.000
1728625980.808,-42.480,-23.438,-39.062,-45.898,0.000
1728625980.812,-35.645,-16.602,-21.484,7.812,0.000
1728625980.816,-22.949,-9.277,-28.320,10.254,0.000
1728625980.820,-41.992,-26.367,-45.410,-58.594,0.000
1728625980.823,-38.574,-38.574,-48.828,-72.266,0.000
1728625980.827,-46.387,-33.691,-40.039,-54.199,0.000
1728625980.831,-42.969,-32.227,-33.203,-13.672,0.000
1728625980.835,-16.602,-32.715,-34.180,10.254,0.000
1728625980.839,-23.926,-26.855,-36.133,-50.781,0.000
1728625980.843,-24.414,-26.367,-38.574,-75.195,0.000
1728625980.847,-38.086,-31.250,-34.180,-51.758,0.000
1728625980.851,0.000,-21.484,-24.902,-7.812,0.000
1728625980.855,0.000,-18.555,-26.855,13.672,0.000
1728625980.859,0.000,-32.715,-35.156,-37.109,0.000
1728625980.863,0.000,-28.809,-33.691,-64.941,0.000
1728625980.866,0.000,-13.672,-28.809,-46.387,0.000
1728625980.870,0.000,-17.090,-33.203,-10.254,0.000
1728625980.874,0.000,-30.273,-38.574,0.488,0.000
1728625980.878,0.000,-39.551,-44.434,-41.504,0.000
1728625980.882,0.000,-36.133,-46.875,-66.895,0.000
1728625980.886,0.000,-38.086,-46.387,-70.312,0.000
1728625980.890,0.000,-41.504,-43.945,-40.039,0.000
1728625980.894,0.000,-34.668,-33.691,-6.348,0.000
1728625980.898,-45.898,-32.227,-29.785,-32.715,0.000
1728625980.902,-38.086,-31.738,-29.297,-62.988,0.000
1728625980.905,-37.109,-37.598,-24.902,-63.965,0.000
1728625980.909,-48.828,-35.156,-27.344,-42.969,0.000
1728625980.913,-27.832,-21.973,-32.715,-1.465,0.000
1728625980.917,-49.316,-24.414,-38.574,-24.902,0.000
1728625980.921,-53.711,-31.738,-34.180,-63.477,0.000
1728625980.925,-39.062,-43.457,-32.715,-55.664,0.000
1728625980.929,-65.918,-41.016,-31.250,-34.668,0.000
1728625980.933,-56.152,-26.367,-36.133,-8.789,0.000
1728625980.937,-52.246,-32.227,-47.363,-29.785,0.000
1728625980.941,-58.105,-40.039,-42.480,-66.406,0.000
1728625980.944,-41.504,-23.926,-31.250,-58.105,0.000
1728625980.948,-41.504,-20.020,-29.785,-33.691,0.000
1728625980.952,-23.926,-18.066,-32.227,-8.789,0.000
1728625980.956,-17.578,-16.602,-37.598,-16.602,0.000
1728625980.960,-23.926,-20.020,-45.410,-49.316,0.000
1728625980.964,-4.883,-9.766,-37.109,-56.641,0.000
1728625980.968,-15.137,-11.719,-38.086,-40.039,0.000
1728625980.972,-29.297,-22.949,-38.574,-0.488,0.000
1728625980.976,-30.762,-21.973,-31.250,-4.395,0.000
1728625980.980,-40.527,-21.484,-36.621,-51.758,0.000
1728625980.983,-30.762,-22.461,-33.691,-62.988,0.000
1728625980.987,-35.645,-21.484,-35.156,-47.852,0.000
1728625980.991,-25.391,-16.602,-39.062,-3.418,0.000
1728625980.995,-23.926,-27.344,-37.598,3.906,0.000
1728625980.999,-37.109,-34.180,-36.621,-46.875,0.000
1728625981.003,-14.160,-23.926,-31.250,-53.223,0.000
1728625981.007,-39.551,-26.855,-28.809,-39.062,0.000
1728625981.011,-55.176,-34.668,-32.715,-14.648,0.000
1728625981.014,-42.480,-33.203,-38.086,0.488,0.000
1728625981.018,-54.688,-22.949,-39.062,-47.363,0.000
1728625981.022,-40.039,-16.113,-29.297,-66.895,0.000
1728625981.026,-49.805,-23.926,-29.785,-45.410,0.000
1728625981.030,-60.059,-34.180,-32.715,-14.160,0.000
1728625981.034,-42.969,-35.156,-26.855,-2.930,0.000
1728625981.038,-46.387,-33.203,-30.273,-44.922,0.000
1728625981.042,-30.273,-31.738,-33.691,-68.359,0.000
1728625981.045,-39.062,-33.203,-35.645,-62.500,0.000
1728625981.049,-52.734,-23.438,-32.715,-27.344,0.000
1728625981.053,-41.992,-21.484,-23.438,-1.953,0.000
1728625981.057,-60.547,-42.480,-46.875,-51.758,0.000
1728625981.061,-58.594,-52.246,-65.918,-90.820,0.000
1728625981.065,-60.547,-50.293,-56.152,-78.613,0.000
1728625981.069,-64.941,-49.805,-51.270,-41.016,0.000
1728625981.073,-29.297,-40.527,-49.316,-6.348,0.000
1728625981.077,-37.598,-34.180,-51.270,-45.410,0.000
1728625981.081,-31.738,-31.250,-52.734,-87.402,0.000
1728625981.085,-5.371,-26.367,-48.828,-62.012,0.000
1728625981.089,-33.203,-35.645,-39.551,-24.902,0.000
1728625981.093,-41.016,-47.363,-43.945,-4.883,0.000
1728625981.097,-39.062,-46.387,-53.711,-33.203,0.000
1728625981.100,-32.715,-34.180,-51.270,-66.406,0.000
1728625981.104,-31.738,-27.832,-42.480,-66.895,0.000
1728625981.108,-45.410,-33.691,-34.180,-39.551,0.000
1728625981.112,-20.508,-31.250,-28.809,6.348,0.000
1728625981.116,-14.648,-27.832,-26.855,-4.395,0.000
1728625981.120,-25.879,-30.762,-34.180,-43.457,0.000
1728625981.124,-25.391,-31.738,-35.156,-55.176,0.000
1728625981.128,-49.805,-40.039,-27.832,-35.156,0.000
1728625981.132,-45.898,-43.945,-28.320,3.418,0.000
1728625981.136,-49.805,-43.945,-37.109,-21.973,0.000
1728625981.140,-54.199,-37.598,-38.574,-62.012,0.000
1728625981.144,-33.691,-40.527,-23.926,-53.711,0.000
1728625981.148,-46.875,-53.223,-14.160,-27.344,0.000
1728625981.151,-43.945,-45.898,-18.066,2.441,0.000
1728625981.155,-45.410,-43.945,-27.344,-19.531,0.000
1728625981.159,-57.129,-50.781,-34.180,-71.289,0.000
1728625981.163,-42.969,-45.410,-40.039,-77.637,0.000
1728625981.167,-49.805,-42.480,-42.480,-61.035,0.000
1728625981.171,-54.688,-34.668,-33.691,-23.926,0.000
1728625981.175,-52.734,-40.039,-35.645,-16.602,0.000
1728625981.179,-59.082,-59.570,-46.387,-64.941,0.000
1728625981.183,-48.828,-53.223,-43.457,-84.473,0.000
1728625981.187,-53.223,-48.340,-48.828,-71.777,0.000
1728625981.191,-57.129,-57.129,-51.758,-27.344,0.000
1728625981.195,-53.223,-57.617,-53.711,-13.672,0.000
1728625981.198,-58.594,-55.664,-52.734,-55.664,0.000
1728625981.202,-40.039,-44.434,-45.898,-66.406,0.000
1728625981.206,-41.016,-37.598,-52.246,-47.363,0.000
1728625981.210,-38.086,-39.062,-60.059,-16.113,0.000
1728625981.214,-24.902,-31.738,-47.852,-9.766,0.000
1728625981.218,-46.875,-44.434,-50.781,-52.246,0.000
1728625981.222,-37.109,-46.387,-52.734,-76.172,0.000
1728625981.226,-38.086,-31.738,-41.504,-67.871,0.000
1728625981.230,-51.758,-27.832,-37.109,-27.344,0.000
1728625981.234,-39.551,-34.668,-41.504,-1.465,0.000
1728625981.238,-49.805,-49.316,-51.758,-47.852,0.000
1728625981.241,-38.086,-43.945,-49.805,-78.613,0.000
1728625981.245,-29.785,-36.621,-46.875,-64.941,0.000
1728625981.249,-29.297,-31.250,-45.410,-35.645,0.000
1728625981.253,-21.484,-35.645,-41.504,-0.977,0.000
1728625981.257,-39.062,-40.039,-45.898,-33.203,0.000
1728625981.261,-27.344,-24.414,-46.875,-69.824,0.000
1728625981.265,-26.855,-30.273,-47.363,-51.758,0.000
1728625981.269,-37.598,-52.246,-51.270,-21.484,0.000
1728625981.273,-13.184,-40.527,-38.574,11.230,0.000
1728625981.277,-18.066,-25.391,-28.809,-3.906,0.000
1728625981.280,-14.648,-22.949,-31.250,-37.109,0.000
1728625981.284,-17.090,-30.762,-31.250,-44.434,0.000
1728625981.288,-52.246,-35.645,-26.855,-27.832,0.000
1728625981.292,-44.434,-35.156,-23.926,5.371,0.000
1728625981.296,-43.457,-46.387,-28.320,-21.484,0.000
1728625981.300,-38.086,-51.270,-34.180,-54.688,0.000
1728625981.304,-27.344,-37.109,-27.832,-51.270,0.000
1728625981.308,-55.664,-32.227,-31.738,-44.922,0.000
1728625981.312,-49.316,-34.668,-36.133,-5.371,0.000
1728625981.316,-41.016,-34.180,-34.180,-17.578,0.000
1728625981.319,-44.922,-30.273,-39.551,-58.105,0.000
1728625981.323,-37.598,-29.785,-41.504,-55.664,0.000
1728625981.327,-50.781,-38.086,-48.340,-50.293,0.000
1728625981.331,-42.969,-36.133,-48.340,-15.137,0.000
1728625981.335,-45.410,-32.715,-49.316,-18.555,0.000
1728625981.339,-54.199,-39.551,-55.176,-64.453,0.000
1728625981.343,-38.086,-44.922,-48.340,-77.637,0.000
1728625981.347,-48.340,-39.551,-46.875,-61.523,0.000
1728625981.351,-42.480,-29.297,-47.852,-19.531,0.000
1728625981.355,-37.109,-40.527,-62.012,-24.902,0.000
1728625981.359,-48.828,-48.828,-68.848,-82.031,0.000
1728625981.362,-39.062,-33.203,-58.105,-84.961,0.000
1728625981.366,-54.688,-31.738,-48.828,-63.965,0.000
1728625981.370,-56.641,-48.828,-43.457,-32.227,0.000
1728625981.374,-51.270,-63.965,-45.410,-15.625,0.000
1728625981.378,-61.523,-61.523,-47.363,-52.246,0.000
1728625981.382,-48.340,-43.457,-43.945,-64.941,0.000
1728625981.386,-44.922,-38.086,-43.945,-46.387,0.000
1728625981.390,-40.527,-47.363,-44.434,-8.789,0.000
1728625981.393,-37.109,-39.062,-40.039,-3.418,0.000
1728625981.397,-35.156,-33.691,-38.574,-44.434,0.000
1728625981.401,-18.066,-30.273,-35.156,-63.965,0.000
1728625981.405,-36.133,-25.879,-30.762,-54.199,0.000
1728625981.409,-45.410,-31.738,-26.855,-8.789,0.000
1728625981.413,-28.320,-38.086,-26.855,20.996,0.000
1728625981.417,-32.715,-40.039,-26.855,-26.855,0.000
1728625981.421,-33.691,-41.016,-21.973,-58.105,0.000
1728625981.424,-53.711,-46.875,-23.926,-50.781,0.000
1728625981.428,-63.477,-48.340,-21.484,-26.855,0.000
1728625981.432,-36.133,-40.039,-23.926,6.348,0.000
1728625981.436,-37.598,-31.738,-27.832,-24.902,0.000
1728625981.440,-42.480,-30.762,-30.762,-66.406,0.000
1728625981.444,-40.039,-39.551,-51.270,-79.590,0.000
1728625981.448,-35.645,-36.621,-50.293,-54.199,0.000
1728625981.452,-35.645,-25.879,-33.203,-22.949,0.000
1728625981.456,-56.641,-39.551,-33.203,-49.316,0.000
1728625981.460,-55.176,-47.852,-42.480,-72.754,0.000
1728625981.464,-44.922,-38.574,-39.551,-62.988,0.000
1728625981.468,-58.594,-38.086,-46.875,-41.992,0.000
1728625981.472,-45.410,-36.621,-58.105,-20.020,0.000
1728625981.475,-43.457,-38.574,-58.105,-44.434,0.000
1728625981.479,-47.363,-45.410,-59.082,-82.031,0.000
1728625981.483,-32.227,-39.551,-51.270,-82.031,0.000
1728625981.487,-41.016,-25.391,-41.016,-49.316,0.000
1728625981.491,-48.340,-29.785,-41.504,-3.906,0.000
1728625981.495,-54.688,-41.992,-45.410,-15.625,0.000
1728625981.499,-46.875,-36.621,-48.828,-71.777,0.000
1728625981.503,-31.738,-37.109,-48.828,-83.496,0.000
1728625981.507,-45.898,-36.621,-50.293,-61.035,0.000
1728625981.511,-33.203,-21.973,-51.758,-18.066,0.000
1728625981.515,-17.578,-14.160,-42.480,-19.531,0.000
1728625981.519,-29.785,-22.949,-48.340,-57.617,0.000
1728625981.523,-37.598,-38.574,-61.035,-71.777,0.000
1728625981.526,-47.363,-41.992,-61.523,-66.895,0.000
1728625981.530,-30.273,-28.809,-59.082,-20.996,0.000
1728625981.534,-21.973,-17.090,-47.363,-11.719,0.000
1728625981.538,-31.250,-19.043,-46.387,-51.270,0.000
1728625981.542,-16.113,-15.137,-47.852,-50.781,0.000
1728625981.546,-29.785,-13.184,-47.852,-47.852,0.000
1728625981.550,-30.762,-16.113,-38.086,-7.812,0.000
1728625981.554,-20.508,-21.484,-34.180,8.789,0.000
1728625981.558,-34.180,-31.738,-36.133,-45.898,0.000
1728625981.562,-25.879,-29.297,-29.785,-58.594,0.000
1728625981.566,-37.598,-24.414,-33.691,-45.898,0.000
1728625981.570,-39.062,-22.461,-37.598,-7.812,0.000
1728625981.573,-33.691,-26.367,-39.551,16.113,0.000
1728625981.577,-49.805,-37.598,-43.457,-26.367,0.000
1728625981.581,-24.414,-33.691,-38.574,-53.223,0.000
1728625981.585,-20.996,-32.715,-33.203,-37.598,0.000
1728625981.589,-43.457,-28.809,-26.367,-10.254,0.000
1728625981.593,-41.504,-27.832,-33.203,3.418,0.000
1728625981.597,-49.805,-33.203,-47.363,-30.273,0.000
1728625981.601,-25.391,-29.297,-53.711,-53.223,0.000
1728625981.605,-25.879,-18.555,-52.246,-50.293,0.000
1728625981.609,-50.293,-23.926,-55.664,-26.367,0.000
1728625981.612,-37.598,-34.180,-55.664,3.906,0.000
1728625981.616,-49.316,-37.109,-54.199,-36.621,0.000
1728625981.620,-37.598,-27.832,-44.434,-58.594,0.000
1728625981.624,-10.742,-10.742,-30.273,-31.738,0.000
1728625981.628,-30.273,-11.719,-38.086,-13.184,0.000
1728625981.632,-41.992,-20.996,-38.574,5.371,0.000
1728625981.636,-50.781,-20.508,-30.762,-25.879,0.000
1728625981.640,-44.434,-21.973,-26.855,-65.430,0.000
1728625981.644,-36.621,-32.227,-29.297,-63.477,0.000
1728625981.648,-50.781,-30.273,-32.227,-33.691,0.000
1728625981.652,-40.527,-19.531,-24.902,7.812,0.000
1728625981.655,-47.363,-22.949,-27.344,-17.578,0.000
1728625981.659,-40.527,-21.973,-34.668,-57.129,0.000
1728625981.663,-13.184,-5.859,-35.645,-46.387,0.000
1728625981.667,-30.762,-14.648,-41.992,-34.180,0.000
1728625981.671,-28.809,-20.508,-37.598,-3.418,0.000
1728625981.675,-24.414,-23.926,-41.504,-8.789,0.000
1728625981.679,-44.434,-31.738,-53.223,-65.918,0.000
1728625981.683,-48.340,-23.438,-41.016,-87.891,0.000
1728625981.687,-48.828,-13.184,-33.203,-60.547,0.000
1728625981.691,-33.203,-15.625,-29.785,-9.277,0.000
1728625981.694,-31.738,-28.809,-39.551,-21.973,0.000
1728625981.698,-37.109,-31.250,-50.293,-65.430,0.000
1728625981.702,-29.297,-22.461,-39.062,-65.918,0.000
1728625981.706,-42.480,-25.879,-34.668,-58.594,0.000
1728625981.710,-30.762,-20.020,-38.086,-16.602,0.000
1728625981.714,-33.691,-26.367,-40.039,-10.254,0.000
1728625981.718,-47.852,-46.387,-48.828,-56.152,0.000
1728625981.722,-29.785,-43.945,-51.758,-60.547,0.000
1728625981.726,-43.945,-33.691,-42.969,-48.340,0.000
1728625981.730,-41.016,-20.996,-31.250,-16.113,0.000
1728625981.733,-19.531,-21.973,-33.691,-5.371,0.000
1728625981.737,-31.250,-39.062,-49.805,-55.176,0.000
1728625981.741,-30.762,-37.109,-56.641,-73.242,0.000
1728625981.745,-45.410,-25.879,-58.105,-53.223,0.000
1728625981.749,-41.504,-24.414,-48.340,-15.625,0.000
1728625981.753,-19.531,-23.438,-35.645,0.977,0.000
1728625981.757,-38.086,-15.625,-37.598,-38.086,0.000
1728625981.761,-38.574,-21.973,-35.156,-49.805,0.000
1728625981.764,-36.621,-36.133,-42.969,-43.457,0.000
1728625981.768,-53.223,-28.320,-44.922,-30.273,0.000
1728625981.772,-43.457,-17.090,-39.062,-9.277,0.000
1728625981.776,-39.551,-17.578,-36.621,-37.109,0.000
1728625981.780,-24.414,-21.973,-36.621,-70.312,0.000
1728625981.784,-36.621,-21.973,-41.016,-65.430,0.000
1728625981.788,-49.805,-25.879,-41.016,-30.762,0.000
1728625981.792,-40.527,-42.969,-41.504,-6.348,0.000
1728625981.796,-56.641,-45.898,-41.992,-45.410,0.000
1728625981.800,-48.828,-34.668,-37.598,-72.754,0.000
1728625981.804,-43.945,-38.574,-37.109,-61.523,0.000
1728625981.808,-42.480,-37.598,-33.203,-27.832,0.000
1728625981.812,-21.484,-25.879,-26.855,2.441,0.000
1728625981.816,-43.945,-31.250,-30.762,-35.156,0.000
1728625981.820,-39.062,-43.945,-26.367,-67.871,0.000
1728625981.823,-23.926,-48.340,-24.414,-66.895,0.000
1728625981.827,-43.457,-47.852,-27.344,-48.340,0.000
1728625981.831,-35.645,-42.480,-20.508,-8.301,0.000
1728625981.835,-38.086,-43.457,-24.414,-34.180,0.000
1728625981.839,-41.504,-51.270,-31.250,-66.895,0.000
1728625981.843,-39.062,-45.410,-27.832,-58.594,0.000
1728625981.847,-55.176,-36.133,-21.973,-38.574,0.000
1728625981.851,-34.180,-32.227,-23.926,3.906,0.000
1728625981.855,-39.062,-39.551,-36.133,-21.484,0.000
1728625981.859,-53.223,-51.270,-39.062,-74.707,0.000
1728625981.863,-37.109,-49.316,-32.227,-72.754,0.000
1728625981.867,-47.363,-48.828,-28.320,-52.246,0.000
1728625981.871,-45.898,-47.363,-35.645,-9.766,0.000
1728625981.875,-45.898,-38.086,-33.691,-6.348,0.000
1728625981.878,-49.316,-31.250,-31.738,-48.340,0.000
1728625981.883,-25.879,-25.879,-35.645,-62.500,0.000
1728625981.886,-39.062,-34.668,-26.855,-47.363,0.000
1728625981.890,-44.434,-41.992,-27.344,-4.883,0.000
1728625981.894,-40.527,-42.480,-31.738,0.000,0.000
1728625981.898,-41.504,-39.062,-25.391,-44.434,0.000
1728625981.902,-19.531,-27.832,-26.855,-58.105,0.000
1728625981.906,-47.852,-30.762,-41.992,-51.758,0.000
1728625981.910,-61.035,-30.762,-41.504,-14.160,0.000
1728625981.914,-44.922,-38.574,-36.621,2.441,0.000
1728625981.918,-54.688,-43.945,-36.133,-45.898,0.000
1728625981.922,-49.316,-28.320,-32.227,-60.059,0.000
1728625981.925,-49.316,-33.203,-27.832,-40.527,0.000
1728625981.929,-39.551,-36.133,-27.832,-19.043,0.000
1728625981.933,-32.715,-32.227,-30.762,-14.160,0.000
1728625981.937,-41.992,-36.133,-27.344,-51.270,0.000
1728625981.941,-19.531,-38.086,-26.855,-71.777,0.000
1728625981.945,-27.344,-49.805,-39.062,-52.734,0.000
1728625981.949,-49.316,-52.246,-41.016,-15.137,0.000
1728625981.953,-46.387,-42.480,-38.086,2.441,0.000
1728625981.957,-52.246,-41.016,-43.457,-32.715,0.000
1728625981.961,-33.691,-50.293,-46.875,-48.340,0.000
1728625981.965,-32.715,-50.781,-46.387,-48.828,0.000
1728625981.969,-41.504,-50.293,-38.574,-28.320,0.000
1728625981.972,-23.926,-45.898,-42.480,7.324,0.000
1728625981.976,-35.156,-37.109,-52.734,-25.879,0.000
1728625981.980,-20.020,-36.133,-48.828,-67.871,0.000
1728625981.984,-15.137,-38.574,-49.316,-63.965,0.000
1728625981.988,-47.852,-36.621,-51.758,-34.668,0.000
1728625981.992,-34.668,-27.832,-41.016,3.906,0.000
1728625981.996,-31.738,-24.902,-45.898,-20.020,0.000
1728625982.000,-25.391,-23.438,-54.199,-71.777,0.000
1728625982.004,-24.414,-30.273,-45.410,-62.988,0.000
1728625982.008,-42.969,-31.250,-37.109,-23.926,0.000
1728625982.012,-37.109,-25.879,-35.645,2.441,0.000
1728625982.015,-40.039,-33.691,-39.062,-20.508,0.000
1728625982.019,-23.926,-34.668,-35.156,-57.617,0.000
1728625982.023,-8.789,-26.855,-24.902,-63.965,0.000
1728625982.027,-44.434,-33.203,-29.297,-46.387,0.000
1728625982.031,-38.086,-40.039,-36.621,-0.977,0.000
1728625982.035,-24.902,-37.109,-30.762,-11.719,0.000
1728625982.039,-25.391,-29.785,-20.020,-54.688,0.000
1728625982.043,-22.949,-28.320,-22.949,-53.711,0.000
1728625982.047,-58.594,-36.133,-27.344,-28.320,0.000
1728625982.051,-56.641,-43.945,-20.996,20.508,0.000
1728625982.054,-44.434,-34.668,-22.461,2.930,0.000
1728625982.058,-40.527,-35.156,-31.738,-52.246,0.000
1728625982.062,-20.508,-39.062,-28.809,-56.641,0.000
1728625982.066,-37.109,-31.738,-21.484,-41.992,0.000
1728625982.070,0.000,-29.297,-20.508,-7.812,0.000
1728625982.074,0.000,-26.367,-24.414,-9.277,0.000
1728625982.078,0.000,-27.832,-27.832,-51.270,0.000
1728625982.082,0.000,-33.203,-27.344,-58.105,0.000
1728625982.086,0.000,-45.410,-29.785,-36.133,0.000
1728625982.089,0.000,-43.457,-33.203,4.395,0.000
1728625982.093,0.000,-41.016,-39.551,1.465,0.000
1728625982.097,0.000,-40.527,-42.969,-62.988,0.000
1728625982.101,0.000,-20.508,-38.574,-80.566,0.000
1728625982.105,0.000,-16.113,-39.551,-57.129,0.000
1728625982.109,0.000,-33.691,-34.668,-15.625,0.000
1728625982.113,0.000,-41.016,-32.227,0.000,0.000
1728625982.117,-50.781,-44.434,-40.039,-42.480,0.000
1728625982.120,-30.273,-56.152,-38.574,-63.965,0.000
1728625982.124,-39.062,-54.199,-38.086,-53.711,0.000
1728625982.128,-57.129,-44.434,-40.039,-26.855,0.000
1728625982.132,-38.574,-35.156,-24.414,-4.395,0.000
1728625982.136,-44.922,-32.227,-20.508,-32.715,0.000
1728625982.140,-35.156,-39.062,-29.297,-59.082,0.000
1728625982.144,-41.504,-41.992,-17.090,-54.688,0.000
1728625982.148,-61.035,-46.875,-19.043,-23.438,0.000
1728625982.152,-40.039,-43.457,-20.996,7.812,0.000
1728625982.156,-34.180,-37.598,-16.113,-29.297,0.000
1728625982.160,-22.461,-29.785,-19.043,-61.523,0.000
1728625982.163,-20.020,-25.879,-20.996,-52.246,0.000
1728625982.167,-33.691,-24.414,-27.344,-19.531,0.000
1728625982.171,-22.461,-27.832,-22.949,13.184,0.000
1728625982.175,-35.156,-35.156,-23.438,-24.902,0.000
1728625982.179,-33.203,-27.832,-30.762,-67.871,0.000
1728625982.183,-20.996,-35.156,-32.227,-60.547,0.000
1728625982.187,-34.668,-41.016,-33.203,-23.926,0.000
1728625982.190,-36.133,-29.297,-30.273,6.348,0.000
1728625982.194,-41.504,-34.180,-41.992,-26.855,0.000
1728625982.198,-32.227,-44.434,-48.340,-53.223,0.000
1728625982.202,-20.508,-37.109,-34.180,-44.434,0.000
1728625982.206,-37.109,-35.156,-23.926,-29.297,0.000
1728625982.210,-29.785,-36.621,-30.273,-4.883,0.000
1728625982.214,-34.180,-46.387,-43.457,-24.414,0.000
1728625982.218,-40.039,-39.551,-42.480,-63.477,0.000
1728625982.222,-29.785,-26.855,-40.039,-71.777,0.000
1728625982.226,-41.992,-38.574,-43.457,-39.062,0.000
1728625982.230,-27.832,-38.086,-43.457,18.555,0.000
1728625982.234,-36.621,-37.598,-41.992,-1.953,0.000
1728625982.238,-51.270,-39.551,-41.992,-60.547,0.000
1728625982.242,-38.574,-27.832,-41.992,-62.988,0.000
1728625982.245,-47.363,-32.715,-37.109,-35.156,0.000
1728625982.249,-40.527,-32.715,-28.809,1.465,0.000
1728625982.253,-34.180,-30.273,-33.691,-11.719,0.000
1728625982.257,-33.691,-32.227,-41.016,-58.105,0.000
1728625982.261,-19.531,-29.297,-43.945,-65.918,0.000
1728625982.265,-30.273,-25.391,-41.016,-47.852,0.000
1728625982.269,-29.297,-21.973,-32.715,-2.930,0.000
1728625982.273,-25.879,-27.344,-33.691,-2.441,0.000
1728625982.277,-31.738,-33.203,-35.156,-55.664,0.000
1728625982.281,-29.297,-32.227,-33.203,-72.266,0.000
1728625982.285,-44.922,-33.203,-38.086,-60.059,0.000
1728625982.289,-37.109,-37.598,-41.504,-26.855,0.000
1728625982.292,-30.762,-35.156,-42.969,-3.418,0.000
1728625982.296,-40.527,-21.484,-42.480,-39.551,0.000
1728625982.300,-32.227,-17.578,-41.016,-66.406,0.000
1728625982.304,-41.992,-24.414,-30.273,-61.523,0.000
1728625982.308,-40.527,-22.461,-22.461,-19.531,0.000
1728625982.312,-18.066,-19.531,-26.367,13.672,0.000
1728625982.316,-27.832,-22.461,-32.227,-29.785,0.000
1728625982.320,-24.414,-24.902,-34.668,-68.848,0.000
1728625982.324,-30.762,-25.391,-42.969,-64.453,0.000
1728625982.328,-37.598,-27.832,-50.293,-28.809,0.000
1728625982.332,-23.438,-31.738,-48.340,-7.324,0.000
1728625982.336,-27.832,-35.645,-48.340,-39.551,0.000
1728625982.339,-27.344,-24.902,-41.504,-62.012,0.000
1728625982.343,-44.434,-23.438,-45.898,-60.059,0.000
1728625982.347,-61.523,-29.297,-52.246,-31.738,0.000
1728625982.351,-40.527,-20.508,-40.039,5.371,0.000
1728625982.355,-47.852,-22.461,-39.551,-28.320,0.000
1728625982.359,-46.875,-32.227,-46.875,-59.082,0.000
1728625982.363,-45.410,-37.109,-46.875,-44.922,0.000
1728625982.367,-60.547,-41.504,-40.039,-28.809,0.000
1728625982.371,-33.203,-36.133,-30.762,0.977,0.000
1728625982.375,-31.250,-33.691,-29.785,-18.555,0.000
1728625982.378,-38.574,-37.109,-25.391,-46.875,0.000
1728625982.382,-37.598,-38.086,-24.902,-50.781,0.000
1728625982.386,-56.152,-37.598,-28.320,-38.086,0.000
1728625982.390,-38.574,-29.785,-24.902,15.137,0.000
1728625982.394,-29.297,-39.551,-29.785,4.395,0.000
1728625982.398,-39.062,-46.875,-31.738,-54.688,0.000
1728625982.402,-34.180,-46.387,-28.809,-66.895,0.000
1728625982.406,-42.969,-45.410,-25.879,-45.898,0.000
1728625982.410,-25.879,-28.809,-17.578,4.395,0.000
1728625982.414,-18.555,-28.320,-33.691,-6.348,0.000
1728625982.418,-31.738,-41.992,-48.340,-61.523,0.000
1728625982.421,-33.203,-40.039,-39.062,-66.895,0.000
1728625982.425,-47.363,-42.969,-37.109,-38.574,0.000
1728625982.429,-37.109,-31.250,-35.156,-2.930,0.000
1728625982.433,-28.320,-26.855,-30.762,-15.137,0.000
1728625982.437,-33.203,-33.691,-32.715,-57.617,0.000
1728625982.441,-19.531,-27.344,-30.762,-62.012,0.000
1728625982.445,0.000,-26.367,-24.902,-55.664,0.000
1728625982.449,0.000,-27.832,-23.926,-17.578,0.000
1728625982.453,0.000,-34.668,-23.926,-5.371,0.000
1728625982.456,0.000,-39.062,-29.297,-50.781,0.000
1728625982.460,0.000,-27.832,-29.785,-68.848,0.000
1728625982.464,0.000,-35.645,-33.691,-49.805,0.000
1728625982.468,0.000,-48.828,-28.320,0.488,0.000
1728625982.472,0.000,-48.340,-25.879,5.371,0.000
1728625982.476,0.000,-39.062,-32.227,-45.410,0.000
1728625982.480,0.000,-32.227,-33.203,-62.988,0.000
1728625982.484,0.000,-40.527,-44.922,-65.918,0.000
1728625982.488,0.000,-41.504,-37.598,-33.691,0.000
1728625982.491,-44.434,-35.156,-21.484,0.000,0.000
1728625982.495,-47.363,-32.227,-32.715,-42.969,0.000
1728625982.499,-27.344,-35.645,-38.574,-71.289,0.000
1728625982.503,-25.391,-26.855,-36.621,-46.387,0.000
1728625982.507,-52.734,-19.531,-39.551,-17.578,0.000
1728625982.511,-44.922,-34.180,-42.480,-4.883,0.000
1728625982.515,-41.016,-46.387,-50.293,-38.086,0.000
1728625982.519,-45.410,-33.203,-52.246,-70.801,0.000
1728625982.523,-51.270,-25.391,-52.734,-69.824,0.000
1728625982.527,-52.246,-27.832,-50.293,-43.457,0.000
1728625982.530,-37.109,-29.785,-41.504,0.000,0.000
1728625982.534,-43.945,-34.668,-43.945,-26.855,0.000
1728625982.538,-34.668,-24.414,-47.363,-69.824,0.000
1728625982.542,-37.598,-24.902,-53.223,-68.359,0.000
1728625982.546,-64.941,-32.715,-51.758,-41.016,0.000
1728625982.550,-46.387,-30.762,-42.969,-3.906,0.000
1728625982.554,-42.480,-30.762,-49.316,-23.438,0.000
1728625982.558,-40.527,-33.691,-57.129,-63.477,0.000
1728625982.561,-37.598,-37.598,-51.758,-73.242,0.000
1728625982.565,-53.711,-30.273,-49.316,-50.781,0.000
1728625982.569,-31.250,-27.344,-42.480,0.000,0.000
1728625982.573,-37.109,-44.922,-41.016,-9.277,0.000
1728625982.577,-51.270,-42.480,-48.828,-65.430,0.000
1728625982.581,-35.645,-26.367,-45.898,-79.102,0.000
1728625982.585,-48.828,-31.250,-40.039,-55.176,0.000
1728625982.589,-45.898,-41.504,-39.551,-3.418,0.000
1728625982.593,-33.203,-42.969,-48.340,-16.602,0.000
1728625982.597,-40.039,-42.969,-54.199,-76.172,0.000
1728625982.601,-38.574,-38.574,-48.828,-76.660,0.000
1728625982.605,-43.945,-27.344,-45.410,-55.664,0.000
1728625982.609,-30.762,-23.438,-36.621,-11.230,0.000
1728625982.612,-29.785,-23.438,-33.691,-11.719,0.000
1728625982.616,-42.969,-31.738,-37.109,-54.688,0.000
1728625982.620,-29.785,-44.434,-39.062,-60.059,0.000
1728625982.624,-31.738,-37.598,-39.062,-52.246,0.000
1728625982.628,-27.832,-32.715,-36.621,-11.719,0.000
1728625982.632,0.000,-36.621,-49.805,-6.836,0.000
1728625982.636,0.000,-30.762,-58.105,-57.617,0.000
1728625982.640,0.000,-33.203,-50.293,-78.613,0.000
1728625982.644,0.000,-46.875,-46.875,-69.336,0.000
1728625982.648,0.000,-43.945,-47.363,-23.438,0.000
1728625982.652,0.000,-36.133,-38.086,1.953,0.000
1728625982.656,0.000,-31.250,-36.133,-39.062,0.000
1728625982.660,0.000,-27.832,-45.898,-70.801,0.000
1728625982.663,0.000,-32.715,-42.480,-63.965,0.000
1728625982.667,0.000,-27.832,-33.203,-23.438,0.000
1728625982.671,0.000,-25.879,-35.156,-9.766,0.000
1728625982.675,0.000,-38.574,-39.551,-49.316,0.000
1728625982.679,-34.180,-42.969,-40.527,-67.383,0.000
1728625982.683,-43.457,-40.039,-45.410,-64.941,0.000
1728625982.687,-52.246,-34.668,-41.992,-25.879,0.000
1728625982.691,-28.809,-28.320,-34.180,12.207,0.000
1728625982.695,-32.715,-37.109,-44.434,-32.715,0.000
1728625982.699,-23.926,-38.574,-41.504,-61.035,0.000
1728625982.703,-22.461,-28.320,-32.227,-47.363,0.000
1728625982.707,-46.387,-29.297,-33.203,-23.926,0.000
1728625982.710,-32.715,-37.598,-40.039,7.324,0.000
1728625982.714,-43.945,-38.574,-46.387,-30.273,0.000
1728625982.718,-43.945,-45.410,-41.016,-68.848,0.000
1728625982.722,-31.250,-46.387,-40.527,-60.547,0.000
1728625982.726,-51.270,-35.645,-35.156,-41.016,0.000
1728625982.730,-44.922,-38.086,-25.391,-6.348,0.000
1728625982.734,-41.016,-47.363,-35.156,-26.367,0.000
1728625982.738,-18.066,-38.574,-41.016,-56.641,0.000
1728625982.742,-11.719,-35.156,-32.227,-50.293,0.000
1728625982.746,-49.316,-44.922,-34.180,-30.273,0.000
1728625982.750,-37.598,-38.086,-34.668,4.883,0.000
1728625982.753,-30.273,-37.598,-37.598,-14.160,0.000
1728625982.757,-36.133,-43.457,-46.387,-63.965,0.000
1728625982.761,-31.250,-41.016,-45.410,-69.824,0.000
1728625982.765,-46.875,-52.734,-35.645,-55.664,0.000
1728625982.769,-32.227,-52.734,-27.832,-19.531,0.000
1728625982.773,0.000,-39.551,-33.203,-16.113,0.000
1728625982.777,0.000,-41.504,-33.691,-51.758,0.000
1728625982.781,0.000,-44.922,-30.273,-58.594,0.000
1728625982.785,0.000,-51.270,-41.992,-49.805,0.000
1728625982.789,0.000,-46.875,-39.551,-14.648,0.000
1728625982.792,0.000,-33.203,-30.273,-18.066,0.000
1728625982.796,0.000,-29.297,-31.250,-58.105,0.000
1728625982.800,0.000,-39.062,-37.109,-65.918,0.000
1728625982.804,0.000,-36.133,-41.992,-55.664,0.000
1728625982.808,0.000,-17.578,-38.574,-20.020,0.000
1728625982.812,0.000,-21.484,-43.457,-9.277,0.000
1728625982.816,0.000,-35.645,-45.410,-51.758,0.000
1728625982.818,-29.297,-41.992,-28.809,-82.520,0.000
1728625982.822,-30.273,-47.363,-27.344,-72.754,0.000
1728625982.826,-12.695,-46.875,-33.203,-32.715,0.000
1728625982.830,-49.805,-38.086,-35.645,-13.184,0.000
1728625982.834,-50.781,-31.250,-34.180,-42.480,0.000
1728625982.838,-29.785,-27.344,-29.297,-57.129,0.000
1728625982.841,-33.203,-28.809,-29.785,-42.969,0.000
1728625982.845,-18.555,-25.391,-27.832,-3.906,0.000
1728625982.849,-29.297,-20.020,-25.391,11.719,0.000
1728625982.853,-26.855,-33.203,-34.180,-46.387,0.000
1728625982.857,-11.230,-46.875,-45.898,-74.707,0.000
1728625982.861,-35.645,-37.109,-41.504,-59.570,0.000
1728625982.865,-42.480,-28.809,-20.508,-23.438,0.000
1728625982.869,-28.809,-30.273,-17.578,-1.465,0.000
1728625982.873,-32.227,-37.109,-24.902,-31.738,0.000
1728625982.876,-25.879,-42.969,-25.879,-43.945,0.000
1728625982.880,-29.297,-41.016,-31.250,-58.105,0.000
1728625982.884,-40.527,-37.109,-32.227,-51.758,0.000
1728625982.888,-17.578,-35.645,-24.902,1.953,0.000
1728625982.892,-41.016,-31.738,-25.391,-21.973,0.000
1728625982.896,-43.945,-39.551,-29.297,-67.383,0.000
1728625982.900,-32.227,-49.316,-41.504,-63.965,0.000
1728625982.904,-52.246,-46.875,-51.270,-44.922,0.000
1728625982.908,-35.645,-32.227,-47.852,-9.766,0.000
1728625982.911,-31.738,-25.879,-42.480,-29.297,0.000
1728625982.915,-41.016,-33.203,-39.062,-68.359,0.000
1728625982.919,-35.156,-27.832,-35.645,-69.336,0.000
1728625982.923,-38.574,-25.879,-35.645,-48.340,0.000
1728625982.927,-20.508,-27.832,-37.598,0.977,0.000
1728625982.931,-32.227,-34.180,-46.875,-7.812,0.000
1728625982.935,-42.480,-42.969,-53.223,-64.453,0.000
1728625982.939,-18.066,-29.785,-43.945,-62.988,0.000
1728625982.943,-40.039,-24.414,-33.203,-33.203,0.000
1728625982.947,-41.504,-30.762,-27.344,7.324,0.000
1728625982.950,-33.203,-32.227,-34.668,-9.277,0.000
1728625982.954,-42.969,-29.297,-44.922,-56.152,0.000
1728625982.959,-34.180,-28.809,-43.457,-56.152,0.000
1728625982.963,-42.969,-43.457,-45.410,-49.316,0.000
1728625982.966,-24.902,-35.645,-35.156,0.488,0.000
1728625982.970,-8.789,-15.625,-17.090,21.973,0.000
1728625982.974,-41.016,-30.762,-38.086,-39.551,0.000
1728625982.978,3.906,-21.973,-37.598,-13.672,0.000
1728625982.982,58.594,18.555,-20.996,68.848,0.000
1728625982.986,22.461,-4.395,-33.691,70.312,0.000
1728625982.990,-0.977,-63.965,-38.086,9.277,0.000
1728625982.994,11.230,-45.898,-63.965,-8.301,0.000
1728625982.998,32.227,24.902,-71.777,12.695,0.000
1728625983.002,-59.082,-19.531,-39.551,-59.570,0.000
1728625983.006,-51.270,-48.340,9.766,-29.785,0.000
1728625983.010,13.672,-46.875,6.348,32.715,0.000
1728625983.014,16.113,-68.848,-46.387,21.973,0.000
1728625983.017,17.090,-67.383,-48.828,-4.883,0.000
1728625983.021,13.672,-40.039,-25.391,-8.301,0.000
1728625983.025,-35.156,-66.406,-15.137,-10.254,0.000
1728625983.029,-125.000,-152.344,-23.926,-73.242,0.000
1728625983.033,-151.367,-184.082,-53.711,-135.254,0.000
1728625983.037,-77.148,-165.039,-34.668,-97.168,0.000
1728625983.041,2.930,-144.531,11.719,-1.953,0.000
1728625983.045,47.852,-59.570,24.414,85.449,0.000
1728625983.049,59.570,-21.484,14.648,121.582,0.000
1728625983.053,40.039,-44.434,0.488,68.848,0.000
1728625983.057,34.180,-61.035,-17.090,18.066,0.000
1728625983.061,20.508,-42.480,-21.484,39.062,0.000
1728625983.064,-7.324,-20.508,-29.297,89.844,0.000
1728625983.068,10.742,-41.016,-36.133,134.277,0.000
1728625983.072,9.766,-57.129,-41.992,113.770,0.000
1728625983.076,19.043,-46.875,-46.875,86.914,0.000
1728625983.080,22.461,-40.039,-50.293,89.355,0.000
1728625983.084,10.742,-36.621,-54.688,113.770,0.000
1728625983.088,29.297,-24.414,-50.781,145.996,0.000
1728625983.092,17.578,-22.949,-48.828,111.816,0.000
1728625983.096,5.859,-39.551,-40.527,69.336,0.000
1728625983.100,18.066,-44.434,-33.203,64.941,0.000
1728625983.104,-7.812,-30.273,-34.668,73.730,0.000
1728625983.108,-4.395,-18.555,-22.949,115.723,0.000
1728625983.111,0.488,-15.625,-25.391,95.703,0.000
1728625983.115,-2.930,-18.066,-30.762,41.016,0.000
1728625983.119,17.090,-9.766,-28.320,26.367,0.000
1728625983.123,0.000,0.000,-33.203,35.156,0.000
1728625983.127,-1.953,3.418,-28.320,82.520,0.000
1728625983.131,-9.766,6.348,-25.879,68.359,0.000
1728625983.135,-19.531,9.277,-34.668,8.301,0.000
1728625983.139,-5.371,1.465,-39.062,0.488,0.000
1728625983.143,-12.207,3.906,-31.738,24.902,0.000
1728625983.147,0.000,15.137,-19.043,55.176,0.000
1728625983.151,0.000,23.438,-16.602,44.434,0.000
1728625983.154,0.000,28.320,-28.809,1.465,0.000
1728625983.158,0.000,24.414,-37.598,-12.207,0.000
1728625983.162,0.000,17.090,-41.504,7.812,0.000
1728625983.166,0.000,19.043,-41.016,51.758,0.000
1728625983.170,0.000,18.066,-35.645,55.664,0.000
1728625983.174,0.000,5.859,-40.039,6.348,0.000
1728625983.178,0.000,9.766,-36.133,-13.184,0.000
1728625983.182,0.000,10.742,-25.391,-3.906,0.000
1728625983.186,0.000,2.930,-14.648,43.457,0.000
1728625983.190,0.000,-11.719,-7.812,53.223,0.000
1728625983.193,10.742,-32.227,-6.348,4.883,0.000
1728625983.197,23.438,-45.898,-6.348,-19.043,0.000
1728625983.201,26.367,-54.199,-5.371,-12.207,0.000
1728625983.205,12.695,-60.059,11.719,17.090,0.000
1728625983.209,24.414,-82.520,20.996,32.227,0.000
1728625983.213,18.555,-110.840,15.137,-14.648,0.000
1728625983.217,25.879,-110.840,15.625,-41.504,0.000
1728625983.221,13.672,-95.215,20.996,-25.879,0.000
1728625983.225,-9.277,-95.215,24.902,-1.465,0.000
1728625983.229,-12.695,-105.957,18.555,13.184,0.000
1728625983.232,-23.438,-123.047,8.789,-21.973,0.000
1728625983.236,2.930,-115.723,7.324,-53.223,0.000
1728625983.240,5.859,-89.844,0.977,-62.012,0.000
1728625983.244,-21.484,-103.027,-5.371,-41.504,0.000
1728625983.248,-20.508,-112.305,-3.418,-11.230,0.000
1728625983.252,-40.527,-112.793,-11.719,-50.781,0.000
1728625983.256,-42.969,-114.258,-26.855,-95.215,0.000
1728625983.260,-44.434,-110.840,-35.645,-96.191,0.000
1728625983.264,-45.410,-101.074,-27.832,-65.430,0.000
1728625983.267,-25.879,-90.332,-11.230,-32.715,0.000
1728625983.271,-25.879,-85.938,-11.719,-50.781,0.000
1728625983.275,-23.926,-86.914,-19.043,-79.102,0.000
1728625983.279,-33.691,-89.844,-22.949,-86.914,0.000
1728625983.283,-50.781,-84.961,-20.508,-71.777,0.000
1728625983.287,-46.875,-83.984,-11.230,-31.250,0.000
1728625983.291,-61.035,-83.984,-20.508,-54.688,0.000
1728625983.295,-59.570,-78.125,-30.762,-109.375,0.000
1728625983.299,-70.801,-85.449,-37.598,-120.605,0.000
1728625983.302,-76.660,-84.473,-38.574,-94.727,0.000
1728625983.306,-32.227,-72.266,-25.879,-34.180,0.000
1728625983.310,-27.832,-66.895,-30.273,-41.504,0.000
1728625983.314,-42.480,-66.406,-35.156,-93.750,0.000
1728625983.318,-41.992,-73.730,-34.668,-106.934,0.000
1728625983.322,-60.547,-83.984,-41.992,-96.191,0.000
1728625983.326,-54.199,-88.379,-55.176,-61.523,0.000
1728625983.330,-52.246,-91.309,-56.641,-64.453,0.000
1728625983.334,0.000,-89.355,-50.781,-100.098,0.000
1728625983.338,0.000,-92.773,-44.922,-105.957,0.000
1728625983.342,0.000,-88.379,-36.133,-99.609,0.000
1728625983.346,0.000,-64.453,-27.344,-55.176,0.000
1728625983.350,0.000,-48.828,-33.691,-39.062,0.000
1728625983.354,0.000,-57.617,-41.016,-77.148,0.000
1728625983.357,0.000,-68.359,-43.457,-81.543,0.000
1728625983.361,0.000,-67.383,-46.875,-77.637,0.000
1728625983.365,0.000,-47.363,-37.598,-44.922,0.000
1728625983.369,0.000,-23.438,-27.832,-15.137,0.000
1728625983.373,0.000,-17.578,-37.109,-71.777,0.000
1728625983.377,0.000,-13.184,-34.668,-98.633,0.000
1728625983.381,-45.898,-7.324,-27.344,-79.102,0.000
1728625983.385,-58.105,-3.418,-27.344,-42.969,0.000
1728625983.389,-50.781,-10.742,-29.785,-32.227,0.000
1728625983.393,-66.406,-27.832,-32.715,-77.148,0.000
1728625983.397,-62.500,-29.785,-30.762,-87.891,0.000
1728625983.401,-65.430,-26.367,-46.387,-87.891,0.000
1728625983.405,-68.359,-16.602,-52.734,-66.406,0.000
1728625983.408,-51.758,-2.441,-43.945,-37.109,0.000
1728625983.412,-51.270,-7.324,-50.293,-72.266,0.000
1728625983.416,-33.691,-4.883,-45.410,-95.703,0.000
1728625983.420,-37.598,1.953,-35.645,-83.008,0.000
1728625983.424,-46.875,4.883,-33.691,-58.105,0.000
1728625983.429,-45.410,0.977,-32.715,-20.020,0.000
1728625983.433,-63.965,-16.602,-47.363,-56.152,0.000
1728625983.437,-41.016,-26.855,-53.223,-104.004,0.000
1728625983.440,-41.504,-22.949,-43.457,-93.262,0.000
1728625983.444,-73.242,-15.137,-39.062,-52.734,0.000
1728625983.448,-56.152,-6.348,-36.133,-17.090,0.000
1728625983.452,-50.293,-10.254,-36.133,-45.898,0.000
1728625983.456,-59.082,-15.137,-36.621,-71.289,0.000
1728625983.460,-38.086,-7.324,-34.180,-70.312,0.000
1728625983.464,-41.504,-1.953,-31.738,-68.359,0.000
1728625983.468,-47.363,-9.277,-33.203,-28.320,0.000
1728625983.472,-56.152,-20.508,-35.156,-49.805,0.000
1728625983.476,-46.875,-20.508,-25.879,-95.703,0.000
1728625983.480,-41.016,-20.020,-24.902,-103.516,0.000
1728625983.483,-66.406,-20.508,-32.715,-75.684,0.000
1728625983.487,-51.270,-24.414,-30.273,-28.320,0.000
1728625983.491,-48.828,-28.320,-27.344,-43.945,0.000
1728625983.495,-63.965,-23.438,-25.879,-82.031,0.000
1728625983.499,-54.688,-29.297,-22.461,-87.402,0.000
1728625983.503,-66.895,-35.156,-24.414,-71.289,0.000
1728625983.507,-67.383,-27.832,-24.902,-29.297,0.000
1728625983.511,-69.336,-27.832,-27.832,-33.691,0.000
1728625983.515,-58.594,-28.809,-22.461,-70.801,0.000
1728625983.519,-28.320,-33.691,-19.043,-69.824,0.000
1728625983.522,-47.852,-28.809,-21.484,-55.176,0.000
1728625983.526,-59.082,-25.391,-23.926,-17.090,0.000
1728625983.530,-53.223,-36.621,-31.250,-14.160,0.000
1728625983.534,-55.176,-29.785,-32.715,-61.035,0.000
1728625983.538,-30.273,-26.855,-30.273,-75.684,0.000
1728625983.542,-47.363,-38.574,-36.133,-63.477,0.000
1728625983.546,-60.547,-37.598,-33.203,-26.367,0.000
1728625983.550,-39.062,-34.180,-33.203,-8.789,0.000
1728625983.554,-56.152,-24.414,-36.621,-54.199,0.000
1728625983.558,-54.199,-23.438,-37.598,-80.566,0.000
1728625983.562,-55.664,-36.133,-41.016,-69.336,0.000
1728625983.565,-56.152,-31.738,-30.762,-21.973,0.000
1728625983.569,-40.039,-23.926,-21.973,9.277,0.000
1728625983.573,-54.688,-41.016,-29.785,-34.180,0.000
1728625983.577,-49.316,-44.434,-35.645,-63.477,0.000
1728625983.581,-37.598,-36.621,-30.273,-61.035,0.000
1728625983.585,-29.297,-26.855,-22.461,-33.691,0.000
1728625983.589,-16.602,-24.902,-28.809,-14.648,0.000
1728625983.593,-33.691,-38.574,-35.156,-54.688,0.000
1728625983.597,-37.598,-43.457,-35.156,-81.543,0.000
1728625983.601,-45.410,-32.715,-32.715,-74.707,0.000
1728625983.604,-55.176,-35.645,-28.320,-42.969,0.000
1728625983.608,-39.551,-54.199,-36.621,-18.555,0.000
1728625983.612,-54.199,-57.129,-40.527,-57.129,0.000
1728625983.616,-42.969,-46.875,-34.180,-82.520,0.000
1728625983.620,-39.062,-46.387,-40.527,-70.801,0.000
1728625983.624,-61.523,-49.316,-42.969,-44.922,0.000
1728625983.628,-43.457,-30.273,-26.367,-4.395,0.000
1728625983.632,-57.129,-27.832,-30.273,-28.809,0.000
1728625983.635,-58.105,-42.480,-46.387,-62.500,0.000
1728625983.639,-41.992,-41.016,-41.992,-53.223,0.000
1728625983.643,-59.570,-29.297,-36.133,-43.945,0.000
1728625983.647,-53.223,-25.879,-36.133,-14.648,0.000
1728625983.651,-57.129,-23.926,-40.039,-33.203,0.000
1728625983.655,-49.316,-21.973,-46.875,-71.777,0.000
1728625983.659,-34.668,-25.879,-48.340,-72.754,0.000
1728625983.663,-45.898,-33.691,-41.016,-54.688,0.000
1728625983.666,-30.762,-41.992,-36.621,-13.184,0.000
1728625983.670,-27.344,-39.551,-38.574,-22.949,0.000
1728625983.674,-30.762,-31.738,-41.504,-64.941,0.000
1728625983.678,-14.648,-28.809,-41.504,-64.941,0.000
1728625983.682,-31.250,-30.273,-35.156,-44.922,0.000
1728625983.686,-39.551,-38.574,-36.621,-13.672,0.000
1728625983.690,-41.016,-41.016,-35.156,-19.043,0.000
1728625983.694,-37.598,-38.086,-33.691,-52.246,0.000
1728625983.698,-27.344,-43.945,-36.133,-56.641,0.000
1728625983.702,-44.434,-36.133,-31.738,-47.852,0.000
1728625983.706,-35.156,-24.414,-29.297,-12.695,0.000
1728625983.710,-30.273,-34.668,-32.715,-7.812,0.000
1728625983.714,-42.480,-39.551,-33.691,-57.129,0.000
1728625983.718,-33.691,-32.227,-37.598,-69.336,0.000
1728625983.721,-43.457,-25.391,-37.598,-45.410,0.000
1728625983.725,-37.109,-18.555,-37.598,-11.230,0.000
1728625983.729,-21.973,-20.020,-46.875,-4.395,0.000
1728625983.733,-40.039,-27.344,-56.152,-52.246,0.000
1728625983.737,-42.969,-25.879,-49.805,-79.102,0.000
1728625983.741,-39.551,-18.555,-49.316,-63.477,0.000
1728625983.745,-33.691,-18.066,-56.152,-22.461,0.000
1728625983.749,-39.062,-18.066,-56.152,-10.254,0.000
1728625983.753,-52.734,-20.508,-58.105,-46.387,0.000
1728625983.757,0.000,-18.555,-56.641,-54.688,0.000
1728625983.761,0.000,-15.137,-51.758,-45.898,0.000
1728625983.765,0.000,-25.879,-54.199,-24.902,0.000
1728625983.769,0.000,-30.762,-57.617,0.977,0.000
1728625983.772,0.000,-20.508,-53.711,-33.203,0.000
1728625983.776,0.000,-24.902,-39.551,-68.359,0.000
1728625983.780,0.000,-35.645,-37.109,-69.336,0.000
1728625983.784,0.000,-32.715,-34.180,-43.457,0.000
1728625983.788,0.000,-25.879,-19.531,1.465,0.000
1728625983.792,0.000,-38.086,-32.715,-31.738,0.000
1728625983.796,0.000,-31.250,-38.086,-70.312,0.000
1728625983.800,0.000,-12.207,-32.227,-59.570,0.000
1728625983.804,-50.781,-22.949,-31.738,-31.250,0.000
1728625983.808,-36.621,-28.809,-29.297,0.488,0.000
1728625983.812,-35.645,-20.020,-33.691,-26.367,0.000
1728625983.815,-21.484,-12.695,-32.715,-68.848,0.000
1728625983.819,-10.254,-10.742,-30.762,-58.594,0.000
1728625983.823,-22.949,-3.418,-35.156,-34.668,0.000
1728625983.827,-11.230,0.488,-31.250,3.418,0.000
1728625983.831,-21.484,0.488,-33.203,-10.742,0.000
1728625983.835,-23.438,-4.395,-39.062,-49.805,0.000
1728625983.839,-20.996,-6.836,-38.086,-54.199,0.000
1728625983.843,-41.992,-8.789,-37.109,-41.992,0.000
1728625983.847,-41.016,-14.160,-31.738,-3.906,0.000
1728625983.851,-52.734,-15.625,-40.039,-18.066,0.000
1728625983.855,-49.805,-10.254,-42.480,-67.871,0.000
1728625983.859,-38.574,-17.578,-32.715,-78.613,0.000
1728625983.862,-57.129,-20.508,-31.738,-55.664,0.000
1728625983.866,-42.969,-13.184,-29.785,-14.160,0.000
1728625983.870,-39.551,-15.137,-27.832,-20.020,0.000
1728625983.874,-56.152,-20.508,-38.574,-67.383,0.000
1728625983.878,-48.340,-17.090,-45.898,-64.453,0.000
1728625983.882,-67.383,-18.066,-38.574,-35.645,0.000
1728625983.886,-59.570,-13.672,-30.273,-4.883,0.000
1728625983.890,-40.039,-16.113,-31.738,-3.906,0.000
1728625983.894,-38.574,-31.738,-40.527,-52.734,0.000
1728625983.898,-40.527,-33.691,-38.086,-72.266,0.000
1728625983.901,-57.129,-22.461,-33.691,-60.059,0.000
1728625983.905,-46.875,-20.996,-28.320,-18.555,0.000
1728625983.909,-27.832,-14.648,-21.973,1.953,0.000
1728625983.913,-23.926,-6.348,-29.785,-42.969,0.000
1728625983.917,-9.766,-11.230,-35.645,-73.242,0.000
1728625983.921,-19.531,-13.184,-36.621,-50.293,0.000
1728625983.925,-30.762,-16.602,-37.598,-5.371,0.000
1728625983.929,-31.250,-14.160,-34.180,7.812,0.000
1728625983.933,-33.203,-18.555,-33.691,-43.457,0.000
1728625983.937,-15.625,-22.461,-35.645,-66.406,0.000
1728625983.941,-31.250,-20.996,-36.621,-62.500,0.000
1728625983.944,-41.016,-20.020,0.000,-27.832,0.000
1728625983.948,-22.461,-16.602,0.000,-2.441,0.000
1728625983.952,-35.156,-26.367,0.000,-50.781,0.000
1728625983.956,-20.020,-18.555,0.000,-73.730,0.000
1728625983.960,-22.949,-3.418,0.000,-50.781,0.000
1728625983.964,-43.457,-15.137,0.000,-21.484,0.000
1728625983.968,-29.785,-23.926,0.000,-4.395,0.000
1728625983.972,-45.410,-25.391,0.000,-42.969,0.000
1728625983.976,-42.480,-24.414,0.000,-81.055,0.000
1728625983.979,-41.504,-24.902,0.000,-67.383,0.000
1728625983.983,-45.410,-26.367,0.000,-32.227,0.000
1728625983.987,-24.902,-17.578,0.000,0.977,0.000
1728625983.991,-42.969,-16.113,-47.852,-32.227,0.000
1728625983.995,-44.434,-26.855,-46.875,-83.008,0.000
1728625983.999,-37.109,-36.133,-50.781,-70.801,0.000
1728625984.003,-49.805,-29.785,-47.363,-31.250,0.000
1728625984.007,-32.715,-18.555,-38.574,0.977,0.000
1728625984.011,-46.387,-36.133,-47.852,-31.738,0.000
1728625984.014,-41.992,-45.410,-46.875,-71.777,0.000
1728625984.018,-15.137,-23.438,-30.273,-58.105,0.000
1728625984.022,-38.086,-20.020,-26.367,-34.668,0.000
1728625984.026,-31.738,-26.855,-38.574,-4.395,0.000
1728625984.030,-31.738,-31.738,-53.711,-23.438,0.000
1728625984.034,-49.805,-33.691,-44.434,-62.988,0.000
1728625984.038,-42.480,-27.832,-34.180,-69.824,0.000
1728625984.042,-54.688,-25.391,-40.527,-51.270,0.000
1728625984.045,-44.922,-24.902,-29.785,-4.883,0.000
1728625984.049,-31.738,-19.531,-20.996,-8.301,0.000
1728625984.053,-30.762,-17.090,-30.273,-59.570,0.000
1728625984.057,-22.461,-29.785,-37.598,-66.406,0.000
1728625984.061,-36.133,-35.156,-36.133,-57.617,0.000
1728625984.065,-25.879,-21.484,-24.902,-20.996,0.000
1728625984.069,-33.203,-20.996,-28.320,-11.230,0.000
1728625984.073,-44.434,-24.414,-36.133,-55.664,0.000
1728625984.077,-26.855,-19.531,-35.156,-66.895,0.000
1728625984.081,-46.875,-27.344,-39.551,-51.270,0.000
1728625984.085,-44.434,-28.809,-43.457,-23.438,0.000
1728625984.089,-20.996,-25.879,-42.969,-14.160,0.000
1728625984.093,-25.391,-28.320,-41.504,-49.805,0.000
1728625984.096,-23.926,-23.438,-37.598,-64.453,0.000
1728625984.100,-37.598,-28.320,-30.273,-48.340,0.000
1728625984.104,-33.691,-35.645,-24.902,-1.465,0.000
1728625984.108,-27.832,-40.039,-23.926,10.254,0.000
1728625984.112,-39.551,-38.086,-26.367,-38.086,0.000
1728625984.116,-31.738,-37.598,-32.715,-58.105,0.000
1728625984.120,-42.969,-45.410,-35.156,-58.594,0.000
1728625984.124,-55.176,-41.992,-36.621,-26.855,0.000
1728625984.128,-50.293,-37.109,-39.062,-1.465,0.000
1728625984.132,-57.617,-49.805,-37.109,-39.551,0.000
1728625984.136,-39.062,-51.758,-33.691,-63.965,0.000
1728625984.140,-36.133,-39.062,-37.598,-59.570,0.000
1728625984.144,-44.922,-31.250,-27.344,-29.297,0.000
1728625984.147,-25.879,-26.367,-24.902,-0.977,0.000
1728625984.151,-32.715,-32.715,-39.551,-32.227,0.000
1728625984.155,-34.180,-35.645,-39.551,-69.824,0.000
1728625984.159,-39.062,-30.762,-35.645,-70.312,0.000
1728625984.163,-55.664,-36.621,-38.574,-40.039,0.000
1728625984.167,-41.504,-39.062,-34.668,-6.836,0.000
1728625984.171,-48.340,-35.156,-40.527,-42.480,0.000
1728625984.175,-31.250,-19.043,-41.992,-74.219,0.000
1728625984.179,-20.508,-18.066,-38.086,-52.734,0.000
1728625984.183,-38.574,-24.414,-39.062,-29.297,0.000
1728625984.187,-24.414,-22.461,-39.551,-5.859,0.000
1728625984.190,-37.598,-36.133,-45.410,-32.715,0.000
1728625984.194,-36.133,-32.715,-41.992,-62.012,0.000
1728625984.198,-24.414,-17.090,-39.062,-45.410,0.000
1728625984.202,-47.363,-22.461,-49.316,-38.574,0.000
1728625984.206,-34.668,-33.691,-49.316,-14.160,0.000
1728625984.210,-18.066,-26.855,-41.504,-11.230,0.000
1728625984.214,-12.207,-3.906,-30.273,-47.852,0.000
1728625984.218,-0.977,0.977,-27.832,-55.176,0.000
1728625984.222,-23.438,-9.766,-35.156,-40.039,0.000
1728625984.226,-21.973,-12.207,-28.809,0.000,0.000
1728625984.230,-30.273,-16.602,-23.926,4.883,0.000
1728625984.233,-48.828,-25.879,-27.832,-39.551,0.000
1728625984.237,-38.086,-34.180,-30.762,-58.594,0.000
1728625984.241,-41.504,-34.180,-33.203,-48.828,0.000
1728625984.245,-30.762,-30.762,-35.645,-6.348,0.000
1728625984.249,-34.668,-30.273,-34.180,1.953,0.000
1728625984.253,-52.246,-35.645,-38.574,-43.945,0.000
1728625984.257,-35.156,-35.645,-38.086,-54.688,0.000
1728625984.261,-53.223,-36.621,-29.785,-51.270,0.000
1728625984.265,-55.176,-40.039,-27.344,-12.207,0.000
1728625984.269,-37.109,-37.109,-32.715,10.742,0.000
1728625984.272,-37.598,-35.156,-31.250,-38.574,0.000
1728625984.276,-13.184,-19.531,-26.855,-48.340,0.000
1728625984.280,-27.832,-16.602,-38.574,-37.598,0.000
1728625984.284,-50.781,-27.832,-37.598,-9.277,0.000
1728625984.288,-42.969,-28.809,-34.668,-3.418,0.000
1728625984.292,-56.641,-38.086,-41.016,-55.176,0.000
1728625984.296,-45.898,-43.457,-40.039,-64.453,0.000
1728625984.300,-38.086,-41.016,-41.992,-54.688,0.000
1728625984.304,-35.645,-35.156,-39.551,-28.320,0.000
1728625984.308,-25.391,-32.227,-41.016,-9.766,0.000
1728625984.312,-43.457,-31.738,-44.922,-47.363,0.000
1728625984.315,-27.344,-26.367,-34.180,-69.336,0.000
1728625984.319,-18.066,-26.855,-35.645,-57.617,0.000
1728625984.323,-31.250,-27.832,-38.574,-24.902,0.000
1728625984.327,-30.762,-29.785,-41.016,4.883,0.000
1728625984.331,-46.387,-34.180,-52.734,-38.086,0.000
1728625984.335,-35.156,-30.273,-51.758,-72.266,0.000
1728625984.339,-31.738,-33.691,-46.875,-57.617,0.000
1728625984.343,-34.668,-32.227,-39.062,-27.832,0.000
1728625984.347,-22.949,-19.043,-27.344,7.324,0.000
1728625984.350,-32.715,-16.602,-26.367,-15.137,0.000
1728625984.354,-22.461,-33.691,-30.762,-62.012,0.000
1728625984.358,-19.531,-45.410,-33.203,-57.129,0.000
1728625984.362,-37.598,-34.180,-31.738,-27.832,0.000
1728625984.366,-26.367,-23.438,-24.414,-3.418,0.000
1728625984.370,-28.320,-25.391,-35.645,-29.785,0.000
1728625984.374,-32.227,-34.180,-52.734,-72.754,0.000
1728625984.378,-22.461,-34.180,-44.922,-66.406,0.000
1728625984.382,-39.551,-29.785,-40.039,-47.363,0.000
1728625984.385,-34.668,-32.227,-36.133,-15.625,0.000
1728625984.389,-24.414,-45.898,-36.621,-25.879,0.000
1728625984.393,-38.086,-50.293,-33.691,-74.707,0.000
1728625984.397,-38.086,-38.086,-25.391,-78.613,0.000
1728625984.401,-51.270,-37.109,-28.809,-50.293,0.000
1728625984.405,-51.758,-41.504,-28.320,-2.930,0.000
1728625984.409,-40.527,-44.922,-30.273,-3.418,0.000
1728625984.413,-46.875,-47.852,-36.133,-51.758,0.000
1728625984.416,-45.410,-40.039,-23.438,-61.035,0.000
1728625984.420,-50.293,-37.598,-15.137,-41.016,0.000
1728625984.424,-42.480,-42.480,-25.391,-3.906,0.000
1728625984.428,-34.668,-40.039,-29.785,-6.836,0.000
1728625984.432,-32.227,-39.062,-32.715,-48.828,0.000
1728625984.436,-21.973,-30.762,-37.109,-59.082,0.000
1728625984.440,-44.434,-29.297,-43.457,-53.223,0.000
1728625984.444,-45.410,-37.598,-45.898,-17.578,0.000
1728625984.448,-38.574,-43.457,-44.922,-9.766,0.000
1728625984.452,-43.945,-41.504,-47.363,-53.711,0.000
1728625984.455,-27.832,-30.762,-49.805,-74.219,0.000
1728625984.460,0.000,-36.133,-50.781,-58.105,0.000
1728625984.464,0.000,-41.504,-43.945,-20.020,0.000
1728625984.468,0.000,-38.574,-35.645,0.977,0.000
1728625984.471,0.000,-33.203,-34.180,-43.945,0.000
1728625984.475,0.000,-23.438,-32.715,-72.754,0.000
1728625984.479,0.000,-27.832,-42.969,-58.105,0.000
1728625984.483,0.000,-31.250,-50.293,-24.414,0.000
1728625984.487,0.000,-30.762,-45.410,-0.488,0.000
1728625984.491,0.000,-40.527,-49.805,-33.691,0.000
1728625984.495,0.000,-45.410,-51.270,-60.059,0.000
1728625984.499,0.000,-40.039,-42.969,-60.547,0.000
1728625984.503,0.000,-32.715,-39.062,-27.832,0.000
1728625984.507,-14.648,-26.855,-44.434,5.859,0.000
1728625984.511,-29.297,-26.367,-44.922,-29.785,0.000
1728625984.515,-10.742,-19.531,-34.180,-58.105,0.000
1728625984.518,-9.277,-20.020,-28.809,-51.270,0.000
1728625984.522,-27.344,-33.203,-26.855,-22.949,0.000
1728625984.526,-17.090,-34.668,-34.180,3.906,0.000
1728625984.530,-24.902,-34.668,-36.621,-25.879,0.000
1728625984.534,-32.715,-41.016,-37.598,-55.664,0.000
1728625984.538,-43.945,-42.969,-38.574,-50.293,0.000
1728625984.542,-47.363,-40.039,-34.668,-20.996,0.000
1728625984.546,-41.504,-37.109,-34.180,5.371,0.000
1728625984.550,-58.105,-43.457,-40.527,-31.738,0.000
1728625984.554,-52.734,-51.758,-39.551,-75.195,0.000
1728625984.558,-45.410,-55.664,-29.785,-59.082,0.000
1728625984.562,-52.246,-48.828,-25.391,-32.715,0.000
1728625984.565,-26.367,-44.922,-26.855,-13.672,0.000
1728625984.569,-31.738,-46.387,-23.926,-20.508,0.000
1728625984.573,-35.156,-40.039,-26.367,-42.969,0.000
1728625984.577,-22.461,-46.387,-33.203,-56.152,0.000
1728625984.581,-42.480,-45.898,-35.645,-43.945,0.000
1728625984.585,-29.297,-42.969,-41.016,-2.930,0.000
1728625984.589,-33.203,-42.480,-48.340,-18.555,0.000
1728625984.593,-43.945,-37.598,-44.922,-63.965,0.000
1728625984.597,-22.949,-33.203,-38.574,-60.059,0.000
1728625984.601,-35.645,-38.086,-41.016,-34.668,0.000
1728625984.605,-24.902,-31.738,-34.180,-3.418,0.000
1728625984.608,-19.531,-28.809,-36.133,-4.883,0.000
1728625984.612,-32.715,-39.062,-47.363,-52.734,0.000
1728625984.616,-19.531,-33.203,-39.062,-64.941,0.000
1728625984.620,-29.785,-25.879,-40.039,-42.969,0.000
1728625984.624,-31.250,-24.414,-41.016,-7.324,0.000
1728625984.628,-26.367,-24.902,-40.527,1.465,0.000
1728625984.632,-39.551,-31.738,-49.316,-48.828,0.000
1728625984.636,-23.438,-26.855,-45.898,-66.895,0.000
1728625984.640,-28.320,-24.414,-41.504,-46.875,0.000
1728625984.644,-36.621,-26.855,-44.922,-12.695,0.000
1728625984.648,0.000,-25.879,-45.410,-7.812,0.000
1728625984.651,0.000,-32.227,-47.363,-51.758,0.000
1728625984.655,0.000,-39.551,-52.246,-75.684,0.000
1728625984.659,0.000,-45.898,-45.410,-62.988,0.000
1728625984.663,0.000,-42.969,-32.227,-17.090,0.000
1728625984.667,0.000,-43.457,-33.691,-1.953,0.000
1728625984.671,0.000,-43.945,-29.785,-36.621,0.000
1728625984.675,0.000,-38.574,-26.855,-56.641,0.000
1728625984.679,0.000,-35.645,-31.738,-59.570,0.000
1728625984.683,0.000,-30.273,-24.902,-21.484,0.000
1728625984.687,0.000,-35.645,-24.414,13.184,0.000
1728625984.690,0.000,-43.945,-32.227,-18.555,0.000
1728625984.694,-26.367,-38.086,-29.297,-42.480,0.000
1728625984.698,-37.109,-42.969,-33.203,-52.246,0.000
1728625984.702,-60.547,-48.340,-38.574,-41.504,0.000
1728625984.706,-39.062,-35.156,-24.902,1.953,0.000
1728625984.710,-43.945,-31.738,-24.414,-31.738,0.000
1728625984.714,-39.551,-41.016,-39.551,-81.543,0.000
1728625984.718,-37.598,-46.387,-45.898,-66.895,0.000
1728625984.722,-56.152,-42.969,-40.527,-31.250,0.000
1728625984.726,-39.062,-29.785,-35.645,-9.277,0.000
1728625984.729,-40.527,-35.645,-35.645,-35.156,0.000
1728625984.733,-32.715,-35.645,-34.668,-67.383,0.000
1728625984.737,-16.113,-19.531,-35.645,-64.453,0.000
1728625984.741,-53.223,-27.832,-40.039,-38.086,0.000
1728625984.745,-49.316,-38.574,-38.574,-4.883,0.000
1728625984.749,-36.621,-38.574,-36.621,-20.996,0.000
1728625984.753,-38.086,-38.086,-38.574,-53.223,0.000
1728625984.757,-31.250,-34.668,-31.250,-42.480,0.000
1728625984.761,-46.387,-29.785,-25.391,-22.949,0.000
1728625984.764,-35.156,-23.438,-24.902,13.672,0.000
1728625984.768,-31.250,-22.461,-31.250,-2.441,0.000
1728625984.772,-41.504,-20.508,-39.551,-53.223,0.000
1728625984.776,-22.461,-18.066,-43.945,-53.223,0.000
1728625984.780,-34.180,-25.879,-52.734,-45.898,0.000
1728625984.784,-27.344,-24.902,-48.340,-5.859,0.000
1728625984.788,-24.902,-20.996,-43.945,-0.977,0.000
1728625984.792,-32.715,-27.344,-45.898,-53.711,0.000
1728625984.795,-14.648,-32.715,-35.645,-58.594,0.000
1728625984.799,-25.879,-31.738,-34.668,-51.758,0.000
1728625984.803,-26.855,-26.367,-39.551,-17.090,0.000
1728625984.807,-18.555,-37.598,-42.969,-3.906,0.000
1728625984.811,-31.738,-46.387,-49.316,-56.641,0.000
1728625984.815,-23.926,-29.297,-38.086,-70.801,0.000
1728625984.819,-30.273,-22.949,-22.949,-46.875,0.000
1728625984.823,-34.668,-29.785,-23.438,-2.930,0.000
1728625984.827,-34.180,-34.668,-34.180,6.836,0.000
1728625984.831,-46.387,-37.598,-36.133,-48.340,0.000
1728625984.835,-37.598,-38.574,-35.156,-67.871,0.000
1728625984.839,-45.410,-44.434,-35.156,-59.082,0.000
1728625984.843,-53.223,-41.016,-35.156,-28.809,0.000
1728625984.847,-54.688,-32.715,-35.156,-5.371,0.000
1728625984.850,-57.617,-40.039,-36.621,-52.734,0.000
1728625984.854,-36.621,-49.316,-38.574,-75.684,0.000
1728625984.858,-40.039,-46.875,-25.879,-54.688,0.000
1728625984.862,-48.340,-40.527,-14.648,-28.320,0.000
1728625984.866,-35.156,-37.598,-21.973,-7.324,0.000
1728625984.870,-38.574,-39.062,-32.715,-31.738,0.000
1728625984.874,-22.949,-30.762,-33.691,-57.129,0.000
1728625984.878,-19.531,-32.227,-37.598,-52.734,0.000
1728625984.882,0.000,-44.434,-37.598,-35.645,0.000
1728625984.886,0.000,-43.457,-32.227,-9.277,0.000
1728625984.890,0.000,-37.598,-36.621,-27.832,0.000
1728625984.894,0.000,-37.109,-37.598,-54.199,0.000
1728625984.898,0.000,-37.109,-31.250,-55.664,0.000
1728625984.901,0.000,-40.527,-38.086,-35.156,0.000
1728625984.905,0.000,-37.598,-39.551,-8.789,0.000
1728625984.909,0.000,-25.879,-34.180,-29.297,0.000
1728625984.913,0.000,-25.391,-37.109,-58.594,0.000
1728625984.917,0.000,-42.480,-39.062,-70.801,0.000
1728625984.921,0.000,-47.852,-41.016,-60.547,0.000
1728625984.925,0.000,-36.133,-35.645,-17.578,0.000
1728625984.929,-20.020,-33.691,-31.738,-21.484,0.000
1728625984.933,-27.344,-37.598,-42.480,-56.641,0.000
1728625984.937,-33.691,-30.762,-44.922,-69.824,0.000
1728625984.941,-43.945,-26.367,-38.574,-56.641,0.000
1728625984.944,-37.109,-26.855,-37.598,-8.789,0.000
1728625984.948,-49.805,-42.969,-48.340,-24.414,0.000
1728625984.952,-56.641,-51.270,-48.340,-75.195,0.000
1728625984.956,-37.109,-40.527,-37.109,-71.777,0.000
1728625984.960,-46.387,-43.457,-34.668,-47.363,0.000
1728625984.964,-39.062,-39.551,-26.855,-13.184,0.000
1728625984.968,-35.645,-36.133,-30.273,-8.301,0.000
1728625984.972,-46.875,-45.410,-37.598,-52.734,0.000
1728625984.976,-28.809,-40.039,0.000,-62.012,0.000
1728625984.980,-37.598,-31.250,0.000,-49.316,0.000
1728625984.984,-46.387,-35.645,0.000,-14.160,0.000
1728625984.987,-35.645,-37.598,0.000,0.000,0.000
1728625984.991,-39.551,-38.086,0.000,-50.293,0.000
1728625984.995,-26.367,-44.922,0.000,-79.102,0.000
1728625984.999,-42.480,-46.387,0.000,-67.383,0.000
1728625985.003,-43.457,-40.527,0.000,-25.391,0.000
1728625985.007,-29.297,-42.480,0.000,-5.859,0.000
1728625985.011,-55.176,-43.457,0.000,-51.270,0.000
1728625985.015,-54.199,-41.992,0.000,-73.730,0.000
1728625985.019,-47.852,-38.574,0.000,-58.594,0.000
1728625985.023,-42.480,-36.133,-30.762,-23.438,0.000
1728625985.027,-25.391,-41.016,-25.391,-2.441,0.000
1728625985.030,-37.109,-44.434,-38.574,-42.480,0.000
1728625985.034,-28.809,-37.598,-46.875,-63.965,0.000
1728625985.038,-29.785,-37.109,-38.574,-59.570,0.000
1728625985.042,-35.156,-38.086,-36.133,-27.832,0.000
1728625985.046,-11.230,-32.227,-39.062,6.836,0.000
1728625985.050,-24.414,-28.809,-36.133,-20.020,0.000
1728625985.054,-30.273,-20.996,-30.762,-51.758,0.000
1728625985.058,-33.691,-31.250,-30.762,-51.270,0.000
1728625985.062,-39.062,-36.621,-33.203,-17.578,0.000
1728625985.066,-24.414,-28.320,-38.086,14.648,0.000
1728625985.069,-32.715,-28.809,-41.016,-20.508,0.000
1728625985.073,-27.832,-18.555,-29.785,-50.293,0.000
1728625985.077,-28.320,-15.625,-22.461,-44.434,0.000
1728625985.081,-50.293,-28.809,-24.902,-39.551,0.000
1728625985.085,-31.250,-27.832,-36.621,-13.672,0.000
1728625985.089,-18.555,-29.785,-46.387,-35.645,0.000
1728625985.093,-28.320,-42.480,-42.480,-68.359,0.000
1728625985.097,-43.457,-48.828,-47.363,-61.035,0.000
1728625985.101,-59.570,-38.086,-48.828,-40.527,0.000
1728625985.105,-41.504,-29.297,-45.898,-1.465,0.000
1728625985.108,-33.203,-25.391,-47.363,-16.113,0.000
1728625985.112,-30.273,-20.996,-39.062,-60.059,0.000
1728625985.116,-23.438,-26.855,-34.668,-66.406,0.000
1728625985.120,-40.527,-36.621,-39.551,-46.875,0.000
1728625985.124,-38.574,-42.969,-35.156,-6.348,0.000
1728625985.128,-38.086,-48.340,-38.086,-22.461,0.000
1728625985.132,-41.016,-45.898,-38.086,-69.824,0.000
1728625985.136,-31.250,-45.898,-34.180,-62.988,0.000
1728625985.139,-41.504,-45.410,-36.133,-33.691,0.000
1728625985.143,-36.133,-36.621,-27.344,1.953,0.000
1728625985.147,-38.086,-42.480,-24.902,-1.953,0.000
1728625985.151,-41.992,-56.641,-35.156,-50.293,0.000
1728625985.155,-23.438,-61.523,-39.551,-63.965,0.000
1728625985.159,-37.598,-55.176,-33.691,-44.922,0.000
1728625985.163,-25.391,-46.875,-25.391,-4.395,0.000
1728625985.167,-4.395,-40.527,-23.926,0.000,0.000
1728625985.171,-23.926,-45.898,-32.715,-49.316,0.000
1728625985.174,-25.391,-49.316,-36.621,-59.570,0.000
1728625985.178,-33.203,-47.363,-34.668,-45.410,0.000
1728625985.182,-29.297,-41.992,-24.414,-7.324,0.000
1728625985.186,-34.180,-46.875,-24.414,-0.488,0.000
1728625985.190,-60.547,-46.875,-30.273,-61.035,0.000
1728625985.194,-42.480,-43.945,-36.621,-79.102,0.000
1728625985.198,-33.203,-54.199,-46.387,-54.688,0.000
1728625985.202,-52.246,-55.176,-46.875,-18.066,0.000
1728625985.206,-40.527,-47.363,-43.945,0.488,0.000
1728625985.210,-35.156,-43.457,-47.363,-36.133,0.000
1728625985.214,-26.855,-45.410,-43.457,-60.059,0.000
1728625985.218,-31.738,-43.945,-38.574,-52.246,0.000
1728625985.222,-46.875,-33.203,-40.039,-19.531,0.000
1728625985.225,-42.480,-28.320,-41.016,0.488,0.000
1728625985.229,-47.852,-35.156,-43.457,-42.969,0.000
1728625985.233,-34.668,-25.879,-35.156,-63.477,0.000
1728625985.237,-36.621,-25.879,-30.762,-49.316,0.000
1728625985.241,-57.617,-42.969,-38.574,-27.832,0.000
1728625985.245,-44.434,-44.922,-35.645,4.395,0.000
1728625985.249,-54.688,-39.062,-33.203,-33.691,0.000
1728625985.253,-53.223,-32.715,-42.480,-74.707,0.000
1728625985.257,0.000,-34.180,-43.457,-70.312,0.000
1728625985.261,0.000,-37.598,-25.879,-41.992,0.000
1728625985.265,0.000,-37.109,-20.996,5.371,0.000
1728625985.269,0.000,-37.598,-29.785,-19.043,0.000
1728625985.273,0.000,-33.691,-30.762,-62.012,0.000
1728625985.276,0.000,-42.480,-23.926,-67.871,0.000
1728625985.280,0.000,-48.340,-25.879,-68.848,0.000
1728625985.284,0.000,-41.016,-31.250,-36.621,0.000
1728625985.288,0.000,-40.039,-30.762,-40.039,0.000
1728625985.292,0.000,-40.527,-36.133,-62.988,0.000
1728625985.296,0.000,-43.945,-43.945,-65.430,0.000
1728625985.300,0.000,-48.340,-46.875,-56.152,0.000
1728625985.304,-44.434,-43.945,-44.922,-16.602,0.000
1728625985.308,-37.109,-40.527,-44.434,-24.902,0.000
1728625985.312,-35.645,-32.227,-36.133,-63.477,0.000
1728625985.316,-38.086,-27.344,-37.109,-66.406,0.000
1728625985.320,-55.664,-34.180,-41.016,-44.434,0.000
1728625985.323,-37.598,-34.668,-29.785,1.465,0.000
1728625985.327,-30.273,-33.203,-28.809,-6.836,0.000
1728625985.331,-37.109,-34.180,-36.621,-58.594,0.000
1728625985.335,-26.855,-39.062,-27.832,-47.363,0.000
1728625985.339,-40.039,-32.227,-21.484,-21.973,0.000
1728625985.343,-33.691,-28.809,-28.809,1.465,0.000
1728625985.347,-30.762,-33.691,-36.133,5.371,0.000
1728625985.351,-40.039,-34.668,-43.457,-46.387,0.000
1728625985.355,-14.160,-32.715,-39.062,-66.895,0.000
1728625985.359,-26.855,-35.645,-38.086,-53.711,0.000
1728625985.363,-23.438,-30.762,-33.203,-10.742,0.000
1728625985.366,-14.160,-23.926,-27.832,-1.953,0.000
1728625985.370,-37.109,-29.297,-34.180,-53.711,0.000
1728625985.374,-28.320,-27.832,-37.109,-72.266,0.000
1728625985.378,-35.156,-27.344,-38.574,-45.898,0.000
1728625985.382,-32.227,-25.879,-37.598,-5.371,0.000
1728625985.386,-19.043,-19.531,-41.016,-5.371,0.000
1728625985.390,-34.180,-33.691,-50.293,-50.781,0.000
1728625985.394,-30.273,-37.598,-44.434,-62.988,0.000
1728625985.398,0.000,-33.691,-35.645,-55.176,0.000
1728625985.402,0.000,-37.598,-32.227,-23.438,0.000
1728625985.406,0.000,-34.180,-33.691,5.371,0.000
1728625985.409,0.000,-42.969,-36.133,-42.969,0.000
1728625985.413,0.000,-30.273,-26.367,-57.129,0.000
1728625985.417,0.000,-21.973,-28.809,-43.457,0.000
1728625985.421,0.000,-43.457,-35.156,-19.531,0.000
1728625985.425,0.000,-49.316,-27.832,13.672,0.000
1728625985.429,0.000,-38.086,-26.367,-27.832,0.000
1728625985.433,0.000,-39.551,-28.320,-58.594,0.000
1728625985.437,0.000,-35.156,-26.367,-35.645,0.000
1728625985.441,0.000,-20.996,-31.738,-11.719,0.000
1728625985.444,-18.555,-22.461,-25.391,16.113,0.000
1728625985.448,-25.391,-33.203,-21.973,-5.859,0.000
1728625985.452,-38.574,-49.316,-24.414,-43.945,0.000
1728625985.456,-33.203,-49.316,-24.414,-41.016,0.000
1728625985.460,-47.852,-37.598,-27.832,-16.602,0.000
1728625985.464,-42.480,-43.457,-29.297,18.066,0.000
1728625985.468,-46.387,-50.781,-40.527,-9.277,0.000
1728625985.472,-36.133,-48.828,-37.109,-40.039,0.000
1728625985.476,-15.137,-43.457,-27.832,-52.734,0.000
1728625985.480,-28.320,-35.645,-36.621,-37.109,0.000
1728625985.484,-25.879,-32.715,-32.715,16.113,0.000
1728625985.487,-35.156,-35.156,-35.645,-7.324,0.000
1728625985.491,-38.574,-41.504,-49.805,-54.199,0.000
1728625985.495,-21.973,-47.363,-48.340,-53.711,0.000
1728625985.499,-49.805,-46.387,-42.480,-37.109,0.000
1728625985.503,-43.457,-41.016,-43.457,-4.883,0.000
1728625985.507,-29.297,-35.645,-50.293,-13.184,0.000
1728625985.511,-38.086,-32.715,-54.688,-50.293,0.000
1728625985.515,-30.762,-39.551,-45.898,-53.223,0.000
1728625985.518,-52.246,-41.016,-38.574,-44.434,0.000
1728625985.522,-42.969,-32.715,-41.016,-10.254,0.000
1728625985.526,-24.902,-32.715,-41.992,-10.254,0.000
1728625985.530,-35.156,-39.551,-44.922,-61.523,0.000
1728625985.534,-30.273,-41.992,-44.922,-74.219,0.000
1728625985.538,-48.340,-37.109,-43.945,-49.805,0.000
1728625985.542,-47.363,-37.598,-38.574,-12.695,0.000
1728625985.546,-30.273,-36.621,-29.785,-8.301,0.000
1728625985.550,-35.156,-39.551,-38.574,-52.734,0.000
1728625985.553,-34.180,-45.898,-44.922,-64.453,0.000
1728625985.557,-50.293,-50.293,-44.922,-59.082,0.000
1728625985.561,-45.410,-50.293,-41.992,-31.738,0.000
1728625985.565,-24.902,-38.086,-33.691,-8.301,0.000
1728625985.569,-30.273,-31.738,-24.902,-43.945,0.000
1728625985.573,-16.113,-43.457,-22.461,-62.500,0.000
1728625985.577,-31.250,-46.875,-24.414,-48.828,0.000
1728625985.581,-36.621,-35.156,-20.996,-15.625,0.000
1728625985.585,-18.066,-37.109,-20.996,8.789,0.000
1728625985.589,-38.574,-48.340,-28.809,-26.367,0.000
1728625985.593,-19.043,-43.945,-20.020,-55.176,0.000
1728625985.597,-13.184,-36.133,-12.695,-46.387,0.000
1728625985.601,-40.039,-37.598,-15.625,-16.602,0.000
1728625985.604,-35.645,-38.086,-20.020,12.695,0.000
1728625985.608,-36.133,-33.691,-24.414,-28.320,0.000
1728625985.612,-21.973,-27.344,-24.902,-62.012,0.000
1728625985.616,-18.066,-23.926,-33.203,-52.246,0.000
1728625985.620,-24.414,-19.531,-38.086,-14.648,0.000
1728625985.624,-22.461,-22.949,-36.133,11.230,0.000
1728625985.628,-33.691,-34.668,-42.969,-28.320,0.000
1728625985.632,-29.297,-30.762,-43.945,-58.594,0.000
1728625985.636,-19.043,-17.090,-39.062,-53.223,0.000
1728625985.640,-31.738,-15.625,-31.250,-31.250,0.000
1728625985.644,-28.320,-24.414,-37.598,-9.277,0.000
1728625985.648,-26.367,-29.785,-50.781,-37.598,0.000
1728625985.652,-20.996,-27.344,-47.363,-61.523,0.000
1728625985.655,-33.203,-27.832,-43.945,-45.898,0.000
1728625985.659,-56.152,-33.203,-52.246,-33.691,0.000
1728625985.663,-26.367,-28.320,-50.781,-2.930,0.000
1728625985.667,-30.273,-15.137,-41.992,-9.277,0.000
1728625985.671,-31.738,-1.465,-41.992,-62.012,0.000
1728625985.675,-17.090,-6.836,-40.039,-71.777,0.000
1728625985.680,-36.133,-15.625,-38.086,-48.340,0.000
1728625985.683,-34.668,-13.184,-36.621,-4.395,0.000
1728625985.687,-26.855,-24.902,-45.410,-15.625,0.000
1728625985.691,-25.879,-27.344,-55.664,-62.988,0.000
1728625985.695,-21.484,-20.020,-44.922,-66.406,0.000
1728625985.699,-37.109,-27.832,-38.086,-51.758,0.000
1728625985.703,-41.992,-28.320,-34.668,-7.812,0.000
1728625985.707,-42.969,-24.414,-29.297,4.883,0.000
1728625985.711,-50.293,-36.133,-31.250,-38.086,0.000
1728625985.715,-31.250,-31.738,-20.508,-59.082,0.000
1728625985.719,-37.109,-27.832,-17.578,-42.480,0.000
1728625985.723,-39.062,-30.762,-23.926,-4.395,0.000
1728625985.726,-45.410,-36.133,-29.297,-2.930,0.000
1728625985.730,-59.082,-43.945,-31.738,-43.945,0.000
1728625985.734,-37.598,-43.457,-31.250,-49.805,0.000
1728625985.738,-34.180,-43.457,-32.227,-36.621,0.000
1728625985.742,-28.320,-32.227,-27.832,-4.883,0.000
1728625985.746,-18.555,-35.156,-31.250,19.043,0.000
1728625985.750,-34.180,-40.527,-37.598,-29.785,0.000
1728625985.754,-19.043,-24.414,-37.598,-59.082,0.000
1728625985.758,-25.391,-21.484,-40.527,-51.270,0.000
1728625985.762,-25.879,-22.461,-34.668,-16.602,0.000
1728625985.765,-10.742,-22.949,-29.297,11.719,0.000
1728625985.769,-29.785,-38.086,-41.504,-26.855,0.000
1728625985.773,-17.578,-37.109,-46.387,-60.547,0.000
1728625985.777,-18.066,-27.344,-40.039,-56.152,0.000
1728625985.781,-28.809,-27.344,-35.156,-20.996,0.000
1728625985.785,-22.949,-22.949,-37.598,-6.836,0.000
1728625985.789,-35.645,-24.414,-39.062,-46.875,0.000
1728625985.793,-26.855,-32.227,-38.086,-70.801,0.000
1728625985.797,-37.109,-33.203,-37.109,-62.012,0.000
1728625985.801,-52.734,-31.250,-44.434,-27.344,0.000
1728625985.805,-31.738,-31.250,-40.527,4.883,0.000
1728625985.808,-46.387,-41.016,-41.992,-36.133,0.000
1728625985.812,-48.828,-49.316,-48.340,-79.102,0.000
1728625985.816,-31.738,-38.086,-36.621,-66.406,0.000
1728625985.820,-41.016,-23.926,-26.855,-28.809,0.000
1728625985.824,-35.645,-24.902,-30.762,14.160,0.000
1728625985.828,-31.738,-37.109,-40.039,-11.230,0.000
1728625985.832,-28.320,-39.551,-40.039,-58.105,0.000
1728625985.836,-25.879,-42.480,-38.574,-62.012,0.000
1728625985.840,-40.039,-50.293,-44.922,-43.945,0.000
1728625985.843,-29.297,-63.477,-48.340,-5.859,0.000
1728625985.847,-34.180,-64.453,-42.969,-22.461,0.000
1728625985.851,-39.062,-53.711,-33.203,-62.500,0.000
1728625985.855,-25.391,-47.852,-31.738,-58.594,0.000
1728625985.859,-41.504,-37.109,-28.320,-35.156,0.000
1728625985.863,-38.086,-30.273,-32.715,-4.883,0.000
1728625985.867,-51.758,-41.504,-41.504,-25.391,0.000
1728625985.871,-54.688,-52.246,-41.504,-66.406,0.000
1728625985.874,-33.203,-48.340,-39.062,-68.359,0.000
1728625985.878,-42.480,-40.039,-34.668,-58.105,0.000
1728625985.882,-34.668,-42.969,-29.297,-17.090,0.000
1728625985.886,-39.062,-45.898,-31.738,-5.859,0.000
1728625985.890,-51.270,-41.992,-40.527,-42.969,0.000
1728625985.894,-37.598,-29.297,-30.273,-52.734,0.000
1728625985.898,-42.969,-24.414,-20.020,-38.574,0.000
1728625985.902,-27.832,-32.227,-21.484,-8.789,0.000
1728625985.906,-18.555,-41.504,-23.438,-9.766,0.000
1728625985.910,-30.762,-40.039,-25.879,-60.059,0.000
1728625985.913,-27.832,-34.180,-27.344,-75.684,0.000
1728625985.917,-26.367,-29.785,-29.297,-63.965,0.000
1728625985.921,-20.996,-33.203,-28.320,-32.227,0.000
1728625985.925,-11.719,-36.621,-27.832,0.977,0.000
1728625985.929,-30.273,-37.598,-34.668,-49.316,0.000
1728625985.933,-21.484,-39.062,-40.527,-78.125,0.000
1728625985.937,-16.113,-31.250,-43.457,-56.641,0.000
1728625985.941,-26.855,-20.020,-35.645,-23.438,0.000
1728625985.945,-21.973,-27.344,-39.062,-1.465,0.000
1728625985.948,-37.109,-35.156,-46.875,-39.062,0.000
1728625985.952,-27.344,-33.691,-42.969,-67.871,0.000
1728625985.956,-27.832,-33.203,-47.852,-63.965,0.000
1728625985.960,-42.969,-34.668,-49.805,-27.344,0.000
1728625985.964,-27.344,-35.156,-43.457,8.301,0.000
1728625985.968,-41.992,-44.922,-47.363,-39.551,0.000
1728625985.972,-41.992,-47.363,-46.387,-74.219,0.000
1728625985.976,-32.715,-44.922,-43.457,-61.035,0.000
1728625985.980,-50.781,-54.688,-45.898,-38.574,0.000
1728625985.984,-38.574,-54.199,-47.363,-8.789,0.000
1728625985.988,-42.969,-53.223,-49.805,-42.480,0.000
1728625985.992,-38.574,-60.059,-50.781,-79.102,0.000
1728625985.996,-33.203,-67.871,-46.387,-64.453,0.000
1728625986.000,-45.410,-59.082,-42.480,-41.504,0.000
1728625986.003,-38.086,-51.758,-38.574,-19.043,0.000
1728625986.008,-58.594,-63.477,-47.852,-45.898,0.000
1728625986.011,-56.641,-65.430,-56.152,-83.984,0.000
1728625986.015,-37.109,-52.734,-48.828,-84.961,0.000
1728625986.019,-51.758,-56.152,-42.480,-51.758,0.000
1728625986.023,-44.922,-62.500,-42.969,-14.160,0.000
1728625986.027,-46.875,-55.176,-44.434,-41.016,0.000
1728625986.031,-50.781,-46.387,-43.457,-73.242,0.000
1728625986.035,-37.598,-50.781,-42.480,-64.941,0.000
1728625986.039,-43.457,-68.359,-47.363,-49.316,0.000
1728625986.043,-26.855,-62.988,-42.969,-4.883,0.000
1728625986.047,-34.180,-50.293,-43.457,-10.254,0.000
1728625986.050,-58.594,-56.641,-46.875,-72.754,0.000
1728625986.054,-43.945,-61.035,-39.062,-80.566,0.000
1728625986.058,-53.711,-51.758,-38.574,-55.664,0.000
1728625986.062,-46.387,-45.898,-40.039,-5.859,0.000
1728625986.066,-36.133,-51.270,-41.016,-7.324,0.000
1728625986.070,-56.641,-54.688,-41.992,-64.453,0.000
1728625986.074,-42.480,-48.340,-41.504,-72.266,0.000
1728625986.078,-42.969,-46.387,-44.434,-57.617,0.000
1728625986.082,-41.016,-46.387,-41.016,-20.508,0.000
1728625986.086,-27.344,-45.898,-41.992,-0.977,0.000
1728625986.090,-46.875,-41.016,-47.852,-54.688,0.000
1728625986.094,-32.715,-36.133,-41.992,-75.195,0.000
1728625986.097,-30.762,-40.039,-36.621,-49.805,0.000
1728625986.101,-30.762,-31.250,-31.738,-11.719,0.000
1728625986.105,-20.508,-21.484,-28.320,11.230,0.000
1728625986.109,-38.574,-36.621,-37.109,-35.156,0.000
1728625986.113,-31.738,-51.270,-47.363,-68.359,0.000
1728625986.117,-28.320,-43.945,-44.922,-55.664,0.000
1728625986.121,-24.414,-33.691,-37.109,-13.184,0.000
1728625986.125,-16.113,-28.809,-40.039,12.695,0.000
1728625986.129,-28.320,-38.086,-54.688,-21.484,0.000
1728625986.133,-15.137,-46.875,-47.363,-54.688,0.000
1728625986.136,-22.949,-37.598,-34.180,-61.523,0.000
1728625986.140,-43.945,-41.992,-35.156,-33.691,0.000
1728625986.144,-36.621,-48.340,-30.273,7.812,0.000
1728625986.148,-36.621,-40.039,-29.297,-21.973,0.000
1728625986.152,-28.809,-36.621,-35.645,-59.570,0.000
1728625986.156,-31.738,-43.457,-33.691,-54.688,0.000
1728625986.160,-44.434,-48.340,-25.879,-34.180,0.000
1728625986.164,-45.898,-47.363,-25.879,-8.789,0.000
1728625986.168,-59.082,-48.828,-37.109,-29.785,0.000
1728625986.172,-42.969,-52.734,-35.645,-50.293,0.000
1728625986.175,-27.344,-58.105,-26.855,-42.480,0.000
1728625986.179,-53.711,-53.223,-24.414,-26.855,0.000
1728625986.183,-46.387,-41.992,-26.855,5.859,0.000
1728625986.187,-35.645,-44.922,-41.992,-15.137,0.000
1728625986.191,-34.668,-40.527,-45.898,-43.457,0.000
1728625986.195,0.000,-37.109,-43.457,-44.434,0.000
1728625986.199,0.000,-34.668,-37.598,-22.949,0.000
1728625986.203,0.000,-31.738,-34.668,18.066,0.000
1728625986.207,0.000,-40.527,-36.621,-5.859,0.000
1728625986.211,0.000,-35.645,-34.180,-39.551,0.000
1728625986.214,0.000,-34.668,-37.598,-37.598,0.000
1728625986.218,0.000,-41.504,-41.504,-26.367,0.000
1728625986.222,0.000,-30.762,-31.738,17.578,0.000
1728625986.226,0.000,-19.531,-32.715,10.254,0.000
1728625986.230,0.000,-20.996,-36.621,-41.016,0.000
1728625986.234,0.000,-26.367,-32.715,-52.246,0.000
1728625986.238,0.000,-35.156,-36.621,-42.480,0.000
1728625986.242,-50.293,-25.879,-26.855,-4.395,0.000
1728625986.246,-32.227,-22.461,-24.902,-2.441,0.000
1728625986.249,-26.855,-40.039,-35.156,-47.363,0.000
1728625986.253,-25.879,-38.086,-31.738,-56.641,0.000
1728625986.257,-50.781,-31.250,-30.273,-43.457,0.000
1728625986.261,-41.016,-30.273,-29.297,0.000,0.000
1728625986.265,-25.391,-43.457,-31.738,15.137,0.000
1728625986.269,-49.805,-41.992,-33.203,-40.039,0.000
1728625986.273,-45.898,-29.785,-31.250,-69.824,0.000
1728625986.277,-49.805,-35.645,-35.645,-62.988,0.000
1728625986.281,-46.875,-33.691,-32.227,-17.578,0.000
1728625986.285,-20.996,-24.414,-26.367,-1.465,0.000
1728625986.289,-36.133,-29.785,-33.203,-53.223,0.000
1728625986.293,-44.922,-38.574,-34.668,-70.801,0.000
1728625986.297,-51.758,-46.387,-39.062,-59.570,0.000
1728625986.300,-48.828,-45.410,-43.457,-30.762,0.000
1728625986.304,-30.762,-38.574,-41.016,-8.301,0.000
1728625986.308,-42.969,-38.574,-46.875,-41.504,0.000
1728625986.312,-42.480,-36.133,-40.527,-63.477,0.000
1728625986.316,-36.621,-25.879,-21.973,-61.035,0.000
1728625986.320,-30.762,-21.973,-21.484,-32.715,0.000
1728625986.324,-21.973,-30.273,-32.715,-0.488,0.000
1728625986.328,-57.617,-45.898,-44.434,-36.133,0.000
1728625986.332,-62.500,-44.922,-46.875,-76.172,0.000
1728625986.336,-33.691,-27.344,-42.480,-68.848,0.000
1728625986.340,-39.551,-24.902,-35.645,-37.109,0.000
1728625986.344,-44.922,-27.832,-28.809,-1.465,0.000
1728625986.348,-48.828,-28.320,-33.203,-24.902,0.000
1728625986.351,-39.551,-32.227,-46.875,-66.895,0.000
1728625986.355,-32.715,-35.645,-45.898,-67.871,0.000
1728625986.359,-41.504,-22.949,-41.992,-37.109,0.000
1728625986.363,-16.113,-20.020,-36.621,-0.488,0.000
1728625986.367,-22.461,-35.156,-38.574,-29.785,0.000
1728625986.371,-35.156,-38.574,-44.434,-60.547,0.000
1728625986.375,-29.297,-29.297,-38.086,-61.523,0.000
1728625986.379,-42.480,-22.949,-30.762,-52.246,0.000
1728625986.383,-31.250,-26.855,-31.250,-5.859,0.000
1728625986.387,-32.227,-34.668,-34.180,-17.578,0.000
1728625986.391,-41.016,-31.250,-31.250,-68.848,0.000
1728625986.395,-39.551,-30.273,-20.508,-64.941,0.000
1728625986.398,-46.875,-26.855,-14.160,-32.715,0.000
1728625986.402,-26.855,-16.602,-7.812,14.160,0.000
1728625986.406,-40.039,-29.297,-18.555,-7.812,0.000
1728625986.410,-60.547,-41.504,-37.598,-65.918,0.000
1728625986.414,-34.180,-35.156,-38.086,-65.918,0.000
1728625986.418,-50.293,-27.832,-31.738,-48.340,0.000
1728625986.422,-55.664,-17.090,-22.461,-0.488,0.000
1728625986.426,-45.410,-26.855,-33.203,0.977,0.000
1728625986.430,-49.316,-41.016,-45.898,-58.105,0.000
1728625986.434,-36.133,-35.156,-40.039,-70.312,0.000
1728625986.438,-48.828,-30.762,-36.133,-54.199,0.000
1728625986.442,-27.832,-19.531,-22.461,-0.488,0.000
1728625986.445,-2.930,-35.645,-20.508,14.160,0.000
1728625986.449,-29.297,-66.406,-41.992,-47.363,0.000
1728625986.453,31.738,1.953,12.207,0.000,0.000
1728625986.457,19.531,18.066,-3.906,14.648,0.000
1728625986.461,-30.762,-44.922,-59.082,-5.371,0.000
1728625986.465,-9.766,-69.824,-30.273,5.371,0.000
1728625986.469,-16.113,-69.336,-17.578,-33.203,0.000
1728625986.473,27.832,-47.852,-28.320,-28.320,0.000
1728625986.477,-8.301,-35.645,-61.523,-20.020,0.000
1728625986.481,-58.594,-31.250,-53.711,-17.578,0.000
1728625986.484,-63.965,-71.289,-34.668,-27.832,0.000
1728625986.488,-47.363,-89.355,-28.809,-45.898,0.000
1728625986.492,46.875,-49.316,5.859,4.883,0.000
1728625986.496,44.434,-80.078,-6.348,14.648,0.000
1728625986.500,34.180,-78.613,18.555,62.988,0.000
1728625986.504,10.742,-77.148,14.648,57.617,0.000
1728625986.508,-73.730,-134.277,-46.387,-63.477,0.000
1728625986.512,-59.082,-127.930,-35.156,-82.520,0.000
1728625986.516,1.953,-118.164,4.883,-20.996,0.000
1728625986.520,39.062,-112.793,27.344,49.316,0.000
1728625986.523,55.664,-66.895,27.832,109.375,0.000
1728625986.527,71.777,-33.203,35.156,106.445,0.000
1728625986.531,102.539,-17.578,47.363,87.891,0.000
1728625986.535,100.098,-8.301,46.875,86.426,0.000
1728625986.539,85.449,-4.395,38.086,114.746,0.000
1728625986.543,91.309,-7.812,19.531,160.645,0.000
1728625986.547,75.195,-5.371,0.488,128.906,0.000
1728625986.551,86.914,11.719,-8.301,98.633,0.000
1728625986.555,81.055,18.066,-6.348,101.562,0.000
1728625986.559,49.805,11.719,-0.488,104.492,0.000
1728625986.563,66.895,13.672,4.883,145.508,0.000
1728625986.566,74.219,9.766,-1.953,125.488,0.000
1728625986.570,62.988,7.812,-12.695,64.453,0.000
1728625986.574,53.223,10.254,-10.254,58.594,0.000
1728625986.578,21.973,1.953,-7.812,77.148,0.000
1728625986.582,26.367,6.836,-11.230,104.980,0.000
1728625986.586,28.320,11.230,-16.113,80.078,0.000
1728625986.590,36.133,5.859,-25.391,19.043,0.000
1728625986.594,47.852,17.090,-25.391,11.719,0.000
1728625986.598,0.488,21.973,-21.484,31.738,0.000
1728625986.601,6.836,26.367,-18.066,69.336,0.000
1728625986.605,16.602,29.297,-19.531,65.918,0.000
1728625986.609,9.766,20.508,-22.461,12.207,0.000
1728625986.613,29.785,16.113,-23.926,-0.488,0.000
1728625986.617,11.719,20.020,-19.043,9.766,0.000
1728625986.621,15.625,27.832,-7.812,48.828,0.000
1728625986.625,34.180,31.738,-13.672,56.641,0.000
1728625986.629,26.367,35.156,-15.137,13.184,0.000
1728625986.632,36.133,38.574,-7.324,0.977,0.000
1728625986.636,29.785,29.785,-13.672,7.812,0.000
1728625986.640,27.832,23.438,-12.207,51.758,0.000
1728625986.644,32.715,23.438,-5.371,69.824,0.000
1728625986.648,16.602,7.812,-11.230,16.602,0.000
1728625986.652,23.926,1.953,-1.953,-9.766,0.000
1728625986.656,11.230,15.137,1.953,-1.465,0.000
1728625986.660,-2.441,18.066,-7.324,20.508,0.000
1728625986.663,2.930,4.395,-6.348,43.457,0.000
1728625986.667,-8.301,-9.766,-4.883,11.230,0.000
1728625986.671,8.301,-9.277,-13.672,-29.297,0.000
1728625986.675,6.836,-7.812,-17.090,-29.297,0.000
1728625986.679,-13.184,-22.461,-12.695,9.277,0.000
1728625986.683,-13.672,-55.176,-18.066,23.926,0.000
1728625986.687,-28.809,-76.172,-25.879,-26.367,0.000
1728625986.691,-14.648,-74.707,-31.250,-61.523,0.000
1728625986.695,-3.418,-69.824,-25.879,-60.059,0.000
1728625986.699,-18.555,-59.082,-21.484,-26.367,0.000
1728625986.703,-8.789,-60.059,-18.066,11.719,0.000
1728625986.706,-7.812,-75.195,-12.207,-25.391,0.000
1728625986.711,-5.371,-73.242,-7.812,-61.035,0.000
1728625986.715,-8.789,-85.938,-7.324,-61.523,0.000
1728625986.718,-20.996,-105.957,-1.953,-51.270,0.000
1728625986.722,-23.438,-103.027,2.441,-19.531,0.000
1728625986.726,-37.598,-101.074,-11.719,-39.551,0.000
1728625986.730,-44.434,-99.609,-19.531,-68.359,0.000
1728625986.734,-47.852,-97.168,-19.043,-78.125,0.000
1728625986.738,-60.547,-88.379,-17.578,-63.965,0.000
1728625986.742,-44.434,-56.641,-14.648,-17.090,0.000
1728625986.746,-46.875,-43.945,-17.090,-34.180,0.000
1728625986.750,-48.340,-35.645,-11.719,-80.566,0.000
1728625986.754,-40.527,-27.344,-9.766,-96.191,0.000
1728625986.758,-49.805,-43.457,-14.648,-75.195,0.000
1728625986.762,-40.527,-39.062,-13.184,-30.762,0.000
1728625986.765,-51.758,-39.551,-14.648,-38.574,0.000
1728625986.769,-64.941,-61.035,-19.043,-82.031,0.000
1728625986.773,-49.805,-67.871,-18.066,-87.402,0.000
1728625986.777,-57.129,-61.035,-18.555,-66.895,0.000
1728625986.781,-45.410,-52.734,-20.508,-36.133,0.000
1728625986.785,-36.133,-44.922,-20.508,-39.551,0.000
1728625986.789,-42.480,-46.387,-23.926,-84.473,0.000
1728625986.793,-44.922,-52.246,-27.344,-100.098,0.000
1728625986.797,-71.777,-42.969,-28.809,-80.078,0.000
1728625986.801,-65.430,-27.344,-29.297,-36.621,0.000
1728625986.805,-62.012,-20.508,-21.484,-22.949,0.000
1728625986.808,-70.801,-16.113,-22.949,-71.289,0.000
1728625986.812,-54.688,-11.230,-22.949,-100.098,0.000
1728625986.816,-59.082,-13.184,-22.949,-88.379,0.000
1728625986.820,-47.852,-12.695,-29.297,-43.457,0.000
1728625986.824,-35.645,-4.395,-31.250,-30.273,0.000
1728625986.828,-48.340,-5.859,-36.133,-85.938,0.000
1728625986.832,-42.480,-16.602,-39.062,-109.863,0.000
1728625986.836,-58.105,-24.414,-39.062,-92.285,0.000
1728625986.840,-67.383,-16.602,-25.879,-49.316,0.000
1728625986.844,-53.223,-21.484,-30.762,-33.691,0.000
1728625986.848,-65.918,-34.180,-50.293,-83.008,0.000
