timestamps,TP9,AF7,AF8,TP10,Right AUX
1728630718.525,-12.207,-29.297,-30.762,-20.020,0.000
1728630718.529,-11.230,-30.273,-26.367,-31.738,0.000
1728630718.533,-29.297,-40.527,-24.902,-27.344,0.000
1728630718.537,-29.297,-33.203,-22.461,-0.488,0.000
1728630718.541,-15.625,-33.691,-20.996,2.441,0.000
1728630718.545,-27.832,-40.527,-20.508,-26.855,0.000
1728630718.549,-15.137,-37.109,-21.973,-31.250,0.000
1728630718.553,-7.324,-33.203,-23.926,-24.902,0.000
1728630718.556,-3.906,-40.039,-25.391,-5.859,0.000
1728630718.560,-15.137,-44.434,-26.855,-2.441,0.000
1728630718.564,-35.645,-45.898,-28.809,-33.691,0.000
1728630718.568,-30.762,-53.711,-31.250,-51.758,0.000
1728630718.572,-44.922,-41.016,-34.668,-60.547,0.000
1728630718.576,-51.270,-37.598,-37.109,-42.480,0.000
1728630718.580,-26.855,-50.781,-45.410,-21.973,0.000
1728630718.584,-34.668,-53.223,-50.293,-49.316,0.000
1728630718.588,-48.828,-52.734,-53.711,-73.730,0.000
1728630718.592,-58.105,-49.805,-56.641,-62.988,0.000
1728630718.595,-58.105,-47.852,-46.875,-24.902,0.000
1728630718.599,-36.621,-45.410,-41.504,9.277,0.000
1728630718.603,-41.504,-45.898,-41.992,-25.879,0.000
1728630718.607,-37.598,-40.039,-36.621,-62.012,0.000
1728630718.611,-32.227,-34.180,-38.574,-62.012,0.000
1728630718.615,-37.109,-41.504,-40.039,-36.621,0.000
1728630718.619,-30.273,-30.762,-33.203,-4.883,0.000
1728630718.623,-17.090,-33.691,-29.297,-11.719,0.000
1728630718.627,-1.953,-40.039,-26.367,-18.066,0.000
1728630718.631,-3.906,-31.738,-23.438,-22.949,0.000
1728630718.635,-20.508,-21.973,-20.996,-16.113,0.000
1728630718.638,-21.973,-20.020,-27.832,1.465,0.000
1728630718.642,-25.391,-34.180,-38.086,-22.461,0.000
1728630718.646,-31.250,-36.133,-38.574,-47.363,0.000
1728630718.650,-38.574,-29.297,-38.574,-51.270,0.000
1728630718.654,-45.898,-31.738,-39.551,-37.598,0.000
1728630718.658,-29.785,-33.203,-35.156,-6.348,0.000
1728630718.662,-13.672,-25.391,-39.062,-17.090,0.000
1728630718.666,-18.066,-25.879,-43.945,-48.340,0.000
1728630718.670,-12.207,-21.973,-37.598,-41.016,0.000
1728630718.674,-20.996,-19.043,-35.156,-20.996,0.000
1728630718.678,-17.578,-23.438,-39.551,20.508,0.000
1728630718.681,-11.230,-21.484,-45.410,17.090,0.000
1728630718.685,-22.949,-18.555,-39.062,-26.855,0.000
1728630718.689,-13.184,-19.531,-26.367,-27.832,0.000
1728630718.693,-29.785,-27.344,-39.062,-25.391,0.000
1728630718.697,-30.273,-26.367,-38.086,-11.230,0.000
1728630718.701,-12.207,-18.555,-29.785,-8.789,0.000
1728630718.705,-24.902,-28.809,-34.668,-50.293,0.000
1728630718.709,-36.133,-44.922,-37.109,-65.430,0.000
1728630718.713,-49.316,-51.270,-40.527,-52.246,0.000
1728630718.717,-56.152,-42.480,-45.410,-35.645,0.000
1728630718.720,-60.547,-37.109,-45.410,-24.902,0.000
1728630718.724,-72.754,-37.598,-42.969,-49.805,0.000
1728630718.728,-57.617,-38.086,-40.039,-62.988,0.000
1728630718.732,-63.477,-47.852,-45.410,-44.922,0.000
1728630718.736,-57.617,-59.570,-53.223,-18.555,0.000
1728630718.740,-42.969,-70.801,-53.223,-26.855,0.000
1728630718.744,-52.246,-68.359,-59.570,-74.219,0.000
1728630718.748,-49.316,-50.293,-48.828,-82.031,0.000
1728630718.752,-65.430,-43.945,-37.598,-64.453,0.000
1728630718.756,-67.871,-48.828,-40.039,-41.992,0.000
1728630718.760,-50.293,-54.199,-43.945,-23.438,0.000
1728630718.763,-42.480,-48.340,-44.922,-40.527,0.000
1728630718.767,-18.066,-30.273,-34.668,-41.016,0.000
1728630718.771,-24.902,-40.527,-36.621,-26.367,0.000
1728630718.775,-28.809,-44.434,-33.203,-6.836,0.000
1728630718.779,-24.414,-43.457,-30.273,17.578,0.000
1728630718.783,-36.621,-48.828,-31.738,-4.883,0.000
1728630718.787,-25.879,-39.551,-28.809,-40.039,0.000
1728630718.791,-43.945,-34.180,-30.762,-51.270,0.000
1728630718.795,-47.363,-35.156,-27.344,-24.414,0.000
1728630718.799,-27.832,-40.527,-21.484,1.465,0.000
1728630718.802,-38.574,-39.062,-22.461,-15.625,0.000
1728630718.806,-34.668,-31.250,-30.273,-31.738,0.000
1728630718.810,-32.227,-37.598,-28.809,-46.875,0.000
1728630718.814,-37.598,-49.316,-24.414,-31.250,0.000
1728630718.818,-27.832,-44.434,-30.273,-6.836,0.000
1728630718.822,-33.691,-45.898,-46.387,-24.902,0.000
1728630718.826,-30.762,-39.551,-43.945,-51.270,0.000
1728630718.830,-29.297,-31.738,-34.668,-57.129,0.000
1728630718.834,-40.039,-41.016,-38.086,-33.691,0.000
1728630718.838,-28.809,-35.645,-37.109,-1.953,0.000
1728630718.842,-36.133,-28.320,-35.156,-17.578,0.000
1728630718.845,-34.180,-27.344,-29.785,-49.805,0.000
1728630718.849,-21.484,-40.527,-33.203,-47.363,0.000
1728630718.853,-50.781,-53.223,-35.156,-34.668,0.000
1728630718.857,-50.781,-51.270,-21.973,-11.230,0.000
1728630718.861,-44.434,-41.992,-24.902,-27.832,0.000
1728630718.865,-37.109,-35.156,-41.016,-69.336,0.000
1728630718.869,-37.109,-40.039,-44.434,-66.895,0.000
1728630718.873,-82.031,-43.457,-48.828,-58.105,0.000
1728630718.877,-66.406,-47.363,-45.898,-35.645,0.000
1728630718.881,-49.316,-46.387,-42.969,-27.344,0.000
1728630718.884,-53.223,-45.410,-49.316,-52.246,0.000
1728630718.888,-31.250,-48.828,-37.109,-46.387,0.000
1728630718.892,-50.293,-54.199,-23.926,-38.574,0.000
1728630718.896,-57.129,-55.176,-29.785,-19.531,0.000
1728630718.900,-44.434,-53.223,-33.203,-7.324,0.000
1728630718.904,-40.039,-45.898,-34.180,-54.199,0.000
1728630718.908,-41.016,-49.805,-33.203,-65.430,0.000
1728630718.912,-53.711,-49.316,-40.527,-48.340,0.000
1728630718.916,-34.180,-43.945,-50.781,-37.109,0.000
1728630718.920,-30.762,-55.176,-59.082,-39.551,0.000
1728630718.924,-38.086,-46.875,-48.340,-56.152,0.000
1728630718.927,-20.508,-37.109,-34.180,-49.316,0.000
1728630718.931,-25.879,-34.180,-34.180,-47.363,0.000
1728630718.935,-31.250,-20.508,-34.180,-27.344,0.000
1728630718.939,-45.410,-26.367,-34.180,-4.883,0.000
1728630718.943,-54.199,-42.480,-35.645,-34.668,0.000
1728630718.947,-20.020,-23.926,-35.156,-41.504,0.000
1728630718.951,-19.043,-10.742,-32.715,-32.715,0.000
1728630718.955,-26.855,-26.855,-32.715,-30.762,0.000
1728630718.959,-20.996,-33.203,-38.574,-25.879,0.000
1728630718.963,-30.762,-35.156,-52.246,-51.758,0.000
1728630718.967,-24.902,-34.180,-52.246,-59.570,0.000
1728630718.970,-23.926,-22.461,-42.969,-53.711,0.000
1728630718.974,-21.973,-20.020,-41.016,-22.461,0.000
1728630718.978,-7.812,-17.578,-33.691,2.441,0.000
1728630718.982,-18.066,-23.438,-26.367,-20.508,0.000
1728630718.986,-29.785,-43.945,-40.039,-42.969,0.000
1728630718.990,-40.039,-49.316,-43.945,-56.152,0.000
1728630718.994,-42.969,-35.645,-37.109,-36.133,0.000
1728630718.998,-23.926,-29.297,-33.691,-19.043,0.000
1728630719.002,-36.621,-33.691,-36.133,-45.410,0.000
1728630719.006,-31.250,-31.250,-38.086,-64.453,0.000
1728630719.009,-25.879,-22.949,-34.180,-54.199,0.000
1728630719.013,-49.316,-27.832,-40.527,-38.574,0.000
1728630719.017,-47.852,-41.504,-38.086,-20.508,0.000
1728630719.021,-41.992,-50.293,-37.109,-25.391,0.000
1728630719.025,-37.598,-43.945,-28.809,-41.992,0.000
1728630719.029,-44.434,-36.133,-28.809,-65.430,0.000
1728630719.033,-60.547,-52.246,-44.922,-65.918,0.000
1728630719.037,-54.688,-49.805,-47.363,-32.715,0.000
1728630719.041,-55.176,-46.387,-47.852,-42.480,0.000
1728630719.045,-78.125,-60.059,-49.805,-76.172,0.000
1728630719.049,-76.172,-48.340,-48.828,-64.941,0.000
1728630719.052,-68.359,-37.598,-43.457,-32.715,0.000
1728630719.056,-49.316,-46.875,-35.645,-7.324,0.000
1728630719.060,-34.668,-61.523,-45.410,-22.461,0.000
1728630719.064,-44.922,-55.664,-52.734,-56.152,0.000
1728630719.068,-41.016,-40.527,-45.898,-63.965,0.000
1728630719.072,-30.273,-35.156,-38.574,-57.617,0.000
1728630719.076,-14.160,-25.879,-31.738,-16.113,0.000
1728630719.080,-8.301,-22.949,-33.203,-21.484,0.000
1728630719.084,-8.301,-29.785,-34.180,-56.641,0.000
1728630719.088,2.441,-30.273,-27.832,-57.617,0.000
1728630719.092,-10.742,-34.668,-29.297,-49.316,0.000
1728630719.095,-12.695,-41.992,-33.691,-19.531,0.000
1728630719.099,-11.230,-42.480,-35.645,-15.137,0.000
1728630719.103,-35.156,-35.156,-43.945,-45.410,0.000
1728630719.107,-33.691,-29.297,-46.387,-54.199,0.000
1728630719.111,-31.738,-42.480,-43.457,-42.480,0.000
1728630719.115,-37.109,-40.527,-36.621,-11.230,0.000
1728630719.119,-28.809,-27.344,-39.062,5.859,0.000
1728630719.123,-22.461,-30.762,-41.016,-13.672,0.000
1728630719.127,-20.508,-29.297,-29.785,-26.367,0.000
1728630719.131,-31.738,-39.062,-27.344,-22.461,0.000
1728630719.134,-40.527,-45.898,-34.180,-9.277,0.000
1728630719.138,-35.156,-36.621,-42.969,-4.395,0.000
1728630719.142,-27.344,-50.781,-40.527,-30.762,0.000
1728630719.146,-19.531,-56.152,-36.621,-47.852,0.000
1728630719.150,-50.781,-41.992,-44.434,-39.551,0.000
1728630719.154,-59.570,-30.273,-44.434,-25.879,0.000
1728630719.158,-41.016,-27.832,-43.457,-15.137,0.000
1728630719.162,-51.758,-43.457,-47.363,-28.320,0.000
1728630719.166,-37.598,-44.434,-43.457,-52.246,0.000
1728630719.170,-43.945,-33.691,-42.480,-65.430,0.000
1728630719.173,-65.430,-24.902,-39.062,-48.340,0.000
1728630719.177,-59.082,-26.367,-38.574,-27.344,0.000
1728630719.181,-54.688,-53.711,-48.828,-53.223,0.000
1728630719.185,-45.410,-60.059,-51.758,-79.102,0.000
1728630719.189,-50.293,-41.016,-43.945,-80.078,0.000
1728630719.193,-54.688,-41.016,-36.133,-50.293,0.000
1728630719.197,-40.527,-41.504,-36.621,-8.789,0.000
1728630719.201,-46.387,-49.805,-49.316,-23.926,0.000
1728630719.205,-60.547,-50.293,-54.199,-58.105,0.000
1728630719.209,-61.035,-39.551,-42.480,-62.988,0.000
1728630719.213,-64.453,-46.875,-45.410,-46.387,0.000
1728630719.216,-45.898,-46.387,-44.922,-16.602,0.000
1728630719.220,-41.992,-35.645,-32.227,-28.809,0.000
1728630719.224,-43.457,-37.109,-24.902,-55.664,0.000
1728630719.228,-36.621,-43.457,-26.855,-56.641,0.000
1728630719.232,-45.410,-36.133,-40.039,-37.598,0.000
1728630719.236,-24.902,-19.043,-37.109,4.883,0.000
1728630719.240,-24.414,-24.902,-30.273,1.953,0.000
1728630719.244,-23.926,-35.645,-32.227,-31.738,0.000
1728630719.248,-15.137,-25.391,-27.344,-32.715,0.000
1728630719.252,-34.180,-26.367,-35.156,-20.020,0.000
1728630719.256,-24.414,-31.738,-38.574,-0.977,0.000
1728630719.259,-8.301,-36.621,-31.738,-11.230,0.000
1728630719.263,-17.090,-44.434,-26.367,-40.527,0.000
1728630719.267,-32.715,-42.480,-21.484,-41.016,0.000
1728630719.271,-48.340,-34.180,-28.320,-42.480,0.000
1728630719.275,-39.062,-33.203,-25.879,-16.602,0.000
1728630719.279,-32.227,-37.109,-30.762,-6.836,0.000
1728630719.283,-25.879,-34.668,-44.434,-42.480,0.000
1728630719.287,-8.301,-25.879,-45.410,-56.641,0.000
1728630719.291,-15.137,-22.461,-43.457,-47.363,0.000
1728630719.295,-16.602,-29.785,-47.363,-13.184,0.000
1728630719.299,-32.715,-47.363,-46.387,-0.977,0.000
1728630719.302,-51.758,-46.875,-41.504,-28.809,0.000
1728630719.306,-38.574,-42.480,-46.387,-36.621,0.000
1728630719.310,-53.711,-47.363,-43.945,-42.969,0.000
1728630719.314,-53.711,-38.086,-33.203,-34.668,0.000
1728630719.318,-35.645,-47.363,-42.480,-17.090,0.000
1728630719.322,-44.922,-59.570,-53.223,-44.434,0.000
1728630719.326,-43.457,-48.340,-54.688,-60.547,0.000
1728630719.330,-55.176,-40.527,-58.105,-58.594,0.000
1728630719.334,-52.246,-45.410,-57.129,-41.992,0.000
1728630719.338,-35.156,-44.922,-46.875,-15.137,0.000
1728630719.341,-48.828,-40.039,-43.945,-31.738,0.000
1728630719.345,-40.039,-24.902,-43.945,-52.246,0.000
1728630719.349,-36.621,-29.297,-41.992,-45.410,0.000
1728630719.353,-46.875,-37.109,-39.062,-38.086,0.000
1728630719.357,-28.809,-28.809,-26.367,-30.762,0.000
1728630719.361,-22.949,-30.762,-30.273,-46.875,0.000
1728630719.365,-12.695,-28.809,-46.875,-67.383,0.000
1728630719.369,-12.695,-26.855,-44.922,-59.082,0.000
1728630719.373,-21.973,-29.297,-32.715,-25.391,0.000
1728630719.377,-13.672,-26.367,-30.273,4.395,0.000
1728630719.381,-16.602,-22.461,-39.551,-9.766,0.000
1728630719.384,-13.184,-28.809,-47.852,-37.109,0.000
1728630719.388,-18.555,-34.180,-41.992,-46.387,0.000
1728630719.392,-35.645,-29.297,-29.297,-32.715,0.000
1728630719.396,-28.809,-29.785,-23.926,4.395,0.000
1728630719.400,-32.715,-32.715,-26.855,-4.395,0.000
1728630719.404,-29.785,-25.879,-29.785,-39.551,0.000
1728630719.408,-35.645,-31.250,-37.109,-55.176,0.000
1728630719.412,-50.293,-40.039,-31.738,-38.086,0.000
1728630719.416,-41.992,-31.738,-19.531,-0.977,0.000
1728630719.420,-41.992,-26.855,-26.367,-10.742,0.000
1728630719.423,-40.527,-38.574,-38.574,-38.574,0.000
1728630719.427,-34.668,-44.922,-33.691,-47.363,0.000
1728630719.431,-53.223,-32.715,-24.414,-30.273,0.000
1728630719.435,-40.527,-27.832,-25.879,-11.719,0.000
1728630719.439,-28.809,-35.156,-32.227,-29.297,0.000
1728630719.443,-34.668,-42.480,-39.062,-66.895,0.000
1728630719.447,-25.879,-37.598,-40.039,-79.102,0.000
1728630719.451,-34.668,-39.551,-41.504,-65.918,0.000
1728630719.455,-38.574,-45.410,-43.457,-44.922,0.000
1728630719.459,-47.363,-53.711,-52.246,-49.805,0.000
1728630719.463,-58.105,-58.105,-50.293,-72.266,0.000
1728630719.466,-48.340,-53.223,-38.086,-76.660,0.000
1728630719.470,-51.270,-52.246,-36.621,-61.035,0.000
1728630719.474,-47.852,-53.223,-33.203,-20.020,0.000
1728630719.478,-48.828,-61.035,-31.250,-16.602,0.000
1728630719.482,-58.105,-55.664,-31.250,-28.320,0.000
1728630719.486,-41.016,-44.434,-23.926,-28.320,0.000
1728630719.490,-41.016,-51.270,-19.043,-42.969,0.000
1728630719.494,-37.598,-57.617,-16.113,-30.762,0.000
1728630719.498,-24.414,-61.035,-21.973,-16.602,0.000
1728630719.502,-32.715,-58.105,-34.668,-46.387,0.000
1728630719.505,-26.855,-55.176,-42.480,-63.477,0.000
1728630719.509,-41.992,-58.105,-44.922,-52.246,0.000
1728630719.513,-45.898,-47.363,-46.387,-27.832,0.000
1728630719.517,-17.578,-30.273,-45.898,-0.977,0.000
1728630719.521,-14.160,-20.508,-41.504,-14.160,0.000
1728630719.525,-11.719,-27.344,-43.945,-40.039,0.000
1728630719.529,-10.742,-32.715,-43.945,-32.227,0.000
1728630719.533,-14.648,-22.461,-37.109,-21.484,0.000
1728630719.537,-16.602,-20.996,-35.156,-15.625,0.000
1728630719.541,-38.086,-34.668,-42.969,-32.715,0.000
1728630719.545,-42.969,-45.410,-48.340,-59.570,0.000
1728630719.548,-25.879,-49.316,-42.480,-53.223,0.000
1728630719.552,-26.367,-49.316,-39.551,-16.113,0.000
1728630719.556,-23.438,-41.992,-32.227,18.555,0.000
1728630719.560,-29.785,-37.598,-31.738,1.953,0.000
1728630719.564,-28.809,-50.781,-45.410,-43.457,0.000
1728630719.568,-29.785,-44.434,-45.898,-52.246,0.000
1728630719.572,-49.316,-39.062,-39.062,-27.344,0.000
1728630719.576,-46.387,-54.199,-39.551,-14.160,0.000
1728630719.580,-46.875,-69.336,-49.316,-51.270,0.000
1728630719.584,-40.527,-63.477,-53.223,-72.754,0.000
1728630719.588,-50.293,-48.828,-45.898,-77.148,0.000
1728630719.591,-74.219,-52.734,-39.551,-50.293,0.000
1728630719.595,-63.965,-55.664,-32.227,-1.465,0.000
1728630719.599,-58.594,-51.758,-41.016,-20.020,0.000
1728630719.603,-51.758,-43.457,-49.805,-62.500,0.000
1728630719.607,-46.387,-36.621,-43.945,-78.125,0.000
1728630719.611,-60.059,-39.551,-40.039,-61.035,0.000
1728630719.615,-43.945,-41.504,-36.133,-15.625,0.000
1728630719.619,-33.691,-41.016,-35.645,-20.996,0.000
1728630719.623,-25.879,-51.270,-33.691,-60.059,0.000
1728630719.627,-31.250,-55.664,-37.598,-70.312,0.000
1728630719.631,-48.340,-47.363,-41.992,-69.824,0.000
1728630719.634,-30.762,-53.711,-39.062,-22.949,0.000
1728630719.638,-26.367,-45.898,-35.156,8.789,0.000
1728630719.642,-39.062,-25.391,-37.598,-36.621,0.000
1728630719.646,-31.250,-21.973,-41.992,-66.895,0.000
1728630719.650,-30.762,-32.715,-44.434,-43.457,0.000
1728630719.654,-35.645,-39.551,-43.457,-16.113,0.000
1728630719.658,-26.855,-35.156,-44.434,-15.137,0.000
1728630719.662,-26.855,-40.039,-43.457,-27.344,0.000
1728630719.666,-18.555,-37.109,-30.762,-38.086,0.000
1728630719.670,-26.855,-33.691,-26.855,-36.133,0.000
1728630719.673,-41.992,-40.039,-31.738,-16.113,0.000
1728630719.677,-36.133,-43.945,-34.668,-17.090,0.000
1728630719.681,-47.363,-44.434,-37.109,-34.668,0.000
1728630719.685,-30.273,-36.621,-30.762,-49.316,0.000
1728630719.689,-18.555,-27.832,-25.879,-43.457,0.000
1728630719.693,-51.270,-60.547,-28.320,-24.902,0.000
1728630719.697,-58.105,-90.332,-34.668,-18.066,0.000
1728630719.701,-38.086,-47.852,-38.574,-30.273,0.000
1728630719.705,-16.113,-16.602,-33.691,-35.645,0.000
1728630719.709,-13.672,-37.109,-30.273,-25.391,0.000
1728630719.713,-18.555,-96.191,-40.039,-24.902,0.000
1728630719.716,-4.395,-94.238,-32.715,6.348,0.000
1728630719.720,-7.324,-28.320,-24.902,2.930,0.000
1728630719.724,-20.996,-51.270,-64.453,-30.273,0.000
1728630719.728,-24.902,-129.883,-87.402,-44.434,0.000
1728630719.732,1.953,-150.391,-71.777,5.859,0.000
1728630719.736,70.801,-44.434,-30.273,79.102,0.000
1728630719.740,12.207,-34.668,-41.504,4.883,0.000
1728630719.744,-14.160,-91.797,-82.520,-49.805,0.000
1728630719.748,43.945,-70.312,-38.574,27.344,0.000
1728630719.752,53.711,-201.172,-62.012,88.867,0.000
1728630719.756,67.383,-175.781,-62.012,85.449,0.000
1728630719.759,60.059,-285.645,64.941,57.129,0.000
1728630719.763,213.379,-251.953,72.754,183.594,0.000
1728630719.767,260.254,159.668,63.477,237.305,0.000
1728630719.771,44.922,201.172,-2.441,52.246,0.000
1728630719.775,-42.969,123.535,11.719,-41.504,0.000
1728630719.779,-84.473,-41.992,247.070,-72.266,0.000
1728630719.783,-174.316,-102.051,333.008,-157.715,0.000
1728630719.787,-45.410,67.871,261.230,-43.945,0.000
1728630719.791,122.559,142.578,413.086,112.305,0.000
1728630719.795,207.520,154.785,811.523,165.527,0.000
1728630719.798,156.738,331.543,961.914,134.277,0.000
1728630719.802,21.484,585.449,960.938,2.930,0.000
1728630719.806,59.082,636.719,964.355,-6.836,0.000
1728630719.810,135.742,670.898,967.773,114.258,0.000
1728630719.814,197.754,847.168,966.797,224.121,0.000
1728630719.818,253.418,966.309,966.797,238.281,0.000
1728630719.822,287.109,964.355,966.797,247.070,0.000
1728630719.826,308.594,963.867,966.309,276.367,0.000
1728630719.830,312.500,967.285,966.797,292.969,0.000
1728630719.834,325.195,966.797,966.797,325.684,0.000
1728630719.838,327.637,966.797,966.797,318.359,0.000
1728630719.841,317.871,966.797,966.797,279.297,0.000
1728630719.845,325.684,966.797,966.797,264.160,0.000
1728630719.849,319.824,966.797,966.797,255.859,0.000
1728630719.853,329.102,966.797,966.797,263.184,0.000
1728630719.857,334.961,966.797,966.797,260.742,0.000
1728630719.861,302.246,966.797,966.797,218.750,0.000
1728630719.865,291.016,966.797,966.797,190.918,0.000
1728630719.869,280.762,966.797,966.797,184.082,0.000
1728630719.873,272.949,966.797,966.797,202.148,0.000
1728630719.877,265.137,966.797,966.797,214.844,0.000
1728630719.880,229.980,966.797,965.332,173.340,0.000
1728630719.884,212.891,965.332,965.332,151.367,0.000
1728630719.888,193.359,966.309,961.914,151.367,0.000
1728630719.892,170.898,961.426,894.531,154.297,0.000
1728630719.896,165.039,903.809,789.551,156.250,0.000
1728630719.900,130.859,778.320,717.285,112.793,0.000
1728630719.904,101.562,625.488,656.738,81.055,0.000
1728630719.908,83.496,491.699,611.328,73.730,0.000
1728630719.912,55.176,369.629,643.555,69.824,0.000
1728630719.916,52.734,219.238,676.758,61.523,0.000
1728630719.920,39.551,26.367,520.996,21.484,0.000
1728630719.923,5.859,-145.996,224.609,-5.371,0.000
1728630719.927,-17.578,-274.902,21.484,-24.414,0.000
1728630719.931,-32.715,-403.809,-64.453,-32.227,0.000
1728630719.935,-35.645,-525.879,-156.250,-29.785,0.000
1728630719.939,-45.410,-642.578,-230.957,-48.828,0.000
1728630719.943,-36.133,-755.859,-305.176,-70.312,0.000
1728630719.947,-33.691,-851.074,-452.637,-81.543,0.000
1728630719.951,-49.805,-911.133,-646.484,-60.547,0.000
1728630719.955,-55.176,-934.570,-834.473,-43.457,0.000
1728630719.959,-74.219,-942.871,-964.355,-88.379,0.000
1728630719.962,-82.031,-938.477,-1000.000,-106.934,0.000
1728630719.966,-99.121,-946.777,-997.070,-91.797,0.000
1728630719.970,-131.836,-944.336,-1000.000,-82.031,0.000
1728630719.974,-113.770,-907.227,-995.117,-57.129,0.000
1728630719.978,-110.352,-881.348,-986.328,-80.078,0.000
1728630719.982,-117.188,-863.770,-991.211,-114.746,0.000
1728630719.986,-114.258,-857.422,-970.703,-104.492,0.000
1728630719.990,-133.301,-854.492,-932.129,-99.121,0.000
1728630719.994,-138.672,-860.840,-918.945,-79.102,0.000
1728630719.998,-142.578,-854.004,-915.527,-83.984,0.000
1728630720.002,-139.160,-794.922,-875.977,-120.605,0.000
1728630720.005,-135.742,-758.789,-811.523,-121.582,0.000
1728630720.009,-135.742,-748.047,-756.348,-104.492,0.000
1728630720.013,-123.047,-719.727,-711.914,-72.754,0.000
1728630720.017,-118.164,-684.570,-705.078,-83.008,0.000
1728630720.021,-141.113,-673.340,-708.496,-144.043,0.000
1728630720.025,-145.508,-648.926,-648.438,-170.898,0.000
1728630720.029,-156.250,-596.680,-600.098,-163.086,0.000
1728630720.033,-148.926,-551.270,-585.938,-123.047,0.000
1728630720.037,-139.160,-518.555,-579.590,-104.492,0.000
1728630720.041,-143.066,-496.094,-570.312,-143.066,0.000
1728630720.045,-124.023,-479.980,-534.668,-149.902,0.000
1728630720.048,-125.977,-460.449,-499.512,-129.395,0.000
1728630720.052,-127.930,-436.523,-465.820,-113.281,0.000
1728630720.056,-125.977,-413.086,-427.734,-99.121,0.000
1728630720.060,-136.719,-390.625,-416.992,-135.742,0.000
1728630720.064,-120.605,-380.371,-413.574,-162.598,0.000
1728630720.068,-132.324,-375.000,-394.531,-138.672,0.000
1728630720.072,-148.926,-357.422,-373.535,-98.145,0.000
1728630720.076,-131.348,-325.684,-354.004,-57.617,0.000
1728630720.080,-133.789,-298.828,-349.121,-81.055,0.000
1728630720.084,-121.094,-289.062,-354.492,-125.488,0.000
1728630720.087,-111.816,-275.391,-325.195,-117.676,0.000
1728630720.091,-112.793,-252.930,-284.668,-82.031,0.000
1728630720.095,-107.422,-259.277,-279.297,-69.824,0.000
1728630720.099,-134.277,-267.090,-288.574,-104.492,0.000
1728630720.103,-134.766,-256.836,-282.715,-143.066,0.000
1728630720.107,-118.164,-230.957,-264.648,-134.766,0.000
1728630720.111,-101.074,-185.059,-253.906,-87.402,0.000
1728630720.115,-87.402,-172.363,-267.578,-65.918,0.000
1728630720.119,-105.957,-190.430,-257.324,-76.660,0.000
1728630720.123,-101.074,-200.195,-229.492,-100.586,0.000
1728630720.127,-85.449,-186.523,-218.262,-120.605,0.000
1728630720.130,-112.305,-167.969,-208.008,-104.492,0.000
1728630720.134,-102.051,-172.852,-208.008,-87.891,0.000
1728630720.138,-93.262,-182.617,-212.891,-113.770,0.000
1728630720.142,-101.562,-178.223,-200.684,-137.207,0.000
1728630720.146,-94.238,-165.527,-188.477,-126.465,0.000
1728630720.150,-104.004,-144.531,-182.617,-102.051,0.000
1728630720.154,-90.332,-130.859,-175.781,-70.312,0.000
1728630720.158,-81.055,-127.930,-173.340,-84.961,0.000
1728630720.162,-85.938,-123.535,-173.340,-106.934,0.000
1728630720.166,-94.727,-116.699,-165.039,-96.680,0.000
1728630720.170,-104.980,-116.699,-154.785,-82.520,0.000
1728630720.173,-95.215,-110.840,-154.785,-43.457,0.000
1728630720.177,-95.215,-116.699,-157.715,-50.781,0.000
1728630720.181,-93.750,-122.559,-155.273,-103.027,0.000
1728630720.185,-71.289,-97.656,-139.160,-100.098,0.000
1728630720.189,-77.148,-85.938,-126.465,-70.312,0.000
1728630720.193,-81.543,-99.609,-125.488,-42.480,0.000
1728630720.197,-70.801,-88.867,-130.371,-55.176,0.000
1728630720.201,-84.473,-69.824,-145.508,-82.031,0.000
1728630720.205,-89.844,-77.148,-146.973,-87.891,0.000
1728630720.209,-106.934,-82.520,-129.883,-83.496,0.000
1728630720.212,-93.750,-83.008,-112.793,-48.828,0.000
1728630720.216,-70.801,-97.168,-120.605,-52.246,0.000
1728630720.220,-85.449,-103.516,-120.117,-87.402,0.000
1728630720.224,-73.730,-82.520,-105.957,-88.867,0.000
1728630720.228,-89.355,-93.262,-112.305,-84.961,0.000
1728630720.232,-95.703,-114.258,-113.770,-68.359,0.000
1728630720.236,-84.961,-95.215,-104.980,-58.105,0.000
1728630720.240,-89.844,-77.637,-105.957,-77.637,0.000
1728630720.244,-66.406,-73.242,-113.281,-102.539,0.000
1728630720.248,-65.918,-74.707,-108.887,-99.121,0.000
1728630720.251,-72.754,-82.031,-100.098,-62.500,0.000
1728630720.255,-65.918,-84.473,-98.633,-50.293,0.000
1728630720.259,-70.312,-86.426,-94.727,-71.289,0.000
1728630720.263,-59.082,-88.379,-88.867,-79.102,0.000
1728630720.267,-51.270,-76.172,-76.172,-75.195,0.000
1728630720.271,-61.523,-74.707,-64.941,-45.410,0.000
1728630720.275,-55.664,-83.984,-61.035,-17.578,0.000
1728630720.279,-51.758,-78.613,-63.965,-41.992,0.000
1728630720.283,-60.547,-57.129,-52.246,-62.012,0.000
1728630720.287,-80.078,-49.805,-49.805,-71.289,0.000
1728630720.291,-80.078,-42.480,-66.895,-41.504,0.000
1728630720.294,-82.031,-35.645,-69.336,-23.926,0.000
1728630720.298,-90.332,-46.875,-57.617,-53.223,0.000
1728630720.302,-64.453,-36.621,-46.875,-54.199,0.000
1728630720.306,-64.941,-38.574,-57.617,-62.012,0.000
1728630720.310,-79.102,-39.551,-66.895,-72.754,0.000
1728630720.314,-50.781,-23.926,-56.641,-27.344,0.000
1728630720.318,-50.781,-23.926,-55.176,-26.855,0.000
1728630720.322,-59.082,-33.203,-60.059,-73.242,0.000
1728630720.326,-43.457,-48.828,-59.570,-77.637,0.000
1728630720.330,-54.199,-46.387,-49.805,-56.152,0.000
1728630720.334,-60.547,-41.992,-45.898,-30.762,0.000
1728630720.337,-70.312,-43.945,-57.129,-38.086,0.000
1728630720.341,-79.590,-40.527,-61.523,-73.730,0.000
1728630720.345,-64.941,-39.551,-48.340,-79.102,0.000
1728630720.349,-67.871,-53.223,-49.316,-68.359,0.000
1728630720.353,-64.453,-68.848,-50.781,-39.551,0.000
1728630720.357,-65.430,-69.824,-51.758,-40.039,0.000
1728630720.361,-65.918,-67.871,-63.965,-69.336,0.000
1728630720.365,-49.805,-68.359,-71.777,-73.242,0.000
1728630720.369,-62.012,-74.219,-70.312,-67.383,0.000
1728630720.373,-54.199,-72.754,-54.199,-24.902,0.000
1728630720.376,-45.898,-55.664,-53.223,-24.414,0.000
1728630720.380,-39.551,-52.246,-62.988,-69.824,0.000
1728630720.384,-36.133,-63.965,-71.777,-64.941,0.000
1728630720.388,-60.059,-58.105,-69.336,-51.758,0.000
1728630720.392,-47.852,-41.016,-44.434,-32.715,0.000
1728630720.396,-40.527,-37.598,-42.969,-36.133,0.000
1728630720.400,-41.016,-34.180,-44.434,-61.523,0.000
1728630720.404,-21.484,-28.320,-37.109,-59.082,0.000
1728630720.408,-40.039,-38.574,-49.316,-42.480,0.000
1728630720.412,-37.109,-52.734,-53.711,-10.742,0.000
1728630720.416,-19.531,-51.758,-52.734,-8.789,0.000
1728630720.419,-41.992,-57.129,-60.547,-64.941,0.000
1728630720.423,-45.898,-56.641,-60.547,-70.312,0.000
1728630720.427,-52.246,-61.523,-66.895,-51.270,0.000
1728630720.431,-62.500,-77.148,-66.895,-32.715,0.000
1728630720.435,-42.969,-67.383,-58.105,-11.719,0.000
1728630720.439,-24.902,-66.406,-57.129,-34.668,0.000
1728630720.443,-16.602,-81.543,-62.012,-44.434,0.000
1728630720.447,-33.203,-83.008,-72.266,-48.340,0.000
1728630720.451,-38.574,-82.520,-73.730,-43.457,0.000
1728630720.455,-37.598,-95.215,-65.918,-12.695,0.000
1728630720.459,-62.500,-108.398,-66.895,-31.250,0.000
1728630720.462,-52.246,-96.191,-69.336,-57.617,0.000
1728630720.466,-45.898,-80.078,-72.266,-49.316,0.000
1728630720.470,-55.664,-76.660,-83.496,-34.180,0.000
1728630720.474,-43.457,-74.219,-82.031,-12.207,0.000
1728630720.478,-40.039,-55.664,-78.613,-46.875,0.000
1728630720.482,-39.062,-40.039,-63.477,-72.754,0.000
1728630720.486,-43.457,-44.922,-52.246,-60.059,0.000
1728630720.490,-46.875,-50.293,-53.223,-37.598,0.000
1728630720.494,-19.531,-43.945,-50.293,-12.695,0.000
1728630720.498,-34.180,-32.227,-62.988,-49.316,0.000
1728630720.501,-49.805,-20.020,-76.660,-64.941,0.000
1728630720.505,-31.250,-25.879,-80.078,-63.965,0.000
1728630720.509,-27.832,-38.574,-74.219,-49.316,0.000
1728630720.513,-14.160,-28.809,-64.941,-7.812,0.000
1728630720.517,-19.531,-35.156,-62.500,-22.949,0.000
1728630720.521,-18.555,-53.711,-66.406,-57.129,0.000
1728630720.525,-20.996,-46.875,-66.406,-66.895,0.000
1728630720.529,-43.457,-49.316,-63.965,-55.664,0.000
1728630720.533,-26.855,-62.012,-64.941,-6.836,0.000
1728630720.537,-26.367,-50.781,-70.801,-11.230,0.000
1728630720.541,-38.086,-40.039,-68.848,-47.363,0.000
1728630720.544,-27.832,-49.316,-63.477,-38.574,0.000
1728630720.548,-49.316,-53.711,-60.059,-25.391,0.000
1728630720.552,-47.852,-53.223,-54.688,-9.766,0.000
1728630720.556,-42.480,-52.734,-59.082,-21.484,0.000
1728630720.560,-49.316,-75.195,-66.895,-45.898,0.000
1728630720.564,-36.621,-83.984,-61.035,-38.574,0.000
1728630720.568,-43.457,-70.312,-51.270,-36.133,0.000
1728630720.572,-50.781,-65.430,-53.711,-22.949,0.000
1728630720.576,-45.898,-63.965,-64.453,-20.996,0.000
1728630720.580,-41.992,-70.801,-64.453,-50.781,0.000
1728630720.583,-46.875,-76.660,-52.734,-56.152,0.000
1728630720.587,-67.871,-80.078,-50.781,-55.176,0.000
1728630720.591,-59.570,-80.566,-50.781,-21.484,0.000
1728630720.595,-39.062,-72.754,-45.410,4.395,0.000
1728630720.599,-35.156,-75.684,-42.480,-27.344,0.000
1728630720.603,-23.926,-68.359,-43.457,-42.480,0.000
1728630720.607,-40.039,-52.246,-49.805,-41.504,0.000
1728630720.611,-55.176,-48.828,-54.688,-17.090,0.000
1728630720.615,-35.645,-53.711,-57.617,-22.461,0.000
1728630720.619,-39.062,-55.176,-62.012,-55.176,0.000
1728630720.623,-44.922,-62.012,-55.664,-50.781,0.000
1728630720.626,-59.570,-70.801,-47.852,-45.898,0.000
1728630720.630,-67.383,-56.641,-46.387,-25.391,0.000
1728630720.634,-54.199,-54.199,-47.852,-13.672,0.000
1728630720.638,-44.922,-48.340,-48.828,-36.621,0.000
1728630720.642,-36.621,-38.574,-48.828,-50.293,0.000
1728630720.646,-57.129,-51.270,-53.711,-64.453,0.000
1728630720.650,-62.988,-51.758,-53.711,-46.875,0.000
1728630720.654,-39.551,-39.551,-55.664,-11.719,0.000
1728630720.658,-34.668,-40.527,-52.246,-39.551,0.000
1728630720.662,-32.715,-38.574,-41.504,-76.660,0.000
1728630720.666,-26.855,-40.039,-42.969,-63.477,0.000
1728630720.669,-29.297,-46.387,-48.340,-24.902,0.000
1728630720.673,-23.926,-40.527,-47.852,-7.812,0.000
1728630720.677,-26.367,-44.922,-40.527,-29.785,0.000
1728630720.681,-29.785,-59.570,-37.598,-54.688,0.000
1728630720.685,-44.922,-53.223,-31.250,-51.270,0.000
1728630720.689,-51.758,-51.758,-20.020,-25.879,0.000
1728630720.693,-41.992,-51.758,-26.855,-7.324,0.000
1728630720.697,-42.480,-40.039,-42.480,-16.113,0.000
1728630720.701,-34.180,-39.551,-39.551,-46.387,0.000
1728630720.705,-29.297,-48.828,-37.598,-49.316,0.000
1728630720.708,-36.621,-53.711,-36.133,-40.039,0.000
1728630720.712,-28.809,-57.129,-30.273,-14.648,0.000
1728630720.716,-22.949,-65.430,-29.297,-10.254,0.000
1728630720.720,-37.598,-51.758,-20.508,-43.457,0.000
1728630720.724,-43.945,-34.180,-17.090,-43.457,0.000
1728630720.728,-45.898,-44.434,-23.926,-21.973,0.000
1728630720.732,-24.902,-55.664,-30.273,-3.906,0.000
1728630720.736,-24.902,-59.082,-38.086,-37.109,0.000
1728630720.740,-29.297,-54.688,-39.551,-56.152,0.000
1728630720.744,-9.766,-45.410,-42.969,-35.645,0.000
1728630720.748,-14.648,-37.109,-41.016,-33.203,0.000
1728630720.751,-17.578,-31.250,-37.598,-19.043,0.000
1728630720.755,-17.578,-35.645,-42.969,-18.066,0.000
1728630720.759,-25.879,-51.758,-51.270,-46.387,0.000
1728630720.763,-41.504,-54.199,-53.223,-64.453,0.000
1728630720.767,-56.641,-48.828,-59.082,-51.270,0.000
1728630720.771,-34.668,-47.852,-62.500,-25.879,0.000
1728630720.775,-22.461,-36.621,-60.059,-25.391,0.000
1728630720.779,-23.438,-41.992,-59.570,-40.039,0.000
1728630720.783,-13.184,-36.621,-52.734,-44.434,0.000
1728630720.787,-20.996,-20.996,-49.805,-50.293,0.000
1728630720.791,-28.320,-20.508,-54.199,-42.969,0.000
1728630720.794,-39.551,-25.879,-58.105,-21.484,0.000
1728630720.798,-31.250,-12.695,-57.617,-31.250,0.000
1728630720.802,-16.113,-15.137,-51.270,-47.852,0.000
1728630720.806,-36.621,-38.086,-46.387,-42.480,0.000
1728630720.810,-37.598,-38.086,-39.551,-28.809,0.000
1728630720.814,-26.367,-30.762,-34.668,-30.273,0.000
1728630720.818,-41.016,-38.574,-43.457,-55.176,0.000
1728630720.822,-41.016,-41.016,-39.551,-68.848,0.000
1728630720.826,-44.922,-40.039,-36.621,-66.895,0.000
1728630720.830,-46.387,-40.039,-40.039,-34.180,0.000
1728630720.833,-21.484,-34.668,-33.203,-12.695,0.000
1728630720.837,-34.180,-42.480,-44.922,-37.109,0.000
1728630720.841,-41.016,-60.059,-42.969,-48.828,0.000
1728630720.845,-30.273,-66.895,-24.902,-50.293,0.000
1728630720.849,-43.945,-72.266,-31.250,-26.367,0.000
1728630720.853,-53.711,-83.984,-41.992,-7.812,0.000
1728630720.857,-51.270,-82.520,-38.574,-39.551,0.000
1728630720.861,-35.645,-76.172,-33.691,-64.941,0.000
1728630720.865,-35.156,-69.336,-38.086,-74.219,0.000
1728630720.869,-48.340,-67.871,-35.156,-48.828,0.000
1728630720.873,-41.504,-70.312,-26.367,3.418,0.000
1728630720.876,-42.969,-77.148,-32.715,-25.391,0.000
1728630720.880,-42.480,-72.754,-38.574,-55.664,0.000
1728630720.884,-32.227,-69.824,-38.574,-52.246,0.000
1728630720.888,-39.062,-62.500,-43.945,-55.664,0.000
1728630720.892,-41.992,-55.664,-50.781,-38.086,0.000
1728630720.896,-44.922,-62.500,-61.035,-46.875,0.000
1728630720.900,-58.594,-64.453,-61.523,-76.172,0.000
1728630720.904,-65.430,-63.477,-61.523,-80.566,0.000
1728630720.908,-61.035,-73.730,-60.547,-51.270,0.000
1728630720.912,-43.945,-62.988,-51.758,-7.812,0.000
1728630720.916,-33.203,-18.555,-41.504,-13.184,0.000
1728630720.919,-40.527,-15.137,-40.527,-53.711,0.000
1728630720.923,-58.594,-44.922,-51.270,-74.219,0.000
1728630720.927,-62.500,-54.688,-56.152,-60.059,0.000
1728630720.931,-46.387,-42.969,-57.129,-27.344,0.000
1728630720.935,-40.039,-49.805,-62.988,-35.156,0.000
1728630720.939,-37.598,-58.105,-66.406,-63.477,0.000
1728630720.943,-45.410,-53.711,-60.059,-66.895,0.000
1728630720.947,-68.848,-48.340,-52.734,-58.594,0.000
1728630720.951,-51.758,-46.387,-60.059,-30.273,0.000
1728630720.955,-33.203,-35.156,-56.152,-11.719,0.000
1728630720.958,-39.062,-24.902,-48.340,-40.039,0.000
1728630720.962,-44.922,-27.832,-57.617,-71.777,0.000
1728630720.966,-54.688,-33.203,-58.594,-60.547,0.000
1728630720.970,-34.180,-47.363,-48.828,-32.715,0.000
1728630720.974,-21.484,-56.152,-49.805,-34.180,0.000
1728630720.978,-27.832,-55.664,-57.617,-60.547,0.000
1728630720.982,-13.184,-44.434,-64.453,-66.895,0.000
1728630720.986,-41.016,-32.227,-62.012,-54.688,0.000
1728630720.990,-68.848,-34.180,-48.828,-10.742,0.000
1728630720.994,-48.828,-29.785,-34.668,11.230,0.000
1728630720.998,-22.949,-21.484,-33.203,-24.902,0.000
1728630721.001,-26.367,-23.926,-44.434,-44.922,0.000
1728630721.005,-57.129,-25.879,-48.828,-50.293,0.000
1728630721.009,-53.223,-25.879,-43.457,-36.621,0.000
1728630721.013,-42.969,-44.434,-49.805,-31.250,0.000
1728630721.017,-46.875,-64.453,-52.246,-50.781,0.000
1728630721.021,-30.762,-46.875,-43.945,-54.199,0.000
1728630721.025,-50.781,-33.203,-50.781,-46.387,0.000
1728630721.029,-75.684,-46.875,-56.641,-23.438,0.000
1728630721.033,-55.176,-44.922,-46.387,-2.441,0.000
1728630721.037,-41.504,-43.945,-42.480,-33.203,0.000
1728630721.040,-42.969,-52.734,-52.734,-62.012,0.000
1728630721.044,-56.152,-46.387,-60.547,-58.105,0.000
1728630721.048,-62.012,-30.762,-46.387,-34.668,0.000
1728630721.052,-46.875,-27.832,-31.738,-10.254,0.000
1728630721.056,-48.828,-31.250,-40.039,-38.574,0.000
1728630721.060,-38.574,-27.832,-37.109,-62.012,0.000
1728630721.064,-30.762,-24.414,-32.227,-50.781,0.000
1728630721.068,-26.855,-22.949,-32.715,-21.973,0.000
1728630721.072,-12.695,-21.484,-38.574,3.418,0.000
1728630721.076,-30.762,-20.996,-51.758,-31.250,0.000
1728630721.080,-33.691,-20.020,-52.246,-60.059,0.000
1728630721.083,-33.691,-28.320,-47.363,-48.828,0.000
1728630721.087,-44.434,-37.109,-48.340,-28.320,0.000
1728630721.091,-32.227,-34.668,-42.969,4.395,0.000
1728630721.095,-29.785,-33.691,-38.086,-19.531,0.000
1728630721.099,-36.133,-42.480,-46.875,-64.453,0.000
1728630721.103,-23.438,-53.711,-47.363,-64.941,0.000
1728630721.107,-30.273,-50.293,-27.344,-42.969,0.000
1728630721.111,-45.410,-40.527,-18.066,-11.719,0.000
1728630721.115,-52.246,-41.016,-34.180,-29.785,0.000
1728630721.119,-51.758,-48.828,-43.457,-70.312,0.000
1728630721.123,-50.781,-53.223,-32.227,-66.406,0.000
1728630721.126,-52.734,-55.664,-31.250,-38.574,0.000
1728630721.130,-28.320,-45.410,-36.133,-1.465,0.000
1728630721.134,-32.715,-54.688,-46.387,-9.766,0.000
1728630721.138,-49.316,-53.223,-48.828,-43.945,0.000
1728630721.142,-34.668,-33.691,-34.668,-49.316,0.000
1728630721.146,-46.387,-43.945,-32.715,-26.367,0.000
1728630721.150,-46.387,-29.297,-24.902,0.000,0.000
1728630721.154,-41.016,-12.695,-25.879,-12.207,0.000
1728630721.158,-48.340,-38.574,-35.156,-36.133,0.000
1728630721.162,-39.551,-50.781,-32.227,-38.574,0.000
1728630721.165,-47.852,-51.270,-29.785,-38.574,0.000
1728630721.169,-38.574,-48.340,-23.438,-15.625,0.000
1728630721.173,-22.461,-27.832,-26.855,-5.371,0.000
1728630721.177,-24.414,-27.344,-35.156,-22.949,0.000
1728630721.181,-31.250,-43.945,-42.480,-49.316,0.000
1728630721.185,-54.199,-47.852,-37.598,-61.035,0.000
1728630721.189,-39.551,-28.809,-21.484,-20.020,0.000
1728630721.193,-21.484,-23.926,-28.809,-6.836,0.000
1728630721.197,-37.598,-31.738,-41.016,-40.527,0.000
1728630721.201,-39.551,-32.227,-38.086,-61.523,0.000
1728630721.205,-50.781,-51.270,-35.645,-64.941,0.000
1728630721.208,-48.828,-58.594,-31.738,-32.227,0.000
1728630721.212,-38.574,-47.363,-24.414,-7.812,0.000
1728630721.216,-35.156,-41.992,-24.902,-37.598,0.000
1728630721.220,-18.555,-35.156,-33.203,-60.059,0.000
1728630721.224,-25.879,-30.762,-45.410,-46.875,0.000
1728630721.228,-31.250,-16.113,-35.645,-25.391,0.000
1728630721.232,-20.996,-5.859,-27.832,-24.414,0.000
1728630721.236,-24.902,-20.508,-37.109,-45.410,0.000
1728630721.240,-23.438,-33.691,-33.691,-51.270,0.000
1728630721.244,-33.203,-41.016,-41.016,-53.711,0.000
1728630721.248,-41.992,-35.645,-44.922,-39.062,0.000
1728630721.251,-26.367,-23.926,-44.922,-6.348,0.000
1728630721.255,-29.297,-34.180,-52.734,-25.391,0.000
1728630721.259,-32.715,-46.387,-46.387,-57.617,0.000
1728630721.263,-48.340,-38.574,-47.363,-61.035,0.000
1728630721.267,-76.660,-22.949,-51.758,-36.133,0.000
1728630721.271,-54.688,-30.762,-41.992,-9.277,0.000
1728630721.275,-42.480,-51.270,-42.480,-37.109,0.000
1728630721.279,-55.664,-48.828,-57.617,-76.660,0.000
1728630721.283,-62.988,-47.852,-58.105,-90.332,0.000
1728630721.287,-70.801,-52.246,-47.852,-71.777,0.000
1728630721.290,-53.711,-47.363,-44.434,-22.461,0.000
1728630721.294,-53.223,-40.527,-45.898,-28.809,0.000
1728630721.298,-57.129,-20.020,-39.062,-57.129,0.000
1728630721.302,-33.203,-11.230,-26.855,-46.387,0.000
1728630721.306,-31.250,-24.414,-28.809,-42.969,0.000
1728630721.310,-36.133,-37.598,-40.527,-35.156,0.000
1728630721.314,-48.340,-38.574,-46.875,-32.715,0.000
1728630721.318,-49.316,-40.527,-46.387,-53.711,0.000
1728630721.322,-38.086,-51.270,-38.574,-60.547,0.000
1728630721.326,-47.363,-49.316,-37.109,-56.641,0.000
1728630721.329,-48.828,-46.875,-45.898,-32.227,0.000
1728630721.333,-43.945,-52.734,-48.340,-20.508,0.000
1728630721.337,-52.734,-39.551,-45.410,-49.316,0.000
1728630721.341,-51.270,-39.062,-44.922,-58.594,0.000
1728630721.345,-59.082,-50.781,-52.246,-41.504,0.000
1728630721.349,-54.199,-53.223,-57.129,-11.230,0.000
1728630721.353,-32.227,-51.758,-64.453,-30.762,0.000
1728630721.357,-33.691,-54.688,-66.895,-62.012,0.000
1728630721.361,-35.156,-60.059,-62.012,-72.266,0.000
1728630721.365,-56.152,-60.547,-65.430,-73.730,0.000
1728630721.369,-48.828,-51.270,-57.617,-37.109,0.000
1728630721.372,-29.297,-41.504,-50.293,-21.484,0.000
1728630721.376,-35.156,-42.480,-47.363,-41.016,0.000
1728630721.380,-34.668,-48.828,-41.504,-60.059,0.000
1728630721.384,-56.152,-56.641,-53.711,-58.594,0.000
1728630721.388,-61.523,-59.082,-54.199,-44.434,0.000
1728630721.392,-47.363,-52.734,-50.293,-22.949,0.000
1728630721.396,-64.453,-53.711,-59.082,-35.645,0.000
1728630721.400,-55.664,-57.129,-59.570,-53.711,0.000
1728630721.404,-45.898,-59.082,-59.082,-47.852,0.000
1728630721.408,-43.945,-54.688,-49.805,-29.297,0.000
1728630721.412,-23.926,-44.434,-37.598,-17.090,0.000
1728630721.415,-31.738,-45.898,-44.434,-37.598,0.000
1728630721.419,-33.691,-50.781,-46.387,-45.410,0.000
1728630721.423,-39.062,-55.176,-47.852,-56.152,0.000
1728630721.427,-51.270,-54.199,-53.711,-50.293,0.000
1728630721.431,-43.945,-52.734,-56.641,-16.113,0.000
1728630721.435,-42.480,-43.945,-62.988,-36.621,0.000
1728630721.439,-28.809,-40.039,-66.406,-72.754,0.000
1728630721.443,-24.414,-45.410,-57.617,-62.500,0.000
1728630721.447,-27.344,-59.570,-47.363,-18.555,0.000
1728630721.451,-25.879,-61.523,-44.922,1.465,0.000
1728630721.454,-41.992,-37.109,-48.340,-34.180,0.000
1728630721.458,-32.715,-25.391,-50.293,-53.223,0.000
1728630721.462,-17.090,-32.227,-52.246,-46.875,0.000
1728630721.466,-24.414,-36.133,-51.270,-41.016,0.000
1728630721.470,-30.273,-34.668,-48.828,-22.461,0.000
1728630721.474,-30.273,-42.480,-53.223,-20.508,0.000
1728630721.478,-11.719,-42.969,-55.664,-34.180,0.000
1728630721.482,-10.742,-46.875,-49.805,-49.316,0.000
1728630721.486,-35.645,-49.805,-44.922,-41.504,0.000
1728630721.490,-31.250,-40.527,-43.457,-7.324,0.000
1728630721.494,-31.250,-41.504,-42.480,-20.508,0.000
1728630721.497,-48.340,-43.945,-44.922,-46.387,0.000
1728630721.501,-31.738,-32.227,-45.898,-37.598,0.000
1728630721.505,-39.551,-28.320,-55.176,-41.992,0.000
1728630721.509,-41.504,-39.062,-55.664,-19.043,0.000
1728630721.513,-23.438,-41.504,-54.199,-18.555,0.000
1728630721.517,-22.949,-48.828,-55.176,-54.688,0.000
1728630721.521,-21.484,-65.430,-52.246,-41.504,0.000
1728630721.525,-41.992,-60.059,-53.711,-31.250,0.000
1728630721.529,-39.551,-41.504,-44.434,6.348,0.000
1728630721.533,-28.320,-27.832,-37.598,13.672,0.000
1728630721.537,-35.645,-29.785,-53.223,-32.715,0.000
1728630721.540,-35.156,-40.527,-62.988,-48.828,0.000
1728630721.544,-50.781,-43.457,-62.988,-50.781,0.000
1728630721.548,-53.711,-42.969,-61.035,-31.250,0.000
1728630721.552,-31.250,-44.434,-62.500,-16.602,0.000
1728630721.556,-28.320,-44.434,-62.988,-38.574,0.000
1728630721.560,-21.484,-39.062,-49.316,-43.945,0.000
1728630721.564,-33.691,-43.945,-41.016,-33.203,0.000
1728630721.568,-34.180,-41.504,-45.898,-16.113,0.000
1728630721.572,-26.367,-30.273,-48.828,0.000,0.000
1728630721.576,-43.457,-25.391,-52.246,-22.949,0.000
1728630721.579,-32.715,-19.531,-50.781,-39.551,0.000
1728630721.583,-49.316,-28.320,-48.340,-46.387,0.000
1728630721.587,-56.641,-46.387,-47.852,-41.504,0.000
1728630721.591,-26.855,-44.434,-48.828,-27.832,0.000
1728630721.595,-28.320,-39.062,-55.664,-48.340,0.000
1728630721.599,-26.855,-54.199,-64.941,-57.129,0.000
1728630721.603,-27.832,-54.199,-67.871,-62.988,0.000
1728630721.607,-24.414,-34.180,-59.570,-42.480,0.000
1728630721.611,-24.414,-37.109,-57.617,-17.578,0.000
1728630721.615,-47.363,-46.387,-67.383,-36.621,0.000
1728630721.619,-48.828,-48.340,-65.430,-52.246,0.000
1728630721.622,-48.340,-45.410,-62.988,-48.340,0.000
1728630721.626,-50.781,-48.828,-62.500,-22.949,0.000
1728630721.630,-28.320,-55.664,-59.082,-4.395,0.000
1728630721.634,-33.203,-54.199,-59.082,-20.508,0.000
1728630721.638,-32.715,-49.805,-52.246,-49.805,0.000
1728630721.642,-36.621,-37.109,-48.828,-56.641,0.000
1728630721.646,-58.594,-32.227,-52.246,-31.738,0.000
1728630721.650,-44.922,-34.180,-45.898,-13.672,0.000
1728630721.654,-42.480,-43.945,-43.945,-36.133,0.000
1728630721.658,-46.387,-56.641,-62.500,-67.383,0.000
1728630721.661,-40.039,-54.199,-64.941,-71.777,0.000
1728630721.665,-55.664,-49.316,-53.223,-39.551,0.000
1728630721.669,-47.363,-43.945,-44.434,-1.953,0.000
1728630721.673,-22.949,-35.645,-38.574,-16.113,0.000
1728630721.677,-25.879,-38.086,-41.504,-55.176,0.000
1728630721.681,-37.598,-45.898,-47.363,-64.941,0.000
1728630721.685,-53.711,-48.828,-42.480,-43.945,0.000
1728630721.689,-23.926,-49.805,-37.109,-9.277,0.000
1728630721.693,0.000,-48.828,-39.062,-14.160,0.000
1728630721.697,-19.531,-37.598,-31.250,-55.176,0.000
1728630721.701,-28.809,-36.621,-23.438,-62.988,0.000
1728630721.704,-42.969,-48.828,-38.086,-43.457,0.000
1728630721.708,-44.434,-45.898,-49.805,-14.648,0.000
1728630721.712,-43.457,-42.969,-49.316,-22.461,0.000
1728630721.716,-35.156,-35.645,-52.246,-45.898,0.000
1728630721.720,-30.762,-40.039,-59.570,-58.594,0.000
1728630721.724,-61.523,-69.824,-63.477,-56.152,0.000
1728630721.728,-38.086,-81.543,-51.758,-16.602,0.000
1728630721.732,-20.996,-67.871,-49.805,-11.230,0.000
1728630721.736,-52.734,-62.012,-59.082,-37.598,0.000
1728630721.740,-35.645,-65.430,-49.805,-31.738,0.000
1728630721.744,-40.527,-51.758,-54.688,-34.180,0.000
1728630721.747,-55.176,-32.715,-57.617,-26.367,0.000
1728630721.751,-47.363,-43.945,-58.594,-29.297,0.000
1728630721.755,-61.523,-63.477,-58.594,-49.316,0.000
1728630721.759,-57.617,-52.246,-53.711,-50.781,0.000
1728630721.763,-44.922,-41.016,-49.805,-53.711,0.000
1728630721.767,-33.691,-38.574,-40.039,-29.297,0.000
1728630721.771,-24.902,-49.805,-37.598,-19.531,0.000
1728630721.775,-43.457,-54.688,-41.504,-45.410,0.000
1728630721.779,-41.504,-45.898,-47.363,-62.988,0.000
1728630721.783,-46.387,-44.922,-42.480,-57.129,0.000
1728630721.786,-46.875,-50.781,-37.109,-28.809,0.000
1728630721.790,-38.574,-48.340,-43.457,-27.832,0.000
1728630721.794,-47.852,-45.898,-55.664,-57.617,0.000
1728630721.798,-34.180,-44.922,-51.758,-65.430,0.000
1728630721.802,-24.414,-34.180,-40.039,-62.500,0.000
1728630721.806,-32.227,-31.738,-36.133,-33.203,0.000
1728630721.810,-38.574,-46.387,-39.062,-8.789,0.000
1728630721.814,-41.992,-60.547,-54.199,-39.551,0.000
1728630721.818,-29.297,-55.664,-56.641,-54.688,0.000
1728630721.822,-18.555,-46.387,-50.293,-39.062,0.000
1728630721.826,-36.133,-41.016,-49.805,-24.902,0.000
1728630721.829,-45.410,-38.086,-59.570,-23.438,0.000
1728630721.833,-45.898,-42.969,-74.707,-32.715,0.000
1728630721.837,-53.223,-41.992,-68.359,-43.945,0.000
1728630721.841,-42.480,-38.574,-53.223,-47.852,0.000
1728630721.845,-42.480,-48.340,-41.016,-48.340,0.000
1728630721.849,-38.574,-50.781,-46.387,-22.949,0.000
1728630721.853,-30.273,-44.434,-51.270,-25.391,0.000
1728630721.857,-34.668,-43.945,-51.270,-66.406,0.000
1728630721.861,-43.457,-43.945,-55.176,-75.195,0.000
1728630721.865,-61.035,-40.527,-47.363,-48.828,0.000
1728630721.869,-42.480,-36.133,-36.133,-9.277,0.000
1728630721.872,-29.297,-40.527,-41.504,-14.648,0.000
1728630721.876,-38.086,-44.922,-56.152,-44.434,0.000
1728630721.880,-17.090,-35.156,-50.293,-49.316,0.000
1728630721.884,-14.648,-46.875,-42.480,-27.832,0.000
1728630721.888,-32.227,-68.359,-40.039,-11.719,0.000
1728630721.892,-41.992,-49.805,-29.297,-32.227,0.000
1728630721.896,-43.457,-27.344,-26.855,-54.688,0.000
1728630721.900,-27.344,-22.461,-34.180,-66.406,0.000
1728630721.904,-47.363,-34.180,-43.945,-57.617,0.000
1728630721.908,-58.105,-36.133,-45.898,-22.949,0.000
1728630721.911,-38.086,-30.273,-41.992,-9.766,0.000
1728630721.915,-23.926,-33.203,-43.945,-37.598,0.000
1728630721.919,-27.832,-41.992,-45.898,-57.129,0.000
1728630721.923,-38.086,-41.992,-46.875,-48.828,0.000
1728630721.927,-14.160,-47.852,-48.340,-9.277,0.000
1728630721.931,-20.020,-55.176,-50.293,-4.395,0.000
1728630721.935,-45.410,-45.898,-51.758,-57.129,0.000
1728630721.939,-26.367,-34.668,-49.316,-76.172,0.000
1728630721.943,-15.137,-29.297,-42.480,-64.453,0.000
1728630721.947,-24.902,-32.715,-33.203,-30.273,0.000
1728630721.951,-30.273,-36.621,-34.180,-16.113,0.000
1728630721.954,-42.480,-37.109,-42.969,-48.340,0.000
1728630721.958,-30.273,-50.293,-49.805,-59.082,0.000
1728630721.962,-26.855,-59.082,-50.781,-39.551,0.000
1728630721.966,-40.039,-46.387,-41.016,-21.973,0.000
1728630721.970,-27.832,-38.574,-39.062,-15.625,0.000
1728630721.974,-34.668,-51.270,-50.781,-33.203,0.000
1728630721.978,-53.711,-57.129,-41.504,-53.223,0.000
1728630721.982,-52.246,-42.480,-29.785,-48.340,0.000
1728630721.986,-56.641,-36.621,-28.320,-8.789,0.000
1728630721.990,-46.875,-41.504,-25.391,3.418,0.000
1728630721.994,-41.504,-51.758,-29.297,-34.668,0.000
1728630721.997,-36.621,-51.758,-32.227,-49.805,0.000
1728630722.001,-27.344,-46.875,-30.273,-39.551,0.000
1728630722.005,-34.180,-35.645,-24.414,-17.578,0.000
1728630722.009,-36.621,-23.438,-27.344,-4.883,0.000
1728630722.013,-38.574,-33.691,-41.016,-29.785,0.000
1728630722.017,-38.574,-36.133,-45.898,-43.457,0.000
1728630722.021,-40.527,-34.180,-46.875,-58.594,0.000
1728630722.025,-45.410,-49.316,-45.898,-50.781,0.000
1728630722.029,-33.203,-53.711,-44.922,-5.859,0.000
1728630722.033,-44.434,-46.875,-52.734,-16.602,0.000
1728630722.036,-47.852,-48.340,-57.129,-55.664,0.000
1728630722.040,-38.574,-55.176,-56.641,-62.988,0.000
1728630722.044,-41.016,-47.852,-46.387,-54.688,0.000
1728630722.048,-23.438,-30.762,-30.762,-20.996,0.000
1728630722.052,-12.207,-15.137,-30.762,-20.508,0.000
1728630722.056,-28.809,-20.996,-41.504,-53.711,0.000
1728630722.060,-51.758,-41.016,-53.711,-61.523,0.000
1728630722.064,-56.152,-35.645,-53.223,-49.316,0.000
1728630722.068,-39.062,-20.508,-41.016,-18.555,0.000
1728630722.072,-49.316,-36.621,-42.969,-18.555,0.000
1728630722.076,-40.527,-48.340,-51.758,-58.105,0.000
1728630722.079,-30.273,-33.203,-42.969,-55.664,0.000
1728630722.083,-48.340,-23.926,-32.715,-36.133,0.000
1728630722.087,-29.297,-21.484,-24.414,-9.766,0.000
1728630722.091,-30.762,-21.484,-21.973,-3.418,0.000
1728630722.095,-36.621,-24.414,-33.203,-39.551,0.000
1728630722.099,-29.785,-31.250,-32.227,-48.828,0.000
1728630722.103,-41.992,-43.945,-26.855,-35.645,0.000
1728630722.107,-37.598,-48.340,-27.344,-5.371,0.000
1728630722.111,-22.461,-35.645,-29.785,5.371,0.000
1728630722.115,-28.809,-22.949,-39.062,-35.156,0.000
1728630722.118,-37.598,-31.250,-44.434,-58.105,0.000
1728630722.122,-55.176,-38.086,-43.945,-46.875,0.000
1728630722.126,-52.734,-34.668,-41.504,-13.672,0.000
1728630722.130,-42.969,-37.109,-41.504,-8.301,0.000
1728630722.134,-40.039,-42.969,-43.945,-38.086,0.000
1728630722.138,-16.602,-40.527,-46.875,-48.828,0.000
1728630722.142,-36.133,-36.621,-47.852,-51.270,0.000
1728630722.146,-37.109,-35.156,-45.898,-31.738,0.000
1728630722.150,-19.043,-30.273,-44.922,-9.277,0.000
1728630722.154,-37.598,-33.691,-42.480,-23.438,0.000
1728630722.158,-29.785,-37.109,-41.992,-46.387,0.000
1728630722.161,-37.109,-31.738,-49.805,-59.082,0.000
1728630722.165,-56.152,-33.691,-50.781,-32.715,0.000
1728630722.169,-37.598,-39.551,-49.805,-7.812,0.000
1728630722.173,-36.133,-45.410,-59.082,-40.527,0.000
1728630722.177,-37.109,-49.805,-57.617,-68.359,0.000
1728630722.181,-38.086,-45.898,-50.293,-62.988,0.000
1728630722.185,-45.410,-46.875,-47.363,-32.715,0.000
1728630722.189,-32.227,-53.223,-38.086,-5.371,0.000
1728630722.193,-28.809,-41.992,-35.645,-16.602,0.000
1728630722.197,-27.832,-39.062,-50.781,-40.039,0.000
1728630722.201,-35.645,-60.547,-61.523,-45.898,0.000
1728630722.204,-52.734,-68.848,-57.617,-46.387,0.000
1728630722.208,-46.387,-49.805,-51.758,-13.672,0.000
1728630722.212,-49.805,-47.852,-60.059,-21.484,0.000
1728630722.216,-36.133,-50.781,-63.965,-52.734,0.000
1728630722.220,-20.508,-42.969,-59.570,-45.410,0.000
1728630722.224,-38.086,-46.387,-64.941,-20.020,0.000
1728630722.228,-24.414,-33.203,-60.547,7.324,0.000
1728630722.232,-18.555,-53.223,-62.500,-3.418,0.000
1728630722.236,-6.836,-125.000,-88.379,-9.277,0.000
1728630722.240,33.691,-105.469,-77.637,2.441,0.000
1728630722.244,7.324,-63.477,-63.477,5.371,0.000
1728630722.247,-30.273,-97.168,-86.914,16.602,0.000
1728630722.251,-31.738,-67.383,-52.246,20.508,0.000
1728630722.255,-18.555,-87.891,-65.918,5.371,0.000
1728630722.259,21.973,-142.578,-94.238,16.602,0.000
1728630722.263,97.656,-162.598,-50.293,90.332,0.000
1728630722.267,188.477,-156.250,-51.270,198.242,0.000
1728630722.271,178.711,8.789,-7.812,193.848,0.000
1728630722.275,71.777,-30.762,108.398,66.895,0.000
1728630722.279,34.668,-47.852,49.805,13.184,0.000
1728630722.283,-19.043,25.879,10.254,-18.066,0.000
1728630722.286,-41.504,30.762,61.035,-23.438,0.000
1728630722.290,-13.184,94.238,62.988,-23.438,0.000
1728630722.294,-66.406,56.641,154.297,-91.797,0.000
1728630722.298,48.340,215.332,452.148,28.809,0.000
1728630722.302,190.430,463.379,718.262,173.828,0.000
1728630722.306,130.859,383.301,879.883,141.602,0.000
1728630722.310,118.652,335.938,971.680,128.906,0.000
1728630722.314,97.656,514.160,962.402,63.965,0.000
1728630722.318,92.773,750.000,966.309,43.457,0.000
1728630722.322,134.766,938.477,966.797,121.094,0.000
1728630722.326,205.566,968.262,966.797,217.773,0.000
1728630722.329,292.969,961.426,966.797,297.852,0.000
1728630722.333,338.379,967.773,966.797,296.387,0.000
1728630722.337,370.605,966.797,966.309,281.738,0.000
1728630722.341,397.461,966.797,966.309,309.082,0.000
1728630722.345,411.621,966.309,966.797,331.543,0.000
1728630722.349,418.945,966.309,966.309,331.055,0.000
1728630722.353,396.973,966.309,966.797,307.617,0.000
1728630722.357,384.766,966.309,966.797,296.387,0.000
1728630722.361,383.789,966.309,966.797,300.781,0.000
1728630722.365,357.422,966.797,966.797,299.316,0.000
1728630722.369,345.215,966.797,966.309,305.664,0.000
1728630722.372,342.285,966.797,966.797,289.551,0.000
1728630722.376,333.496,966.797,966.797,246.094,0.000
1728630722.380,313.477,966.797,964.844,222.168,0.000
1728630722.384,280.273,966.797,967.773,231.445,0.000
1728630722.388,282.227,966.797,956.543,249.512,0.000
1728630722.392,278.320,966.797,894.531,225.586,0.000
1728630722.396,251.953,963.867,829.590,187.500,0.000
1728630722.400,226.562,969.238,768.555,159.668,0.000
1728630722.404,195.312,945.312,703.125,159.668,0.000
1728630722.408,189.453,859.863,633.789,185.547,0.000
1728630722.411,175.781,786.621,553.223,159.668,0.000
1728630722.415,149.902,724.609,481.934,115.234,0.000
1728630722.419,135.742,642.090,401.367,83.496,0.000
1728630722.423,102.539,535.645,313.965,62.500,0.000
1728630722.427,76.172,403.809,228.516,70.312,0.000
1728630722.431,44.922,261.719,125.000,41.992,0.000
1728630722.435,26.367,122.559,44.922,8.789,0.000
1728630722.439,19.043,-12.695,-69.824,-7.812,0.000
1728630722.443,-24.902,-166.504,-261.230,-40.039,0.000
1728630722.447,-48.340,-360.352,-457.031,-36.621,0.000
1728630722.450,-62.012,-572.266,-593.262,-46.875,0.000
1728630722.454,-75.684,-719.238,-670.410,-90.332,0.000
1728630722.458,-92.773,-835.449,-724.609,-98.145,0.000
1728630722.462,-134.766,-958.496,-760.742,-79.102,0.000
1728630722.466,-143.555,-1000.000,-760.742,-71.777,0.000
1728630722.470,-138.672,-998.047,-743.652,-90.820,0.000
1728630722.474,-141.602,-1000.000,-758.301,-127.441,0.000
1728630722.478,-144.531,-1000.000,-778.320,-143.066,0.000
1728630722.482,-175.293,-1000.000,-805.664,-138.184,0.000
1728630722.486,-187.500,-1000.000,-808.105,-123.047,0.000
1728630722.490,-181.152,-1000.000,-786.621,-124.023,0.000
1728630722.493,-186.035,-999.512,-776.367,-151.855,0.000
1728630722.497,-180.176,-1000.000,-756.348,-163.574,0.000
1728630722.501,-201.172,-994.629,-742.676,-163.086,0.000
1728630722.505,-196.289,-964.844,-719.727,-141.602,0.000
1728630722.509,-169.434,-935.059,-683.105,-116.699,0.000
1728630722.513,-187.500,-921.387,-656.738,-147.461,0.000
1728630722.517,-177.246,-895.020,-618.164,-169.922,0.000
1728630722.521,-184.570,-872.559,-583.984,-157.227,0.000
1728630722.525,-207.031,-874.512,-563.965,-127.930,0.000
1728630722.529,-176.758,-851.562,-540.527,-117.676,0.000
1728630722.533,-175.293,-813.477,-523.926,-146.484,0.000
1728630722.536,-184.082,-775.391,-498.047,-162.109,0.000
1728630722.540,-198.242,-736.328,-479.004,-167.480,0.000
1728630722.544,-200.195,-707.031,-474.609,-150.879,0.000
1728630722.548,-174.805,-686.035,-458.008,-129.883,0.000
1728630722.552,-177.734,-672.852,-444.336,-142.090,0.000
1728630722.556,-170.898,-665.039,-423.340,-159.668,0.000
1728630722.560,-178.711,-660.156,-416.016,-164.062,0.000
1728630722.564,-186.035,-620.117,-409.180,-154.785,0.000
1728630722.568,-173.828,-564.453,-372.559,-136.230,0.000
1728630722.572,-179.688,-543.945,-357.422,-139.160,0.000
1728630722.575,-164.551,-534.668,-363.770,-159.180,0.000
1728630722.579,-167.969,-513.184,-345.215,-171.387,0.000
1728630722.583,-201.172,-497.070,-308.594,-154.785,0.000
1728630722.587,-171.387,-477.051,-288.086,-135.254,0.000
1728630722.591,-150.879,-453.613,-280.273,-161.133,0.000
1728630722.595,-171.387,-432.617,-257.324,-166.992,0.000
1728630722.599,-178.711,-408.203,-247.559,-163.086,0.000
1728630722.603,-183.105,-384.277,-245.605,-152.344,0.000
1728630722.607,-167.480,-368.652,-224.121,-97.168,0.000
1728630722.611,-166.992,-356.934,-223.633,-104.004,0.000
1728630722.615,-150.879,-330.078,-236.328,-145.020,0.000
1728630722.618,-137.207,-303.711,-237.793,-162.109,0.000
1728630722.622,-142.090,-291.504,-231.445,-145.508,0.000
1728630722.626,-126.465,-276.855,-232.422,-103.516,0.000
1728630722.630,-134.277,-261.719,-243.164,-114.258,0.000
1728630722.634,-132.324,-245.117,-238.281,-127.930,0.000
1728630722.638,-123.047,-227.539,-210.938,-119.141,0.000
1728630722.642,-132.812,-214.355,-185.059,-118.164,0.000
1728630722.646,-121.094,-210.938,-183.594,-93.262,0.000
1728630722.650,-98.633,-217.773,-184.570,-86.914,0.000
1728630722.654,-91.797,-217.285,-190.430,-128.906,0.000
1728630722.658,-90.820,-203.125,-205.566,-143.555,0.000
1728630722.661,-98.633,-191.895,-219.727,-127.441,0.000
1728630722.665,-103.516,-173.828,-230.469,-99.121,0.000
1728630722.669,-108.887,-160.156,-235.352,-91.309,0.000
1728630722.673,-118.652,-154.297,-232.910,-99.121,0.000
1728630722.677,-111.328,-142.090,-234.375,-111.328,0.000
1728630722.681,-123.047,-151.367,-243.164,-125.977,0.000
1728630722.685,-114.746,-147.949,-238.770,-95.703,0.000
1728630722.689,-96.191,-139.648,-229.980,-83.496,0.000
1728630722.693,-107.422,-147.949,-230.469,-108.887,0.000
1728630722.697,-91.797,-125.488,-215.332,-107.422,0.000
1728630722.700,-89.355,-97.656,-200.684,-88.379,0.000
1728630722.704,-88.379,-100.586,-199.707,-81.543,0.000
1728630722.708,-76.660,-106.445,-194.336,-69.336,0.000
1728630722.712,-104.980,-103.027,-187.988,-80.078,0.000
1728630722.716,-104.492,-85.449,-186.035,-90.332,0.000
1728630722.720,-101.562,-76.660,-173.828,-96.680,0.000
1728630722.724,-108.398,-85.449,-161.621,-82.031,0.000
1728630722.728,-82.031,-80.566,-156.250,-57.129,0.000
1728630722.732,-84.961,-75.195,-155.762,-82.031,0.000
1728630722.736,-86.914,-76.172,-155.762,-106.445,0.000
1728630722.740,-92.285,-87.891,-157.715,-106.934,0.000
1728630722.743,-96.680,-100.586,-153.809,-85.449,0.000
1728630722.747,-59.082,-83.984,-134.766,-52.246,0.000
1728630722.751,-62.500,-71.289,-133.789,-63.965,0.000
1728630722.755,-78.613,-74.219,-129.395,-72.754,0.000
1728630722.759,-72.754,-85.938,-116.699,-81.055,0.000
1728630722.763,-77.148,-96.680,-112.793,-75.195,0.000
1728630722.767,-66.406,-91.309,-109.375,-51.270,0.000
1728630722.771,-49.316,-88.867,-118.652,-67.871,0.000
1728630722.775,-60.059,-84.473,-128.418,-84.961,0.000
1728630722.779,-70.312,-87.402,-130.859,-86.914,0.000
1728630722.782,-74.219,-80.078,-135.254,-71.289,0.000
1728630722.786,-71.289,-71.289,-131.836,-32.715,0.000
1728630722.790,-60.059,-74.707,-128.906,-50.781,0.000
1728630722.794,-69.336,-65.918,-143.555,-85.938,0.000
1728630722.798,-73.242,-59.570,-147.461,-78.613,0.000
1728630722.802,-65.918,-33.203,-118.164,-42.480,0.000
1728630722.806,-50.781,-16.113,-96.680,-13.184,0.000
1728630722.810,-45.410,-18.066,-89.355,-33.203,0.000
1728630722.814,-47.852,-21.973,-84.961,-63.965,0.000
1728630722.818,-40.039,-31.738,-85.449,-74.219,0.000
1728630722.822,-59.082,-46.387,-92.773,-76.172,0.000
1728630722.825,-66.895,-72.266,-89.355,-52.246,0.000
1728630722.829,-62.012,-74.707,-83.984,-44.434,0.000
1728630722.833,-56.152,-62.988,-86.914,-80.078,0.000
1728630722.837,-37.109,-54.199,-81.543,-82.520,0.000
1728630722.841,-46.875,-43.945,-75.684,-52.246,0.000
1728630722.845,-55.664,-41.016,-72.266,-22.949,0.000
1728630722.849,-53.711,-42.969,-79.102,-24.902,0.000
1728630722.853,-53.711,-37.109,-78.125,-54.688,0.000
1728630722.857,-40.527,-37.109,-75.195,-69.336,0.000
1728630722.861,-45.410,-59.082,-71.777,-65.918,0.000
1728630722.865,-41.504,-55.664,-52.246,-43.945,0.000
1728630722.868,-41.016,-39.551,-47.363,-29.297,0.000
1728630722.872,-46.875,-48.828,-64.453,-58.105,0.000
1728630722.876,-33.691,-40.527,-87.402,-69.824,0.000
1728630722.880,-46.875,-28.809,-89.355,-53.223,0.000
1728630722.884,-55.664,-34.180,-74.219,-29.297,0.000
1728630722.888,-44.922,-34.668,-85.938,-21.973,0.000
1728630722.892,-57.617,-35.156,-96.680,-55.176,0.000
1728630722.896,-60.059,-52.734,-89.355,-64.941,0.000
1728630722.900,-61.035,-65.430,-92.285,-60.547,0.000
1728630722.904,-56.641,-61.035,-101.562,-43.945,0.000
1728630722.907,-41.016,-53.711,-112.305,-26.367,0.000
1728630722.911,-51.758,-50.293,-120.117,-48.340,0.000
1728630722.915,-41.016,-36.133,-115.234,-68.848,0.000
1728630722.919,-42.969,-37.598,-110.352,-75.684,0.000
1728630722.923,-61.035,-57.617,-95.703,-47.363,0.000
1728630722.927,-35.645,-47.852,-88.379,-11.719,0.000
1728630722.931,-33.691,-37.598,-94.727,-36.621,0.000
1728630722.935,-34.668,-32.227,-83.008,-58.594,0.000
1728630722.939,-44.922,-20.508,-73.730,-41.016,0.000
1728630722.943,-61.523,-26.367,-72.754,-29.785,0.000
1728630722.947,-45.898,-45.410,-76.172,-17.578,0.000
1728630722.950,-41.992,-57.617,-79.102,-33.203,0.000
1728630722.954,-32.715,-68.848,-67.871,-64.453,0.000
1728630722.958,-28.809,-62.500,-56.641,-63.477,0.000
1728630722.962,-53.711,-34.180,-53.711,-36.133,0.000
1728630722.966,-41.992,-18.066,-49.316,-9.277,0.000
1728630722.970,-41.016,-22.461,-48.828,-26.855,0.000
1728630722.974,-38.574,-20.996,-43.945,-59.082,0.000
1728630722.978,-28.320,-3.418,-31.250,-58.105,0.000
1728630722.982,-43.945,4.883,-32.715,-38.086,0.000
1728630722.986,-40.527,-11.230,-36.133,-18.066,0.000
1728630722.990,-37.598,-30.273,-36.621,-35.156,0.000
1728630722.993,-27.832,-25.391,-39.062,-58.105,0.000
1728630722.997,-26.855,-19.531,-37.598,-54.199,0.000
1728630723.001,-57.129,-17.090,-36.621,-46.387,0.000
1728630723.005,-49.805,-8.301,-27.344,-12.695,0.000
1728630723.009,-40.039,-25.879,-31.738,-9.766,0.000
1728630723.013,-41.016,-49.316,-43.457,-50.781,0.000
1728630723.017,-38.574,-58.105,-41.016,-59.570,0.000
1728630723.021,-51.270,-60.059,-34.180,-41.504,0.000
1728630723.025,-30.273,-62.012,-31.738,-8.301,0.000
1728630723.029,-17.578,-63.477,-42.480,-16.113,0.000
1728630723.032,-36.133,-79.590,-51.270,-50.293,0.000
1728630723.036,-30.273,-94.238,-51.758,-60.059,0.000
1728630723.040,-40.039,-68.848,-46.387,-61.035,0.000
1728630723.044,-42.969,-62.988,-50.781,-29.297,0.000
1728630723.048,-34.180,-71.777,-58.594,-19.043,0.000
1728630723.052,-39.551,-63.477,-58.105,-62.012,0.000
1728630723.056,-39.551,-60.059,-60.059,-70.801,0.000
1728630723.060,-44.922,-58.594,-47.852,-52.246,0.000
1728630723.064,-46.875,-59.082,-38.086,-23.926,0.000
1728630723.068,-44.922,-74.219,-47.852,-23.926,0.000
1728630723.072,-55.664,-83.496,-65.430,-66.406,0.000
1728630723.075,-58.594,-72.754,-70.312,-83.008,0.000
1728630723.079,-58.594,-55.664,-57.129,-59.082,0.000
1728630723.083,-50.293,-54.199,-47.852,-20.508,0.000
1728630723.087,-30.273,-53.711,-45.898,-11.719,0.000
1728630723.091,-26.855,-43.457,-57.129,-41.992,0.000
1728630723.095,-20.020,-31.250,-61.035,-56.152,0.000
1728630723.099,-34.180,-34.668,-51.758,-57.129,0.000
1728630723.103,-55.664,-50.781,-48.340,-55.176,0.000
1728630723.107,-54.199,-50.293,-44.434,-33.691,0.000
1728630723.111,-44.434,-58.105,-46.875,-34.668,0.000
1728630723.114,-26.855,-62.500,-51.758,-63.477,0.000
1728630723.118,-28.320,-49.316,-46.875,-70.312,0.000
1728630723.122,-52.246,-42.969,-45.410,-48.340,0.000
1728630723.126,-53.711,-46.875,-55.176,-28.809,0.000
1728630723.130,-57.129,-46.875,-52.246,-42.480,0.000
1728630723.134,-54.688,-48.828,-47.363,-59.082,0.000
1728630723.138,-46.387,-50.293,-42.969,-49.316,0.000
1728630723.142,-55.176,-52.734,-35.645,-23.438,0.000
1728630723.146,-43.945,-55.176,-41.992,-13.184,0.000
1728630723.150,-43.945,-47.363,-41.992,-33.691,0.000
1728630723.154,-48.340,-46.387,-41.504,-48.828,0.000
1728630723.157,-52.246,-49.805,-56.152,-62.012,0.000
1728630723.161,-61.035,-52.734,-51.758,-52.246,0.000
1728630723.165,-42.969,-51.758,-41.016,-26.855,0.000
1728630723.169,-32.715,-49.805,-47.852,-42.969,0.000
1728630723.173,-35.645,-46.387,-61.035,-64.941,0.000
1728630723.177,-20.020,-46.875,-59.570,-62.988,0.000
1728630723.181,-26.367,-46.875,-43.457,-41.992,0.000
1728630723.185,-45.898,-37.598,-26.367,-2.441,0.000
1728630723.189,-51.270,-52.246,-30.762,-12.695,0.000
1728630723.193,-55.664,-73.730,-41.992,-49.805,0.000
1728630723.196,-49.805,-48.828,-41.016,-59.082,0.000
1728630723.200,-64.941,-41.504,-48.828,-47.363,0.000
1728630723.204,-51.270,-61.523,-44.434,-14.648,0.000
1728630723.208,-31.250,-57.617,-44.922,-15.625,0.000
1728630723.212,-39.551,-47.852,-52.734,-52.246,0.000
1728630723.216,-40.527,-40.527,-50.781,-58.105,0.000
1728630723.220,-36.133,-32.715,-50.781,-39.551,0.000
1728630723.224,-26.367,-34.180,-41.504,-9.766,0.000
1728630723.228,-32.227,-48.340,-41.992,-5.371,0.000
1728630723.232,-44.922,-53.711,-56.152,-42.969,0.000
1728630723.236,-50.293,-51.270,-59.082,-76.172,0.000
1728630723.239,-62.988,-46.387,-56.152,-68.848,0.000
1728630723.243,-62.988,-45.898,-45.898,-33.691,0.000
1728630723.247,-41.992,-54.688,-39.551,-29.297,0.000
1728630723.251,-25.879,-49.805,-45.898,-43.945,0.000
1728630723.255,-31.250,-34.668,-43.457,-61.035,0.000
1728630723.259,-48.828,-36.133,-31.250,-67.871,0.000
1728630723.263,-44.922,-38.574,-21.484,-29.297,0.000
1728630723.267,-42.969,-39.062,-18.555,-16.602,0.000
1728630723.271,-48.828,-42.969,-27.832,-46.875,0.000
1728630723.275,-45.898,-52.246,-38.574,-65.918,0.000
1728630723.279,-48.828,-61.035,-42.480,-56.641,0.000
1728630723.282,-50.781,-53.223,-33.691,-22.949,0.000
1728630723.286,-36.621,-41.016,-35.156,-5.371,0.000
1728630723.290,-39.551,-42.969,-41.504,-32.715,0.000
1728630723.294,-40.039,-39.551,-42.480,-43.945,0.000
1728630723.298,-48.340,-31.738,-47.852,-45.898,0.000
1728630723.302,-52.734,-34.668,-51.758,-32.715,0.000
1728630723.306,-29.297,-30.273,-42.969,-9.277,0.000
1728630723.310,-39.551,-29.297,-40.039,-27.832,0.000
1728630723.314,-51.758,-31.250,-46.875,-48.828,0.000
1728630723.318,-52.734,-39.551,-47.852,-57.129,0.000
1728630723.321,-48.828,-34.180,-47.852,-35.156,0.000
1728630723.325,-32.715,-26.855,-46.387,2.441,0.000
1728630723.329,-43.945,-32.715,-46.875,-26.367,0.000
1728630723.333,-54.688,-28.809,-49.805,-57.617,0.000
1728630723.337,-45.410,-33.691,-52.734,-58.594,0.000
1728630723.341,-41.504,-30.762,-50.293,-32.715,0.000
1728630723.345,-29.297,-21.973,-37.598,5.371,0.000
1728630723.349,-22.461,-35.645,-30.273,-3.906,0.000
1728630723.353,-27.832,-43.457,-39.062,-42.969,0.000
1728630723.357,-27.832,-43.945,-48.340,-61.035,0.000
1728630723.361,-36.133,-46.875,-48.828,-50.293,0.000
1728630723.364,-31.250,-46.875,-49.316,-17.578,0.000
1728630723.368,-27.832,-50.781,-57.617,-30.273,0.000
1728630723.372,-19.531,-43.457,-56.641,-59.570,0.000
1728630723.376,-11.230,-41.992,-45.410,-48.340,0.000
1728630723.380,-41.016,-44.434,-43.457,-33.691,0.000
1728630723.384,-47.363,-37.598,-63.477,-0.488,0.000
1728630723.388,-38.574,-31.250,-60.547,-6.348,0.000
1728630723.392,-46.387,-32.715,-46.387,-41.016,0.000
1728630723.396,-36.133,-38.574,-44.434,-32.227,0.000
1728630723.400,-41.504,-29.297,-40.039,-21.484,0.000
1728630723.404,-40.039,-33.691,-34.668,-0.977,0.000
1728630723.407,-38.574,-44.434,-38.574,-2.441,0.000
1728630723.411,-50.781,-45.898,-58.594,-48.340,0.000
1728630723.415,-38.086,-49.316,-65.430,-58.594,0.000
1728630723.419,-43.457,-54.199,-62.012,-42.969,0.000
1728630723.423,-47.852,-54.688,-67.383,-15.137,0.000
1728630723.427,-37.109,-46.387,-76.660,-11.230,0.000
1728630723.431,-35.156,-40.527,-79.590,-52.734,0.000
1728630723.435,-23.926,-38.086,-70.312,-76.172,0.000
1728630723.439,-51.270,-35.156,-61.523,-68.848,0.000
1728630723.443,-49.316,-31.738,-61.035,-27.344,0.000
1728630723.446,-23.926,-31.738,-54.199,-13.184,0.000
1728630723.450,-27.832,-37.598,-64.453,-51.758,0.000
1728630723.454,-25.879,-63.965,-69.824,-68.848,0.000
1728630723.458,-45.410,-77.148,-60.547,-60.059,0.000
1728630723.462,-60.547,-58.594,-62.988,-32.227,0.000
1728630723.466,-42.480,-42.969,-46.387,4.395,0.000
1728630723.470,-41.504,-44.434,-49.316,-20.996,0.000
1728630723.474,-50.293,-64.941,-73.730,-58.105,0.000
1728630723.478,-62.500,-63.965,-66.895,-57.617,0.000
1728630723.482,-62.500,-51.270,-59.082,-30.273,0.000
1728630723.486,-36.133,-43.457,-57.129,-2.441,0.000
1728630723.489,-33.203,-46.387,-49.805,-35.645,0.000
1728630723.493,-17.090,-49.316,-46.875,-58.594,0.000
1728630723.497,-23.926,-48.828,-49.316,-53.711,0.000
1728630723.501,-41.992,-49.316,-48.828,-30.762,0.000
1728630723.505,-40.527,-41.992,-44.434,-15.625,0.000
1728630723.509,-53.711,-44.922,-44.434,-44.922,0.000
1728630723.513,-48.828,-51.758,-45.898,-69.824,0.000
1728630723.517,-46.387,-51.758,-43.945,-67.871,0.000
1728630723.521,-52.734,-54.688,-43.457,-37.109,0.000
1728630723.525,-46.387,-52.734,-41.016,-1.465,0.000
1728630723.528,-46.387,-52.246,-40.039,-22.949,0.000
1728630723.532,-42.969,-45.410,-41.992,-62.500,0.000
1728630723.536,-30.762,-35.645,-43.945,-65.430,0.000
1728630723.540,-31.738,-48.340,-47.363,-52.734,0.000
1728630723.544,-36.621,-48.340,-47.852,-22.461,0.000
1728630723.548,-48.340,-8.301,-45.898,-32.227,0.000
1728630723.552,-42.969,15.625,-47.852,-58.594,0.000
1728630723.556,-31.738,18.066,-48.828,-58.594,0.000
1728630723.560,-49.805,10.254,-51.758,-45.410,0.000
1728630723.564,-43.457,2.441,-61.035,-4.883,0.000
1728630723.568,-40.039,5.859,-69.824,-5.371,0.000
1728630723.571,-43.945,8.789,-69.824,-45.898,0.000
1728630723.575,-33.691,14.160,-69.824,-52.734,0.000
1728630723.579,-36.621,5.371,-69.824,-38.574,0.000
1728630723.583,-36.133,-2.441,-65.918,-26.367,0.000
1728630723.587,-32.715,0.488,-68.359,-24.414,0.000
1728630723.591,-31.738,1.465,-67.871,-51.758,0.000
1728630723.595,-15.625,21.973,-61.035,-53.711,0.000
1728630723.599,-28.320,32.227,-61.523,-41.016,0.000
1728630723.603,-41.504,15.137,-63.477,-26.367,0.000
1728630723.607,-39.062,0.488,-66.406,-23.926,0.000
1728630723.611,-41.992,10.742,-66.895,-42.480,0.000
1728630723.614,-28.320,4.395,-56.152,-47.363,0.000
1728630723.618,-26.367,-9.766,-50.781,-53.223,0.000
1728630723.622,-37.109,-5.371,-56.152,-26.855,0.000
1728630723.626,-50.293,-3.906,-52.246,-14.160,0.000
1728630723.630,-44.922,-4.883,-46.387,-39.551,0.000
1728630723.634,-27.344,0.977,-41.504,-41.504,0.000
1728630723.638,-40.527,14.160,-37.598,-32.227,0.000
1728630723.642,-40.527,18.066,-32.227,-7.812,0.000
1728630723.646,-35.645,17.090,-27.832,-1.465,0.000
1728630723.650,-47.363,18.555,-34.180,-28.809,0.000
1728630723.653,-36.133,6.348,-38.574,-42.969,0.000
1728630723.657,-41.504,-13.184,-43.945,-43.457,0.000
1728630723.661,-56.152,-13.184,-39.551,-25.879,0.000
1728630723.665,-30.762,-18.066,-38.086,-5.859,0.000
1728630723.669,-22.461,-20.996,-41.992,-21.484,0.000
1728630723.673,-24.414,-11.230,-39.062,-42.969,0.000
1728630723.677,-27.344,-8.301,-37.109,-37.598,0.000
1728630723.681,-45.410,-18.066,-42.969,-5.371,0.000
1728630723.685,-43.945,-26.367,-50.293,11.230,0.000
1728630723.689,-40.039,-22.461,-57.617,-17.578,0.000
1728630723.693,-32.227,-19.043,-58.105,-47.852,0.000
1728630723.696,-36.621,-33.203,-57.129,-57.617,0.000
1728630723.700,-52.734,-43.945,-52.246,-30.762,0.000
1728630723.704,-29.785,-27.832,-30.273,0.488,0.000
1728630723.708,-26.367,-23.926,-27.344,-35.156,0.000
1728630723.712,-41.016,-33.691,-46.875,-82.031,0.000
1728630723.716,-39.551,-32.227,-61.523,-70.312,0.000
1728630723.720,-47.852,-22.949,-56.152,-33.203,0.000
1728630723.724,-44.434,-30.762,-48.340,-17.578,0.000
1728630723.728,-53.223,-56.152,-55.176,-48.828,0.000
1728630723.732,-41.504,-53.223,-45.898,-58.594,0.000
1728630723.736,-24.414,-53.711,-36.133,-51.270,0.000
1728630723.739,-44.922,-54.688,-38.574,-37.109,0.000
1728630723.743,-48.340,-37.109,-39.062,-4.395,0.000
1728630723.747,-51.270,-36.621,-44.922,-18.555,0.000
1728630723.751,-52.246,-39.551,-49.805,-40.039,0.000
1728630723.755,-34.668,-37.109,-54.688,-38.086,0.000
1728630723.759,-33.203,-29.785,-51.758,-29.785,0.000
1728630723.763,-32.715,-34.668,-45.410,-11.230,0.000
1728630723.767,-28.809,-41.504,-44.922,-16.602,0.000
1728630723.771,-42.480,-54.199,-53.711,-49.805,0.000
1728630723.775,-52.734,-61.035,-48.828,-63.477,0.000
1728630723.778,-60.547,-43.457,-33.203,-44.434,0.000
1728630723.782,-42.969,-25.391,-28.320,6.836,0.000
1728630723.786,-27.344,-26.367,-29.785,14.648,0.000
1728630723.790,-35.645,-30.273,-31.738,-31.250,0.000
1728630723.794,-41.016,-24.414,-45.898,-48.828,0.000
1728630723.798,-49.805,-23.926,-52.734,-40.527,0.000
1728630723.802,-24.902,-26.855,-35.645,-4.883,0.000
1728630723.806,-17.578,-31.738,-39.551,8.789,0.000
1728630723.810,-43.945,-37.598,-57.617,-38.574,0.000
1728630723.814,-52.246,-41.504,-46.875,-59.082,0.000
1728630723.818,-64.941,-35.645,-41.992,-57.129,0.000
1728630723.821,-52.734,-22.461,-43.457,-29.297,0.000
1728630723.825,-31.250,-19.531,-35.645,-16.602,0.000
1728630723.829,-28.320,-19.043,-30.273,-43.945,0.000
1728630723.833,-19.531,-22.949,-30.273,-48.828,0.000
1728630723.837,-33.203,-32.715,-36.133,-39.062,0.000
1728630723.841,-34.180,-41.992,-35.156,-10.742,0.000
1728630723.845,-12.695,-48.828,-36.133,13.184,0.000
1728630723.849,-18.066,-52.734,-48.828,-11.230,0.000
1728630723.853,-20.508,-37.598,-53.223,-38.086,0.000
1728630723.857,-39.062,-25.391,-40.527,-44.434,0.000
1728630723.860,-53.223,-33.691,-36.621,-25.879,0.000
1728630723.864,-45.410,-28.809,-46.387,-10.742,0.000
1728630723.868,-53.711,-28.320,-48.828,-36.133,0.000
1728630723.872,-41.504,-31.738,-39.551,-50.781,0.000
1728630723.876,-40.039,-46.875,-39.062,-52.734,0.000
1728630723.880,-55.176,-53.223,-37.598,-36.133,0.000
1728630723.884,-35.645,-39.551,-31.738,-5.859,0.000
1728630723.888,-39.551,-35.156,-41.016,-6.836,0.000
1728630723.892,-36.621,-34.668,-54.688,-32.227,0.000
1728630723.896,-32.715,-35.645,-49.316,-44.922,0.000
1728630723.900,-48.340,-31.250,-35.645,-25.879,0.000
1728630723.903,-35.156,-24.902,-39.551,5.859,0.000
1728630723.907,-27.344,-39.062,-52.734,-17.578,0.000
1728630723.911,-20.020,-61.523,-54.199,-49.316,0.000
1728630723.915,-28.809,-51.270,-48.828,-45.898,0.000
1728630723.919,-53.223,-50.293,-48.828,-41.016,0.000
1728630723.923,-38.086,-58.594,-45.898,-17.578,0.000
1728630723.927,-26.855,-42.969,-42.969,-22.949,0.000
1728630723.931,-29.785,-32.715,-39.551,-50.781,0.000
1728630723.935,-27.832,-21.484,-33.203,-52.734,0.000
1728630723.939,-30.762,-22.949,-41.992,-29.785,0.000
1728630723.942,-20.020,-37.598,-42.480,0.977,0.000
1728630723.946,-30.762,-38.086,-39.551,-21.973,0.000
1728630723.950,-48.828,-39.062,-59.082,-49.316,0.000
1728630723.954,-34.180,-41.992,-63.965,-57.129,0.000
1728630723.958,-34.180,-53.711,-55.664,-50.781,0.000
1728630723.962,-36.621,-52.734,-48.340,-23.926,0.000
1728630723.966,-34.180,-27.344,-41.504,-28.809,0.000
1728630723.970,-36.133,-34.180,-43.457,-56.641,0.000
1728630723.974,-39.062,-60.547,-56.641,-49.316,0.000
1728630723.978,-64.453,-50.293,-64.941,-46.387,0.000
1728630723.982,-66.406,-25.391,-53.223,-38.086,0.000
1728630723.985,-52.246,-23.438,-50.293,-15.137,0.000
1728630723.989,-48.340,-29.785,-52.246,-43.945,0.000
1728630723.993,-41.992,-35.156,-46.387,-65.918,0.000
1728630723.997,-44.922,-43.945,-40.527,-48.828,0.000
1728630724.001,-32.227,-53.711,-30.273,-20.996,0.000
1728630724.005,-22.461,-55.176,-26.855,-14.160,0.000
1728630724.009,-34.668,-63.477,-36.133,-41.992,0.000
1728630724.013,-33.691,-61.523,-44.922,-43.945,0.000
1728630724.017,-53.223,-40.527,-50.293,-32.715,0.000
1728630724.021,-50.293,-41.504,-47.852,-22.949,0.000
1728630724.025,-30.273,-45.898,-46.875,-8.789,0.000
1728630724.028,-33.691,-42.969,-57.129,-35.156,0.000
1728630724.032,-27.344,-43.457,-54.199,-51.758,0.000
1728630724.036,-38.086,-40.039,-43.457,-44.434,0.000
1728630724.040,-43.945,-45.410,-41.016,-24.902,0.000
1728630724.044,-16.113,-47.852,-39.551,-6.836,0.000
1728630724.048,-19.043,-34.668,-47.852,-34.668,0.000
1728630724.052,-32.227,-33.691,-47.363,-66.406,0.000
1728630724.056,-24.902,-63.965,-39.551,-56.152,0.000
1728630724.060,-23.438,-71.777,-36.133,-19.531,0.000
1728630724.064,-11.719,-43.945,-35.645,6.836,0.000
1728630724.067,-24.902,-42.969,-48.828,-9.766,0.000
1728630724.071,-54.688,-44.434,-67.383,-59.570,0.000
1728630724.075,-42.969,-34.668,-65.918,-70.801,0.000
1728630724.079,-15.137,-33.203,-48.828,-46.387,0.000
1728630724.083,-0.977,-35.645,-45.410,-16.113,0.000
1728630724.087,-11.230,-27.832,-47.852,-21.484,0.000
1728630724.091,-20.508,-31.250,-49.316,-53.223,0.000
1728630724.095,-28.809,-54.688,-54.199,-61.035,0.000
1728630724.099,-52.246,-58.105,-55.664,-52.734,0.000
1728630724.103,-42.969,-46.387,-47.852,-27.344,0.000
1728630724.107,-36.133,-50.293,-54.199,-28.320,0.000
1728630724.110,-34.668,-54.688,-61.035,-57.617,0.000
1728630724.114,-30.762,-50.781,-55.664,-60.059,0.000
1728630724.118,-23.926,-36.133,-48.340,-36.621,0.000
1728630724.122,-7.812,-26.367,-38.086,-3.906,0.000
1728630724.126,-39.551,-44.434,-42.480,-22.949,0.000
1728630724.130,-58.105,-56.152,-57.617,-63.965,0.000
1728630724.134,-40.039,-55.664,-65.430,-80.078,0.000
1728630724.138,-51.758,-48.340,-58.105,-68.848,0.000
1728630724.142,-45.898,-38.574,-43.945,-23.926,0.000
1728630724.146,-29.785,-43.945,-45.898,-22.949,0.000
1728630724.150,-34.668,-50.293,-54.199,-65.430,0.000
1728630724.153,-35.645,-48.828,-50.781,-67.383,0.000
1728630724.157,-40.527,-40.527,-48.828,-52.734,0.000
1728630724.161,-31.738,-36.133,-57.129,-25.879,0.000
1728630724.165,-31.250,-42.969,-63.965,-20.996,0.000
1728630724.169,-50.781,-45.898,-67.871,-57.617,0.000
1728630724.173,-38.086,-46.387,-63.477,-66.895,0.000
1728630724.177,-43.945,-46.387,-52.734,-53.223,0.000
1728630724.181,-47.363,-46.387,-48.828,-23.926,0.000
1728630724.185,-28.809,-44.922,-48.828,-20.996,0.000
1728630724.189,-42.480,-55.664,-53.223,-54.688,0.000
1728630724.192,-43.945,-46.875,-46.387,-47.852,0.000
1728630724.196,-31.250,-31.250,-36.621,-28.809,0.000
1728630724.200,-33.203,-44.922,-34.668,-27.344,0.000
1728630724.204,-32.715,-39.062,-36.133,-19.531,0.000
1728630724.208,-34.668,-34.180,-39.551,-37.598,0.000
1728630724.212,-36.133,-36.133,-48.828,-69.336,0.000
1728630724.216,-56.641,-35.645,-57.129,-80.078,0.000
1728630724.220,-52.246,-38.086,-49.805,-47.363,0.000
1728630724.224,-23.926,-37.109,-42.480,-10.254,0.000
1728630724.228,-32.227,-47.852,-44.922,-39.551,0.000
1728630724.232,-31.250,-47.363,-34.668,-62.988,0.000
1728630724.235,-22.461,-28.320,-23.926,-47.363,0.000
1728630724.239,-33.203,-19.043,-25.391,-21.484,0.000
1728630724.243,-25.391,-22.461,-23.438,0.488,0.000
1728630724.247,-37.598,-33.691,-30.762,-26.855,0.000
1728630724.251,-44.434,-38.086,-43.457,-55.176,0.000
1728630724.255,-43.945,-52.246,-41.504,-53.711,0.000
1728630724.259,-41.992,-48.828,-32.227,-39.551,0.000
1728630724.263,-31.738,-29.785,-30.273,-2.930,0.000
1728630724.267,-38.086,-34.180,-41.504,-10.742,0.000
1728630724.271,-32.715,-30.762,-45.410,-38.574,0.000
1728630724.274,-34.668,-24.414,-42.480,-53.223,0.000
1728630724.278,-44.922,-22.461,-47.852,-47.852,0.000
1728630724.282,-26.855,-26.367,-51.758,-22.461,0.000
1728630724.286,-24.902,-37.109,-59.570,-40.527,0.000
1728630724.290,-43.945,-41.016,-68.359,-60.547,0.000
1728630724.294,-37.109,-39.551,-68.848,-57.129,0.000
1728630724.298,-25.879,-35.645,-64.941,-33.691,0.000
1728630724.302,-27.832,-40.527,-57.129,-3.418,0.000
1728630724.306,-39.062,-38.086,-60.059,-27.832,0.000
1728630724.310,-36.133,-41.504,-78.613,-62.988,0.000
1728630724.314,-19.531,-63.477,-91.309,-60.547,0.000
1728630724.317,-41.504,-58.594,-86.914,-47.852,0.000
1728630724.321,-45.410,-34.180,-62.988,-10.742,0.000
1728630724.325,-37.109,-28.320,-62.500,-7.812,0.000
1728630724.329,-40.527,-37.109,-72.754,-45.410,0.000
1728630724.333,-40.527,-52.246,-72.754,-76.172,0.000
1728630724.337,-44.434,-47.363,-64.453,-69.824,0.000
1728630724.341,-38.574,-42.969,-55.176,-24.414,0.000
1728630724.345,-30.273,-41.016,-59.082,-33.203,0.000
1728630724.349,-24.414,-41.504,-63.477,-57.129,0.000
1728630724.353,-33.691,-52.246,-64.453,-52.734,0.000
1728630724.357,-44.434,-46.875,-64.453,-53.223,0.000
1728630724.360,-30.762,-49.316,-62.988,-15.625,0.000
1728630724.364,-43.457,-62.988,-61.035,-7.324,0.000
1728630724.368,-51.270,-69.336,-66.406,-48.828,0.000
1728630724.372,-26.855,-54.688,-65.918,-55.176,0.000
1728630724.376,-36.621,-37.109,-62.500,-47.852,0.000
1728630724.380,-40.039,-28.320,-65.918,-21.484,0.000
1728630724.384,-23.926,-25.391,-72.754,-9.766,0.000
1728630724.388,-20.020,-33.691,-80.566,-38.574,0.000
1728630724.392,-11.719,-36.133,-83.496,-51.758,0.000
1728630724.396,-30.273,-30.762,-72.266,-38.574,0.000
1728630724.399,-34.668,-14.648,-59.570,-9.277,0.000
1728630724.403,-18.066,-13.672,-63.965,4.883,0.000
1728630724.407,-41.504,-33.691,-68.848,-29.785,0.000
1728630724.411,-49.316,-40.039,-72.266,-60.547,0.000
1728630724.415,-38.086,-44.434,-68.848,-58.105,0.000
1728630724.419,-42.480,-49.316,-62.012,-21.973,0.000
1728630724.423,-40.527,-49.805,-61.523,-1.953,0.000
1728630724.427,-32.227,-51.758,-59.082,-32.227,0.000
1728630724.431,-25.879,-41.992,-53.711,-48.828,0.000
1728630724.435,-47.363,-38.574,-56.641,-50.781,0.000
1728630724.439,-54.199,-33.691,-55.176,-23.438,0.000
1728630724.442,-24.902,-26.855,-43.945,6.836,0.000
1728630724.446,-25.879,-28.320,-41.992,-12.695,0.000
1728630724.450,-32.715,-30.273,-43.945,-35.645,0.000
1728630724.454,-32.227,-39.551,-46.387,-48.828,0.000
1728630724.458,-41.992,-52.246,-45.898,-44.434,0.000
1728630724.462,-24.414,-66.406,-39.062,-17.090,0.000
1728630724.466,-20.996,-64.941,-35.156,-27.832,0.000
1728630724.470,-22.461,-53.223,-35.645,-53.223,0.000
1728630724.474,-27.832,-52.734,-40.039,-56.641,0.000
1728630724.478,-45.898,-46.387,-38.574,-36.621,0.000
1728630724.482,-27.832,-46.387,-34.668,0.488,0.000
1728630724.485,-43.945,-59.570,-42.480,-14.160,0.000
1728630724.489,-54.688,-55.176,-49.805,-46.875,0.000
1728630724.493,-34.668,-52.246,-53.223,-52.246,0.000
1728630724.497,-51.270,-55.664,-55.176,-36.133,0.000
1728630724.501,-44.434,-43.457,-41.016,-8.301,0.000
1728630724.505,-42.969,-48.340,-35.645,-16.602,0.000
1728630724.509,-50.781,-68.848,-49.316,-47.363,0.000
1728630724.513,-45.410,-57.617,-45.898,-52.734,0.000
1728630724.517,-65.918,-52.734,-34.180,-38.086,0.000
1728630724.521,-51.758,-59.082,-36.133,-18.555,0.000
1728630724.524,-29.297,-54.199,-37.109,-20.508,0.000
1728630724.528,-33.203,-47.363,-39.062,-38.086,0.000
1728630724.532,-29.785,-39.062,-38.086,-42.969,0.000
1728630724.536,-39.551,-43.457,-39.551,-35.156,0.000
1728630724.540,-32.715,-46.875,-40.527,-23.926,0.000
1728630724.544,-34.180,-51.758,-47.363,-39.062,0.000
1728630724.548,-46.875,-53.711,-53.711,-59.570,0.000
1728630724.552,-34.668,-53.711,-51.758,-49.805,0.000
1728630724.556,-46.387,-58.594,-54.688,-38.086,0.000
1728630724.560,-44.434,-61.035,-45.898,-22.461,0.000
1728630724.564,-36.133,-53.223,-35.156,-25.879,0.000
1728630724.567,-40.527,-57.129,-48.340,-51.270,0.000
1728630724.571,-33.203,-68.848,-57.129,-67.871,0.000
1728630724.575,-51.758,-61.523,-51.758,-69.336,0.000
1728630724.579,-51.270,-44.434,-51.270,-35.156,0.000
1728630724.583,-44.434,-33.203,-56.152,-14.160,0.000
1728630724.587,-69.336,-36.621,-62.012,-44.922,0.000
1728630724.591,-48.340,-44.922,-57.129,-60.059,0.000
1728630724.595,-28.320,-41.016,-49.805,-42.969,0.000
1728630724.599,-40.527,-50.293,-55.176,-24.902,0.000
1728630724.603,-35.156,-68.359,-54.199,-21.973,0.000
1728630724.606,-36.621,-60.547,-49.805,-42.480,0.000
1728630724.610,-30.273,-58.105,-56.152,-56.152,0.000
1728630724.614,-33.691,-57.617,-57.617,-54.199,0.000
1728630724.618,-41.504,-56.152,-50.293,-29.785,0.000
1728630724.622,-33.203,-64.941,-47.852,-14.648,0.000
1728630724.626,-41.992,-62.012,-55.176,-30.273,0.000
1728630724.630,-32.227,-53.223,-44.434,-52.734,0.000
1728630724.634,-20.020,-61.035,-34.180,-62.012,0.000
1728630724.638,-46.387,-67.871,-32.227,-35.645,0.000
1728630724.642,-37.109,-55.664,-21.484,-4.883,0.000
1728630724.646,-15.625,-45.898,-15.137,-9.766,0.000
1728630724.649,-31.738,-60.547,-13.672,-39.062,0.000
1728630724.653,-50.293,-81.543,-21.484,-55.176,0.000
1728630724.657,-55.176,-97.168,-31.738,-38.574,0.000
1728630724.661,-37.598,-107.422,-37.109,-13.672,0.000
1728630724.665,-21.973,-90.820,-45.898,-38.086,0.000
1728630724.669,-14.648,-60.059,-44.922,-65.918,0.000
1728630724.673,-19.531,-42.969,-31.738,-34.180,0.000
1728630724.677,-56.152,-60.547,-37.598,-18.066,0.000
1728630724.681,-61.035,-78.125,-47.363,-12.695,0.000
1728630724.685,-37.109,-123.047,-63.965,-14.648,0.000
1728630724.688,-12.695,-178.223,-59.082,-24.414,0.000
1728630724.692,3.418,-154.785,-41.016,-13.672,0.000
1728630724.696,13.184,-102.539,-63.965,9.766,0.000
1728630724.700,49.805,-124.023,-72.754,45.898,0.000
1728630724.704,64.453,-153.809,-67.871,48.828,0.000
1728630724.708,47.852,-89.355,-21.484,45.898,0.000
1728630724.712,13.184,16.602,-60.059,15.625,0.000
1728630724.716,32.715,-59.082,-30.762,30.762,0.000
1728630724.720,52.734,-57.617,152.344,76.172,0.000
1728630724.724,-56.641,-134.277,16.602,-19.043,0.000
1728630724.728,-12.695,-165.039,-65.918,-8.301,0.000
1728630724.731,105.957,-7.324,75.684,67.383,0.000
1728630724.735,161.133,70.801,277.344,160.156,0.000
1728630724.739,120.117,227.051,309.082,179.199,0.000
1728630724.743,-39.551,222.656,175.781,-4.883,0.000
1728630724.747,-97.168,186.523,250.977,-121.094,0.000
1728630724.751,-40.039,98.145,430.664,-75.684,0.000
1728630724.755,37.109,79.102,760.742,21.973,0.000
1728630724.759,73.730,190.918,965.332,78.125,0.000
1728630724.763,90.820,271.484,962.402,81.543,0.000
1728630724.767,96.191,443.359,962.402,64.941,0.000
1728630724.771,167.969,604.004,967.773,127.441,0.000
1728630724.774,226.074,778.809,966.309,198.730,0.000
1728630724.778,235.352,943.848,966.797,232.422,0.000
1728630724.782,255.859,967.285,966.309,241.211,0.000
1728630724.786,279.785,962.891,966.797,216.309,0.000
1728630724.790,315.918,967.285,966.797,214.355,0.000
1728630724.794,297.852,966.309,966.797,227.539,0.000
1728630724.798,272.949,966.797,966.797,247.070,0.000
1728630724.802,296.387,966.797,966.309,287.109,0.000
1728630724.806,287.598,966.797,966.309,278.320,0.000
1728630724.810,289.551,966.797,966.797,244.629,0.000
1728630724.813,297.363,966.309,966.309,239.746,0.000
1728630724.817,288.086,966.797,964.355,258.789,0.000
1728630724.821,294.922,966.797,970.215,279.785,0.000
1728630724.825,272.949,966.309,928.711,253.418,0.000
1728630724.829,260.254,966.797,857.422,205.078,0.000
1728630724.833,255.371,966.797,813.965,192.383,0.000
1728630724.837,228.027,966.797,779.785,211.426,0.000
1728630724.841,224.609,966.797,747.070,222.168,0.000
1728630724.845,209.473,963.379,697.266,186.523,0.000
1728630724.849,199.219,971.191,649.414,151.367,0.000
1728630724.853,193.848,934.082,593.262,147.949,0.000
1728630724.856,158.691,847.168,521.484,148.438,0.000
1728630724.860,153.320,775.391,480.957,150.391,0.000
1728630724.864,140.137,700.684,444.336,113.281,0.000
1728630724.868,109.375,623.047,377.441,67.383,0.000
1728630724.872,98.633,546.875,302.734,54.199,0.000
1728630724.876,71.289,450.684,256.836,59.082,0.000
1728630724.880,58.594,360.840,222.656,81.055,0.000
1728630724.884,44.922,287.109,163.086,72.754,0.000
1728630724.888,24.414,220.703,96.680,37.598,0.000
1728630724.892,16.113,157.715,22.949,6.836,0.000
1728630724.895,-11.230,51.758,-104.492,-5.371,0.000
1728630724.899,-22.949,-35.156,-287.109,-0.488,0.000
1728630724.903,-30.273,-145.020,-461.914,-14.648,0.000
1728630724.907,-51.758,-304.199,-599.609,-44.434,0.000
1728630724.911,-46.875,-443.359,-673.340,-49.316,0.000
1728630724.915,-52.246,-555.176,-709.473,-53.711,0.000
1728630724.919,-77.148,-645.020,-746.582,-48.828,0.000
1728630724.923,-90.332,-709.961,-754.883,-57.129,0.000
1728630724.927,-110.352,-779.297,-745.605,-98.145,0.000
1728630724.931,-114.258,-846.191,-736.328,-102.051,0.000
1728630724.935,-116.211,-884.277,-722.656,-99.121,0.000
1728630724.938,-129.395,-917.969,-721.191,-90.332,0.000
1728630724.942,-118.164,-960.449,-733.398,-73.730,0.000
1728630724.946,-120.117,-988.281,-751.953,-98.145,0.000
1728630724.950,-139.160,-994.629,-758.789,-126.953,0.000
1728630724.954,-158.691,-1000.000,-739.258,-125.488,0.000
1728630724.958,-151.367,-1000.000,-695.801,-86.914,0.000
1728630724.962,-138.672,-998.047,-663.086,-80.078,0.000
1728630724.966,-160.645,-979.980,-659.668,-117.188,0.000
1728630724.970,-159.668,-941.895,-651.367,-142.578,0.000
1728630724.974,-156.250,-905.273,-634.277,-162.109,0.000
1728630724.978,-147.461,-846.191,-614.258,-128.906,0.000
1728630724.981,-139.648,-784.668,-596.191,-103.516,0.000
1728630724.985,-162.109,-764.160,-594.727,-131.836,0.000
1728630724.989,-160.156,-745.117,-600.098,-149.414,0.000
1728630724.993,-162.598,-732.422,-590.332,-149.902,0.000
1728630724.997,-166.016,-711.426,-566.406,-117.188,0.000
1728630725.001,-142.090,-686.035,-523.438,-82.031,0.000
1728630725.005,-141.113,-672.363,-496.582,-116.699,0.000
1728630725.009,-140.137,-650.879,-471.191,-140.625,0.000
1728630725.013,-155.762,-620.117,-455.078,-139.160,0.000
1728630725.017,-165.039,-598.145,-454.590,-128.418,0.000
1728630725.020,-143.066,-581.055,-437.500,-107.910,0.000
1728630725.024,-145.996,-559.082,-414.062,-127.441,0.000
1728630725.028,-139.160,-525.391,-376.953,-154.785,0.000
1728630725.032,-125.000,-504.395,-337.402,-152.344,0.000
1728630725.036,-119.141,-509.277,-312.500,-132.812,0.000
1728630725.040,-104.980,-482.910,-293.457,-99.609,0.000
1728630725.044,-125.000,-426.270,-291.992,-102.051,0.000
1728630725.048,-132.324,-378.906,-287.109,-139.648,0.000
1728630725.052,-121.094,-348.145,-265.625,-145.996,0.000
1728630725.056,-135.742,-328.125,-248.047,-113.281,0.000
1728630725.060,-130.371,-304.688,-242.188,-70.312,0.000
1728630725.063,-112.793,-292.969,-242.676,-80.566,0.000
1728630725.067,-107.422,-277.832,-230.469,-114.258,0.000
1728630725.071,-105.957,-248.047,-216.309,-125.488,0.000
1728630725.075,-111.816,-241.211,-203.613,-104.004,0.000
1728630725.079,-101.074,-250.977,-181.641,-58.105,0.000
1728630725.083,-99.121,-232.422,-175.781,-72.266,0.000
1728630725.087,-117.676,-207.520,-183.594,-108.887,0.000
1728630725.091,-120.117,-199.219,-185.059,-116.699,0.000
1728630725.095,-134.277,-190.430,-164.551,-104.492,0.000
1728630725.099,-135.742,-194.336,-140.137,-77.148,0.000
1728630725.103,-115.234,-189.941,-136.230,-85.938,0.000
1728630725.106,-110.352,-186.035,-132.324,-119.141,0.000
1728630725.110,-102.539,-183.105,-127.930,-124.512,0.000
1728630725.114,-110.840,-154.785,-131.348,-115.723,0.000
1728630725.118,-106.445,-138.672,-136.230,-83.984,0.000
1728630725.122,-84.961,-136.719,-145.508,-71.777,0.000
1728630725.126,-84.473,-135.742,-150.391,-108.887,0.000
1728630725.130,-89.355,-150.391,-142.578,-121.094,0.000
1728630725.134,-110.352,-149.414,-134.277,-101.074,0.000
1728630725.138,-107.422,-126.465,-119.629,-61.523,0.000
1728630725.142,-77.148,-113.770,-111.816,-51.758,0.000
1728630725.145,-83.984,-117.676,-104.980,-87.891,0.000
1728630725.149,-79.102,-128.906,-93.750,-105.957,0.000
1728630725.153,-75.195,-125.488,-95.703,-100.586,0.000
1728630725.157,-65.918,-109.863,-90.820,-75.684,0.000
1728630725.161,-57.129,-99.609,-88.867,-56.641,0.000
1728630725.165,-79.590,-102.051,-100.586,-78.125,0.000
1728630725.169,-73.242,-107.910,-104.004,-90.820,0.000
1728630725.173,-73.242,-112.305,-95.703,-96.191,0.000
1728630725.177,-76.172,-113.281,-83.984,-76.660,0.000
1728630725.181,-61.035,-109.863,-69.336,-48.340,0.000
1728630725.185,-69.336,-99.609,-68.359,-68.848,0.000
1728630725.188,-76.172,-91.309,-71.289,-99.121,0.000
1728630725.192,-82.520,-93.262,-67.383,-109.863,0.000
1728630725.196,-84.473,-94.238,-71.289,-90.332,0.000
1728630725.200,-64.941,-93.750,-81.055,-59.082,0.000
1728630725.204,-64.941,-93.750,-85.938,-66.895,0.000
1728630725.208,-53.711,-97.168,-77.637,-77.148,0.000
1728630725.212,-47.852,-108.398,-71.289,-74.219,0.000
1728630725.216,-75.195,-102.051,-65.918,-64.941,0.000
1728630725.220,-62.988,-89.844,-58.105,-40.527,0.000
1728630725.224,-56.152,-79.102,-54.688,-46.875,0.000
1728630725.228,-64.941,-62.500,-61.523,-67.383,0.000
1728630725.231,-55.664,-57.617,-60.547,-65.918,0.000
1728630725.235,-51.758,-56.152,-50.293,-42.480,0.000
1728630725.239,-37.109,-58.594,-56.641,-28.809,0.000
1728630725.243,-44.434,-65.918,-63.965,-53.711,0.000
1728630725.247,-65.430,-62.500,-66.406,-86.426,0.000
1728630725.251,-65.430,-63.477,-65.430,-92.285,0.000
1728630725.255,-70.312,-51.758,-63.477,-72.754,0.000
1728630725.259,-57.617,-37.598,-59.082,-37.109,0.000
1728630725.263,-52.246,-40.039,-50.293,-26.855,0.000
1728630725.267,-60.547,-41.504,-54.688,-65.918,0.000
1728630725.270,-53.223,-48.340,-62.012,-75.195,0.000
1728630725.274,-68.359,-47.363,-62.012,-61.035,0.000
1728630725.278,-58.105,-37.109,-55.664,-27.832,0.000
1728630725.282,-50.781,-40.039,-55.176,-30.762,0.000
1728630725.286,-52.246,-51.758,-62.988,-75.684,0.000
1728630725.290,-38.574,-53.223,-64.453,-82.520,0.000
1728630725.294,-67.871,-63.965,-71.289,-72.266,0.000
1728630725.298,-75.195,-69.336,-74.707,-45.410,0.000
1728630725.302,-56.641,-58.105,-70.312,-31.738,0.000
1728630725.306,-59.082,-60.547,-66.895,-62.500,0.000
1728630725.310,-54.688,-51.270,-62.500,-87.402,0.000
1728630725.313,-62.988,-58.594,-57.617,-80.566,0.000
1728630725.317,-62.012,-70.312,-52.246,-43.945,0.000
1728630725.321,-38.086,-44.922,-45.410,-18.555,0.000
1728630725.325,-36.621,-25.879,-45.898,-44.434,0.000
1728630725.329,-56.641,-40.039,-38.574,-62.500,0.000
1728630725.333,-76.172,-57.617,-46.875,-54.199,0.000
1728630725.337,-81.543,-56.152,-54.688,-36.133,0.000
1728630725.341,-66.895,-50.293,-44.922,-19.531,0.000
1728630725.345,-60.547,-41.992,-55.176,-43.457,0.000
1728630725.349,-41.992,-33.691,-64.941,-65.430,0.000
1728630725.352,-43.457,-45.898,-54.688,-77.148,0.000
1728630725.356,-50.781,-46.387,-45.898,-59.082,0.000
1728630725.360,-41.504,-36.133,-55.176,-24.902,0.000
1728630725.364,-47.852,-36.621,-56.152,-39.551,0.000
1728630725.368,-40.039,-35.645,-44.922,-63.965,0.000
1728630725.372,-46.875,-33.203,-44.434,-66.406,0.000
1728630725.376,-56.152,-31.250,-36.133,-21.973,0.000
1728630725.380,-38.574,-31.738,-31.250,1.953,0.000
1728630725.384,-46.387,-34.668,-48.828,-41.504,0.000
1728630725.388,-60.059,-37.109,-63.477,-73.730,0.000
1728630725.392,-53.711,-48.828,-66.895,-69.824,0.000
1728630725.395,-46.387,-55.664,-61.523,-38.574,0.000
1728630725.399,-42.480,-46.875,-62.988,-22.949,0.000
1728630725.403,-54.688,-32.715,-62.012,-50.293,0.000
1728630725.407,-49.805,-20.020,-53.711,-66.406,0.000
1728630725.411,-46.387,-19.531,-53.223,-58.594,0.000
1728630725.415,-44.922,-28.320,-50.293,-44.434,0.000
1728630725.419,-16.602,-35.645,-54.688,-21.973,0.000
1728630725.423,-42.969,-41.992,-65.430,-25.391,0.000
1728630725.427,-61.035,-54.199,-61.035,-47.363,0.000
1728630725.431,-46.875,-43.457,-50.781,-53.711,0.000
1728630725.435,-62.500,-26.855,-43.945,-39.551,0.000
1728630725.438,-54.199,-27.832,-45.410,-12.207,0.000
1728630725.442,-43.457,-31.738,-41.504,-12.695,0.000
1728630725.446,-39.062,-27.832,-30.273,-49.805,0.000
1728630725.450,-40.527,-33.203,-35.156,-55.664,0.000
1728630725.454,-65.918,-46.875,-51.270,-44.922,0.000
1728630725.458,-49.805,-44.922,-59.570,-20.996,0.000
1728630725.462,-34.180,-33.691,-53.223,-14.648,0.000
1728630725.466,-36.621,-28.809,-41.992,-46.387,0.000
1728630725.470,-28.809,-37.598,-44.922,-58.594,0.000
1728630725.474,-43.457,-39.551,-51.270,-57.129,0.000
1728630725.477,-41.016,-27.344,-50.781,-26.855,0.000
1728630725.481,-28.320,-26.367,-51.270,-7.324,0.000
1728630725.485,-11.230,-29.785,-47.852,-44.434,0.000
1728630725.489,-13.672,-29.785,-45.410,-72.754,0.000
1728630725.493,-52.246,-44.922,-42.480,-77.637,0.000
1728630725.497,-47.852,-39.062,-41.504,-46.875,0.000
1728630725.501,-36.621,-25.879,-42.480,-28.809,0.000
1728630725.505,-47.363,-32.227,-48.828,-58.594,0.000
1728630725.509,-34.668,-40.527,-50.293,-79.102,0.000
1728630725.513,-43.457,-47.363,-46.387,-72.266,0.000
1728630725.517,-57.129,-44.434,-52.734,-28.320,0.000
1728630725.520,-46.387,-22.949,-43.945,-2.930,0.000
1728630725.524,-51.270,-27.832,-43.457,-45.410,0.000
1728630725.528,-48.340,-45.898,-50.293,-76.660,0.000
1728630725.532,-55.176,-46.387,-45.898,-73.730,0.000
1728630725.536,-51.270,-40.039,-39.062,-38.574,0.000
1728630725.540,-36.133,-42.480,-39.062,-18.555,0.000
1728630725.544,-41.504,-40.527,-43.457,-42.969,0.000
1728630725.548,-36.133,-26.855,-45.898,-68.848,0.000
1728630725.552,-39.062,-38.086,-51.270,-68.848,0.000
1728630725.556,-53.223,-56.641,-52.246,-36.133,0.000
1728630725.559,-41.992,-46.875,-45.898,-10.742,0.000
1728630725.563,-43.945,-38.574,-53.223,-42.480,0.000
1728630725.567,-45.410,-35.645,-55.176,-66.406,0.000
1728630725.571,-44.434,-23.926,-48.828,-53.223,0.000
1728630725.575,-44.434,-25.391,-48.828,-35.156,0.000
1728630725.579,-23.926,-29.297,-44.922,-22.949,0.000
1728630725.583,-38.086,-37.598,-49.316,-39.062,0.000
1728630725.587,-48.340,-45.410,-50.293,-62.500,0.000
1728630725.591,-48.828,-49.805,-49.805,-66.895,0.000
1728630725.595,-51.758,-48.340,-44.922,-45.410,0.000
1728630725.599,-38.086,-41.016,-39.062,-14.648,0.000
1728630725.602,-53.223,-40.039,-52.246,-31.738,0.000
1728630725.606,-52.734,-46.875,-57.129,-61.035,0.000
1728630725.610,-45.898,-40.527,-43.457,-65.430,0.000
1728630725.614,-62.500,-46.875,-48.828,-57.129,0.000
1728630725.618,-46.875,-54.199,-53.711,-24.414,0.000
1728630725.622,-38.086,-46.387,-42.480,-31.250,0.000
1728630725.626,-38.086,-46.875,-33.203,-58.594,0.000
1728630725.630,-28.809,-44.434,-31.250,-54.688,0.000
1728630725.634,-36.621,-41.992,-32.227,-41.992,0.000
1728630725.638,-28.320,-30.762,-28.809,-17.578,0.000
1728630725.641,-8.301,-22.949,-29.785,-21.484,0.000
1728630725.645,-8.301,-40.527,-40.527,-49.316,0.000
1728630725.649,-34.180,-54.199,-45.898,-62.988,0.000
1728630725.653,-61.035,-47.852,-45.410,-54.688,0.000
1728630725.657,-59.570,-45.898,-39.551,-23.926,0.000
1728630725.661,-44.434,-51.758,-37.109,-25.879,0.000
1728630725.665,-40.527,-50.293,-41.992,-50.781,0.000
1728630725.669,-39.062,-56.641,-44.434,-44.922,0.000
1728630725.673,-48.828,-63.477,-44.434,-27.832,0.000
1728630725.677,-41.504,-59.570,-48.340,0.000,0.000
1728630725.681,-15.625,-48.828,-44.434,-12.695,0.000
1728630725.684,-16.113,-37.598,-24.414,-41.992,0.000
1728630725.688,-24.414,-50.781,-24.414,-44.434,0.000
1728630725.692,-41.504,-78.125,-38.086,-56.152,0.000
1728630725.696,-44.922,-72.754,-39.062,-31.738,0.000
1728630725.700,-47.852,-50.781,-51.758,-26.367,0.000
1728630725.704,-65.430,-59.082,-63.477,-85.449,0.000
1728630725.708,-50.293,-59.570,-54.688,-74.219,0.000
1728630725.712,-40.527,-47.363,-49.805,-33.203,0.000
1728630725.716,-32.227,-41.992,-52.246,-15.625,0.000
1728630725.720,-16.602,-43.945,-48.828,-9.277,0.000
1728630725.724,-21.973,-51.758,-47.363,-37.598,0.000
1728630725.727,-24.902,-48.340,-37.598,-54.199,0.000
1728630725.731,-48.828,-47.363,-29.785,-49.316,0.000
1728630725.735,-50.293,-42.969,-30.273,-17.090,0.000
1728630725.739,-29.785,-32.715,-36.133,0.488,0.000
1728630725.743,-38.574,-25.879,-41.992,-24.902,0.000
1728630725.747,-41.016,-35.645,-44.922,-46.387,0.000
1728630725.751,-50.293,-53.223,-52.246,-45.410,0.000
1728630725.755,-54.199,-54.199,-46.387,-21.973,0.000
1728630725.759,-35.645,-47.852,-39.062,-2.441,0.000
1728630725.763,-41.992,-39.551,-40.527,-21.484,0.000
1728630725.766,-43.457,-32.227,-41.992,-31.250,0.000
1728630725.770,-30.762,-41.504,-37.598,-25.879,0.000
1728630725.774,-41.992,-37.109,-30.273,-22.949,0.000
1728630725.778,-35.645,-26.855,-41.016,-11.230,0.000
1728630725.782,-25.879,-41.992,-52.734,-28.809,0.000
1728630725.786,-34.180,-42.480,-57.617,-59.082,0.000
1728630725.790,-45.898,-28.320,-55.176,-57.129,0.000
1728630725.794,-55.664,-40.527,-57.617,-43.945,0.000
1728630725.798,-39.551,-60.059,-61.035,-24.414,0.000
1728630725.802,-32.715,-55.664,-55.176,-32.715,0.000
1728630725.806,-35.645,-47.363,-52.734,-56.641,0.000
1728630725.809,-29.297,-48.340,-46.387,-50.781,0.000
1728630725.813,-43.945,-51.758,-42.969,-36.133,0.000
1728630725.817,-43.945,-55.664,-51.758,-12.207,0.000
1728630725.821,-42.969,-56.641,-53.223,-16.602,0.000
1728630725.825,-43.457,-52.734,-55.664,-54.199,0.000
1728630725.829,-46.875,-47.852,-56.641,-68.359,0.000
1728630725.833,-58.594,-44.922,-48.828,-50.293,0.000
1728630725.837,-53.223,-50.781,-42.969,-14.648,0.000
1728630725.841,-36.133,-50.293,-44.922,-25.391,0.000
1728630725.845,-36.621,-51.270,-47.363,-58.105,0.000
1728630725.849,-36.621,-43.945,-53.223,-62.988,0.000
1728630725.852,-52.246,-29.785,-57.129,-55.176,0.000
1728630725.856,-45.410,-25.879,-47.852,-18.555,0.000
1728630725.860,-31.250,-33.203,-50.293,1.953,0.000
1728630725.864,-50.781,-52.246,-55.176,-45.898,0.000
1728630725.868,-48.828,-58.594,-46.875,-70.801,0.000
1728630725.872,-43.945,-48.340,-42.480,-47.852,0.000
1728630725.876,-44.922,-44.922,-48.828,-15.137,0.000
1728630725.880,-37.598,-50.781,-54.199,-12.207,0.000
1728630725.884,-34.668,-53.711,-56.152,-43.457,0.000
1728630725.888,-13.672,-61.035,-47.363,-44.434,0.000
1728630725.891,-32.715,-59.570,-41.992,-39.062,0.000
1728630725.895,-47.363,-54.199,-38.574,-20.996,0.000
1728630725.899,-42.480,-61.523,-47.363,-29.297,0.000
1728630725.903,-59.570,-62.500,-62.988,-59.082,0.000
1728630725.907,-38.086,-49.805,-49.805,-59.570,0.000
1728630725.911,-46.387,-37.598,-44.434,-52.246,0.000
1728630725.915,-65.918,-32.715,-52.246,-27.344,0.000
1728630725.919,-51.270,-40.527,-55.664,-22.461,0.000
1728630725.923,-50.781,-53.711,-49.316,-52.246,0.000
1728630725.927,-38.574,-58.594,-44.434,-63.965,0.000
1728630725.931,-33.203,-43.457,-46.387,-49.805,0.000
1728630725.934,-40.039,-30.273,-42.480,-20.508,0.000
1728630725.938,-29.297,-34.668,-44.434,-8.301,0.000
1728630725.942,-33.203,-37.598,-50.781,-42.969,0.000
1728630725.946,-33.203,-45.898,-49.805,-66.895,0.000
1728630725.950,-35.645,-43.457,-44.922,-51.270,0.000
1728630725.954,-43.457,-25.879,-47.363,-33.203,0.000
1728630725.958,-25.391,-26.855,-40.039,-22.949,0.000
1728630725.962,-30.762,-37.109,-32.715,-34.668,0.000
1728630725.966,-30.273,-36.621,-38.086,-55.176,0.000
1728630725.970,-29.297,-30.762,-38.574,-63.965,0.000
1728630725.973,-39.551,-33.203,-37.109,-45.410,0.000
1728630725.977,-28.320,-32.227,-39.062,-11.719,0.000
1728630725.981,-25.391,-32.715,-45.410,-24.414,0.000
1728630725.985,-30.762,-47.363,-35.645,-53.223,0.000
1728630725.989,-33.691,-54.199,-27.832,-57.129,0.000
1728630725.993,-34.668,-48.828,-31.738,-47.363,0.000
1728630725.997,-28.809,-36.133,-29.785,-6.836,0.000
1728630726.001,-35.156,-40.039,-31.250,-10.742,0.000
1728630726.005,-30.273,-24.414,-32.715,-53.223,0.000
1728630726.009,-26.367,-7.812,-35.645,-64.941,0.000
1728630726.013,-52.734,-27.344,-43.457,-36.133,0.000
1728630726.016,-42.969,-25.879,-36.621,7.812,0.000
1728630726.020,-26.855,-21.973,-47.852,-3.906,0.000
1728630726.024,-38.574,-29.297,-57.617,-48.340,0.000
1728630726.028,-41.504,-32.227,-51.758,-48.828,0.000
1728630726.032,-38.574,-33.691,-49.316,-33.691,0.000
1728630726.036,-22.461,-32.227,-42.480,-15.625,0.000
1728630726.040,-28.320,-35.645,-49.316,-7.324,0.000
1728630726.044,-35.156,-36.621,-52.734,-35.156,0.000
1728630726.048,-19.043,-23.926,-45.898,-57.617,0.000
1728630726.052,-42.969,-19.043,-43.457,-52.246,0.000
1728630726.056,-44.434,-44.434,-33.691,-13.184,0.000
1728630726.059,-22.949,-51.758,-29.297,-8.789,0.000
1728630726.063,-28.320,-32.715,-33.203,-38.086,0.000
1728630726.067,-43.945,-25.879,-43.457,-37.598,0.000
1728630726.071,-54.688,-22.949,-51.758,-43.457,0.000
1728630726.075,-41.504,-29.297,-43.945,-36.621,0.000
1728630726.079,-35.645,-29.785,-37.598,-24.902,0.000
1728630726.083,-38.574,-40.527,-45.410,-54.688,0.000
1728630726.087,-27.344,-41.016,-46.387,-62.988,0.000
1728630726.091,-43.457,-26.367,-48.828,-62.012,0.000
1728630726.095,-53.223,-20.996,-52.734,-45.898,0.000
1728630726.098,-30.273,-17.578,-51.270,-23.926,0.000
1728630726.102,-32.227,-24.902,-49.805,-31.250,0.000
1728630726.106,-21.484,-25.879,-46.387,-41.504,0.000
1728630726.110,-25.391,-30.273,-52.734,-33.691,0.000
1728630726.114,-42.969,-34.668,-45.410,-17.578,0.000
1728630726.118,-41.016,-36.621,-40.039,-9.766,0.000
1728630726.122,-46.387,-42.969,-38.086,-30.273,0.000
1728630726.126,-32.227,-44.434,-33.691,-43.457,0.000
1728630726.130,-33.203,-33.691,-38.086,-28.320,0.000
1728630726.134,-42.480,-17.578,-36.133,-2.930,0.000
1728630726.138,-21.484,-17.578,-31.738,17.578,0.000
1728630726.141,-28.809,-25.879,-34.180,-28.320,0.000
1728630726.145,-36.133,-40.039,-33.691,-53.711,0.000
1728630726.149,-31.250,-52.246,-30.762,-41.992,0.000
1728630726.153,-24.902,-48.828,-23.926,-22.461,0.000
1728630726.157,-23.926,-34.180,-20.508,0.977,0.000
1728630726.161,-45.898,-22.949,-28.320,-25.391,0.000
1728630726.165,-38.574,-24.902,-28.809,-61.035,0.000
1728630726.169,-29.297,-22.949,-28.320,-57.617,0.000
1728630726.173,-44.434,-21.484,-29.785,-33.691,0.000
1728630726.177,-18.066,-15.625,-20.996,-12.207,0.000
1728630726.181,-18.066,-27.344,-25.879,-20.996,0.000
1728630726.184,-41.016,-41.992,-35.156,-49.805,0.000
1728630726.188,-38.574,-39.062,-39.551,-60.547,0.000
1728630726.192,-32.715,-33.203,-42.480,-41.992,0.000
1728630726.196,-12.207,-22.461,-38.086,-15.137,0.000
1728630726.200,-9.766,-26.367,-39.062,-17.578,0.000
1728630726.204,-20.020,-32.715,-41.992,-54.199,0.000
1728630726.208,-17.090,-27.832,-36.133,-67.871,0.000
1728630726.212,-38.574,-20.508,-32.227,-48.828,0.000
1728630726.216,-47.363,-27.832,-31.738,-2.930,0.000
1728630726.220,-50.781,-46.875,-42.480,-6.836,0.000
1728630726.223,-44.922,-47.852,-43.945,-51.758,0.000
1728630726.227,-27.832,-34.668,-33.203,-66.406,0.000
1728630726.231,-43.457,-36.621,-33.203,-54.199,0.000
1728630726.235,-38.574,-49.316,-33.203,-9.766,0.000
1728630726.239,-33.691,-37.598,-19.531,-5.859,0.000
1728630726.243,-50.293,-28.809,-19.531,-52.734,0.000
1728630726.247,-43.457,-41.504,-30.762,-66.406,0.000
1728630726.251,-48.828,-39.062,-26.855,-58.105,0.000
1728630726.255,-48.828,-25.391,-24.902,-33.691,0.000
1728630726.259,-42.969,-29.785,-29.785,-21.484,0.000
1728630726.263,-50.781,-38.574,-44.922,-51.758,0.000
1728630726.266,-37.109,-39.062,-48.828,-66.895,0.000
1728630726.270,-33.691,-46.387,-42.969,-51.758,0.000
1728630726.274,-26.855,-45.898,-38.574,-19.043,0.000
1728630726.278,-19.043,-38.086,-36.133,-4.395,0.000
1728630726.282,-39.551,-37.598,-34.180,-24.414,0.000
1728630726.286,-46.387,-32.715,-36.621,-43.945,0.000
1728630726.290,-55.176,-23.438,-46.387,-54.199,0.000
1728630726.294,-58.105,-23.438,-53.223,-42.480,0.000
1728630726.298,-36.621,-31.250,-49.316,-22.461,0.000
1728630726.302,-27.832,-40.527,-50.293,-40.527,0.000
1728630726.306,-16.113,-32.715,-57.617,-56.152,0.000
1728630726.309,-32.715,-27.832,-59.082,-43.945,0.000
1728630726.313,-58.105,-43.457,-42.969,-19.043,0.000
1728630726.317,-41.992,-40.527,-38.086,0.000,0.000
1728630726.321,-44.922,-29.297,-44.922,-20.996,0.000
1728630726.325,-44.434,-35.645,-39.551,-46.387,0.000
1728630726.329,-39.062,-43.945,-35.645,-48.828,0.000
1728630726.333,-34.180,-37.598,-33.691,-34.180,0.000
1728630726.337,-20.508,-30.273,-37.109,-4.883,0.000
1728630726.341,-40.039,-43.457,-45.410,-17.578,0.000
1728630726.345,-49.316,-52.246,-38.574,-43.457,0.000
1728630726.348,-36.133,-38.086,-32.715,-44.922,0.000
1728630726.352,-44.434,-30.273,-36.621,-35.645,0.000
1728630726.356,-40.527,-42.969,-35.156,-18.555,0.000
1728630726.360,-32.715,-43.457,-38.574,-35.645,0.000
1728630726.364,-35.156,-41.016,-48.828,-65.430,0.000
1728630726.368,-35.156,-34.668,-51.758,-61.523,0.000
1728630726.372,-39.551,-33.203,-44.922,-35.156,0.000
1728630726.376,-32.715,-50.293,-44.922,-9.277,0.000
1728630726.380,-33.203,-47.363,-41.992,-13.184,0.000
1728630726.384,-37.598,-38.086,-34.668,-38.086,0.000
1728630726.388,-41.992,-40.039,-39.062,-43.945,0.000
1728630726.391,-56.152,-36.621,-48.828,-51.270,0.000
1728630726.395,-33.691,-44.922,-52.734,-28.320,0.000
1728630726.399,-21.973,-47.363,-55.176,-16.602,0.000
1728630726.403,-25.391,-27.344,-55.664,-50.781,0.000
1728630726.407,-22.461,-32.227,-44.922,-34.668,0.000
1728630726.411,-37.598,-43.945,-36.133,-15.625,0.000
1728630726.415,-32.715,-28.320,-33.203,-10.254,0.000
1728630726.419,-27.344,-31.738,-40.039,-8.301,0.000
1728630726.423,-21.484,-43.945,-47.852,-45.410,0.000
1728630726.427,-20.020,-41.016,-59.570,-60.059,0.000
1728630726.430,-55.176,-50.781,-66.895,-46.875,0.000
1728630726.434,-50.781,-55.664,-51.758,-21.973,0.000
1728630726.438,-37.598,-46.875,-45.898,-21.484,0.000
1728630726.442,-56.641,-48.340,-44.922,-51.758,0.000
1728630726.446,-41.992,-43.457,-40.039,-56.152,0.000
1728630726.450,-47.852,-44.434,-41.992,-52.734,0.000
1728630726.454,-48.828,-41.992,-40.527,-27.832,0.000
1728630726.458,-30.762,-35.156,-38.086,4.395,0.000
1728630726.462,-35.645,-32.227,-40.039,-23.438,0.000
1728630726.466,-36.133,-22.949,-38.086,-41.504,0.000
1728630726.470,-41.992,-32.715,-45.898,-34.668,0.000
1728630726.473,-46.875,-55.176,-52.734,-17.090,0.000
1728630726.477,-53.711,-51.270,-57.617,-7.812,0.000
1728630726.481,-65.918,-40.039,-65.430,-31.250,0.000
1728630726.485,-49.805,-54.688,-51.270,-48.828,0.000
1728630726.489,-42.969,-59.570,-46.387,-47.852,0.000
1728630726.493,-34.668,-46.875,-52.246,-25.879,0.000
1728630726.497,-21.973,-52.734,-45.898,-0.977,0.000
1728630726.501,-42.969,-59.570,-44.434,-12.207,0.000
1728630726.505,-37.109,-44.922,-44.434,-37.109,0.000
1728630726.509,-26.367,-43.457,-43.945,-60.547,0.000
1728630726.513,-44.922,-55.664,-48.828,-58.594,0.000
1728630726.516,-39.062,-59.570,-44.434,-25.391,0.000
1728630726.520,-35.645,-69.336,-48.340,-51.758,0.000
1728630726.524,-35.156,-66.406,-49.316,-73.730,0.000
1728630726.528,-34.668,-54.688,-42.969,-62.988,0.000
1728630726.532,-35.645,-62.500,-41.016,-32.227,0.000
1728630726.536,-21.973,-62.988,-37.109,3.906,0.000
1728630726.540,-27.344,-61.035,-44.434,-30.762,0.000
1728630726.544,-35.645,-65.430,-51.758,-62.012,0.000
1728630726.548,-36.133,-55.176,-43.945,-50.293,0.000
1728630726.552,-42.480,-37.109,-33.203,-24.414,0.000
1728630726.555,-28.809,-31.738,-28.320,4.395,0.000
1728630726.559,-18.555,-37.109,-31.250,-14.160,0.000
1728630726.563,-15.625,-48.340,-33.203,-32.715,0.000
1728630726.567,-21.973,-51.758,-35.156,-37.109,0.000
1728630726.571,-32.715,-39.551,-41.504,-48.828,0.000
1728630726.575,-17.090,-28.809,-44.434,-6.348,0.000
1728630726.579,-16.113,-37.109,-48.340,-7.812,0.000
1728630726.583,-32.715,-62.500,-59.082,-54.199,0.000
1728630726.587,-31.738,-66.406,-56.641,-43.457,0.000
1728630726.591,-34.180,-38.086,-48.828,-18.555,0.000
1728630726.595,-34.668,-20.020,-38.086,4.395,0.000
1728630726.598,-39.551,-26.367,-28.809,4.883,0.000
1728630726.602,-37.109,-36.133,-37.109,-28.809,0.000
1728630726.606,-21.484,-33.203,-51.758,-55.664,0.000
1728630726.610,-36.133,-35.156,-53.223,-47.363,0.000
1728630726.614,-34.668,-41.504,-37.109,-8.301,0.000
1728630726.618,-19.043,-39.551,-33.691,0.000,0.000
1728630726.622,-31.250,-37.109,-41.992,-37.598,0.000
1728630726.626,-30.273,-38.086,-33.691,-42.480,0.000
1728630726.630,-25.879,-32.715,-31.738,-32.715,0.000
1728630726.634,-32.715,-27.344,-30.762,-5.371,0.000
1728630726.637,-35.156,-30.273,-28.320,16.113,0.000
1728630726.641,-35.156,-45.898,-41.016,-27.344,0.000
1728630726.645,-19.531,-62.500,-47.852,-61.523,0.000
1728630726.649,-23.438,-53.711,-48.340,-58.594,0.000
1728630726.653,-40.039,-40.527,-40.039,-30.273,0.000
1728630726.657,-42.480,-53.223,-38.086,-15.137,0.000
1728630726.661,-53.223,-62.988,-45.410,-44.434,0.000
1728630726.665,-39.062,-58.594,-43.945,-60.547,0.000
1728630726.669,-37.598,-58.105,-39.062,-58.105,0.000
1728630726.673,-40.039,-42.480,-36.133,-30.762,0.000
1728630726.677,-18.555,-36.133,-37.598,-13.672,0.000
1728630726.680,-34.180,-43.945,-40.527,-28.320,0.000
1728630726.684,-43.945,-41.504,-34.668,-44.434,0.000
1728630726.688,-51.270,-45.410,-30.762,-44.922,0.000
1728630726.692,-58.594,-52.246,-30.762,-21.484,0.000
1728630726.696,-35.156,-44.922,-28.809,0.488,0.000
1728630726.700,-26.367,-50.293,-45.898,-19.043,0.000
1728630726.704,-26.367,-58.105,-57.129,-49.316,0.000
1728630726.708,-39.551,-52.246,-52.246,-60.547,0.000
1728630726.712,-52.734,-51.270,-42.480,-36.133,0.000
1728630726.716,-30.762,-53.223,-41.992,0.488,0.000
1728630726.719,-24.414,-51.758,-48.828,-27.344,0.000
1728630726.723,-42.969,-49.316,-53.223,-54.199,0.000
1728630726.727,-53.711,-46.387,-53.711,-51.270,0.000
1728630726.731,-33.691,-60.547,-44.434,-37.598,0.000
1728630726.735,-20.020,-64.941,-34.668,-7.324,0.000
1728630726.739,-43.945,-54.199,-38.574,-16.602,0.000
1728630726.743,-45.410,-59.082,-41.992,-51.758,0.000
1728630726.747,-38.574,-72.266,-41.992,-60.059,0.000
1728630726.751,-43.945,-73.730,-41.016,-42.480,0.000
1728630726.755,-34.180,-55.664,-41.016,-12.695,0.000
1728630726.759,-34.180,-49.316,-50.781,-21.484,0.000
1728630726.762,-37.598,-49.805,-60.059,-49.316,0.000
1728630726.766,-41.992,-47.363,-59.570,-51.270,0.000
1728630726.770,-50.781,-53.223,-60.547,-48.340,0.000
1728630726.774,-41.504,-51.758,-54.688,-31.250,0.000
1728630726.778,-34.180,-50.293,-57.617,-34.668,0.000
1728630726.782,-37.109,-57.617,-60.059,-62.012,0.000
1728630726.786,-39.062,-59.570,-53.711,-64.453,0.000
1728630726.790,-48.340,-47.363,-55.176,-59.570,0.000
1728630726.794,-41.992,-43.945,-55.176,-39.062,0.000
1728630726.798,-34.668,-44.922,-59.570,-36.133,0.000
1728630726.802,-40.039,-39.062,-65.918,-57.129,0.000
1728630726.805,-29.785,-36.133,-58.594,-62.500,0.000
1728630726.809,-39.551,-33.691,-48.340,-59.570,0.000
1728630726.813,-55.176,-32.715,-44.434,-36.133,0.000
1728630726.817,-49.805,-38.574,-49.805,-26.855,0.000
1728630726.821,-39.551,-39.062,-46.387,-49.316,0.000
1728630726.825,-30.273,-26.367,-36.133,-46.387,0.000
1728630726.829,-47.852,-24.414,-40.527,-47.363,0.000
1728630726.833,-43.457,-30.762,-42.969,-29.785,0.000
1728630726.837,-22.949,-41.992,-41.504,-6.836,0.000
1728630726.841,-22.949,-41.016,-42.969,-29.297,0.000
1728630726.844,-20.508,-32.715,-42.969,-49.805,0.000
1728630726.848,-35.156,-33.691,-49.316,-51.758,0.000
1728630726.852,-43.457,-31.738,-46.387,-24.902,0.000
1728630726.856,-37.598,-32.715,-35.156,-5.371,0.000
1728630726.860,-31.250,-18.066,-28.809,-23.926,0.000
1728630726.864,-13.672,-6.836,-32.227,-51.270,0.000
1728630726.868,-32.227,-20.020,-45.410,-57.129,0.000
1728630726.872,-51.270,-32.227,-45.898,-28.809,0.000
1728630726.876,-28.320,-28.320,-47.363,-11.719,0.000
1728630726.880,-25.879,-32.715,-49.805,-37.109,0.000
1728630726.884,-18.555,-36.133,-36.133,-41.992,0.000
1728630726.887,-19.043,-44.922,-30.762,-22.461,0.000
1728630726.891,-32.715,-59.570,-41.992,-18.555,0.000
1728630726.895,-17.578,-38.086,-48.340,-4.395,0.000
1728630726.899,-11.719,-23.926,-50.293,-21.973,0.000
1728630726.903,-0.488,-19.043,-47.363,-50.781,0.000
1728630726.907,-9.766,-11.230,-47.363,-50.781,0.000
1728630726.911,-22.949,-26.855,-48.828,-36.621,0.000
1728630726.915,-10.742,-36.133,-45.898,-12.207,0.000
1728630726.919,-32.227,-34.668,-51.270,-14.648,0.000
1728630726.923,-41.992,-47.363,-55.664,-34.180,0.000
1728630726.927,-38.086,-55.664,-44.922,-49.805,0.000
1728630726.930,-51.270,-53.711,-28.320,-40.039,0.000
1728630726.934,-40.527,-54.688,-33.691,-9.277,0.000
1728630726.938,-41.016,-44.922,-48.340,-13.184,0.000
1728630726.942,-43.945,-30.273,-45.898,-42.969,0.000
1728630726.946,-36.621,-32.227,-33.691,-56.152,0.000
1728630726.950,-52.734,-36.621,-36.621,-39.062,0.000
1728630726.954,-52.734,-31.738,-38.574,-15.137,0.000
1728630726.958,-41.992,-26.855,-37.109,-20.996,0.000
1728630726.962,-34.180,-25.391,-42.480,-49.316,0.000
1728630726.966,-37.598,-20.508,-37.109,-65.918,0.000
1728630726.969,-45.898,-19.531,-37.109,-34.668,0.000
1728630726.973,-27.832,-44.434,-31.738,1.953,0.000
1728630726.977,-20.020,-62.012,-33.691,-10.742,0.000
1728630726.981,-33.691,-42.969,-49.316,-51.758,0.000
1728630726.985,-24.414,-24.414,-54.688,-54.688,0.000
1728630726.989,-28.809,-23.926,-47.852,-36.621,0.000
1728630726.993,-40.527,-26.855,-37.598,-19.531,0.000
1728630726.997,-41.016,-32.715,-40.039,-12.695,0.000
1728630727.001,-43.457,-30.762,-39.062,-33.691,0.000
1728630727.005,-32.715,-27.832,-36.621,-38.086,0.000
1728630727.009,-40.039,-31.250,-37.598,-46.387,0.000
1728630727.012,-45.898,-47.852,-33.691,-37.109,0.000
1728630727.016,-26.855,-63.965,-37.598,-17.090,0.000
1728630727.020,-11.719,-83.984,-46.875,-33.203,0.000
1728630727.024,-9.766,-113.770,-43.457,-36.621,0.000
1728630727.028,-16.113,-62.500,-37.598,-20.020,0.000
1728630727.032,-21.484,-40.527,-51.758,-4.883,0.000
1728630727.036,-1.953,-127.441,-57.617,12.207,0.000
1728630727.040,31.738,-106.934,-76.172,6.836,0.000
1728630727.044,63.965,-45.410,-43.457,18.555,0.000
1728630727.048,27.344,-121.582,-30.273,37.598,0.000
1728630727.051,30.273,-37.598,-12.695,52.734,0.000
1728630727.055,77.637,-99.609,-5.371,61.523,0.000
1728630727.059,125.977,-305.176,-44.434,90.820,0.000
1728630727.063,178.711,-66.895,92.773,152.344,0.000
1728630727.067,109.375,-142.090,-12.695,90.332,0.000
1728630727.071,219.727,-127.441,-102.539,204.590,0.000
1728630727.075,80.078,106.934,52.734,103.027,0.000
1728630727.079,-56.152,-16.602,23.438,-67.871,0.000
1728630727.083,92.285,45.410,-31.738,62.988,0.000
1728630727.087,23.438,251.465,61.035,29.297,0.000
1728630727.091,-82.520,297.363,257.324,-72.754,0.000
1728630727.094,-72.754,100.586,596.191,-60.547,0.000
1728630727.098,53.223,341.797,894.531,45.898,0.000
1728630727.102,101.074,598.145,974.121,77.148,0.000
1728630727.106,135.742,751.465,957.520,130.371,0.000
1728630727.110,183.594,972.168,968.262,185.547,0.000
1728630727.114,196.289,964.844,966.797,194.336,0.000
1728630727.118,245.117,961.914,966.797,225.098,0.000
1728630727.122,309.570,967.773,966.797,265.137,0.000
1728630727.126,365.723,966.309,966.309,300.293,0.000
1728630727.130,377.930,966.309,966.309,319.336,0.000
1728630727.134,413.574,966.797,966.309,357.910,0.000
1728630727.137,432.617,966.797,966.309,359.863,0.000
1728630727.141,430.176,966.797,966.797,336.426,0.000
1728630727.145,428.711,966.797,966.797,326.660,0.000
1728630727.149,404.785,966.797,966.797,326.660,0.000
1728630727.153,402.832,966.797,966.309,362.793,0.000
1728630727.157,404.785,966.309,966.797,347.168,0.000
1728630727.161,403.320,966.797,966.309,290.527,0.000
1728630727.165,383.789,966.797,966.797,277.344,0.000
1728630727.169,335.449,966.309,966.309,273.926,0.000
1728630727.173,324.707,966.309,966.797,284.180,0.000
1728630727.176,334.961,966.797,966.797,272.949,0.000
1728630727.180,330.078,966.797,966.797,229.492,0.000
1728630727.184,315.430,966.797,966.797,208.496,0.000
1728630727.188,276.855,967.285,967.285,206.055,0.000
1728630727.192,251.465,963.379,964.844,214.844,0.000
1728630727.196,230.957,969.727,964.355,193.359,0.000
1728630727.200,207.031,937.988,958.984,145.508,0.000
1728630727.204,204.590,826.660,840.820,133.301,0.000
1728630727.208,169.922,713.379,645.020,125.488,0.000
1728630727.212,137.207,599.609,491.211,136.719,0.000
1728630727.216,117.188,471.680,345.215,120.605,0.000
1728630727.219,89.844,363.281,218.750,59.570,0.000
1728630727.223,65.918,242.188,81.055,24.414,0.000
1728630727.227,15.137,85.449,-121.582,1.465,0.000
1728630727.231,-10.254,-79.102,-314.941,2.930,0.000
1728630727.235,-7.324,-238.770,-442.871,9.766,0.000
1728630727.239,-45.410,-431.152,-545.898,-34.180,0.000
1728630727.243,-66.895,-657.715,-626.465,-78.125,0.000
1728630727.247,-90.332,-850.098,-701.660,-90.332,0.000
1728630727.251,-121.582,-970.703,-796.387,-72.266,0.000
1728630727.255,-133.789,-1000.000,-930.664,-75.195,0.000
1728630727.259,-156.250,-997.559,-1000.000,-117.188,0.000
1728630727.262,-156.250,-1000.000,-997.070,-125.488,0.000
1728630727.266,-156.738,-1000.000,-999.512,-124.512,0.000
1728630727.270,-161.133,-1000.000,-1000.000,-97.656,0.000
1728630727.274,-145.020,-1000.000,-1000.000,-79.102,0.000
1728630727.278,-159.668,-1000.000,-1000.000,-121.582,0.000
1728630727.282,-188.477,-1000.000,-1000.000,-161.621,0.000
1728630727.286,-195.801,-1000.000,-1000.000,-161.621,0.000
1728630727.290,-206.543,-1000.000,-1000.000,-136.719,0.000
1728630727.294,-187.012,-1000.000,-999.023,-107.910,0.000
1728630727.298,-176.758,-1000.000,-993.652,-122.559,0.000
1728630727.301,-195.801,-1000.000,-975.098,-154.297,0.000
1728630727.305,-206.543,-998.535,-937.012,-153.320,0.000
1728630727.309,-212.891,-1000.000,-895.996,-136.719,0.000
1728630727.313,-200.195,-962.891,-855.469,-110.840,0.000
1728630727.317,-210.938,-895.996,-812.988,-130.859,0.000
1728630727.321,-229.492,-867.676,-773.438,-180.176,0.000
1728630727.325,-217.285,-827.637,-744.141,-188.477,0.000
1728630727.329,-211.914,-769.531,-717.285,-168.457,0.000
1728630727.333,-205.078,-752.930,-698.730,-144.043,0.000
