timestamps,TP9,AF7,AF8,TP10,Right AUX
1728626031.099,-17.578,-19.531,-72.754,-43.945,0.000
1728626031.103,-16.113,-21.973,-68.359,-52.246,0.000
1728626031.107,-35.645,-22.461,-57.617,-26.367,0.000
1728626031.111,-29.297,-15.137,-57.617,-2.930,0.000
1728626031.115,-32.715,-19.531,-63.965,-17.578,0.000
1728626031.119,-25.391,-18.066,-61.523,-41.504,0.000
1728626031.123,-21.484,-18.555,-58.105,-49.316,0.000
1728626031.127,-41.016,-32.715,-53.711,-28.809,0.000
1728626031.131,-30.273,-29.297,-33.203,2.441,0.000
1728626031.135,-26.367,-26.367,-19.043,-4.883,0.000
1728626031.138,-30.762,-28.320,-24.902,-40.039,0.000
1728626031.142,-15.625,-27.832,-29.785,-49.316,0.000
1728626031.146,-35.156,-28.320,-17.090,-28.320,0.000
1728626031.150,-26.855,-17.578,0.977,5.859,0.000
1728626031.154,-19.043,-10.254,-11.230,-2.441,0.000
1728626031.158,-42.969,-28.809,-30.273,-51.758,0.000
1728626031.162,-39.551,-41.504,-32.715,-55.664,0.000
1728626031.166,-48.828,-34.180,-28.320,-40.039,0.000
1728626031.170,-45.410,-32.227,-25.879,-8.301,0.000
1728626031.174,-32.715,-36.621,-34.668,3.906,0.000
1728626031.178,-40.039,-33.203,-40.527,-45.410,0.000
1728626031.182,-34.668,-30.273,-37.109,-73.730,0.000
1728626031.185,-43.945,-37.598,-29.785,-58.105,0.000
1728626031.189,-51.270,-41.992,-22.949,-24.414,0.000
1728626031.193,-45.410,-39.062,-20.020,-17.090,0.000
1728626031.197,-44.922,-39.551,-19.043,-55.664,0.000
1728626031.201,-24.902,-40.527,-20.996,-69.824,0.000
1728626031.205,-29.297,-35.645,-29.785,-53.223,0.000
1728626031.209,-44.922,-34.180,-46.387,-28.320,0.000
1728626031.213,-36.133,-44.922,-59.570,-8.301,0.000
1728626031.217,-39.062,-49.316,-75.195,-32.715,0.000
1728626031.221,-33.691,-35.156,-80.078,-60.059,0.000
1728626031.225,-21.484,-19.043,-74.707,-50.293,0.000
1728626031.228,-20.996,-17.090,-76.172,-16.113,0.000
1728626031.232,-12.695,-12.207,-75.195,15.625,0.000
1728626031.236,-22.461,-9.766,-73.242,-25.879,0.000
1728626031.240,-25.391,-19.043,-81.055,-61.035,0.000
1728626031.244,-17.578,-21.973,-82.520,-54.199,0.000
1728626031.248,-39.551,-20.020,-75.684,-44.434,0.000
1728626031.252,-43.945,-17.578,-70.312,-15.137,0.000
1728626031.256,-42.480,-17.578,-68.848,-34.180,0.000
1728626031.259,-39.062,-21.484,-62.012,-61.523,0.000
1728626031.263,-35.156,-18.555,-54.199,-54.199,0.000
1728626031.267,-54.199,-19.531,-66.895,-43.457,0.000
1728626031.271,-48.340,-22.949,-59.082,-15.625,0.000
1728626031.275,-42.969,-32.227,-29.297,-36.133,0.000
1728626031.279,-38.086,-41.016,-21.484,-76.660,0.000
1728626031.283,-31.738,-33.691,-23.438,-77.637,0.000
1728626031.287,-57.617,-26.855,-12.207,-53.223,0.000
1728626031.291,-53.223,-23.438,5.371,-7.324,0.000
1728626031.295,-41.992,-24.414,2.441,-17.090,0.000
1728626031.299,-43.457,-31.250,-9.277,-62.012,0.000
1728626031.303,-27.344,-36.621,-4.883,-71.289,0.000
1728626031.307,-44.922,-40.039,-9.766,-60.059,0.000
1728626031.311,-55.176,-42.480,-12.695,-26.855,0.000
1728626031.315,-51.270,-39.062,-5.371,-18.066,0.000
1728626031.319,-45.410,-41.016,-6.348,-62.988,0.000
1728626031.322,-23.438,-43.945,-7.324,-76.660,0.000
1728626031.326,-52.246,-41.504,-10.254,-60.547,0.000
1728626031.330,-53.711,-43.945,-19.531,-33.203,0.000
1728626031.335,-35.156,-41.504,-22.461,-29.297,0.000
1728626031.338,-44.922,-37.109,-22.949,-60.547,0.000
1728626031.342,-25.879,-30.762,-17.090,-66.895,0.000
1728626031.346,-27.344,-26.855,-13.184,-54.199,0.000
1728626031.350,-44.434,-31.250,-18.066,-28.320,0.000
1728626031.354,-48.340,-46.875,-27.832,-22.949,0.000
1728626031.358,-48.828,-42.969,-29.297,-52.734,0.000
1728626031.362,-23.926,-39.551,-20.020,-66.895,0.000
1728626031.366,-25.391,-47.363,-20.020,-53.711,0.000
1728626031.370,-40.527,-38.574,-24.902,-17.090,0.000
1728626031.374,-28.809,-27.344,-23.926,4.883,0.000
1728626031.378,-35.156,-26.367,-34.180,-31.250,0.000
1728626031.382,-26.367,-27.344,0.000,-54.688,0.000
1728626031.386,-20.020,-20.508,0.000,-49.805,0.000
1728626031.390,-27.344,-19.531,0.000,-22.949,0.000
1728626031.393,-20.508,-25.879,0.000,9.277,0.000
1728626031.397,-34.180,-29.297,0.000,-20.996,0.000
1728626031.401,-26.367,-28.320,0.000,-49.316,0.000
1728626031.405,-20.020,-26.367,0.000,-42.969,0.000
1728626031.409,-34.668,-27.344,0.000,-20.996,0.000
1728626031.413,-28.320,-29.297,0.000,7.812,0.000
1728626031.417,-37.109,-24.902,0.000,-26.855,0.000
1728626031.421,-35.156,-26.367,0.000,-55.664,0.000
1728626031.425,-28.809,-38.086,0.000,-55.176,0.000
1728626031.429,-52.246,-40.039,-34.668,-45.898,0.000
1728626031.433,-52.734,-24.902,-35.156,-10.742,0.000
1728626031.437,-41.016,-28.809,-41.992,-19.531,0.000
1728626031.440,-34.180,-38.574,-41.504,-52.734,0.000
1728626031.444,-20.996,-40.527,-36.621,-55.664,0.000
1728626031.448,-42.480,-42.480,-41.504,-41.016,0.000
1728626031.452,-48.340,-41.992,-38.574,-11.719,0.000
1728626031.456,-37.109,-43.945,-36.621,-17.578,0.000
1728626031.460,-42.969,-50.781,-43.945,-67.871,0.000
1728626031.464,-40.039,-43.457,-42.969,-70.801,0.000
1728626031.468,-47.363,-36.133,-39.551,-41.504,0.000
1728626031.472,-45.410,-41.016,-33.691,-5.859,0.000
1728626031.476,-31.250,-41.504,-39.062,-0.977,0.000
1728626031.480,-22.461,-32.715,-53.711,-40.039,0.000
1728626031.484,-12.207,-29.785,-58.594,-57.129,0.000
1728626031.487,-25.879,-43.945,-58.105,-50.293,0.000
1728626031.491,-23.926,-44.922,-50.293,-23.438,0.000
1728626031.495,-29.297,-40.527,-46.387,-13.184,0.000
1728626031.499,-45.410,-47.852,-52.246,-55.176,0.000
1728626031.503,-28.320,-50.781,-41.016,-67.871,0.000
1728626031.507,-38.574,-35.645,-25.879,-61.523,0.000
1728626031.511,-51.758,-37.109,-25.879,-24.414,0.000
1728626031.515,-39.062,-42.969,-28.320,-5.371,0.000
1728626031.519,-34.668,-39.551,-27.832,-49.316,0.000
1728626031.523,-27.344,-38.574,-22.949,-66.406,0.000
1728626031.526,-31.250,-38.574,-19.531,-51.270,0.000
1728626031.530,-29.297,-30.762,-12.695,-12.207,0.000
1728626031.534,-20.020,-31.250,-15.625,1.465,0.000
1728626031.538,-33.691,-36.133,-23.926,-41.504,0.000
1728626031.542,-22.949,-29.785,-13.184,-51.758,0.000
1728626031.546,-27.344,-36.621,-14.160,-49.805,0.000
1728626031.550,-55.176,-41.016,-25.391,-42.969,0.000
1728626031.554,-36.133,-36.133,-20.996,-4.883,0.000
1728626031.558,-38.574,-35.156,-17.090,-20.996,0.000
1728626031.562,-45.410,-43.945,-14.160,-59.082,0.000
1728626031.566,-33.691,-43.457,-3.418,-48.828,0.000
1728626031.569,-42.480,-32.227,-7.812,-26.367,0.000
1728626031.573,-30.762,-37.598,-14.160,-6.836,0.000
1728626031.577,-37.109,-42.969,-12.207,-15.625,0.000
1728626031.581,-42.969,-36.133,-24.414,-44.922,0.000
1728626031.585,-39.551,-40.527,-30.273,-48.828,0.000
1728626031.589,-52.246,-49.805,-30.762,-30.762,0.000
1728626031.593,-45.898,-43.945,-31.250,2.930,0.000
1728626031.597,-46.387,-36.621,-25.391,-20.020,0.000
1728626031.601,-33.691,-37.598,-23.438,-65.430,0.000
1728626031.605,-29.297,-37.598,-22.461,-64.453,0.000
1728626031.608,-55.176,-30.762,-21.484,-40.039,0.000
1728626031.612,-47.363,-32.227,-26.367,-9.277,0.000
1728626031.616,-44.922,-40.527,-31.738,-27.344,0.000
1728626031.620,-47.852,-47.363,-52.734,-63.477,0.000
1728626031.624,-41.016,-46.387,-75.684,-67.383,0.000
1728626031.628,-62.500,-46.387,-80.078,-56.641,0.000
1728626031.632,-51.758,-41.504,-79.590,-21.973,0.000
1728626031.636,-31.250,-35.645,-81.055,-14.160,0.000
1728626031.639,-22.461,-37.598,-80.078,-44.434,0.000
1728626031.643,1.465,-30.762,-73.730,-53.711,0.000
1728626031.647,-31.738,-36.133,-78.125,-40.527,0.000
1728626031.651,-45.410,-47.852,-88.379,-10.742,0.000
1728626031.655,-33.203,-43.945,-86.914,-1.953,0.000
1728626031.659,-36.621,-39.062,-81.055,-35.645,0.000
1728626031.663,-8.301,-31.250,-81.055,-45.410,0.000
1728626031.667,-17.578,-29.297,-86.426,-46.387,0.000
1728626031.671,-27.832,-40.039,-82.520,-20.508,0.000
1728626031.675,-27.344,-38.086,-66.895,-0.488,0.000
1728626031.679,-58.594,-44.922,-62.988,-42.480,0.000
1728626031.683,-44.922,-45.898,-60.547,-57.617,0.000
1728626031.687,-33.691,-35.156,-55.176,-47.852,0.000
1728626031.691,-46.387,-32.227,-47.363,-25.391,0.000
1728626031.695,-40.039,-27.344,-36.621,4.395,0.000
1728626031.698,-41.992,-33.691,-33.691,-33.691,0.000
1728626031.702,-31.738,-33.691,-35.645,-70.312,0.000
1728626031.706,-31.250,-29.297,-31.250,-54.688,0.000
1728626031.711,-39.551,-26.855,-20.996,-27.344,0.000
1728626031.714,-27.344,-26.855,-16.113,-16.113,0.000
1728626031.718,-19.531,-31.738,-9.277,-41.016,0.000
1728626031.722,-10.742,-29.785,-7.324,-60.059,0.000
1728626031.726,-21.484,-35.156,-25.879,-67.871,0.000
1728626031.730,-47.852,-31.738,-38.086,-43.457,0.000
1728626031.734,-44.434,-25.391,-28.320,-6.348,0.000
1728626031.738,-55.664,-41.504,-23.926,-38.574,0.000
1728626031.742,-42.480,-49.805,-24.414,-68.359,0.000
1728626031.746,-25.879,-37.598,-22.461,-61.523,0.000
1728626031.750,-37.598,-27.344,-26.855,-45.898,0.000
1728626031.753,-4.395,-14.648,-30.273,7.812,0.000
1728626031.758,-2.930,-11.230,-39.062,0.488,0.000
1728626031.762,-29.785,-24.902,-54.688,-51.758,0.000
1728626031.766,-28.809,-30.273,-49.316,-47.852,0.000
1728626031.770,-39.062,-30.762,-43.945,-16.113,0.000
1728626031.774,-32.227,-32.715,-46.387,7.324,0.000
1728626031.778,-21.973,-30.762,-26.855,-8.301,0.000
1728626031.782,-18.066,-21.973,-8.789,-38.574,0.000
1728626031.786,-0.488,-20.508,-12.207,-40.527,0.000
1728626031.790,-17.578,-33.691,-18.066,-26.367,0.000
1728626031.793,-34.668,-32.715,-7.812,3.906,0.000
1728626031.797,-37.598,-27.344,-3.418,9.277,0.000
1728626031.801,-33.203,-28.809,-14.160,-44.922,0.000
1728626031.805,-17.090,-23.438,-17.578,-61.035,0.000
1728626031.809,-30.762,-23.438,-22.461,-50.293,0.000
1728626031.813,-28.809,-27.832,-24.902,-17.578,0.000
1728626031.817,-32.715,-34.668,-20.020,-9.277,0.000
1728626031.821,-46.387,-38.574,-14.648,-45.898,0.000
1728626031.825,-28.809,-35.156,-13.672,-56.152,0.000
1728626031.829,-40.039,-36.133,-21.973,-42.969,0.000
1728626031.833,-48.340,-36.621,-18.555,-11.230,0.000
1728626031.837,-38.086,-30.273,-8.301,4.883,0.000
1728626031.840,-41.016,-26.855,-5.859,-36.621,0.000
1728626031.844,-21.973,-23.438,-16.113,-60.059,0.000
1728626031.848,-28.809,-33.203,-26.855,-48.828,0.000
1728626031.852,-48.828,-42.480,-21.973,-24.414,0.000
1728626031.856,-41.016,-31.250,-14.160,-2.441,0.000
1728626031.860,-53.223,-30.762,-16.113,-38.086,0.000
1728626031.864,-39.551,-38.086,-17.090,-64.453,0.000
1728626031.868,-37.109,-34.180,-11.230,-46.875,0.000
1728626031.872,-47.852,-34.180,-6.836,-26.855,0.000
1728626031.876,-38.574,-32.227,-14.160,-6.836,0.000
1728626031.879,-38.574,-28.320,-22.461,-16.113,0.000
1728626031.883,-30.273,-20.020,-16.602,-53.711,0.000
1728626031.887,-26.367,-16.602,-18.066,-61.035,0.000
1728626031.891,-38.086,-20.508,-21.484,-29.785,0.000
1728626031.895,-23.926,-23.926,-5.371,12.207,0.000
1728626031.899,-23.438,-26.367,-9.766,-11.230,0.000
1728626031.903,-22.461,-26.855,-24.902,-56.641,0.000
1728626031.907,-17.578,-36.621,-33.203,-48.828,0.000
1728626031.911,-40.039,-37.598,-33.203,-26.855,0.000
1728626031.915,-29.297,-24.414,-20.508,2.441,0.000
1728626031.918,-25.391,-32.227,-24.414,-12.207,0.000
1728626031.922,-22.949,-32.227,-36.621,-48.340,0.000
1728626031.926,0.488,-19.043,-23.438,-41.992,0.000
1728626031.930,-21.484,-20.508,-15.625,-25.391,0.000
1728626031.934,-43.945,-31.250,-29.297,1.465,0.000
1728626031.938,-37.598,-33.203,-38.086,-17.090,0.000
1728626031.942,-26.367,-28.320,-36.621,-53.711,0.000
1728626031.946,-21.484,-32.715,-39.062,-54.199,0.000
1728626031.950,-36.133,-39.551,-39.551,-47.852,0.000
1728626031.953,-29.297,-32.715,-31.738,-14.160,0.000
1728626031.957,-21.973,-24.902,-30.273,-9.766,0.000
1728626031.961,-21.973,-23.438,-31.738,-55.664,0.000
1728626031.965,-0.977,-17.578,-33.203,-67.871,0.000
1728626031.969,-16.113,-25.879,-39.551,-51.270,0.000
1728626031.973,-38.086,-23.926,-29.297,-15.137,0.000
1728626031.977,-42.969,-22.461,-26.367,-15.625,0.000
1728626031.981,-53.711,-36.621,-38.574,-63.477,0.000
1728626031.985,-39.062,-36.621,-38.574,-65.430,0.000
1728626031.989,-50.293,-34.180,-41.016,-53.711,0.000
1728626031.992,-57.129,-31.250,-39.062,-21.973,0.000
1728626031.996,-41.016,-29.785,-28.809,-5.371,0.000
1728626032.000,-32.227,-23.926,-25.879,-42.969,0.000
1728626032.004,-23.438,-24.902,-31.250,-65.430,0.000
1728626032.008,-43.457,-36.621,-45.898,-59.082,0.000
1728626032.012,-46.875,-42.969,-42.969,-21.973,0.000
1728626032.016,-34.668,-41.504,-31.738,-1.953,0.000
1728626032.020,-31.250,-27.344,-31.250,-27.832,0.000
1728626032.023,-11.719,-23.926,-35.156,-48.828,0.000
1728626032.027,-24.414,-34.668,-36.621,-46.387,0.000
1728626032.031,-36.133,-30.273,-34.180,-11.230,0.000
1728626032.035,-15.625,-30.273,-51.270,3.418,0.000
1728626032.039,-35.156,-31.250,-80.078,-41.016,0.000
1728626032.043,-23.438,-22.461,-85.938,-56.152,0.000
1728626032.047,-8.789,-17.578,-90.820,-44.922,0.000
1728626032.051,-39.551,-27.344,-98.145,-41.992,0.000
1728626032.055,-27.344,-28.809,-104.004,-15.137,0.000
1728626032.059,-23.926,-29.297,-113.770,-27.832,0.000
1728626032.063,-23.926,-26.367,-119.629,-65.430,0.000
1728626032.067,-15.137,-25.391,-114.258,-54.688,0.000
1728626032.071,-29.785,-30.762,-102.539,-29.785,0.000
1728626032.075,-27.344,-35.645,-97.168,4.883,0.000
1728626032.079,-26.367,-37.109,-91.309,-20.508,0.000
1728626032.082,-26.855,-27.832,-73.730,-55.664,0.000
1728626032.087,-26.367,-26.367,-60.547,-49.316,0.000
1728626032.091,-55.176,-39.551,-67.871,-53.711,0.000
1728626032.094,-48.340,-33.691,-65.918,-23.438,0.000
1728626032.098,-42.969,-26.855,-58.105,-31.250,0.000
1728626032.102,-55.176,-30.273,-56.152,-70.312,0.000
1728626032.106,-40.039,-29.297,-45.898,-60.547,0.000
1728626032.110,-30.762,-27.832,-36.133,-46.387,0.000
1728626032.114,-35.156,-28.809,-29.297,-15.137,0.000
1728626032.118,-44.922,-34.180,-25.391,-3.418,0.000
1728626032.122,-45.898,-30.762,-23.926,-36.133,0.000
1728626032.126,-40.039,-35.645,-27.832,-64.453,0.000
1728626032.130,-55.176,-42.969,-31.738,-50.781,0.000
1728626032.134,-50.781,-35.645,-24.902,-6.348,0.000
1728626032.138,-35.156,-30.762,-11.230,-4.395,0.000
1728626032.142,-29.297,-38.086,-9.766,-33.203,0.000
1728626032.145,-16.113,-37.109,-14.648,-50.781,0.000
1728626032.149,-33.203,-28.320,-10.742,-47.363,0.000
1728626032.153,-56.152,-36.621,-9.277,-19.043,0.000
1728626032.157,-48.828,-34.668,-7.324,-8.789,0.000
1728626032.161,-48.340,-23.926,-8.789,-42.480,0.000
1728626032.165,-32.715,-31.250,-12.207,-59.570,0.000
1728626032.169,-38.574,-31.250,-6.836,-51.758,0.000
1728626032.173,-50.293,-27.832,-6.348,-24.414,0.000
1728626032.177,-40.527,-20.508,-14.160,-1.953,0.000
1728626032.181,-46.875,-20.996,-24.902,-36.133,0.000
1728626032.185,-30.273,-26.367,-20.020,-63.477,0.000
1728626032.188,-35.645,-29.297,-18.555,-62.988,0.000
1728626032.192,-59.082,-30.273,-20.508,-44.922,0.000
1728626032.196,-46.875,-22.949,-8.301,-19.043,0.000
1728626032.200,-44.922,-25.391,-4.395,-36.621,0.000
1728626032.204,-35.156,-33.691,-7.324,-63.965,0.000
1728626032.208,-15.137,-34.668,-16.602,-69.336,0.000
1728626032.212,-41.504,-31.250,-24.414,-54.688,0.000
1728626032.216,-65.918,-32.715,-28.809,-24.902,0.000
1728626032.220,-52.734,-35.645,-34.180,-37.109,0.000
1728626032.224,-24.414,-26.855,-25.391,-61.035,0.000
1728626032.227,-32.227,-25.391,-21.973,-60.059,0.000
1728626032.231,-51.758,-19.531,-21.484,-35.645,0.000
1728626032.235,-43.457,-21.973,-8.789,0.488,0.000
1728626032.239,-46.387,-35.156,-11.230,-17.578,0.000
1728626032.243,-31.738,-35.645,-21.484,-59.570,0.000
1728626032.247,-29.785,-42.969,-24.414,-60.547,0.000
1728626032.251,-59.570,-46.387,-23.926,-40.039,0.000
1728626032.255,-57.617,-38.574,-19.531,0.977,0.000
1728626032.259,-51.270,-30.273,-17.090,4.395,0.000
1728626032.263,-36.621,-28.320,-18.066,-33.203,0.000
1728626032.267,-18.066,-33.691,-20.020,-41.504,0.000
1728626032.270,-34.668,-35.156,-21.973,-23.926,0.000
1728626032.274,-32.715,-34.668,-17.578,9.766,0.000
1728626032.278,-20.508,-31.250,-18.066,10.742,0.000
1728626032.282,-9.277,-22.461,-14.160,-28.320,0.000
1728626032.286,-3.906,-17.578,-7.812,-37.598,0.000
1728626032.290,-21.973,-22.949,-8.789,-23.926,0.000
1728626032.294,-28.320,-27.344,-11.719,0.977,0.000
1728626032.298,-23.438,-31.738,-13.672,9.277,0.000
1728626032.302,-28.809,-33.691,-17.090,-22.461,0.000
1728626032.306,-20.996,-25.391,-16.113,-50.293,0.000
1728626032.309,-33.203,-24.902,-9.277,-45.898,0.000
1728626032.313,-43.945,-39.551,-15.625,-0.977,0.000
1728626032.317,-39.062,-41.504,-19.043,9.766,0.000
1728626032.321,-35.156,-36.621,-6.836,-37.598,0.000
1728626032.325,-8.789,-42.480,-4.395,-53.711,0.000
1728626032.329,-30.762,-56.152,-14.648,-46.387,0.000
1728626032.333,-50.781,-50.781,-14.648,-27.344,0.000
1728626032.337,-41.504,-41.504,-15.137,-13.672,0.000
1728626032.340,-48.828,-45.410,-19.531,-49.805,0.000
1728626032.344,-36.133,-54.199,-17.578,-66.895,0.000
1728626032.348,-40.527,-52.246,-20.020,-58.594,0.000
1728626032.352,-59.570,-44.922,-25.879,-26.367,0.000
1728626032.356,-48.340,-41.504,-23.438,-1.465,0.000
1728626032.360,-40.039,-39.551,-28.320,-34.668,0.000
1728626032.364,-18.555,-38.574,-28.809,-65.430,0.000
1728626032.367,-24.414,-51.270,-30.762,-65.918,0.000
1728626032.371,-34.668,-54.199,-34.668,-32.227,0.000
1728626032.375,-31.738,-42.480,-30.273,1.953,0.000
1728626032.379,-56.152,-40.527,-30.762,-28.809,0.000
1728626032.383,-44.434,-50.781,-36.133,-55.176,0.000
1728626032.387,-32.227,-53.223,-39.062,-45.410,0.000
1728626032.391,-47.363,-48.340,-31.250,-22.461,0.000
1728626032.395,-35.645,-37.598,-34.668,0.488,0.000
1728626032.399,-33.691,-34.180,-39.551,-17.090,0.000
1728626032.403,-23.926,-36.621,-29.297,-42.480,0.000
1728626032.407,-17.578,-35.645,-26.367,-48.828,0.000
1728626032.410,-45.410,-31.250,-27.344,-35.645,0.000
1728626032.415,-29.785,-34.180,-30.273,3.418,0.000
1728626032.419,-13.184,-43.457,-36.621,-14.160,0.000
1728626032.423,-19.043,-39.551,-31.250,-52.734,0.000
1728626032.426,-23.926,-37.109,-30.273,-50.781,0.000
1728626032.430,-40.527,-35.156,-40.527,-36.133,0.000
1728626032.434,-25.879,-29.785,-29.297,2.441,0.000
1728626032.438,-22.461,-38.086,-27.344,-0.488,0.000
1728626032.442,-28.809,-49.805,-34.180,-41.016,0.000
1728626032.446,-20.508,-52.734,-33.203,-48.340,0.000
1728626032.450,-36.621,-52.246,-36.133,-38.086,0.000
1728626032.454,-32.227,-46.875,-47.363,-12.207,0.000
1728626032.458,-38.574,-50.781,-73.242,-10.254,0.000
1728626032.462,-48.828,-49.805,-101.074,-48.340,0.000
1728626032.466,-35.645,-46.875,-116.211,-63.965,0.000
1728626032.470,-46.387,-52.734,-121.582,-62.988,0.000
1728626032.474,-50.781,-50.293,-109.863,-26.367,0.000
1728626032.478,-41.016,-47.363,-107.422,-13.184,0.000
1728626032.481,-36.621,-45.898,-108.398,-62.988,0.000
1728626032.485,-23.926,-41.504,-101.074,-74.707,0.000
1728626032.489,-38.086,-34.668,-98.145,-59.082,0.000
1728626032.493,-49.316,-35.156,-95.703,-21.484,0.000
1728626032.497,-39.062,-40.527,-86.914,-0.977,0.000
1728626032.501,-37.598,-40.039,-75.684,-46.875,0.000
1728626032.505,-26.855,-35.645,-63.965,-62.012,0.000
1728626032.509,-37.109,-41.016,-66.895,-56.641,0.000
1728626032.513,-50.781,-37.598,-69.824,-30.762,0.000
1728626032.517,-46.387,-29.297,-65.918,-10.742,0.000
1728626032.521,-53.223,-41.504,-67.383,-53.223,0.000
1728626032.525,-30.762,-41.504,-58.594,-73.730,0.000
1728626032.528,-24.902,-37.598,-43.945,-62.500,0.000
1728626032.532,-44.922,-38.086,-27.344,-32.715,0.000
1728626032.536,-38.086,-31.250,-16.602,9.277,0.000
1728626032.540,-35.645,-35.645,-14.648,-16.113,0.000
1728626032.544,-24.902,-27.832,-5.859,-53.711,0.000
1728626032.548,-20.996,-22.461,-5.371,-51.758,0.000
1728626032.552,-43.457,-28.320,-9.766,-43.457,0.000
1728626032.556,-38.574,-21.973,-3.418,-8.301,0.000
1728626032.560,-34.180,-19.531,-6.836,-24.414,0.000
1728626032.564,-34.668,-22.461,-15.625,-64.453,0.000
1728626032.568,-38.086,-22.949,-15.137,-64.941,0.000
1728626032.571,-49.316,-24.902,-6.348,-41.504,0.000
1728626032.575,-26.367,-23.926,0.488,0.000,0.000
1728626032.579,-17.090,-29.297,0.000,-14.160,0.000
1728626032.583,-28.320,-40.527,-3.906,-50.293,0.000
1728626032.587,-31.738,-41.016,-4.395,-58.105,0.000
1728626032.591,-52.246,-33.203,4.395,-43.945,0.000
1728626032.595,-51.758,-32.715,4.883,-1.465,0.000
1728626032.599,-48.340,-43.457,-9.766,-18.555,0.000
1728626032.603,-40.527,-37.109,-3.418,-50.293,0.000
1728626032.607,-27.832,-27.832,2.441,-50.293,0.000
1728626032.610,-47.852,-41.016,-12.695,-52.734,0.000
1728626032.614,-42.969,-39.062,-11.719,-16.602,0.000
1728626032.618,-41.016,-36.133,-13.184,-12.207,0.000
1728626032.622,-42.969,-41.992,-20.020,-53.223,0.000
1728626032.626,-27.344,-32.715,-20.996,-57.129,0.000
1728626032.630,-46.387,-31.250,-24.902,-41.504,0.000
1728626032.634,-60.547,-29.785,-22.461,-26.367,0.000
1728626032.638,-50.293,-37.598,-20.508,-19.531,0.000
1728626032.642,-53.711,-53.223,-28.320,-62.012,0.000
1728626032.646,-35.645,-43.945,-26.367,-85.449,0.000
1728626032.649,-31.250,-39.062,-24.414,-65.918,0.000
1728626032.653,-44.434,-34.180,-23.438,-21.484,0.000
1728626032.657,-31.738,-26.367,-14.648,4.883,0.000
1728626032.661,-32.715,-29.785,-16.113,-31.250,0.000
1728626032.665,-36.621,-38.574,-26.855,-54.199,0.000
1728626032.669,-44.922,-41.992,-40.039,-52.734,0.000
1728626032.673,-50.781,-39.062,-40.039,-20.996,0.000
1728626032.677,-40.527,-33.203,-30.273,3.906,0.000
1728626032.681,-39.551,-19.531,-31.250,-28.320,0.000
1728626032.685,-16.602,-18.555,-29.785,-58.105,0.000
1728626032.688,-12.695,-25.391,-24.902,-41.992,0.000
1728626032.692,-28.320,-22.461,-22.461,-4.883,0.000
1728626032.696,-18.555,-18.066,-28.320,12.695,0.000
1728626032.700,-31.738,-25.391,-36.133,-16.602,0.000
1728626032.704,-33.691,-25.879,-34.668,-52.734,0.000
1728626032.708,-30.273,-15.137,-29.297,-55.176,0.000
1728626032.712,-42.969,-17.090,-28.320,-35.156,0.000
1728626032.716,-31.250,-16.602,-29.297,2.930,0.000
1728626032.719,-34.180,-20.020,-33.203,-17.090,0.000
1728626032.723,-27.832,-23.438,-31.250,-54.688,0.000
1728626032.727,-20.020,-21.973,-32.227,-59.082,0.000
1728626032.731,-44.434,-31.738,-39.551,-45.410,0.000
1728626032.735,-41.992,-28.809,-32.715,-9.277,0.000
1728626032.739,-40.527,-29.297,-23.438,-26.367,0.000
1728626032.743,-30.762,-41.992,-24.902,-63.477,0.000
1728626032.747,-21.484,-40.039,-28.809,-65.430,0.000
1728626032.750,-41.504,-35.645,-21.973,-45.898,0.000
1728626032.754,-38.574,-29.785,-18.066,-9.277,0.000
1728626032.758,-40.527,-28.320,-33.203,-15.625,0.000
1728626032.762,-34.668,-38.574,-36.133,-51.270,0.000
1728626032.766,-16.602,-41.504,-25.391,-55.176,0.000
1728626032.770,-36.133,-34.668,-21.973,-47.852,0.000
1728626032.774,-36.621,-29.785,-20.508,-8.789,0.000
1728626032.778,-27.344,-36.133,-25.879,-3.418,0.000
1728626032.782,-37.598,-37.598,-26.855,-50.781,0.000
1728626032.786,-29.785,-35.645,-25.879,-65.430,0.000
1728626032.790,-41.016,-42.969,-30.762,-54.199,0.000
1728626032.794,-41.016,-47.363,-33.203,-17.578,0.000
1728626032.798,-37.598,-45.898,-40.527,-8.301,0.000
1728626032.802,-47.363,-41.992,-40.039,-43.457,0.000
1728626032.805,-36.621,-36.621,-34.180,-59.082,0.000
1728626032.809,-51.758,-39.551,-28.809,-50.293,0.000
1728626032.813,-48.340,-31.738,-19.043,-12.207,0.000
1728626032.817,-29.297,-28.809,-24.902,1.465,0.000
1728626032.821,-35.645,-32.715,-36.621,-33.203,0.000
1728626032.825,-19.043,-34.668,-41.504,-48.340,0.000
1728626032.829,-20.508,-41.992,-44.922,-54.688,0.000
1728626032.833,-32.227,-40.039,-33.691,-22.949,0.000
1728626032.837,-21.484,-28.809,-23.438,9.277,0.000
1728626032.841,-13.672,-18.555,-27.832,-18.066,0.000
1728626032.845,-9.277,-14.160,-31.738,-36.621,0.000
1728626032.849,-26.855,-24.902,-29.785,-34.180,0.000
1728626032.853,-43.945,-36.621,-47.852,-22.461,0.000
1728626032.857,-31.738,-35.645,-51.270,6.348,0.000
1728626032.860,-16.602,-30.273,-27.344,-3.906,0.000
1728626032.864,4.395,-20.996,-30.273,-23.926,0.000
1728626032.868,-2.930,-30.762,-41.992,-28.320,0.000
1728626032.872,-31.738,-39.062,-32.227,-13.184,0.000
1728626032.876,-48.340,-34.668,-27.344,-6.348,0.000
1728626032.880,-36.621,-32.227,-25.879,-20.508,0.000
1728626032.884,44.922,-1.953,2.441,8.301,0.000
1728626032.888,111.328,31.250,9.277,65.918,0.000
1728626032.892,20.996,-15.137,-18.555,35.645,0.000
1728626032.896,-77.637,-68.848,-82.520,-28.320,0.000
1728626032.900,-58.594,-44.434,-72.266,-32.227,0.000
1728626032.904,-56.152,-62.012,-49.805,-66.406,0.000
1728626032.907,47.852,1.953,-58.105,12.695,0.000
1728626032.911,192.383,33.691,-53.711,166.504,0.000
1728626032.915,187.988,-28.809,-62.500,195.312,0.000
1728626032.919,146.973,45.898,-84.961,176.270,0.000
1728626032.923,-28.320,-51.758,-149.414,-30.273,0.000
1728626032.927,-32.227,-103.516,-144.043,-60.547,0.000
1728626032.931,71.289,-42.480,-199.707,71.777,0.000
1728626032.935,-12.695,-122.559,-247.559,29.297,0.000
1728626032.939,-28.809,-169.434,-78.613,12.695,0.000
1728626032.943,21.484,-121.094,-1.465,26.855,0.000
1728626032.947,38.086,-157.715,-79.102,21.484,0.000
1728626032.950,13.672,-218.262,-84.961,40.039,0.000
1728626032.954,-34.668,-109.863,-101.074,71.289,0.000
1728626032.958,-7.812,-20.020,-105.469,114.746,0.000
1728626032.962,65.430,30.273,-72.266,147.461,0.000
1728626032.966,29.785,104.492,-109.375,94.238,0.000
1728626032.970,-7.812,80.078,-125.488,90.332,0.000
1728626032.974,51.758,76.660,-54.199,191.406,0.000
1728626032.978,74.707,73.242,-43.945,231.934,0.000
1728626032.982,69.824,79.590,-40.039,214.355,0.000
1728626032.986,92.773,125.488,-33.691,218.750,0.000
1728626032.989,67.871,125.977,-46.875,211.426,0.000
1728626032.993,31.250,126.953,-24.902,215.820,0.000
1728626032.997,22.949,138.184,-16.602,219.727,0.000
1728626033.001,21.973,142.578,-26.367,174.316,0.000
1728626033.005,34.668,164.062,-22.949,156.738,0.000
1728626033.009,37.109,213.379,-10.742,173.340,0.000
1728626033.013,30.273,248.047,-2.930,194.336,0.000
1728626033.017,16.602,257.324,1.953,206.543,0.000
1728626033.021,3.418,268.555,2.930,168.457,0.000
1728626033.024,15.137,277.344,3.418,128.906,0.000
1728626033.028,10.254,281.738,0.488,117.188,0.000
1728626033.032,-7.324,261.230,-8.301,142.090,0.000
1728626033.036,-4.395,237.793,-6.836,163.574,0.000
1728626033.040,-20.508,228.516,-10.254,118.652,0.000
1728626033.044,-17.090,222.168,-22.461,68.359,0.000
1728626033.048,-15.625,211.426,-28.809,65.918,0.000
1728626033.052,-32.715,223.145,-47.852,83.008,0.000
1728626033.056,-19.531,261.719,-84.961,99.609,0.000
1728626033.060,-15.137,274.902,-109.863,64.453,0.000
1728626033.064,-6.348,258.789,-110.352,16.113,0.000
1728626033.067,13.672,250.977,-104.492,12.695,0.000
1728626033.071,12.695,250.000,-105.469,37.109,0.000
1728626033.075,20.020,240.234,-101.562,72.266,0.000
1728626033.079,15.137,212.402,-96.191,50.781,0.000
1728626033.083,16.113,174.316,-86.914,8.789,0.000
1728626033.087,45.898,154.297,-55.664,17.578,0.000
1728626033.091,52.734,143.066,-22.461,39.062,0.000
1728626033.095,68.359,133.301,-1.465,73.730,0.000
1728626033.099,71.289,122.070,28.320,75.195,0.000
1728626033.102,72.266,105.469,64.453,41.992,0.000
1728626033.106,103.516,83.008,87.402,44.922,0.000
1728626033.110,90.332,45.410,94.727,65.918,0.000
1728626033.114,92.285,14.160,101.074,97.168,0.000
1728626033.118,106.934,2.441,120.117,104.004,0.000
1728626033.122,119.629,1.465,144.531,83.496,0.000
1728626033.126,147.461,-7.812,150.391,70.801,0.000
1728626033.129,131.348,-9.766,145.996,68.848,0.000
1728626033.133,111.328,-12.695,144.531,90.332,0.000
1728626033.137,108.398,-41.504,135.254,92.285,0.000
1728626033.141,110.352,-63.965,134.277,55.176,0.000
1728626033.145,132.324,-71.777,149.902,37.109,0.000
1728626033.149,98.145,-99.609,130.371,17.578,0.000
1728626033.153,59.570,-123.535,105.469,27.832,0.000
1728626033.157,57.129,-125.488,108.887,52.246,0.000
1728626033.161,52.246,-128.906,105.469,9.766,0.000
1728626033.165,64.453,-141.602,87.891,-34.180,0.000
1728626033.169,61.523,-149.414,76.660,-33.203,0.000
1728626033.173,47.363,-145.020,74.707,11.719,0.000
1728626033.177,45.898,-142.090,59.082,20.508,0.000
1728626033.181,25.391,-142.578,47.852,-26.855,0.000
1728626033.184,27.832,-155.273,52.734,-45.410,0.000
1728626033.188,14.160,-166.992,53.223,-56.152,0.000
1728626033.192,-14.160,-156.738,57.617,-46.387,0.000
1728626033.196,0.000,-141.602,64.453,-5.859,0.000
1728626033.200,-1.953,-151.367,53.711,-40.527,0.000
1728626033.204,-5.371,-169.922,41.992,-100.098,0.000
1728626033.208,-3.906,-178.711,29.297,-103.027,0.000
1728626033.212,-30.762,-175.293,19.043,-81.055,0.000
1728626033.216,-31.250,-176.758,19.531,-57.129,0.000
1728626033.220,-20.508,-185.547,12.207,-72.754,0.000
1728626033.224,-6.348,-187.012,8.789,-100.098,0.000
1728626033.228,-3.418,-171.387,13.184,-79.590,0.000
1728626033.232,-31.738,-162.598,14.160,-53.223,0.000
1728626033.235,-34.180,-168.945,6.348,-37.109,0.000
1728626033.239,-45.898,-175.293,-8.301,-56.152,0.000
1728626033.243,-55.176,-167.480,-20.020,-98.145,0.000
1728626033.247,-34.668,-149.414,-9.766,-104.492,0.000
1728626033.251,-47.363,-143.066,0.488,-93.262,0.000
1728626033.255,-51.270,-128.906,-7.324,-56.152,0.000
1728626033.259,0.000,-113.281,-14.160,-57.129,0.000
1728626033.263,0.000,-120.117,-16.113,-104.980,0.000
1728626033.267,0.000,-124.023,-14.160,-126.953,0.000
1728626033.271,0.000,-112.793,-6.836,-108.887,0.000
1728626033.275,0.000,-105.469,2.441,-66.895,0.000
1728626033.279,0.000,-104.492,0.000,-60.547,0.000
1728626033.283,0.000,-111.328,-5.859,-101.562,0.000
1728626033.286,0.000,-125.977,-18.066,-114.258,0.000
1728626033.290,0.000,-117.676,-27.832,-100.098,0.000
1728626033.294,0.000,-96.191,-17.578,-74.707,0.000
1728626033.298,0.000,-93.750,-11.719,-64.453,0.000
1728626033.302,0.000,-93.750,-18.555,-99.609,0.000
1728626033.306,-51.758,-100.586,-31.738,-118.164,0.000
1728626033.310,-73.242,-109.863,-35.645,-115.723,0.000
1728626033.314,-81.543,-111.328,-35.645,-84.961,0.000
1728626033.318,-56.152,-110.352,-38.574,-51.758,0.000
1728626033.322,-54.199,-106.445,-36.621,-70.312,0.000
1728626033.326,-48.340,-103.027,-41.016,-91.797,0.000
1728626033.329,-60.547,-122.559,-47.363,-97.656,0.000
1728626033.333,-56.641,-125.488,-47.852,-61.523,0.000
1728626033.337,-33.203,-101.562,-50.781,-21.484,0.000
1728626033.341,-66.406,-109.375,-57.129,-74.219,0.000
1728626033.345,-59.570,-119.141,-50.781,-106.934,0.000
1728626033.349,-47.363,-115.234,-62.988,-94.238,0.000
1728626033.353,-62.500,-100.098,-77.148,-67.383,0.000
1728626033.357,-42.969,-76.172,-72.754,-28.809,0.000
1728626033.361,-53.223,-66.406,-84.961,-48.828,0.000
1728626033.365,-51.758,-69.824,-96.191,-76.660,0.000
1728626033.369,-39.551,-70.312,-85.938,-88.379,0.000
1728626033.372,-65.430,-74.707,-86.914,-79.590,0.000
1728626033.376,-63.965,-65.918,-95.215,-43.945,0.000
1728626033.380,-58.594,-62.988,-103.516,-64.453,0.000
1728626033.384,-55.176,-64.941,-100.098,-102.051,0.000
1728626033.388,-43.945,-64.453,-95.215,-104.492,0.000
1728626033.392,-68.848,-77.637,-94.727,-84.961,0.000
1728626033.396,-72.266,-85.938,-90.820,-43.945,0.000
1728626033.400,-63.965,-89.355,-87.891,-49.316,0.000
1728626033.404,-63.965,-93.750,-88.867,-85.449,0.000
1728626033.408,-59.082,-103.027,-84.961,-107.422,0.000
1728626033.411,-70.312,-101.562,-76.172,-100.586,0.000
1728626033.415,-63.477,-85.938,-64.941,-49.316,0.000
1728626033.419,-60.059,-96.191,-57.617,-41.016,0.000
1728626033.423,-53.223,-101.562,-57.129,-74.707,0.000
1728626033.427,-36.133,-95.703,-50.781,-87.402,0.000
1728626033.431,-51.758,-85.449,-34.668,-71.777,0.000
1728626033.435,-59.570,-80.078,-20.996,-40.527,0.000
1728626033.439,-48.828,-87.402,-21.484,-48.340,0.000
1728626033.443,-51.758,-83.984,-11.719,-85.938,0.000
1728626033.446,-56.641,-74.707,-4.883,-106.934,0.000
1728626033.450,-65.918,-74.219,-4.395,-90.332,0.000
1728626033.454,-61.523,-63.965,13.672,-33.691,0.000
1728626033.458,-59.570,-55.664,17.090,-32.227,0.000
1728626033.462,-71.777,-62.988,4.883,-75.684,0.000
1728626033.466,-60.547,-67.871,6.836,-77.148,0.000
1728626033.470,-52.246,-68.848,2.930,-61.035,0.000
1728626033.474,-59.082,-64.453,-4.883,-44.434,0.000
1728626033.478,-61.523,-61.035,-6.348,-30.762,0.000
1728626033.482,-69.824,-78.613,-5.371,-51.758,0.000
1728626033.485,-52.246,-81.543,1.465,-79.102,0.000
1728626033.489,-42.969,-78.613,2.930,-84.473,0.000
1728626033.493,-64.453,-70.312,-4.883,-57.617,0.000
1728626033.497,-61.035,-57.617,-14.160,-33.691,0.000
1728626033.501,-68.848,-58.105,-19.043,-62.012,0.000
1728626033.505,-64.941,-46.387,-17.090,-87.891,0.000
1728626033.509,-52.734,-40.527,-21.973,-76.660,0.000
1728626033.512,-59.570,-48.340,-30.762,-62.988,0.000
1728626033.516,-41.016,-41.016,-22.949,-50.293,0.000
1728626033.520,-36.133,-18.066,-15.625,-60.547,0.000
1728626033.524,-24.414,-14.648,-21.973,-93.750,0.000
1728626033.528,-33.203,-30.762,-25.391,-95.703,0.000
1728626033.532,-60.547,-33.691,-25.879,-64.453,0.000
1728626033.536,-47.852,-33.691,-25.879,-26.367,0.000
1728626033.540,-52.246,-37.109,-31.738,-54.199,0.000
1728626033.544,-50.293,-34.180,-42.480,-96.191,0.000
1728626033.548,-43.457,-20.508,-42.969,-83.984,0.000
1728626033.552,-57.617,-16.602,-39.551,-62.012,0.000
1728626033.556,-40.039,-27.344,-39.062,-26.855,0.000
1728626033.560,-30.273,-27.832,-40.039,-36.133,0.000
1728626033.564,-39.062,-24.902,-33.691,-75.684,0.000
1728626033.567,-39.062,-24.414,-34.180,-82.031,0.000
1728626033.571,-63.477,-33.203,-48.828,-81.543,0.000
1728626033.575,-57.129,-35.156,-48.340,-41.016,0.000
1728626033.579,-65.918,-23.438,-42.969,-37.598,0.000
1728626033.583,-63.477,-19.531,-45.898,-62.988,0.000
1728626033.587,-35.156,-19.531,-41.504,-75.195,0.000
1728626033.591,-55.176,-30.273,-50.781,-88.867,0.000
1728626033.595,-58.594,-41.016,-54.199,-52.246,0.000
1728626033.599,-52.734,-37.598,-53.223,-54.199,0.000
1728626033.603,-59.570,-29.297,-65.430,-96.680,0.000
1728626033.607,-41.016,-23.438,-65.430,-91.797,0.000
1728626033.611,-54.199,-16.113,-65.918,-79.590,0.000
1728626033.615,-58.594,-8.789,-68.848,-41.504,0.000
1728626033.619,-55.664,-18.066,-64.941,-30.273,0.000
1728626033.622,-69.336,-20.996,-64.941,-82.520,0.000
1728626033.626,-53.711,-19.043,-67.383,-96.680,0.000
1728626033.630,-63.965,-27.832,-66.406,-69.336,0.000
1728626033.634,-64.941,-35.645,-50.293,-30.762,0.000
1728626033.638,-50.293,-36.133,-45.898,-20.020,0.000
1728626033.642,-49.805,-29.785,-59.082,-62.988,0.000
1728626033.646,-12.207,-26.855,-54.199,-75.195,0.000
1728626033.650,-14.160,-34.668,-46.387,-67.871,0.000
1728626033.654,-43.945,-43.945,-46.387,-54.688,0.000
1728626033.658,-37.109,-42.480,-38.574,-30.762,0.000
1728626033.662,-40.039,-47.363,-40.039,-54.199,0.000
1728626033.666,-25.879,-52.246,-39.551,-77.148,0.000
1728626033.670,-38.574,-42.969,-35.645,-71.777,0.000
1728626033.673,-48.828,-35.645,-37.598,-41.992,0.000
1728626033.677,-33.691,-31.738,-34.668,-0.977,0.000
1728626033.681,-39.551,-36.133,-41.016,-36.133,0.000
1728626033.685,-26.367,-41.504,-40.527,-82.031,0.000
1728626033.689,-35.156,-39.062,-36.133,-75.195,0.000
1728626033.693,-69.824,-47.852,-43.457,-43.945,0.000
1728626033.697,-65.918,-48.340,-37.109,-14.160,0.000
1728626033.701,-55.664,-28.809,-33.691,-29.297,0.000
1728626033.705,-49.316,-29.785,-34.668,-68.359,0.000
1728626033.709,-48.828,-27.832,-31.250,-70.312,0.000
1728626033.713,-71.777,-23.438,-35.645,-35.156,0.000
1728626033.716,-49.805,-28.809,-38.086,-4.883,0.000
1728626033.720,-26.367,-29.785,-38.086,-31.738,0.000
1728626033.724,-36.133,-31.738,-42.969,-68.359,0.000
1728626033.728,0.000,-24.414,-41.504,-69.824,0.000
1728626033.732,0.000,-30.273,-44.434,-53.711,0.000
1728626033.736,0.000,-34.668,-40.039,-24.902,0.000
1728626033.740,0.000,-32.715,-30.762,-34.180,0.000
1728626033.744,0.000,-25.391,-25.391,-59.082,0.000
1728626033.748,0.000,-22.949,-28.320,-52.246,0.000
1728626033.752,0.000,-28.809,-42.480,-39.551,0.000
1728626033.755,0.000,-29.785,-41.016,6.348,0.000
1728626033.759,0.000,-10.742,-48.828,8.301,0.000
1728626033.763,0.000,-11.230,-75.684,-44.922,0.000
1728626033.767,0.000,-29.297,-80.078,-64.941,0.000
1728626033.771,0.000,-21.484,-79.102,-52.734,0.000
1728626033.773,-33.203,-14.648,-87.891,-21.484,0.000
1728626033.777,-53.711,-36.621,-102.051,-24.902,0.000
1728626033.781,-52.246,-40.527,-116.699,-66.895,0.000
1728626033.784,-52.246,-23.438,-128.418,-70.801,0.000
1728626033.788,-52.246,-22.949,-135.742,-50.781,0.000
1728626033.792,-37.109,-28.320,-125.000,-20.508,0.000
1728626033.796,-50.781,-28.320,-116.699,-17.578,0.000
1728626033.800,-41.504,-32.227,-112.305,-50.293,0.000
1728626033.804,-40.527,-34.668,-102.051,-66.895,0.000
1728626033.808,-51.270,-38.086,-101.074,-66.406,0.000
1728626033.812,-34.180,-44.434,-89.355,-41.992,0.000
1728626033.816,-42.480,-37.598,-70.312,-29.297,0.000
1728626033.820,-38.086,-30.273,-64.453,-51.758,0.000
1728626033.823,-7.812,-27.832,-59.570,-66.895,0.000
1728626033.827,-38.086,-43.945,-66.406,-74.219,0.000
1728626033.831,-65.918,-47.363,-68.848,-50.781,0.000
1728626033.835,-43.457,-40.527,-60.059,-23.926,0.000
1728626033.839,-52.246,-44.922,-62.988,-53.711,0.000
1728626033.843,-38.574,-41.992,-70.312,-67.383,0.000
1728626033.847,-41.504,-35.645,-70.801,-71.777,0.000
1728626033.851,-50.781,-36.621,-53.711,-54.199,0.000
1728626033.855,-12.207,-31.250,-41.992,-15.625,0.000
1728626033.859,-34.668,-29.297,-52.734,-46.387,0.000
1728626033.863,-48.340,-30.762,-44.434,-74.707,0.000
1728626033.866,-32.227,-30.762,-34.180,-69.824,0.000
1728626033.870,-46.875,-26.367,-29.785,-51.270,0.000
1728626033.874,-26.367,-19.531,-22.461,-14.648,0.000
1728626033.878,-27.832,-22.461,-17.090,-30.273,0.000
1728626033.882,-52.246,-28.809,-22.461,-67.871,0.000
1728626033.886,-43.945,-25.879,-20.020,-74.219,0.000
1728626033.890,-53.711,-26.367,-6.348,-67.383,0.000
1728626033.893,-56.641,-20.996,3.418,-27.344,0.000
1728626033.897,-53.711,-16.113,3.906,-24.902,0.000
1728626033.901,-58.594,-26.367,-1.465,-66.895,0.000
1728626033.905,-56.152,-35.645,-5.859,-77.637,0.000
1728626033.909,-66.895,-27.344,-5.859,-49.805,0.000
1728626033.914,0.000,-18.555,2.441,-17.578,0.000
1728626033.917,0.000,-17.578,3.418,-30.762,0.000
1728626033.921,0.000,-19.043,-3.418,-80.078,0.000
1728626033.925,0.000,-24.902,-4.395,-85.449,0.000
1728626033.929,0.000,-31.250,-11.719,-69.824,0.000
1728626033.933,0.000,-20.996,-9.277,-28.320,0.000
1728626033.937,0.000,-6.836,1.953,-14.648,0.000
1728626033.941,0.000,-10.742,-3.906,-57.617,0.000
1728626033.945,0.000,-17.090,-17.578,-74.707,0.000
1728626033.949,0.000,-24.414,-18.066,-61.523,0.000
1728626033.953,0.000,-18.066,-8.301,-23.438,0.000
1728626033.956,0.000,-22.461,-11.230,-16.602,0.000
1728626033.959,-55.176,-27.344,-14.648,-48.828,0.000
1728626033.963,-43.457,-24.902,-12.695,-61.523,0.000
1728626033.966,-50.781,-24.902,-16.113,-62.012,0.000
1728626033.970,-48.828,-14.160,-8.301,-23.438,0.000
1728626033.974,-67.383,-21.484,-8.789,0.000,0.000
1728626033.978,-62.500,-35.645,-30.762,-46.387,0.000
1728626033.982,-40.527,-25.391,-27.344,-72.754,0.000
1728626033.986,-42.969,-22.461,-15.625,-71.777,0.000
1728626033.990,-34.668,-31.738,-30.273,-45.410,0.000
1728626033.994,-41.016,-26.855,-35.156,-4.395,0.000
1728626033.998,-53.711,-15.137,-28.809,-33.203,0.000
1728626034.002,-56.152,-16.602,-32.715,-63.477,0.000
1728626034.004,-44.434,-23.438,-36.621,-54.688,0.000
1728626034.008,-30.762,-22.949,-32.227,-29.297,0.000
1728626034.012,-47.363,-20.020,-35.156,-0.977,0.000
1728626034.016,-48.828,-33.691,-42.969,-34.668,0.000
1728626034.019,-41.016,-47.363,-41.992,-72.754,0.000
1728626034.023,-48.828,-37.598,-35.645,-77.148,0.000
1728626034.027,-29.785,-30.273,-33.691,-58.594,0.000
1728626034.031,-32.227,-35.645,-35.645,-13.672,0.000
1728626034.035,-50.781,-34.668,-30.762,-14.160,0.000
1728626034.039,-42.969,-19.531,-24.902,-47.852,0.000
1728626034.043,-45.410,-23.438,-21.484,-58.105,0.000
1728626034.047,-33.691,-33.203,-15.137,-37.109,0.000
1728626034.051,-39.551,-32.715,-16.602,-5.859,0.000
1728626034.055,-41.504,-34.668,-23.438,-27.344,0.000
1728626034.059,-46.875,-30.762,-32.227,-71.777,0.000
1728626034.063,-32.715,-26.367,-29.785,-73.242,0.000
1728626034.067,-49.316,-29.297,-19.531,-41.504,0.000
1728626034.071,-46.875,-37.109,-23.926,-2.930,0.000
1728626034.074,-25.391,-34.180,-27.344,-6.836,0.000
1728626034.078,-13.672,-31.738,-27.344,-44.434,0.000
1728626034.082,-24.902,-38.574,-35.645,-66.895,0.000
1728626034.086,-55.176,-39.551,-40.039,-61.035,0.000
1728626034.090,-54.688,-29.297,-37.598,-30.762,0.000
1728626034.094,-41.992,-38.086,-33.203,-21.973,0.000
1728626034.098,-45.410,-43.945,-32.227,-50.781,0.000
1728626034.102,-19.531,-37.598,-27.832,-59.570,0.000
1728626034.106,-23.926,-43.945,-28.320,-41.016,0.000
1728626034.110,-45.898,-48.828,-34.668,-9.277,0.000
1728626034.114,-39.062,-40.527,-22.949,-4.395,0.000
1728626034.118,-43.457,-38.574,-24.414,-50.293,0.000
1728626034.122,-33.691,-41.992,-44.922,-65.430,0.000
1728626034.126,-40.039,-48.828,-63.965,-57.617,0.000
1728626034.129,-48.828,-40.039,-69.824,-37.598,0.000
1728626034.133,-33.203,-37.109,-59.570,-25.879,0.000
1728626034.137,-31.738,-48.340,-51.270,-51.270,0.000
1728626034.141,-22.949,-48.340,-52.734,-66.406,0.000
1728626034.145,-42.480,-47.363,-44.434,-54.688,0.000
1728626034.149,-54.199,-45.410,-23.438,-13.184,0.000
1728626034.153,-33.691,-44.434,-14.160,14.160,0.000
1728626034.157,-29.785,-43.945,-23.438,-21.973,0.000
1728626034.161,-11.719,-42.480,-35.645,-50.781,0.000
1728626034.165,-11.719,-42.969,-31.738,-43.457,0.000
1728626034.169,-38.086,-46.875,-29.785,-7.324,0.000
1728626034.173,-37.109,-56.641,-44.922,19.043,0.000
1728626034.176,-45.898,-56.641,-55.664,-36.621,0.000
1728626034.180,-32.227,-46.875,-49.805,-66.895,0.000
1728626034.184,-16.602,-40.527,-51.270,-50.293,0.000
1728626034.188,-29.785,-35.645,-41.016,-24.414,0.000
1728626034.193,-28.809,-32.715,0.000,4.883,0.000
1728626034.197,-38.086,-45.410,0.000,-13.184,0.000
1728626034.201,-25.879,-52.734,0.000,-44.434,0.000
1728626034.205,-14.160,-44.434,0.000,-53.711,0.000
1728626034.208,-32.227,-46.387,0.000,-36.133,0.000
1728626034.212,-36.133,-62.500,0.000,-1.953,0.000
1728626034.216,-41.992,-70.312,0.000,-8.301,0.000
1728626034.220,-37.598,-45.898,0.000,-43.457,0.000
1728626034.224,-28.809,-34.668,0.000,-50.293,0.000
1728626034.228,-46.387,-50.293,0.000,-47.363,0.000
1728626034.232,-40.039,-56.152,0.000,-29.297,0.000
1728626034.236,-37.109,-57.617,0.000,-40.039,0.000
1728626034.240,-35.156,-52.734,-16.113,-62.988,0.000
1728626034.243,-16.602,-41.992,-18.066,-49.316,0.000
1728626034.247,-41.504,-48.828,-19.531,-37.109,0.000
1728626034.251,-45.410,-54.199,-21.484,-14.648,0.000
1728626034.255,-22.949,-33.691,-23.926,-13.672,0.000
1728626034.259,-17.578,-32.715,-23.438,-50.293,0.000
1728626034.263,-19.043,-49.316,-27.344,-62.012,0.000
1728626034.267,-49.316,-52.246,-26.367,-50.293,0.000
1728626034.271,-49.316,-45.898,-20.996,-21.973,0.000
1728626034.275,-41.992,-45.410,-27.344,-11.230,0.000
1728626034.279,-51.758,-40.039,-45.410,-32.715,0.000
1728626034.283,-30.762,-28.320,-58.594,-52.246,0.000
1728626034.287,-41.504,-40.527,-73.730,-52.246,0.000
1728626034.291,-59.082,-52.734,-97.656,-20.020,0.000
1728626034.295,-54.199,-47.852,-94.238,-0.977,0.000
1728626034.299,-49.805,-44.922,-72.266,-27.832,0.000
1728626034.303,-9.766,-44.922,-68.848,-46.875,0.000
1728626034.307,-16.602,-49.316,-85.938,-47.852,0.000
1728626034.310,-52.246,-41.016,-88.379,-20.996,0.000
1728626034.314,-38.574,-36.621,-71.777,11.719,0.000
1728626034.318,-36.133,-43.945,-73.242,-20.996,0.000
1728626034.322,-28.809,-49.316,-82.031,-46.387,0.000
1728626034.326,-31.250,-44.434,-86.426,-50.293,0.000
1728626034.330,-47.852,-39.062,-79.590,-32.715,0.000
1728626034.334,0.000,-39.551,-73.730,-9.277,0.000
1728626034.338,0.000,-36.133,-74.707,-34.668,0.000
1728626034.342,0.000,-29.297,-72.754,-61.523,0.000
1728626034.346,0.000,-36.133,-76.172,-67.383,0.000
1728626034.350,0.000,-38.574,-71.777,-37.109,0.000
1728626034.354,0.000,-37.109,-57.617,10.742,0.000
1728626034.358,0.000,-41.504,-52.246,-22.461,0.000
1728626034.362,0.000,-38.086,-62.500,-71.777,0.000
1728626034.366,0.000,-41.504,-74.707,-66.895,0.000
1728626034.370,0.000,-35.645,-65.918,-39.551,0.000
1728626034.373,0.000,-34.180,-59.570,-18.555,0.000
1728626034.377,0.000,-42.969,-58.105,-41.016,0.000
1728626034.382,-38.574,-37.109,-43.945,-69.824,0.000
1728626034.385,-23.926,-34.180,-33.203,-69.336,0.000
1728626034.389,-32.715,-34.180,-22.461,-38.574,0.000
1728626034.393,-25.391,-39.062,-18.066,-3.906,0.000
1728626034.397,-21.973,-37.109,-22.461,-23.926,0.000
1728626034.401,-23.438,-31.250,-23.926,-58.105,0.000
1728626034.405,-22.461,-21.973,-12.207,-60.547,0.000
1728626034.409,-51.270,-24.414,-9.277,-46.387,0.000
1728626034.413,-62.012,-38.086,-8.789,-8.789,0.000
1728626034.417,-58.105,-30.762,-1.953,-5.371,0.000
1728626034.421,-50.781,-29.785,-3.906,-38.086,0.000
1728626034.425,-25.391,-31.738,-8.789,-47.852,0.000
1728626034.429,-34.668,-29.297,-7.324,-39.551,0.000
1728626034.433,-45.898,-27.344,-9.766,-11.719,0.000
1728626034.437,-27.832,-27.344,-10.254,-3.906,0.000
1728626034.441,-36.621,-29.297,-1.465,-44.922,0.000
1728626034.445,-43.457,-32.715,-6.348,-71.777,0.000
1728626034.449,-54.688,-35.645,-11.719,-62.500,0.000
1728626034.453,-42.969,-25.391,-2.930,-22.461,0.000
1728626034.457,-27.344,-24.902,-4.883,-5.371,0.000
1728626034.461,-49.805,-32.715,-14.160,-51.758,0.000
1728626034.465,-43.457,-29.785,-8.301,-74.707,0.000
1728626034.468,-49.316,-31.250,-2.441,-57.129,0.000
1728626034.472,-60.059,-27.832,-12.207,-31.738,0.000
1728626034.476,-51.758,-21.484,0.000,-16.602,0.000
1728626034.480,-59.570,-20.508,0.000,-38.086,0.000
1728626034.484,-30.762,-16.113,0.000,-68.359,0.000
1728626034.488,-22.949,-18.555,0.000,-69.824,0.000
1728626034.492,-41.504,-23.438,0.000,-28.320,0.000
1728626034.496,-33.203,-20.020,0.000,0.000,0.000
1728626034.500,-36.621,-20.508,0.000,-36.133,0.000
1728626034.504,-34.180,-25.391,0.000,-70.801,0.000
1728626034.508,-39.551,-24.414,0.000,-75.195,0.000
1728626034.511,-55.176,-28.320,0.000,-44.922,0.000
1728626034.515,-40.527,-22.461,0.000,-5.371,0.000
1728626034.519,-31.250,-24.414,0.000,-17.090,0.000
1728626034.523,-18.066,-28.320,-21.973,-47.363,0.000
1728626034.527,-19.043,-22.461,-26.367,-60.547,0.000
1728626034.531,-45.410,-20.020,-35.156,-46.875,0.000
1728626034.535,-39.551,-16.602,-24.902,-2.441,0.000
1728626034.539,-31.738,-19.531,-25.391,-23.926,0.000
1728626034.543,-27.344,-31.250,-38.574,-80.078,0.000
1728626034.547,-19.043,-33.691,-41.016,-74.219,0.000
1728626034.551,-32.715,-27.344,-39.062,-35.645,0.000
1728626034.554,-32.715,-13.184,-33.203,-4.395,0.000
1728626034.558,-28.320,-4.395,-49.316,-15.137,0.000
1728626034.562,-22.461,-12.695,-63.965,-54.688,0.000
1728626034.566,-11.719,-26.367,-56.152,-69.336,0.000
1728626034.570,-45.410,-35.645,-52.734,-61.035,0.000
1728626034.574,-43.945,-29.785,-51.758,-9.277,0.000
1728626034.578,-16.602,-24.414,-59.570,13.184,0.000
1728626034.582,-27.344,-30.273,-74.219,-37.109,0.000
1728626034.586,-22.461,-17.578,-77.148,-70.312,0.000
1728626034.589,-28.320,-9.766,-76.172,-57.617,0.000
1728626034.593,-34.668,-35.156,-65.918,-11.719,0.000
1728626034.597,-44.922,-45.410,-52.734,-8.789,0.000
1728626034.601,-54.688,-38.574,-47.363,-51.270,0.000
1728626034.605,-21.973,-36.133,-47.852,-68.848,0.000
1728626034.609,-41.504,-44.434,-40.039,-60.547,0.000
1728626034.613,-53.711,-34.668,-16.602,-10.254,0.000
1728626034.617,-20.020,-17.090,-20.508,15.137,0.000
1728626034.620,-35.645,-36.621,-41.992,-54.688,0.000
1728626034.624,-45.898,-49.316,-47.852,-86.914,0.000
1728626034.628,-47.363,-49.316,-45.410,-68.359,0.000
1728626034.632,-41.016,-38.086,-35.645,-40.527,0.000
1728626034.636,-21.973,-22.461,-37.109,-11.230,0.000
1728626034.640,-24.902,-26.855,-49.316,-28.809,0.000
1728626034.644,-12.695,-20.996,-41.992,-45.898,0.000
1728626034.648,-35.156,-18.066,-40.039,-37.598,0.000
1728626034.652,-68.359,-37.109,-47.852,-24.414,0.000
1728626034.656,-54.688,-36.621,-44.922,-11.719,0.000
1728626034.660,-42.480,-32.227,-42.480,-41.504,0.000
1728626034.664,-21.484,-35.156,0.000,-66.406,0.000
1728626034.668,-19.531,-32.715,0.000,-54.199,0.000
1728626034.672,-41.992,-26.367,0.000,-20.020,0.000
1728626034.676,-36.133,-23.926,0.000,12.207,0.000
1728626034.680,-37.109,-30.273,0.000,-15.625,0.000
1728626034.683,-25.391,-44.434,0.000,-56.641,0.000
1728626034.687,-12.695,-41.992,0.000,-60.059,0.000
1728626034.691,-36.621,-30.273,0.000,-41.992,0.000
1728626034.695,-21.484,-34.180,0.000,-0.488,0.000
1728626034.699,-28.809,-39.062,0.000,-14.160,0.000
1728626034.703,-39.551,-32.715,0.000,-60.547,0.000
1728626034.707,-29.785,-29.297,0.000,-54.199,0.000
1728626034.711,-42.969,-38.574,-30.762,-37.598,0.000
1728626034.715,-35.156,-36.133,-37.598,-11.230,0.000
1728626034.719,-40.039,-32.227,-32.715,-12.695,0.000
1728626034.723,-48.828,-41.016,-33.203,-54.688,0.000
1728626034.727,-33.203,-39.062,-33.203,-56.152,0.000
1728626034.731,-52.246,-42.480,-37.109,-47.852,0.000
1728626034.735,-66.895,-50.781,-41.992,-23.926,0.000
1728626034.738,-56.641,-45.410,-39.551,-20.020,0.000
1728626034.742,-44.434,-47.852,-42.969,-55.664,0.000
1728626034.746,-28.809,-58.105,-41.504,-63.477,0.000
1728626034.750,-46.387,-57.617,-38.086,-50.293,0.000
1728626034.754,-45.410,-48.828,-43.945,-23.926,0.000
1728626034.758,-29.297,-43.457,-44.434,-12.207,0.000
1728626034.762,-46.387,-53.711,-56.641,-51.758,0.000
1728626034.766,-44.434,-59.082,-60.059,-71.289,0.000
1728626034.770,-51.270,-54.199,-53.711,-53.711,0.000
1728626034.774,-52.246,-55.176,-57.617,-19.043,0.000
1728626034.778,-34.180,-53.223,-53.711,-3.418,0.000
1728626034.782,-23.926,-51.758,-43.457,-32.715,0.000
1728626034.786,-5.859,-45.410,-49.805,-50.781,0.000
1728626034.789,-27.832,-52.734,-73.242,-47.363,0.000
1728626034.793,-51.270,-45.410,-81.543,-19.043,0.000
1728626034.797,-45.898,-42.480,-82.031,-10.742,0.000
1728626034.801,-40.039,-52.246,-83.984,-40.527,0.000
1728626034.805,-24.902,-47.852,-84.473,-57.617,0.000
1728626034.809,-23.926,-46.875,-80.078,-51.758,0.000
1728626034.813,-46.387,-38.574,-71.289,-23.926,0.000
1728626034.817,-37.598,-29.785,-67.383,7.324,0.000
1728626034.821,-43.945,-44.434,-79.102,-25.391,0.000
1728626034.825,-38.086,-53.223,-82.031,-52.734,0.000
1728626034.829,-38.086,-57.617,-79.102,-55.664,0.000
1728626034.833,-58.594,-56.152,-75.684,-39.062,0.000
1728626034.836,-39.062,-46.387,-60.059,-6.836,0.000
1728626034.840,-31.738,-43.945,-63.965,-31.738,0.000
1728626034.844,-31.738,-41.504,-64.941,-61.523,0.000
1728626034.848,-36.133,-37.109,-57.617,-61.523,0.000
1728626034.852,-59.082,-40.527,-58.105,-49.805,0.000
1728626034.856,-55.176,-48.828,-58.105,-21.484,0.000
1728626034.860,-50.293,-44.922,-64.453,-42.969,0.000
1728626034.864,-32.227,-31.738,-64.453,-72.754,0.000
1728626034.868,-21.484,-25.879,-64.941,-65.430,0.000
1728626034.872,-42.969,-32.227,-69.824,-47.852,0.000
1728626034.876,-29.297,-27.344,-57.617,-0.488,0.000
1728626034.879,-22.949,-34.180,-61.035,-5.859,0.000
1728626034.883,-17.578,-41.504,-66.895,-56.152,0.000
1728626034.887,-3.906,-35.645,-60.059,-62.988,0.000
1728626034.891,-30.273,-43.457,-56.641,-50.293,0.000
1728626034.895,-43.457,-51.758,-57.617,-18.555,0.000
1728626034.899,-42.480,-43.457,-60.547,-7.324,0.000
1728626034.903,-35.645,-34.668,-47.852,-34.668,0.000
1728626034.907,-20.508,-35.156,-32.227,-52.246,0.000
1728626034.911,-48.340,-40.039,-36.621,-55.176,0.000
1728626034.915,-41.992,-42.480,-31.738,-21.973,0.000
1728626034.918,-37.598,-44.922,-21.484,-9.766,0.000
1728626034.922,-50.781,-52.246,-18.555,-41.992,0.000
1728626034.926,-33.691,-55.176,-15.137,-55.664,0.000
1728626034.930,-40.039,-49.316,-12.207,-53.711,0.000
1728626034.934,-45.898,-44.434,-9.277,-18.555,0.000
1728626034.938,-41.992,-47.852,-5.859,-5.371,0.000
1728626034.942,-53.223,-58.594,-6.836,-52.734,0.000
1728626034.946,-37.598,-55.664,-1.953,-73.730,0.000
1728626034.950,-34.180,-53.223,0.488,-53.711,0.000
1728626034.953,-42.480,-60.547,-3.906,-22.461,0.000
1728626034.957,-24.414,-53.711,1.953,-8.789,0.000
1728626034.961,-33.203,-49.805,5.371,-42.480,0.000
1728626034.965,-18.555,-49.805,8.789,-63.477,0.000
1728626034.969,-16.113,-39.551,9.277,-42.480,0.000
1728626034.973,-62.500,-42.480,-14.648,-32.715,0.000
1728626034.977,-61.035,-54.688,-18.555,-18.066,0.000
1728626034.981,-50.293,-53.711,-12.695,-36.621,0.000
1728626034.985,-35.156,-50.293,-14.160,-68.848,0.000
1728626034.989,-36.621,-51.758,-9.277,-62.988,0.000
1728626034.992,-57.617,-51.270,-4.395,-35.156,0.000
1728626034.996,-37.598,-50.293,1.953,-5.371,0.000
1728626035.000,-32.715,-52.246,-1.465,-31.250,0.000
1728626035.004,-32.715,-49.316,-10.742,-64.941,0.000
1728626035.008,-36.133,-47.852,-23.926,-68.848,0.000
1728626035.012,-53.711,-53.223,-24.414,-45.898,0.000
1728626035.016,-44.922,-44.922,-16.113,-6.348,0.000
1728626035.020,-43.457,-41.992,-22.461,-23.926,0.000
1728626035.023,-38.574,-42.480,-37.109,-59.082,0.000
1728626035.027,-20.996,-35.156,-48.828,-53.711,0.000
1728626035.031,-31.738,-25.879,-45.898,-34.668,0.000
1728626035.035,-28.809,-6.836,-43.457,4.883,0.000
1728626035.039,-37.109,-20.020,-50.293,-9.766,0.000
1728626035.043,-49.805,-35.645,-55.664,-60.059,0.000
1728626035.047,-39.062,-27.344,-55.176,-64.941,0.000
1728626035.051,-48.828,-30.273,-41.992,-46.387,0.000
1728626035.055,-30.762,-27.832,-26.367,-13.672,0.000
1728626035.059,-22.461,-26.367,-32.715,-20.020,0.000
1728626035.063,-40.039,-23.438,-37.109,-56.641,0.000
1728626035.067,-39.062,-17.578,-21.973,-66.406,0.000
1728626035.071,-53.223,-31.250,-23.438,-50.781,0.000
1728626035.075,-56.152,-37.109,-29.297,-12.695,0.000
1728626035.079,-62.012,-35.645,-35.645,-14.648,0.000
1728626035.082,-71.777,-48.340,-39.551,-61.523,0.000
1728626035.087,-37.598,-46.387,-28.320,-75.195,0.000
1728626035.091,-27.832,-30.273,-21.973,-54.199,0.000
1728626035.094,-33.203,-18.555,-14.648,-19.043,0.000
1728626035.098,-31.250,-23.926,-16.113,-17.090,0.000
1728626035.102,-48.828,-42.480,-33.691,-66.895,0.000
1728626035.106,-35.156,-41.016,-35.156,-77.637,0.000
1728626035.110,-28.809,-28.320,-30.762,-53.223,0.000
1728626035.114,-41.504,-28.809,-26.367,-24.414,0.000
1728626035.118,-35.645,-38.086,-31.250,-2.441,0.000
1728626035.122,-34.668,-33.691,-38.574,-19.043,0.000
1728626035.126,-12.695,-11.230,-24.902,-43.945,0.000
1728626035.130,-19.531,-11.230,-20.020,-41.016,0.000
1728626035.134,0.000,-29.785,-28.320,-19.531,0.000
1728626035.138,0.000,-30.273,-34.668,3.418,0.000
1728626035.142,0.000,-32.227,-37.109,-31.738,0.000
1728626035.145,0.000,-40.039,-40.527,-62.012,0.000
1728626035.149,0.000,-34.668,-45.898,-40.527,0.000
1728626035.153,0.000,-19.043,-31.738,-7.812,0.000
1728626035.157,0.000,-6.836,-20.996,15.137,0.000
1728626035.161,0.000,-16.602,-27.344,-15.137,0.000
1728626035.165,0.000,-30.273,-29.785,-49.316,0.000
1728626035.169,0.000,-22.949,-32.227,-46.875,0.000
1728626035.173,0.000,-25.391,-38.086,-30.273,0.000
1728626035.177,0.000,-30.762,-36.621,2.441,0.000
1728626035.181,-26.367,-27.832,-34.668,-7.812,0.000
1728626035.185,-33.203,-26.367,-42.969,-55.664,0.000
1728626035.189,-26.367,-27.832,-49.805,-63.477,0.000
1728626035.192,-50.293,-38.574,-50.781,-43.945,0.000
1728626035.196,-37.598,-33.691,-45.898,-17.578,0.000
1728626035.200,-25.879,-27.832,-42.480,-28.809,0.000
1728626035.204,-13.672,-33.203,-33.203,-52.246,0.000
1728626035.208,1.465,-38.574,-29.297,-54.199,0.000
1728626035.212,-18.066,-28.809,-34.180,-36.621,0.000
1728626035.216,-22.461,-15.625,-33.691,-0.488,0.000
1728626035.220,-30.273,-24.902,-23.926,-16.113,0.000
1728626035.224,-34.180,-30.273,-24.414,-49.316,0.000
1728626035.228,-27.832,-29.785,-33.691,-53.223,0.000
1728626035.231,-46.875,-36.621,-41.016,-51.270,0.000
1728626035.235,-47.363,-41.504,-45.410,-23.926,0.000
1728626035.239,-34.668,-35.645,-39.062,-13.184,0.000
1728626035.243,-23.438,-20.996,-26.367,-40.039,0.000
1728626035.247,-2.930,-20.996,-28.809,-45.410,0.000
1728626035.251,-23.438,-33.691,-39.062,-31.738,0.000
1728626035.255,-28.320,-29.297,-41.504,-1.465,0.000
1728626035.259,-29.297,-14.648,-39.551,8.789,0.000
1728626035.263,-52.246,-24.414,-45.410,-37.598,0.000
1728626035.267,-33.691,-33.203,-45.898,-61.035,0.000
1728626035.270,-33.203,-31.250,-46.387,-45.410,0.000
1728626035.274,-52.734,-32.715,-53.223,-27.344,0.000
1728626035.278,-43.457,-30.762,-43.945,-7.812,0.000
1728626035.282,-42.969,-33.203,-40.527,-27.832,0.000
1728626035.286,-37.598,-28.320,-44.922,-49.316,0.000
1728626035.290,-36.133,-19.531,-47.363,-49.316,0.000
1728626035.294,-24.414,-22.461,-51.270,-26.367,0.000
1728626035.298,-11.719,-23.926,-41.992,6.836,0.000
1728626035.302,-34.668,-22.461,-43.945,-27.832,0.000
1728626035.305,-38.574,-21.973,-66.406,-65.918,0.000
1728626035.309,-48.340,-23.438,-79.102,-71.289,0.000
1728626035.313,-61.035,-27.344,-78.125,-49.805,0.000
1728626035.317,-37.598,-22.949,-76.172,-10.254,0.000
1728626035.321,-37.109,-16.602,-78.613,-34.668,0.000
1728626035.325,-25.879,-19.043,-76.660,-62.988,0.000
1728626035.329,-17.090,-29.785,-83.984,-61.035,0.000
1728626035.333,-40.527,-29.785,-86.426,-39.062,0.000
1728626035.337,-37.598,-24.902,-74.219,7.812,0.000
1728626035.340,-51.758,-33.691,-88.379,-22.949,0.000
1728626035.344,-44.922,-38.574,-89.355,-59.570,0.000
1728626035.348,-24.414,-19.043,-69.824,-57.129,0.000
1728626035.352,-33.691,-10.742,-65.430,-37.598,0.000
1728626035.356,-24.414,-13.672,-59.570,4.395,0.000
1728626035.360,-31.250,-21.973,-69.336,-16.602,0.000
1728626035.364,-39.062,-30.273,-77.637,-57.617,0.000
1728626035.367,-23.926,-32.715,-64.941,-57.617,0.000
1728626035.371,-46.387,-34.180,-63.477,-38.086,0.000
1728626035.375,-42.480,-22.949,-61.035,-11.719,0.000
1728626035.379,-33.203,-17.090,-60.547,-21.973,0.000
1728626035.383,-37.109,-21.973,-59.082,-62.988,0.000
1728626035.387,-22.461,-25.391,-51.270,-64.941,0.000
1728626035.391,-44.922,-28.320,-55.176,-56.641,0.000
1728626035.395,-48.340,-27.832,-51.270,-17.578,0.000
1728626035.399,-44.922,-32.227,-49.805,-4.883,0.000
1728626035.403,-47.852,-40.039,-56.152,-55.664,0.000
1728626035.407,-37.598,-33.203,-47.852,-71.777,0.000
1728626035.410,-50.293,-23.926,-39.551,-66.895,0.000
1728626035.415,-51.758,-30.273,-39.062,-39.551,0.000
1728626035.419,-23.438,-30.762,-28.320,-18.066,0.000
1728626035.423,-25.879,-23.926,-15.625,-40.039,0.000
1728626035.426,-28.809,-17.578,-19.043,-52.246,0.000
1728626035.430,-40.039,-33.203,-44.922,-56.152,0.000
1728626035.434,-50.293,-50.781,-57.617,-36.133,0.000
1728626035.438,-49.316,-41.016,-47.363,-22.949,0.000
1728626035.442,-60.547,-32.227,-38.574,-57.617,0.000
1728626035.446,-41.016,-29.297,-38.086,-67.871,0.000
1728626035.450,-34.668,-33.203,-42.969,-57.617,0.000
1728626035.454,-21.484,-16.113,-23.926,-19.531,0.000
1728626035.458,-4.395,-11.719,-5.859,7.324,0.000
1728626035.462,0.000,-28.809,-19.531,-34.668,0.000
1728626035.466,0.000,-31.250,-14.648,-50.781,0.000
1728626035.470,0.000,-35.156,-6.836,-49.805,0.000
1728626035.474,0.000,-40.527,-14.160,-29.785,0.000
1728626035.478,0.000,-29.297,-8.301,4.395,0.000
1728626035.481,0.000,-24.414,-13.184,-24.414,0.000
1728626035.485,0.000,-24.902,-16.602,-46.875,0.000
1728626035.489,0.000,-20.996,-8.789,-36.621,0.000
1728626035.493,0.000,-28.809,-5.371,-12.207,0.000
1728626035.497,0.000,-25.391,3.418,23.438,0.000
1728626035.501,0.000,-17.578,4.883,-4.883,0.000
1728626035.505,0.000,-24.414,-6.836,-43.945,0.000
1728626035.509,-8.789,-22.949,-7.324,-36.133,0.000
1728626035.513,-33.203,-15.625,2.441,-18.066,0.000
1728626035.517,-28.320,-18.066,2.930,13.672,0.000
1728626035.521,-31.250,-34.180,-11.719,-8.301,0.000
1728626035.525,-36.621,-41.504,-13.184,-55.664,0.000
1728626035.529,-16.602,-32.715,1.953,-46.875,0.000
1728626035.532,-46.387,-27.832,1.953,-39.062,0.000
1728626035.536,-49.316,-25.879,-7.812,-13.672,0.000
1728626035.540,-36.621,-35.645,-13.672,-6.348,0.000
1728626035.544,-34.668,-37.598,-16.602,-50.781,0.000
1728626035.548,-18.066,-29.785,-21.484,-61.523,0.000
1728626035.552,-31.738,-31.250,-19.043,-40.527,0.000
1728626035.556,-39.551,-28.320,-19.043,-13.184,0.000
1728626035.560,-39.062,-24.902,-20.508,-14.648,0.000
1728626035.564,-39.551,-38.086,-26.855,-68.848,0.000
1728626035.568,-25.391,-34.668,-28.320,-80.078,0.000
1728626035.572,-38.086,-23.926,-23.926,-55.176,0.000
1728626035.575,-35.156,-26.367,-17.578,-21.484,0.000
1728626035.579,-22.461,-29.297,-18.066,-5.371,0.000
1728626035.583,-25.879,-33.691,-22.949,-41.992,0.000
1728626035.587,-16.602,-30.273,-24.902,-61.035,0.000
1728626035.591,-35.156,-21.973,-19.043,-41.992,0.000
1728626035.595,-34.180,-22.949,-15.625,-5.371,0.000
1728626035.599,-29.297,-33.691,-33.691,5.859,0.000
1728626035.603,-49.316,-33.691,-35.156,-27.344,0.000
1728626035.607,-27.344,-22.461,-22.949,-43.945,0.000
1728626035.611,-28.320,-27.832,-29.297,-41.016,0.000
1728626035.615,-41.504,-38.574,-32.227,-11.719,0.000
1728626035.618,-26.855,-27.344,-18.555,4.883,0.000
1728626035.622,-27.832,-29.785,-21.484,-34.668,0.000
1728626035.626,-10.254,-30.273,-23.438,-50.293,0.000
1728626035.630,-13.184,-24.902,-23.438,-42.969,0.000
1728626035.634,-34.180,-23.926,-22.461,-19.043,0.000
1728626035.638,-11.230,-13.184,-27.832,12.695,0.000
1728626035.642,-23.926,-15.625,-49.805,-18.555,0.000
1728626035.646,-29.297,-20.020,-66.895,-59.082,0.000
1728626035.650,-18.555,-13.184,-62.988,-54.199,0.000
1728626035.653,-33.691,-20.996,-51.758,-31.250,0.000
1728626035.657,-24.414,-24.902,-43.457,0.488,0.000
1728626035.661,-26.855,-26.367,-49.316,-27.832,0.000
1728626035.665,-44.922,-34.180,-55.176,-66.895,0.000
1728626035.669,-36.621,-17.578,-36.133,-55.176,0.000
1728626035.673,-54.199,-15.137,-33.691,-34.668,0.000
1728626035.677,-59.570,-29.297,-33.203,-10.254,0.000
1728626035.681,-59.082,-30.273,-29.297,-31.250,0.000
1728626035.685,-47.852,-33.203,-30.762,-53.711,0.000
1728626035.689,-38.086,-42.480,-30.273,-49.316,0.000
1728626035.693,-57.129,-45.898,-26.367,-44.922,0.000
1728626035.696,-28.809,-34.180,-18.555,-16.602,0.000
1728626035.700,-32.227,-35.156,-26.367,-23.438,0.000
1728626035.704,-45.410,-39.551,-35.645,-67.871,0.000
1728626035.708,-31.738,-33.203,-30.762,-64.453,0.000
1728626035.712,-42.480,-22.949,-22.949,-36.133,0.000
1728626035.716,-29.297,-16.602,-27.832,-5.371,0.000
1728626035.720,-26.367,-38.574,-43.457,-11.230,0.000
1728626035.724,-33.691,-44.922,-40.039,-54.199,0.000
1728626035.728,-20.508,-23.926,-29.297,-70.801,0.000
1728626035.731,-34.668,-25.391,-31.738,-48.340,0.000
1728626035.735,-28.320,-28.809,-31.250,-5.371,0.000
1728626035.739,-20.508,-23.438,-27.344,-1.465,0.000
1728626035.743,-25.391,-26.367,-30.273,-31.738,0.000
1728626035.747,-12.695,-26.367,-35.645,-46.875,0.000
1728626035.751,-28.320,-27.832,-35.156,-36.133,0.000
1728626035.755,-38.574,-29.785,-41.504,-3.418,0.000
1728626035.758,-41.016,-33.203,-43.945,-10.254,0.000
1728626035.762,-46.387,-35.156,-39.062,-45.410,0.000
1728626035.766,-33.691,-34.180,-38.574,-57.617,0.000
1728626035.770,-49.805,-36.133,-31.250,-58.594,0.000
1728626035.774,-52.246,-42.969,-24.414,-31.250,0.000
1728626035.778,-34.668,-39.551,-22.461,-1.465,0.000
1728626035.782,-44.922,-30.762,-24.414,-21.973,0.000
1728626035.786,-41.504,-35.645,-25.391,-58.105,0.000
1728626035.790,0.000,-41.504,-23.926,-72.266,0.000
1728626035.794,0.000,-39.551,-37.109,-42.480,0.000
1728626035.798,0.000,-39.062,-53.223,-15.625,0.000
1728626035.802,0.000,-37.598,-63.477,-52.734,0.000
1728626035.806,0.000,-38.574,-76.660,-86.914,0.000
1728626035.810,0.000,-37.598,-82.031,-74.707,0.000
1728626035.814,0.000,-40.527,-88.379,-44.434,0.000
1728626035.817,0.000,-35.645,-91.309,-17.578,0.000
1728626035.821,0.000,-30.762,-84.961,-36.133,0.000
1728626035.825,0.000,-42.480,-94.238,-67.383,0.000
1728626035.829,0.000,-38.086,-103.516,-73.242,0.000
1728626035.833,0.000,-34.668,-93.262,-49.316,0.000
1728626035.837,-39.551,-26.855,-79.590,1.953,0.000
1728626035.841,-16.602,-21.484,-86.426,-9.277,0.000
1728626035.845,-36.133,-38.086,-85.449,-63.965,0.000
1728626035.849,-38.574,-44.434,-74.219,-63.477,0.000
1728626035.853,-39.062,-36.133,-68.359,-34.180,0.000
1728626035.857,-41.992,-33.691,-66.895,-10.742,0.000
1728626035.861,-41.504,-33.691,-74.219,-18.066,0.000
1728626035.865,-42.969,-29.785,-87.891,-55.664,0.000
1728626035.869,-41.016,-46.387,-95.703,-62.500,0.000
1728626035.872,-47.852,-49.316,-90.820,-48.828,0.000
1728626035.876,-38.086,-33.691,-83.008,-18.066,0.000
1728626035.880,-33.691,-36.621,-82.520,-29.297,0.000
1728626035.884,-45.410,-46.875,-91.309,-70.312,0.000
1728626035.888,-36.133,-40.039,-77.148,-57.129,0.000
1728626035.892,-51.758,-39.062,-69.336,-37.109,0.000
1728626035.896,-52.246,-45.898,-72.266,-8.789,0.000
1728626035.900,-37.109,-40.527,-53.711,-2.930,0.000
1728626035.904,-46.875,-35.645,-41.992,-41.504,0.000
1728626035.908,-33.203,-38.086,-48.340,-60.547,0.000
1728626035.912,-44.922,-45.898,-55.176,-59.082,0.000
1728626035.916,-59.570,-50.293,-54.688,-29.297,0.000
1728626035.919,-48.828,-47.363,-52.734,-26.855,0.000
1728626035.923,-51.270,-50.293,-44.922,-73.242,0.000
1728626035.927,-51.270,-52.734,-41.016,-92.773,0.000
1728626035.931,-53.711,-44.434,-41.504,-77.148,0.000
1728626035.935,-47.363,-21.484,-33.691,-25.879,0.000
1728626035.939,-32.227,-34.180,-37.109,-2.441,0.000
1728626035.943,-24.902,-45.898,-34.180,-45.410,0.000
1728626035.947,-17.578,-40.039,-26.367,-63.965,0.000
1728626035.951,-39.551,-48.340,-41.016,-60.547,0.000
1728626035.955,-51.758,-41.504,-42.969,-31.250,0.000
1728626035.959,-34.668,-32.715,-31.250,10.742,0.000
1728626035.962,-45.898,-42.480,-30.273,-19.043,0.000
1728626035.966,-41.992,-45.898,-24.414,-56.152,0.000
1728626035.970,-41.992,-41.504,-23.438,-57.617,0.000
1728626035.974,-60.547,-35.156,-29.297,-41.504,0.000
1728626035.978,-41.016,-32.715,-21.484,-7.324,0.000
1728626035.982,-39.551,-38.574,-13.672,-36.621,0.000
1728626035.986,-28.809,-38.086,-12.695,-75.684,0.000
1728626035.990,-9.277,-35.645,-6.348,-73.242,0.000
1728626035.994,-37.598,-33.203,-1.953,-38.574,0.000
1728626035.998,-44.434,-28.809,5.371,2.441,0.000
1728626036.002,-39.062,-38.086,4.395,-22.949,0.000
1728626036.005,-35.156,-49.805,-8.301,-65.918,0.000
1728626036.009,-31.738,-41.016,-3.906,-63.965,0.000
1728626036.013,-51.758,-41.992,-5.859,-40.039,0.000
1728626036.017,-39.551,-38.574,-15.137,-3.906,0.000
1728626036.021,-41.016,-36.621,-13.672,-11.719,0.000
1728626036.025,-38.574,-38.086,-18.555,-51.270,0.000
1728626036.029,-18.555,-30.762,-24.902,-58.105,0.000
1728626036.033,-51.758,-37.109,-20.996,-47.852,0.000
1728626036.037,-57.617,-33.203,-16.602,-11.230,0.000
1728626036.040,-47.363,-26.855,-22.461,-6.836,0.000
1728626036.044,-47.852,-39.062,-24.414,-46.875,0.000
1728626036.048,-31.738,-50.293,-16.113,-64.453,0.000
1728626036.052,-44.434,-46.875,-17.578,-49.316,0.000
1728626036.056,-44.434,-28.809,-18.066,-7.812,0.000
1728626036.060,-39.551,-30.762,-24.414,-15.137,0.000
1728626036.064,-37.109,-41.992,-33.203,-59.082,0.000
1728626036.068,-15.137,-36.133,-33.203,-75.684,0.000
1728626036.072,0.000,-34.180,-32.227,-59.082,0.000
1728626036.076,0.000,-23.926,-29.297,-12.695,0.000
1728626036.080,0.000,-16.602,-26.855,6.836,0.000
1728626036.084,0.000,-24.902,-40.039,-43.457,0.000
1728626036.088,0.000,-26.367,-44.434,-65.918,0.000
1728626036.092,0.000,-25.391,-37.598,-46.387,0.000
1728626036.096,0.000,-25.391,-34.668,-19.531,0.000
1728626036.100,0.000,-17.090,-25.391,-6.348,0.000
1728626036.104,0.000,-17.090,-21.973,-39.062,0.000
1728626036.107,0.000,-30.762,-25.391,-64.453,0.000
1728626036.111,0.000,-30.273,-26.367,-54.199,0.000
1728626036.115,0.000,-25.391,-22.461,-22.461,0.000
1728626036.119,-34.180,-31.250,-22.949,-5.371,0.000
1728626036.123,-28.809,-29.785,-19.043,-23.926,0.000
1728626036.127,-16.113,-15.625,-4.883,-41.504,0.000
1728626036.130,-30.273,-18.555,-6.836,-44.434,0.000
1728626036.134,-48.828,-34.668,-12.695,-13.672,0.000
1728626036.138,-28.809,-39.062,-16.113,10.742,0.000
1728626036.142,-31.250,-38.574,-20.508,-29.785,0.000
1728626036.146,-27.832,-30.762,-15.137,-51.758,0.000
1728626036.150,-23.926,-25.391,-19.043,-41.016,0.000
1728626036.154,-37.109,-36.133,-21.973,-21.973,0.000
1728626036.158,-20.508,-31.738,-17.090,6.836,0.000
1728626036.162,-23.438,-24.902,-17.090,-19.043,0.000
1728626036.166,0.000,-30.762,-17.090,-58.594,0.000
1728626036.170,0.000,-26.855,-19.531,-47.852,0.000
1728626036.174,0.000,-33.203,-24.414,-25.391,0.000
1728626036.178,0.000,-39.551,-23.926,1.465,0.000
1728626036.182,0.000,-27.344,-24.414,-7.324,0.000
1728626036.186,0.000,-24.902,-25.391,-40.527,0.000
1728626036.189,0.000,-34.180,-22.461,-59.082,0.000
1728626036.193,0.000,-38.086,-26.367,-45.410,0.000
1728626036.197,0.000,-37.598,-34.180,-5.371,0.000
1728626036.201,0.000,-37.109,-33.203,-10.254,0.000
1728626036.205,0.000,-21.973,-27.832,-45.410,0.000
1728626036.209,0.000,-23.438,-26.855,-52.246,0.000
1728626036.213,-45.898,-44.434,-35.156,-59.082,0.000
1728626036.217,-40.527,-43.945,-44.922,-22.461,0.000
1728626036.221,-25.879,-35.645,-58.594,-6.836,0.000
1728626036.225,-27.832,-25.391,-65.430,-45.898,0.000
1728626036.229,-20.996,-22.949,-58.594,-57.129,0.000
1728626036.233,-42.480,-45.898,-61.035,-59.082,0.000
1728626036.237,-47.852,-41.504,-60.059,-22.461,0.000
1728626036.240,-39.551,-20.020,-59.570,-4.395,0.000
1728626036.244,-44.922,-27.832,-57.617,-41.016,0.000
1728626036.248,-33.203,-44.434,-52.246,-59.570,0.000
1728626036.252,-42.969,-48.340,-51.758,-60.547,0.000
1728626036.256,-53.223,-42.480,-58.105,-32.227,0.000
1728626036.260,-42.480,-43.945,-68.848,-8.301,0.000
1728626036.264,-30.762,-41.016,-57.129,-37.598,0.000
1728626036.268,-15.625,-24.902,-39.551,-56.641,0.000
1728626036.272,-30.762,-25.879,-37.598,-50.293,0.000
1728626036.276,-42.480,-42.969,-33.203,-31.738,0.000
1728626036.280,-31.738,-43.945,-29.297,-15.137,0.000
1728626036.284,-39.062,-42.969,-38.086,-41.504,0.000
1728626036.288,-33.691,-41.504,-34.180,-64.941,0.000
1728626036.291,-24.414,-38.574,-17.090,-51.270,0.000
1728626036.295,-34.180,-31.250,-8.789,-24.902,0.000
1728626036.299,-32.715,-28.320,-8.789,5.859,0.000
1728626036.303,-33.691,-34.180,-14.160,-26.367,0.000
1728626036.307,-26.855,-38.574,-26.855,-62.500,0.000
1728626036.311,-39.062,-41.016,-41.992,-65.430,0.000
1728626036.315,-42.969,-29.297,-27.344,-33.691,0.000
1728626036.319,-27.344,-20.508,-10.742,10.254,0.000
1728626036.323,-55.664,-31.250,-29.297,-31.250,0.000
1728626036.327,-61.035,-49.805,-44.434,-69.336,0.000
1728626036.330,-38.574,-53.711,-41.992,-54.688,0.000
1728626036.334,-46.875,-41.992,-48.340,-36.133,0.000
1728626036.338,-39.062,-36.133,-48.340,-2.441,0.000
1728626036.342,-43.457,-39.551,-41.992,-9.766,0.000
1728626036.346,-51.758,-45.898,-41.504,-61.523,0.000
1728626036.350,-33.691,-52.734,-35.156,-79.590,0.000
1728626036.354,-45.410,-48.340,-27.344,-47.852,0.000
1728626036.358,-51.270,-35.156,-21.973,-5.859,0.000
1728626036.362,-45.898,-30.762,-26.855,-18.555,0.000
1728626036.366,-37.598,-40.039,-40.039,-55.664,0.000
1728626036.369,-28.320,-41.992,-37.109,-62.500,0.000
1728626036.373,-52.734,-37.109,-21.973,-53.223,0.000
1728626036.377,-45.410,-36.621,-15.137,-24.902,0.000
1728626036.381,-24.414,-45.410,-22.949,-14.648,0.000
1728626036.385,-41.992,-48.828,-32.715,-47.852,0.000
1728626036.389,-45.898,-45.410,-38.574,-69.824,0.000
1728626036.393,-49.316,-41.504,-45.898,-60.059,0.000
1728626036.397,-47.363,-35.645,-44.922,-16.602,0.000
1728626036.401,-34.668,-30.762,-38.574,-5.371,0.000
1728626036.404,-42.480,-29.785,-52.246,-52.734,0.000
1728626036.408,-32.227,-34.180,-53.223,-69.336,0.000
1728626036.412,-32.227,-40.527,-42.480,-56.152,0.000
1728626036.416,-51.758,-48.340,-46.875,-24.902,0.000
1728626036.420,-57.617,-41.504,-54.688,-3.418,0.000
1728626036.424,-53.223,-30.273,-46.387,-33.691,0.000
1728626036.428,-32.227,-37.109,-41.016,-59.082,0.000
1728626036.432,-39.551,-34.180,-47.852,-58.594,0.000
1728626036.436,-49.316,-26.367,-45.898,-32.715,0.000
1728626036.440,-40.039,-28.320,-47.363,-7.812,0.000
1728626036.444,-49.316,-29.785,-53.711,-38.574,0.000
1728626036.447,-27.344,-26.855,-63.477,-64.453,0.000
1728626036.451,-30.273,-32.715,-82.031,-57.617,0.000
1728626036.455,-61.035,-33.691,-93.750,-33.203,0.000
1728626036.459,-58.105,-29.297,-102.539,-9.277,0.000
1728626036.463,-56.641,-31.250,-98.145,-34.180,0.000
1728626036.467,-41.016,-34.180,-89.355,-61.523,0.000
1728626036.471,-27.344,-41.992,-88.867,-60.547,0.000
1728626036.475,-28.320,-36.133,-83.008,-48.828,0.000
1728626036.478,-11.230,-10.254,-72.754,-12.695,0.000
1728626036.482,-17.090,-19.531,-72.266,-22.461,0.000
1728626036.486,-44.434,-42.480,-77.637,-60.547,0.000
1728626036.490,-56.641,-37.598,-73.242,-60.547,0.000
1728626036.494,-65.918,-37.598,-66.895,-38.086,0.000
1728626036.498,-43.457,-40.039,-63.965,-3.906,0.000
1728626036.501,-31.738,-32.227,-59.570,-22.461,0.000
1728626036.505,-28.320,-25.391,-51.758,-58.594,0.000
1728626036.509,-25.391,-19.531,-48.828,-60.547,0.000
1728626036.513,-42.480,-22.461,-52.734,-35.645,0.000
1728626036.517,-33.691,-28.320,-63.477,-8.789,0.000
1728626036.521,-34.668,-31.250,-66.895,-37.109,0.000
1728626036.525,-34.180,-29.297,-61.523,-65.430,0.000
1728626036.529,-19.043,-30.273,-64.941,-57.617,0.000
1728626036.533,-41.992,-31.250,-75.684,-61.035,0.000
1728626036.537,-40.527,-23.438,-69.824,-27.344,0.000
1728626036.541,-24.902,-20.020,0.000,-15.137,0.000
1728626036.545,-21.484,-29.297,0.000,-59.570,0.000
1728626036.549,-18.555,-28.809,0.000,-69.336,0.000
1728626036.553,-44.922,-28.320,0.000,-62.988,0.000
1728626036.557,-37.598,-29.785,0.000,-16.602,0.000
1728626036.560,-22.949,-30.762,0.000,4.395,0.000
1728626036.564,-30.762,-30.273,0.000,-37.109,0.000
1728626036.568,-21.484,-20.996,0.000,-57.617,0.000
1728626036.572,-41.504,-22.461,0.000,-53.711,0.000
1728626036.576,-46.387,-28.320,0.000,-9.766,0.000
1728626036.580,-44.922,-32.227,0.000,2.930,0.000
1728626036.584,-60.059,-33.691,0.000,-53.223,0.000
1728626036.588,-30.273,-31.250,-32.715,-67.871,0.000
1728626036.592,-17.578,-25.879,-36.133,-45.410,0.000
1728626036.596,-35.645,-21.484,-33.203,-10.742,0.000
1728626036.600,-37.598,-21.484,-20.996,17.578,0.000
1728626036.604,-41.016,-23.926,-20.508,-20.020,0.000
1728626036.608,-18.555,-20.508,-21.484,-47.363,0.000
1728626036.611,-17.578,-10.742,-19.043,-44.434,0.000
1728626036.615,-41.016,-20.020,-21.973,-21.973,0.000
1728626036.619,-40.039,-30.762,-27.832,7.324,0.000
1728626036.623,-44.434,-38.574,-32.227,-24.414,0.000
1728626036.627,-31.738,-34.668,-29.297,-58.105,0.000
1728626036.631,-20.996,-26.367,-25.391,-48.828,0.000
1728626036.635,0.000,-25.391,-22.949,-16.113,0.000
1728626036.639,0.000,-15.625,-10.254,15.625,0.000
1728626036.643,0.000,-17.578,-18.066,-27.344,0.000
1728626036.647,0.000,-30.273,-24.902,-56.152,0.000
1728626036.651,0.000,-36.133,-20.508,-47.852,0.000
1728626036.655,0.000,-33.203,-20.020,-27.832,0.000
1728626036.658,0.000,-24.414,-11.719,0.977,0.000
1728626036.662,0.000,-32.715,-4.395,-10.254,0.000
1728626036.666,0.000,-41.992,0.488,-34.180,0.000
1728626036.670,0.000,-33.691,6.348,-51.270,0.000
1728626036.674,0.000,-20.508,10.742,-29.785,0.000
1728626036.678,0.000,-11.230,9.766,15.137,0.000
1728626036.682,-23.438,-21.484,0.977,-9.277,0.000
1728626036.686,-39.062,-33.691,-3.906,-63.965,0.000
1728626036.690,-22.949,-35.156,-3.906,-77.637,0.000
1728626036.694,-39.062,-34.180,-5.859,-56.152,0.000
1728626036.697,-36.621,-22.949,2.441,-5.859,0.000
1728626036.701,-17.578,-21.973,1.465,0.977,0.000
1728626036.705,-27.832,-20.020,-6.836,-45.410,0.000
1728626036.709,-28.320,-22.461,-13.184,-54.688,0.000
1728626036.713,-45.898,-27.344,-16.602,-26.855,0.000
1728626036.717,-51.758,-27.344,-13.672,-5.371,0.000
1728626036.721,-42.480,-31.250,-16.113,-2.930,0.000
1728626036.725,-39.062,-35.645,-34.180,-37.109,0.000
1728626036.729,-24.414,-33.691,-49.316,-67.871,0.000
1728626036.733,-30.762,-21.973,-47.363,-48.828,0.000
1728626036.737,-25.391,-15.137,-33.691,1.465,0.000
1728626036.740,-14.648,-25.391,-27.344,12.207,0.000
1728626036.744,-25.879,-28.320,-30.762,-26.855,0.000
1728626036.748,-25.391,-22.949,-38.086,-45.410,0.000
1728626036.752,-41.992,-26.855,-40.527,-38.574,0.000
1728626036.756,-46.387,-26.855,-26.855,-6.836,0.000
1728626036.760,-30.762,-14.648,-7.812,11.230,0.000
1728626036.764,-39.551,-14.648,-9.277,-32.715,0.000
1728626036.768,-23.926,-13.184,-7.324,-51.758,0.000
1728626036.772,-24.414,-16.602,-2.930,-49.805,0.000
1728626036.775,-45.898,-31.738,-16.113,-33.691,0.000
1728626036.779,-24.902,-22.949,-21.484,-3.906,0.000
1728626036.783,-27.344,-20.996,-17.578,-28.809,0.000
1728626036.787,-27.344,-31.250,-15.137,-52.734,0.000
1728626036.791,-24.902,-32.227,-13.672,-54.199,0.000
1728626036.795,-56.641,-30.762,-21.973,-42.480,0.000
1728626036.799,-41.504,-25.879,-25.879,-7.324,0.000
1728626036.803,-33.203,-27.344,-24.902,-32.227,0.000
1728626036.807,-34.180,-26.367,-22.949,-73.242,0.000
1728626036.811,-29.297,-28.809,-26.855,-64.453,0.000
1728626036.814,-41.504,-28.320,-28.320,-35.645,0.000
1728626036.818,-36.621,-26.855,-14.648,-1.953,0.000
1728626036.822,-36.133,-31.738,-11.230,-15.137,0.000
1728626036.826,-20.020,-22.949,-19.043,-41.504,0.000
1728626036.830,-8.789,-17.090,-18.555,-55.176,0.000
1728626036.834,-26.367,-20.996,-20.020,-46.875,0.000
1728626036.838,-28.809,-25.879,-23.926,-14.648,0.000
1728626036.842,-38.574,-30.273,-28.320,-24.902,0.000
1728626036.845,-41.992,-38.574,-33.691,-56.152,0.000
1728626036.849,-35.156,-35.156,-33.203,-58.105,0.000
1728626036.853,-40.039,-23.926,-25.391,-43.945,0.000
1728626036.857,-33.203,-21.484,-18.555,4.395,0.000
1728626036.861,-15.625,-25.391,-29.297,8.301,0.000
1728626036.865,-18.555,-23.438,-30.762,-40.039,0.000
1728626036.869,-11.230,-20.996,-25.879,-55.664,0.000
1728626036.872,-34.668,-28.809,-36.621,-42.969,0.000
1728626036.876,-42.480,-24.414,-31.250,-8.301,0.000
1728626036.880,-29.297,-20.996,-27.832,-11.719,0.000
1728626036.884,-43.457,-36.621,-40.039,-51.758,0.000
1728626036.888,-37.598,-43.457,-41.504,-58.594,0.000
1728626036.892,-38.086,-35.645,-34.180,-40.039,0.000
1728626036.896,-51.270,-30.762,-22.949,-5.859,0.000
1728626036.900,-43.945,-22.461,-26.367,-2.441,0.000
1728626036.904,-39.551,-27.832,-37.598,-48.340,0.000
1728626036.908,-35.156,-42.969,-33.203,-67.383,0.000
1728626036.912,-35.156,-34.668,-28.320,-46.875,0.000
1728626036.916,-35.645,-22.461,-30.762,-22.461,0.000
1728626036.920,-27.344,-27.344,-33.691,-9.766,0.000
1728626036.924,-23.926,-33.691,-36.621,-40.039,0.000
1728626036.928,-26.367,-29.297,-32.227,-61.523,0.000
1728626036.931,-42.969,-30.273,-26.855,-54.199,0.000
1728626036.935,-42.969,-40.527,-24.414,-25.879,0.000
1728626036.939,-26.367,-40.527,-20.020,-2.930,0.000
1728626036.943,-43.457,-37.598,-29.785,-40.527,0.000
1728626036.947,-36.133,-42.969,-35.156,-57.617,0.000
1728626036.951,-35.645,-51.758,-38.086,-37.598,0.000
1728626036.955,-55.664,-43.457,-35.645,-27.344,0.000
1728626036.959,-33.691,-36.621,-30.762,-0.488,0.000
1728626036.963,0.000,-29.785,-33.203,-12.695,0.000
1728626036.967,0.000,-24.902,-36.133,-50.293,0.000
1728626036.971,0.000,-40.527,-33.203,-65.430,0.000
1728626036.975,0.000,-51.270,-38.086,-52.246,0.000
1728626036.979,0.000,-50.293,-36.621,-14.160,0.000
1728626036.983,0.000,-50.293,-27.344,-34.668,0.000
1728626036.986,0.000,-47.363,-30.762,-74.219,0.000
1728626036.990,0.000,-40.527,-30.762,-72.266,0.000
1728626036.994,0.000,-41.992,-34.180,-45.898,0.000
1728626036.998,0.000,-41.504,-36.621,-8.301,0.000
1728626037.002,0.000,-34.668,-42.969,-17.578,0.000
1728626037.006,0.000,-38.574,-52.246,-44.434,0.000
1728626037.010,-8.301,-42.480,-61.035,-48.828,0.000
1728626037.014,-51.758,-35.156,-68.848,-37.109,0.000
1728626037.018,-48.340,-32.227,-61.523,10.254,0.000
1728626037.022,-33.203,-37.109,-55.664,-0.977,0.000
1728626037.026,-32.715,-42.969,-55.664,-51.270,0.000
1728626037.030,-33.203,-42.969,-53.223,-56.152,0.000
1728626037.034,-53.711,-39.551,-42.969,-48.828,0.000
1728626037.037,-46.875,-39.062,-25.879,-8.301,0.000
1728626037.041,-31.250,-38.086,-18.555,8.301,0.000
1728626037.045,-33.203,-34.180,-17.090,-43.945,0.000
1728626037.049,-26.367,-32.227,-21.973,-62.012,0.000
1728626037.053,-39.551,-39.062,-32.227,-46.875,0.000
1728626037.057,-32.715,-39.062,-27.832,-15.625,0.000
1728626037.061,-22.949,-37.109,-24.902,-6.348,0.000
1728626037.065,-39.551,-41.504,-31.738,-53.223,0.000
1728626037.069,-29.297,-40.527,-30.273,-64.941,0.000
1728626037.073,-42.969,-36.621,-30.273,-49.316,0.000
1728626037.076,-46.387,-30.762,-25.879,-19.531,0.000
1728626037.080,-38.086,-24.902,-12.695,0.000,0.000
1728626037.084,-48.828,-32.227,-22.949,-36.133,0.000
1728626037.088,-35.645,-40.039,-35.156,-55.664,0.000
1728626037.092,-37.598,-37.109,-26.855,-52.246,0.000
1728626037.096,-45.898,-34.668,-19.531,-27.832,0.000
1728626037.100,-27.344,-26.855,-22.949,-11.719,0.000
1728626037.104,-34.668,-30.273,-25.879,-43.457,0.000
1728626037.108,-39.551,-30.273,-20.020,-58.594,0.000
1728626037.112,-32.227,-18.066,-18.066,-51.270,0.000
1728626037.116,-46.875,-21.973,-11.230,-21.973,0.000
1728626037.119,-42.480,-24.902,-12.207,8.301,0.000
1728626037.123,-45.898,-27.344,-25.879,-35.156,0.000
1728626037.127,-43.945,-35.156,-37.109,-74.219,0.000
1728626037.131,-37.109,-36.621,-37.109,-61.523,0.000
1728626037.135,-47.363,-30.762,-28.320,-45.410,0.000
1728626037.139,-32.227,-17.578,-27.344,-17.090,0.000
1728626037.143,-33.691,-26.367,-36.133,-25.879,0.000
1728626037.147,-41.016,-42.969,-38.086,-68.359,0.000
1728626037.151,-30.273,-31.250,-31.250,-70.801,0.000
1728626037.154,-41.992,-22.949,-30.273,-49.805,0.000
1728626037.158,-47.852,-31.250,-42.969,-13.672,0.000
1728626037.162,-56.641,-40.039,-61.523,-29.785,0.000
1728626037.166,-58.594,-42.969,-70.312,-76.172,0.000
1728626037.170,-39.551,-36.133,-59.570,-70.312,0.000
1728626037.174,-52.734,-39.062,-49.805,-46.387,0.000
1728626037.178,-41.504,-41.504,-50.293,-7.812,0.000
1728626037.182,-21.973,-26.367,-34.180,-2.930,0.000
1728626037.186,-25.391,-28.809,-20.996,-41.504,0.000
1728626037.190,-8.789,-33.691,-24.414,-48.340,0.000
1728626037.193,-41.016,-35.645,-38.574,-48.340,0.000
1728626037.197,-48.340,-39.551,-35.156,-16.602,0.000
1728626037.201,-36.133,-51.758,-46.875,-8.301,0.000
1728626037.205,-51.270,-52.246,-76.172,-56.152,0.000
1728626037.209,-32.227,-44.922,-82.520,-64.941,0.000
1728626037.213,-36.621,-46.875,-82.031,-38.086,0.000
1728626037.217,-37.109,-49.316,-83.496,-7.812,0.000
1728626037.221,-24.414,-49.316,-82.031,0.000,0.000
1728626037.225,-35.156,-33.691,-75.195,-36.621,0.000
1728626037.228,-5.371,-26.367,-62.012,-49.316,0.000
1728626037.232,-9.277,-49.316,-50.781,-26.855,0.000
1728626037.236,16.602,-24.414,-27.344,40.039,0.000
1728626037.240,38.574,1.465,-57.617,51.270,0.000
1728626037.244,-18.066,-42.969,-130.859,-37.598,0.000
1728626037.248,10.254,-65.430,-82.520,-30.273,0.000
1728626037.252,16.113,-58.594,-28.809,-7.324,0.000
1728626037.255,-6.836,-11.230,-55.176,4.883,0.000
1728626037.259,56.641,-6.836,-58.594,69.336,0.000
1728626037.263,51.270,-40.039,-74.219,52.246,0.000
1728626037.267,-20.020,-84.961,-93.750,-41.016,0.000
1728626037.271,0.488,-90.820,-23.438,-32.715,0.000
1728626037.275,27.832,-24.414,-6.348,27.832,0.000
1728626037.279,99.121,-7.324,-12.695,124.512,0.000
1728626037.283,82.031,-48.828,-17.090,98.633,0.000
1728626037.287,112.793,-34.180,-64.453,89.844,0.000
1728626037.291,233.887,9.766,-39.551,199.707,0.000
1728626037.295,-9.766,-161.133,-78.125,34.180,0.000
1728626037.299,-20.996,-206.543,-16.602,25.879,0.000
1728626037.303,228.516,-14.160,115.234,223.633,0.000
1728626037.307,215.332,10.742,24.902,212.891,0.000
1728626037.310,221.191,17.090,-123.535,248.047,0.000
1728626037.314,192.383,-40.527,-180.664,249.512,0.000
1728626037.318,134.766,-6.348,-28.320,240.234,0.000
1728626037.322,-64.453,27.832,-60.547,85.938,0.000
1728626037.326,-206.543,-52.246,-179.199,-82.520,0.000
1728626037.330,-97.656,88.379,-103.027,2.930,0.000
1728626037.334,-115.723,135.254,-137.695,39.062,0.000
1728626037.338,-128.418,177.246,-196.289,80.078,0.000
1728626037.342,-66.406,291.992,-162.109,134.766,0.000
1728626037.346,-44.922,315.918,-132.812,126.465,0.000
1728626037.350,-25.879,347.168,-108.398,149.414,0.000
1728626037.354,-22.461,382.324,-82.520,190.918,0.000
1728626037.358,-22.949,403.320,-83.984,240.723,0.000
1728626037.361,-42.480,416.504,-102.539,255.371,0.000
1728626037.365,-55.664,421.875,-116.699,210.449,0.000
1728626037.369,-35.156,437.988,-118.652,185.547,0.000
1728626037.373,-56.152,452.148,-131.348,188.477,0.000
1728626037.377,-77.148,472.168,-149.902,203.125,0.000
1728626037.381,-73.730,492.188,-165.039,194.336,0.000
1728626037.385,-80.566,475.586,-172.363,157.227,0.000
1728626037.389,-83.496,452.148,-164.551,126.953,0.000
1728626037.393,-99.121,447.754,-152.832,122.070,0.000
1728626037.397,-102.539,428.711,-147.949,152.832,0.000
1728626037.401,-100.586,405.273,-150.391,155.273,0.000
1728626037.404,-112.793,383.301,-148.926,110.840,0.000
1728626037.408,-104.004,359.863,-145.020,91.309,0.000
1728626037.412,-109.375,328.125,-151.855,89.844,0.000
1728626037.416,-118.164,279.785,-156.250,109.375,0.000
1728626037.420,-110.840,264.648,-149.414,126.465,0.000
1728626037.424,-100.098,267.578,-136.719,95.215,0.000
1728626037.428,-94.238,242.188,-130.371,59.082,0.000
1728626037.432,-90.820,224.121,-120.117,54.688,0.000
1728626037.436,-79.102,234.375,-94.727,82.031,0.000
1728626037.440,-59.570,230.469,-80.078,107.422,0.000
1728626037.444,-63.965,204.102,-85.938,70.801,0.000
1728626037.447,-43.945,209.961,-125.977,33.691,0.000
1728626037.451,-15.137,205.566,-155.762,44.434,0.000
1728626037.455,-19.531,146.973,-163.574,63.477,0.000
1728626037.459,0.000,96.680,-154.785,98.633,0.000
1728626037.463,25.879,62.988,-115.723,105.957,0.000
1728626037.467,61.035,33.203,-71.289,72.754,0.000
1728626037.471,95.703,22.949,-26.367,83.008,0.000
1728626037.475,85.449,-9.766,20.020,119.629,0.000
1728626037.479,96.680,-56.641,54.199,152.832,0.000
1728626037.483,117.676,-110.840,72.754,139.160,0.000
1728626037.486,131.348,-150.879,95.703,107.422,0.000
1728626037.490,141.113,-157.715,113.281,106.934,0.000
1728626037.494,122.559,-170.410,115.723,112.793,0.000
1728626037.498,146.484,-172.852,136.719,161.133,0.000
1728626037.502,160.156,-186.523,160.645,157.715,0.000
1728626037.506,126.953,-226.074,152.832,89.844,0.000
1728626037.510,125.000,-236.816,146.484,58.594,0.000
1728626037.514,115.234,-248.535,143.066,72.754,0.000
1728626037.518,105.469,-276.367,138.184,104.004,0.000
1728626037.522,105.957,-290.527,142.090,81.543,0.000
1728626037.525,97.656,-286.133,144.043,27.832,0.000
1728626037.529,100.098,-293.457,128.906,1.953,0.000
1728626037.533,72.266,-313.477,107.422,1.465,0.000
1728626037.537,43.945,-299.805,112.793,24.414,0.000
1728626037.541,41.992,-284.668,108.887,17.090,0.000
1728626037.545,41.504,-284.668,93.750,-19.043,0.000
1728626037.549,57.129,-282.227,94.238,-21.484,0.000
1728626037.553,35.645,-279.297,88.867,-22.461,0.000
1728626037.557,10.254,-282.227,81.543,-1.953,0.000
1728626037.561,14.648,-271.484,83.984,20.996,0.000
1728626037.564,5.859,-247.070,71.777,-24.414,0.000
1728626037.568,4.883,-236.816,65.430,-60.059,0.000
1728626037.572,3.906,-216.309,79.590,-59.570,0.000
1728626037.576,11.230,-212.402,77.637,-44.922,0.000
1728626037.580,1.465,-217.773,65.430,-27.832,0.000
1728626037.584,-43.457,-207.520,62.500,-56.641,0.000
1728626037.588,-28.320,-208.984,55.664,-79.590,0.000
1728626037.591,-11.230,-218.750,46.875,-65.918,0.000
1728626037.595,-29.785,-236.328,54.199,-34.668,0.000
1728626037.599,-35.156,-244.629,60.059,-13.672,0.000
1728626037.603,-35.645,-233.398,49.805,-51.758,0.000
1728626037.607,-4.883,-239.746,43.457,-88.867,0.000
1728626037.611,-10.254,-239.258,45.410,-85.938,0.000
1728626037.615,-45.410,-222.168,34.180,-51.270,0.000
1728626037.618,-36.621,-223.145,22.461,-20.508,0.000
1728626037.622,-36.133,-228.027,10.742,-58.105,0.000
1728626037.626,-20.996,-210.938,0.000,-94.727,0.000
1728626037.630,-22.949,-201.660,-0.488,-83.008,0.000
1728626037.634,-47.363,-214.355,-1.465,-68.359,0.000
1728626037.638,-36.621,-202.148,-7.324,-38.574,0.000
1728626037.642,-39.062,-163.086,-10.254,-33.203,0.000
1728626037.646,-39.062,-152.832,-11.230,-66.895,0.000
1728626037.650,-19.531,-161.133,-9.766,-87.891,0.000
1728626037.654,-37.109,-144.531,1.953,-78.613,0.000
1728626037.658,-48.828,-137.695,8.301,-42.969,0.000
1728626037.661,-42.480,-151.855,-4.883,-56.152,0.000
1728626037.666,0.000,-143.555,-11.230,-98.633,0.000
1728626037.670,0.000,-133.301,-1.953,-94.727,0.000
1728626037.674,0.000,-137.207,0.977,-79.102,0.000
1728626037.677,0.000,-151.855,0.000,-47.363,0.000
1728626037.681,0.000,-150.879,-1.465,-41.992,0.000
1728626037.685,0.000,-154.297,-10.742,-90.332,0.000
1728626037.689,0.000,-156.738,-11.230,-104.980,0.000
1728626037.693,0.000,-143.066,-4.883,-89.844,0.000
1728626037.697,0.000,-127.441,-4.883,-50.293,0.000
1728626037.701,0.000,-120.605,-14.648,-50.781,0.000
1728626037.705,0.000,-112.305,-5.859,-95.215,0.000
1728626037.709,0.000,-107.422,4.395,-99.609,0.000
1728626037.711,-34.668,-109.375,-5.371,-89.355,0.000
1728626037.715,-16.113,-103.516,-4.883,-61.035,0.000
1728626037.719,-44.434,-112.793,-10.742,-56.641,0.000
1728626037.722,-56.641,-120.117,-29.785,-98.633,0.000
1728626037.726,-42.480,-110.352,-36.621,-115.234,0.000
1728626037.730,-47.363,-100.586,-33.203,-100.586,0.000
1728626037.734,-41.992,-82.520,-26.367,-66.895,0.000
1728626037.738,-42.969,-70.312,-23.438,-44.922,0.000
1728626037.742,-43.457,-84.961,-28.809,-82.031,0.000
1728626037.746,-55.664,-106.445,-27.344,-103.027,0.000
1728626037.750,-67.383,-105.957,-33.203,-105.469,0.000
1728626037.754,-41.992,-96.680,-28.809,-76.660,0.000
1728626037.758,-58.594,-104.492,-28.320,-53.223,0.000
1728626037.762,-52.734,-113.281,-35.156,-90.332,0.000
1728626037.766,-33.691,-105.957,-27.832,-107.422,0.000
1728626037.770,-32.715,-98.145,-24.414,-96.680,0.000
1728626037.773,-48.340,-93.750,-21.484,-64.941,0.000
1728626037.777,-24.902,-69.336,-18.555,-38.574,0.000
1728626037.781,-34.180,-59.082,-19.531,-67.383,0.000
1728626037.785,-39.062,-67.871,-27.344,-95.215,0.000
1728626037.789,-37.598,-71.777,-32.715,-89.355,0.000
1728626037.793,-68.848,-54.688,-29.785,-57.617,0.000
1728626037.797,-61.035,-33.691,-39.551,-28.320,0.000
1728626037.801,-53.223,-31.250,-55.176,-54.688,0.000
1728626037.805,-49.316,-28.320,-65.430,-95.703,0.000
1728626037.809,-47.363,-25.391,-63.965,-104.492,0.000
1728626037.813,-48.828,-24.902,-47.363,-77.148,0.000
1728626037.817,-39.062,-28.320,-34.668,-30.762,0.000
1728626037.820,-46.387,-43.945,-37.109,-48.340,0.000
1728626037.824,-37.598,-53.223,-37.109,-93.750,0.000
1728626037.828,-31.250,-38.086,-29.785,-90.820,0.000
1728626037.832,-34.668,-11.230,-20.508,-54.688,0.000
1728626037.836,-14.160,1.953,-14.648,-14.648,0.000
1728626037.840,-22.461,6.348,-10.742,-35.645,0.000
1728626037.844,-36.133,2.441,-10.742,-80.078,0.000
1728626037.848,-38.086,-8.789,-17.090,-92.773,0.000
1728626037.852,-50.293,-14.648,-12.207,-83.984,0.000
1728626037.856,-42.969,-11.719,4.395,-41.504,0.000
1728626037.860,-31.250,-18.066,3.418,-33.691,0.000
1728626037.863,-28.320,-28.320,-7.812,-68.359,0.000
1728626037.867,-22.949,-13.184,-14.648,-87.402,0.000
1728626037.871,-33.203,-6.836,-19.043,-78.613,0.000
1728626037.875,-31.250,1.953,-17.578,-33.691,0.000
1728626037.879,-26.367,8.301,-5.859,-15.137,0.000
1728626037.883,-51.758,-20.508,-1.953,-71.289,0.000
1728626037.887,-35.645,-25.879,-7.324,-97.656,0.000
1728626037.891,-29.785,-27.344,-15.625,-84.473,0.000
1728626037.895,-55.664,-47.363,-13.184,-58.594,0.000
1728626037.899,0.000,-42.480,-9.277,-28.809,0.000
1728626037.903,0.000,-33.691,-16.113,-64.453,0.000
1728626037.906,0.000,-38.086,-24.414,-89.355,0.000
1728626037.910,0.000,-44.922,-18.555,-74.219,0.000
1728626037.914,0.000,-53.711,7.812,-32.715,0.000
1728626037.918,0.000,-75.684,5.859,-12.207,0.000
1728626037.922,0.000,-91.309,-15.625,-61.035,0.000
1728626037.926,0.000,-92.285,-15.137,-91.797,0.000
1728626037.930,0.000,-89.355,-20.508,-89.355,0.000
1728626037.934,0.000,-78.613,-27.344,-67.871,0.000
1728626037.938,0.000,-70.801,-25.391,-40.527,0.000
1728626037.942,0.000,-66.406,-38.086,-64.453,0.000
1728626037.945,-32.227,-51.758,-43.945,-89.355,0.000
1728626037.949,-48.828,-54.199,-41.016,-92.285,0.000
1728626037.953,-75.684,-69.824,-36.621,-73.242,0.000
1728626037.957,-51.758,-65.918,-31.250,-36.621,0.000
1728626037.961,-47.363,-62.988,-37.109,-53.711,0.000
1728626037.965,-22.461,-63.965,-39.062,-72.754,0.000
1728626037.969,-18.555,-57.129,-42.480,-65.430,0.000
1728626037.973,-70.312,-51.758,-49.805,-68.848,0.000
1728626037.977,-66.406,-45.410,-48.340,-49.805,0.000
1728626037.980,-41.992,-36.621,-40.039,-53.223,0.000
1728626037.984,-55.176,-31.250,-36.133,-83.008,0.000
1728626037.988,-63.965,-32.227,-38.086,-93.750,0.000
1728626037.992,-76.172,-36.133,-39.551,-84.961,0.000
1728626037.996,-59.570,-21.484,-26.367,-31.250,0.000
1728626038.000,-40.527,-11.719,-18.555,-23.438,0.000
1728626038.004,-46.875,-21.484,-28.809,-72.754,0.000
1728626038.008,-41.992,-27.344,-40.527,-83.496,0.000
1728626038.011,-61.523,-31.250,-48.828,-74.219,0.000
1728626038.015,-58.105,-19.531,-47.852,-34.180,0.000
1728626038.019,-45.410,-3.418,-41.504,-31.250,0.000
1728626038.023,-56.152,-13.184,-51.270,-73.730,0.000
1728626038.027,-32.227,-28.809,-51.270,-73.730,0.000
1728626038.031,-46.875,-30.762,-35.156,-64.941,0.000
1728626038.035,-73.730,-23.926,-24.414,-49.316,0.000
1728626038.039,0.000,-17.578,-28.320,-47.363,0.000
1728626038.043,0.000,-27.344,-35.645,-82.520,0.000
1728626038.047,0.000,-33.203,-32.227,-89.844,0.000
1728626038.051,0.000,-39.551,-35.156,-81.543,0.000
1728626038.055,0.000,-52.246,-51.758,-56.641,0.000
1728626038.059,0.000,-62.988,-63.965,-35.645,0.000
1728626038.063,0.000,-57.129,-55.176,-67.871,0.000
1728626038.067,0.000,-40.527,-48.828,-102.051,0.000
1728626038.071,0.000,-52.734,-46.387,-96.191,0.000
1728626038.074,0.000,-58.105,-35.156,-50.293,0.000
1728626038.078,0.000,-25.879,-28.320,-26.367,0.000
1728626038.082,0.000,-22.949,-34.668,-70.312,0.000
1728626038.086,-45.410,-21.973,0.000,-92.773,0.000
1728626038.090,-38.086,-12.695,0.000,-83.008,0.000
1728626038.094,-59.082,-17.090,0.000,-58.594,0.000
1728626038.098,-42.480,-9.766,0.000,-23.438,0.000
1728626038.102,-45.410,-19.531,0.000,-51.270,0.000
1728626038.106,-48.340,-23.438,0.000,-80.078,0.000
1728626038.110,-37.598,-9.766,0.000,-67.383,0.000
1728626038.114,-41.992,-1.953,0.000,-36.621,0.000
1728626038.118,-29.785,-3.906,0.000,-12.695,0.000
1728626038.122,-36.133,-9.277,0.000,-44.922,0.000
1728626038.126,-18.555,5.371,0.000,-84.961,0.000
1728626038.129,-6.836,13.184,0.000,-68.848,0.000
1728626038.134,-29.785,-0.977,-87.891,-41.992,0.000
1728626038.137,-26.855,1.953,-86.426,-14.648,0.000
1728626038.141,-36.133,1.465,-98.145,-33.203,0.000
1728626038.145,-43.457,-4.395,-106.934,-80.078,0.000
1728626038.149,-46.387,-2.930,-98.633,-86.426,0.000
1728626038.153,-64.941,-9.766,-97.656,-67.383,0.000
1728626038.157,-48.340,-7.324,-95.215,-30.273,0.000
1728626038.161,-35.645,-3.418,-86.426,-39.062,0.000
1728626038.165,-43.945,-4.883,-86.914,-67.383,0.000
1728626038.169,-49.316,6.836,-74.707,-69.824,0.000
1728626038.173,-49.805,-2.930,-64.941,-54.688,0.000
1728626038.177,-36.133,-20.996,-65.430,-6.348,0.000
1728626038.181,-34.668,-17.578,-58.105,-8.789,0.000
1728626038.184,-41.016,-20.996,-63.477,-66.406,0.000
1728626038.188,-25.879,-20.996,-65.918,-76.660,0.000
1728626038.192,-42.969,-22.461,-58.594,-51.270,0.000
1728626038.196,-42.480,-21.484,-59.570,-22.949,0.000
1728626038.200,-37.598,-15.137,-72.754,-27.832,0.000
1728626038.204,-48.340,-17.090,-69.824,-57.617,0.000
1728626038.208,-18.555,-10.742,-66.406,-58.105,0.000
1728626038.212,-20.020,-11.719,-70.312,-53.711,0.000
1728626038.216,-46.387,-26.855,-61.523,-23.438,0.000
1728626038.220,-55.176,-32.715,-56.641,-6.348,0.000
1728626038.224,-53.711,-33.203,-68.848,-47.852,0.000
1728626038.227,0.000,-35.645,-79.590,-79.102,0.000
1728626038.231,0.000,-21.484,-78.125,-63.477,0.000
1728626038.235,0.000,-21.484,-72.754,-26.855,0.000
1728626038.239,0.000,-43.945,-65.918,-15.137,0.000
1728626038.243,0.000,-51.758,-75.684,-55.664,0.000
1728626038.247,0.000,-53.711,-81.055,-79.102,0.000
1728626038.251,0.000,-42.480,-64.453,-60.547,0.000
1728626038.255,0.000,-35.645,-52.246,-31.738,0.000
1728626038.259,0.000,-33.691,-48.828,-13.184,0.000
1728626038.263,0.000,-28.809,-45.898,-40.039,0.000
1728626038.266,0.000,-16.113,-41.992,-56.641,0.000
1728626038.270,0.000,-18.066,-34.668,-51.270,0.000
1728626038.272,-34.668,-28.320,-27.344,-39.062,0.000
1728626038.276,-36.133,-27.832,-25.391,-15.625,0.000
1728626038.280,-43.457,-28.809,-23.438,-41.992,0.000
1728626038.284,-40.527,-22.949,-23.926,-67.871,0.000
1728626038.288,-54.688,-18.066,-23.438,-64.453,0.000
1728626038.292,-58.105,-19.043,-24.414,-49.316,0.000
1728626038.296,-45.410,-11.230,-22.461,-21.973,0.000
1728626038.299,-56.152,-12.695,-29.785,-34.180,0.000
1728626038.303,-48.828,-20.508,-50.293,-66.406,0.000
1728626038.307,-41.992,-18.066,-50.781,-71.289,0.000
1728626038.311,-29.785,-16.113,-37.598,-57.129,0.000
1728626038.315,-29.785,-10.742,-32.715,-26.855,0.000
1728626038.320,-49.805,-6.836,-37.598,-27.832,0.000
1728626038.324,-0.977,2.441,-27.344,-57.129,0.000
1728626038.327,-2.930,-9.277,-21.484,-73.730,0.000
1728626038.331,-69.336,-29.785,-40.039,-77.148,0.000
1728626038.335,-63.965,-30.273,-38.086,-41.992,0.000
1728626038.339,-55.176,-33.691,-41.504,-40.527,0.000
1728626038.343,-43.945,-31.250,-54.688,-72.266,0.000
1728626038.347,-42.969,-19.043,-63.477,-78.613,0.000
1728626038.351,-57.129,-17.578,-59.082,-55.664,0.000
1728626038.355,-32.715,-12.695,-39.062,-12.695,0.000
1728626038.359,-23.926,-1.465,-35.156,-5.371,0.000
1728626038.363,-45.410,-17.578,-46.875,-62.988,0.000
1728626038.366,-35.156,-26.367,-41.016,-88.379,0.000
1728626038.370,-53.711,-23.438,-31.250,-79.590,0.000
1728626038.374,-48.828,-24.414,-32.227,-38.086,0.000
1728626038.378,-19.531,-22.949,-28.809,-21.973,0.000
1728626038.382,-32.715,-30.762,-26.367,-62.988,0.000
1728626038.386,-20.996,-43.945,-21.973,-79.590,0.000
1728626038.390,-42.480,-40.039,-29.785,-64.941,0.000
1728626038.394,-61.523,-25.879,-28.320,-24.902,0.000
1728626038.398,-41.016,-23.438,-17.578,-14.160,0.000
1728626038.401,-34.668,-27.832,-17.090,-42.969,0.000
1728626038.405,-28.320,-37.109,-14.160,-56.152,0.000
1728626038.409,-45.410,-31.250,-12.207,-50.781,0.000
1728626038.414,-59.570,-33.691,-22.949,-41.016,0.000
1728626038.418,-40.039,-40.039,-33.203,-28.809,0.000
1728626038.421,-42.480,-38.086,-34.668,-54.199,0.000
1728626038.425,-45.410,-47.852,-42.480,-86.426,0.000
1728626038.429,-40.527,-51.270,-44.922,-80.566,0.000
1728626038.433,-53.223,-49.805,-47.852,-47.852,0.000
1728626038.437,-36.133,-35.156,-42.969,-23.926,0.000
1728626038.441,-33.203,-20.508,-37.109,-51.758,0.000
1728626038.445,-30.273,-27.832,-38.086,-80.566,0.000
1728626038.449,-27.344,-35.645,-36.133,-64.453,0.000
1728626038.453,-48.340,-24.902,-43.457,-45.898,0.000
1728626038.457,-40.527,-20.508,-50.293,-31.738,0.000
1728626038.461,-37.109,-28.320,-46.875,-45.410,0.000
1728626038.465,-35.645,-27.344,-33.691,-70.801,0.000
1728626038.469,-31.250,-22.949,-27.344,-76.172,0.000
1728626038.473,-61.523,-14.160,-18.555,-62.500,0.000
1728626038.476,-47.852,-14.160,-5.371,-19.531,0.000
1728626038.480,-32.227,-23.926,-8.789,-21.973,0.000
1728626038.484,-47.852,-30.762,-12.207,-74.219,0.000
1728626038.488,-41.992,-29.297,-14.648,-93.262,0.000
1728626038.492,-46.875,-21.484,-18.066,-67.383,0.000
1728626038.496,-50.781,-25.391,-16.113,-30.762,0.000
1728626038.500,-54.688,-30.273,-12.207,-35.645,0.000
1728626038.504,-44.434,-28.320,-14.160,-66.895,0.000
1728626038.508,-24.414,-28.809,-13.184,-81.055,0.000
1728626038.512,-59.570,-40.039,-9.277,-74.219,0.000
1728626038.516,-68.359,-38.086,-13.184,-30.762,0.000
1728626038.520,-53.711,-34.180,-34.668,-22.949,0.000
1728626038.524,-44.434,-36.133,-49.316,-66.895,0.000
1728626038.528,-18.555,-32.227,-36.133,-78.125,0.000
1728626038.531,-43.945,-33.691,-28.320,-69.336,0.000
1728626038.535,-46.875,-28.809,-20.508,-29.297,0.000
1728626038.539,-30.273,-28.320,-16.113,-4.883,0.000
1728626038.543,-41.992,-26.367,-22.461,-47.363,0.000
1728626038.547,-29.785,-22.461,-21.484,-72.754,0.000
1728626038.551,-29.297,-18.066,-23.926,-57.129,0.000
1728626038.555,-30.762,-12.695,-28.320,-27.832,0.000
1728626038.559,-26.855,-7.324,-23.438,-9.766,0.000
1728626038.563,-44.922,-15.137,-31.738,-44.922,0.000
1728626038.567,-44.434,-27.344,-38.086,-72.754,0.000
1728626038.571,-47.852,-26.855,-36.621,-71.289,0.000
1728626038.575,-57.129,-30.762,-37.598,-48.340,0.000
1728626038.578,-39.062,-20.508,-24.414,-14.160,0.000
1728626038.582,-34.180,-16.602,-24.414,-40.527,0.000
1728626038.586,-24.414,-20.508,-27.344,-63.477,0.000
1728626038.590,-22.949,-9.766,-20.508,-53.711,0.000
1728626038.594,-31.738,-11.230,-20.508,-27.344,0.000
1728626038.598,-33.203,-20.996,-25.391,0.977,0.000
1728626038.602,0.000,-24.414,-39.062,-21.973,0.000
1728626038.606,0.000,-31.250,-50.293,-56.641,0.000
1728626038.610,0.000,-37.109,-48.340,-69.336,0.000
1728626038.614,0.000,-42.480,-48.340,-44.922,0.000
1728626038.618,0.000,-33.691,-44.434,-4.395,0.000
1728626038.621,0.000,-19.531,-32.715,-20.020,0.000
1728626038.625,0.000,-23.926,-28.320,-47.363,0.000
1728626038.629,0.000,-45.410,-38.086,-57.129,0.000
1728626038.633,0.000,-52.246,-38.574,-53.711,0.000
1728626038.637,0.000,-45.898,-31.738,-21.484,0.000
1728626038.641,0.000,-46.387,-31.250,-17.090,0.000
1728626038.645,0.000,-47.363,-35.156,-39.062,0.000
1728626038.647,-39.062,-44.434,-34.668,-45.410,0.000
1728626038.650,-39.551,-49.316,-32.227,-48.340,0.000
1728626038.654,-54.688,-46.875,-25.391,-20.996,0.000
1728626038.658,-58.594,-49.316,-30.273,-26.367,0.000
1728626038.662,-35.156,-54.688,-36.133,-60.547,0.000
1728626038.666,-34.180,-56.641,-41.504,-69.824,0.000
1728626038.670,-28.320,-63.477,-55.664,-60.059,0.000
1728626038.674,-34.668,-62.012,-62.012,-13.672,0.000
1728626038.678,-66.406,-53.711,-57.129,-16.113,0.000
1728626038.682,-53.711,-56.152,-50.781,-66.406,0.000
1728626038.686,-41.992,-50.293,-41.016,-59.570,0.000
1728626038.690,-25.391,-39.551,-36.621,-48.828,0.000
1728626038.693,-51.758,-44.922,-28.809,-22.949,0.000
1728626038.697,-28.320,-55.176,-27.344,-9.766,0.000
1728626038.701,-43.945,-59.570,-34.668,-59.082,0.000
1728626038.705,-50.781,-50.781,-33.691,-79.102,0.000
1728626038.709,-43.457,-35.645,-32.227,-56.152,0.000
1728626038.713,-52.734,-29.785,-25.391,-22.461,0.000
1728626038.717,-47.363,-31.738,-33.203,-0.488,0.000
1728626038.721,-42.969,-18.555,-41.992,-43.457,0.000
1728626038.725,-23.438,-13.672,-33.203,-74.707,0.000
1728626038.729,-33.203,-27.344,-36.133,-66.406,0.000
1728626038.732,-57.617,-21.484,-34.668,-28.809,0.000
1728626038.736,-46.875,-14.648,-32.715,-4.395,0.000
1728626038.740,-59.082,-28.320,-39.551,-61.523,0.000
1728626038.744,-48.828,-32.227,-38.574,-86.914,0.000
1728626038.748,-42.480,-26.855,-35.645,-68.848,0.000
1728626038.752,-62.988,-20.020,-29.785,-42.969,0.000
1728626038.756,-42.480,-27.344,-37.109,-15.137,0.000
1728626038.760,-36.133,-44.434,-49.805,-51.758,0.000
1728626038.764,-38.574,-44.922,-52.734,-84.961,0.000
1728626038.767,-38.574,-39.062,-46.387,-72.754,0.000
1728626038.771,-52.246,-31.738,-40.039,-35.156,0.000
1728626038.775,-40.527,-35.645,-47.363,1.953,0.000
1728626038.779,-36.621,-41.992,-54.199,-28.320,0.000
1728626038.783,-36.621,-39.551,-53.711,-63.477,0.000
1728626038.788,0.000,-41.504,-48.340,-54.688,0.000
1728626038.791,0.000,-41.992,-46.387,-37.109,0.000
1728626038.795,0.000,-46.875,-53.711,-22.949,0.000
1728626038.799,0.000,-51.270,-61.035,-46.875,0.000
1728626038.803,0.000,-44.922,-56.641,-70.801,0.000
1728626038.807,0.000,-43.945,-41.504,-63.477,0.000
1728626038.811,0.000,-40.527,-37.109,-52.246,0.000
1728626038.815,0.000,-31.250,-35.645,-10.742,0.000
1728626038.819,0.000,-37.598,-33.691,-24.902,0.000
1728626038.823,0.000,-61.035,-33.691,-69.824,0.000
1728626038.827,0.000,-58.594,-27.344,-75.684,0.000
1728626038.831,0.000,-54.199,-30.762,-50.293,0.000
1728626038.835,-49.316,-62.012,-32.715,3.906,0.000
1728626038.839,-48.340,-63.965,-32.715,-6.836,0.000
1728626038.843,-41.992,-48.828,-33.691,-62.988,0.000
1728626038.847,-26.367,-37.109,-28.809,-59.570,0.000
1728626038.850,-45.410,-43.457,-24.902,-46.875,0.000
1728626038.854,-41.504,-51.270,-17.578,-25.879,0.000
1728626038.858,-43.945,-52.246,-23.438,-26.367,0.000
1728626038.862,-57.617,-51.270,-37.598,-69.336,0.000
1728626038.866,-34.668,-52.734,-37.109,-74.707,0.000
1728626038.870,-43.945,-52.734,-38.086,-62.500,0.000
1728626038.874,-56.152,-42.969,-31.738,-21.484,0.000
1728626038.878,-31.738,-35.645,-24.902,6.836,0.000
1728626038.882,-34.180,-42.480,-32.715,-35.645,0.000
1728626038.886,-23.926,-45.410,-33.203,-56.641,0.000
1728626038.890,-31.250,-43.457,-28.320,-55.664,0.000
1728626038.894,-47.852,-49.316,-27.344,-26.367,0.000
1728626038.898,-29.785,-44.922,-24.414,8.301,0.000
1728626038.902,-23.926,-41.504,-29.785,-30.762,0.000
1728626038.905,-27.832,-45.410,-31.738,-71.777,0.000
1728626038.909,-31.250,-45.898,-36.621,-65.430,0.000
1728626038.913,-41.016,-48.828,-53.711,-33.691,0.000
1728626038.917,-43.945,-41.992,-56.641,-3.418,0.000
1728626038.921,-46.875,-37.109,-68.359,-32.715,0.000
1728626038.925,-43.457,-34.668,-82.520,-74.219,0.000
1728626038.929,-37.598,-27.344,-65.430,-69.824,0.000
1728626038.933,-56.641,-30.762,-63.965,-42.480,0.000
1728626038.937,-54.199,-34.668,-69.336,-14.160,0.000
1728626038.941,-53.711,-31.250,-62.500,-30.762,0.000
1728626038.945,-47.852,-35.645,-61.035,-60.059,0.000
1728626038.949,-39.551,-42.969,-56.641,-66.406,0.000
1728626038.952,-48.828,-42.969,-42.480,-47.852,0.000
1728626038.956,-28.809,-49.805,-31.738,-4.883,0.000
1728626038.960,-31.250,-71.777,-42.480,-18.555,0.000
1728626038.964,-27.344,-60.059,-47.852,-53.711,0.000
1728626038.968,-9.277,-46.875,-34.668,-51.270,0.000
1728626038.972,-18.555,-56.152,-24.414,-32.227,0.000
1728626038.976,-16.113,-58.105,-20.508,2.441,0.000
1728626038.980,-34.668,-58.105,-32.227,-11.230,0.000
1728626038.984,-44.434,-57.617,-49.316,-60.059,0.000
1728626038.988,-22.949,-61.523,-48.828,-62.012,0.000
1728626038.992,-21.484,-61.523,-50.293,-49.316,0.000
1728626038.995,-20.508,-51.270,-46.387,-27.344,0.000
1728626038.999,-26.367,-54.199,-36.133,-33.691,0.000
1728626039.003,-15.625,-52.246,-36.621,-62.988,0.000
1728626039.007,6.348,-30.762,-28.320,-70.312,0.000
1728626039.011,-28.809,-42.480,-26.367,-74.707,0.000
1728626039.015,-69.824,-67.871,-32.715,-44.922,0.000
1728626039.019,-66.406,-64.453,-38.086,-25.879,0.000
1728626039.023,-57.129,-60.547,-35.645,-71.777,0.000
1728626039.027,-41.992,-42.480,-21.484,-71.777,0.000
1728626039.031,-34.180,-39.551,-27.344,-49.316,0.000
1728626039.035,-27.832,-47.363,-26.367,-21.484,0.000
1728626039.038,-30.762,-37.109,-18.555,-3.418,0.000
1728626039.042,-54.199,-41.992,-28.320,-43.457,0.000
1728626039.046,-45.898,-38.574,-24.414,-60.547,0.000
1728626039.050,-41.992,-29.297,-27.832,-52.246,0.000
1728626039.054,-40.527,-16.113,-28.320,-25.391,0.000
1728626039.058,-22.461,-17.578,-19.531,7.812,0.000
1728626039.062,-24.902,-27.832,-27.344,-26.367,0.000
1728626039.066,-19.531,-22.949,-42.969,-49.805,0.000
1728626039.070,-20.020,-20.508,-51.758,-46.875,0.000
1728626039.074,-43.945,-26.367,-50.781,-43.457,0.000
1728626039.077,-50.781,-26.367,-45.898,-16.113,0.000
1728626039.081,-52.246,-24.902,-45.410,-37.598,0.000
1728626039.085,-29.785,-18.555,-48.340,-79.102,0.000
1728626039.089,-17.578,-7.812,-49.805,-74.219,0.000
1728626039.093,-34.668,-8.789,-40.527,-33.691,0.000
1728626039.097,-31.738,-2.441,-40.527,6.348,0.000
1728626039.101,-14.648,5.859,-53.223,-27.344,0.000
1728626039.105,-11.230,-1.953,-61.035,-72.266,0.000
1728626039.109,-58.594,-8.789,-67.383,-70.801,0.000
1728626039.113,-84.961,-6.836,-62.012,-53.711,0.000
1728626039.116,-52.734,-3.906,-52.734,-24.902,0.000
1728626039.120,-43.945,-1.953,-50.781,-30.273,0.000
1728626039.124,-29.785,-13.184,-50.781,-57.617,0.000
1728626039.128,-17.090,-12.695,-48.828,-66.406,0.000
1728626039.132,-52.246,0.000,-49.316,-48.828,0.000
1728626039.136,-47.363,-18.066,-53.711,-12.695,0.000
1728626039.140,-54.199,-37.109,-58.594,-22.461,0.000
1728626039.144,-65.430,-25.879,-54.688,-63.965,0.000
1728626039.148,-40.527,-17.578,-45.898,-58.594,0.000
1728626039.151,-49.805,-25.391,-41.504,-30.273,0.000
1728626039.155,-52.734,-39.062,-47.852,-14.160,0.000
1728626039.159,-33.691,-42.480,-48.828,-28.320,0.000
1728626039.164,-26.367,-30.762,-59.082,-61.035,0.000
1728626039.167,-31.250,-28.320,-65.918,-66.895,0.000
1728626039.171,-57.129,-37.598,-58.594,-63.965,0.000
1728626039.175,-56.641,-40.039,-49.805,-23.438,0.000
1728626039.179,-47.363,-42.969,-47.363,-15.137,0.000
1728626039.183,-44.434,-47.852,-45.410,-53.223,0.000
1728626039.187,-20.020,-32.227,-40.039,-65.430,0.000
1728626039.191,-36.621,-28.320,-46.875,-57.617,0.000
1728626039.195,-47.363,-43.457,-49.805,-22.949,0.000
1728626039.199,-28.320,-45.898,-44.434,-2.441,0.000
1728626039.203,-25.879,-32.227,-49.805,-43.945,0.000
1728626039.207,-14.648,-29.297,-46.387,-66.895,0.000
1728626039.211,-22.461,-36.621,-38.574,-50.781,0.000
1728626039.215,-28.809,-38.086,-32.715,-15.625,0.000
1728626039.219,-17.578,-42.969,-34.180,-3.418,0.000
1728626039.223,-41.016,-39.551,-45.410,-51.270,0.000
1728626039.226,-42.480,-39.062,-54.199,-72.266,0.000
1728626039.230,-46.875,-55.176,-58.105,-62.988,0.000
1728626039.234,-58.105,-47.852,-49.805,-38.086,0.000
1728626039.238,-38.086,-35.156,-41.016,-11.719,0.000
1728626039.242,-30.762,-49.805,-41.992,-28.320,0.000
1728626039.246,-22.461,-56.641,-41.504,-44.434,0.000
1728626039.250,-31.250,-57.617,-49.805,-56.641,0.000
1728626039.254,-58.594,-59.082,-62.988,-38.086,0.000
1728626039.258,0.000,-51.758,-67.871,3.418,0.000
1728626039.262,0.000,-55.176,-76.172,-31.250,0.000
1728626039.266,0.000,-67.871,-78.613,-75.195,0.000
1728626039.270,0.000,-64.453,-59.570,-60.059,0.000
1728626039.274,0.000,-63.477,-48.340,-37.598,0.000
1728626039.278,0.000,-65.430,-43.457,-12.207,0.000
1728626039.281,0.000,-60.547,-41.016,-33.691,0.000
1728626039.285,0.000,-58.105,-37.598,-72.754,0.000
1728626039.289,0.000,-61.523,-30.762,-62.500,0.000
1728626039.293,0.000,-54.199,-30.273,-39.551,0.000
1728626039.297,0.000,-44.922,-19.043,-10.742,0.000
1728626039.301,0.000,-54.688,-13.184,-21.973,0.000
1728626039.305,-52.246,-58.594,-25.879,-62.988,0.000
1728626039.309,-38.574,-47.363,-31.738,-65.918,0.000
1728626039.313,-47.852,-58.594,-36.133,-40.039,0.000
1728626039.317,-37.109,-59.082,-26.855,-5.859,0.000
1728626039.321,-33.691,-41.992,-20.020,-18.066,0.000
1728626039.324,-35.156,-42.969,-26.367,-55.176,0.000
1728626039.328,-21.973,-42.480,-33.203,-59.570,0.000
1728626039.332,-33.203,-45.410,-31.250,-37.598,0.000
1728626039.336,-28.809,-44.922,-33.203,0.488,0.000
1728626039.340,-38.086,-28.320,-39.062,-17.090,0.000
1728626039.344,-51.270,-25.879,-41.992,-57.129,0.000
1728626039.348,-24.414,-22.461,-37.109,-52.246,0.000
1728626039.352,-31.250,-24.902,-36.621,-53.711,0.000
1728626039.356,-47.363,-23.438,-36.621,-30.273,0.000
1728626039.360,-40.527,-16.602,-40.039,-7.324,0.000
1728626039.364,-31.250,-19.531,-43.457,-46.387,0.000
1728626039.368,-16.113,-20.508,-36.133,-72.754,0.000
1728626039.371,-26.367,-21.484,-44.434,-56.641,0.000
1728626039.375,-27.344,-18.555,-42.969,-19.531,0.000
1728626039.379,-33.203,-23.926,-41.016,-2.441,0.000
1728626039.383,-56.641,-27.344,-48.340,-47.363,0.000
1728626039.387,-51.270,-32.715,-46.387,-80.078,0.000
1728626039.391,-44.434,-31.738,-38.086,-66.895,0.000
1728626039.395,-48.340,-25.391,-25.391,-31.738,0.000
1728626039.399,-34.668,-15.625,-20.508,-2.930,0.000
1728626039.403,-38.086,-21.973,-30.762,-39.062,0.000
1728626039.407,-36.621,-32.715,-45.410,-69.336,0.000
1728626039.410,-41.016,-37.109,-53.223,-76.660,0.000
1728626039.414,-48.828,-39.062,-43.945,-53.223,0.000
1728626039.418,-37.598,-45.898,-41.504,-14.160,0.000
1728626039.422,-47.363,-57.617,-52.246,-38.574,0.000
1728626039.426,-23.438,-59.570,-42.969,-59.570,0.000
1728626039.430,-16.602,-54.688,-32.715,-61.523,0.000
1728626039.434,-42.969,-53.711,-43.457,-41.992,0.000
1728626039.438,-32.227,-52.734,-51.270,-1.465,0.000
1728626039.442,-38.086,-62.500,-50.781,-20.996,0.000
1728626039.445,-31.250,-64.941,-43.457,-59.082,0.000
1728626039.449,-19.531,-61.523,-42.969,-54.688,0.000
1728626039.453,-50.781,-64.941,-47.852,-35.156,0.000
1728626039.457,-39.551,-61.523,-50.293,-5.859,0.000
1728626039.461,-14.648,-53.711,-49.805,-20.996,0.000
1728626039.465,-2.930,-43.457,-52.734,-49.805,0.000
1728626039.469,-7.812,-49.316,-55.176,-53.223,0.000
1728626039.473,-44.434,-56.641,-60.547,-46.875,0.000
1728626039.477,-44.922,-45.410,-59.082,-5.371,0.000
1728626039.481,-43.457,-44.922,-60.547,-9.277,0.000
1728626039.484,-41.992,-46.387,-71.777,-54.199,0.000
1728626039.488,-29.297,-42.969,-65.918,-60.547,0.000
1728626039.492,-47.363,-44.434,-54.199,-42.969,0.000
1728626039.496,-39.551,-46.387,-49.805,-11.719,0.000
1728626039.500,-29.297,-42.480,-45.410,-5.859,0.000
1728626039.504,-33.203,-35.156,-43.945,-52.246,0.000
1728626039.508,-13.672,-28.809,-47.363,-62.500,0.000
1728626039.512,-34.180,-38.086,-55.176,-42.969,0.000
1728626039.515,-35.645,-43.457,-57.617,-6.348,0.000
1728626039.519,-7.812,-38.086,-50.293,2.441,0.000
1728626039.523,-25.391,-40.039,-41.504,-34.668,0.000
1728626039.527,-15.137,-38.086,-41.016,-48.340,0.000
1728626039.531,-17.578,-43.945,-48.340,-46.875,0.000
1728626039.535,-38.574,-55.664,-43.945,-26.367,0.000
1728626039.539,-26.367,-51.270,-36.133,-11.230,0.000
1728626039.543,-22.461,-58.594,-39.062,-44.922,0.000
1728626039.547,-20.508,-61.035,-41.504,-71.777,0.000
1728626039.551,-43.945,-55.664,-45.898,-57.617,0.000
1728626039.555,-56.641,-52.246,-41.504,-15.625,0.000
1728626039.559,-29.297,-35.156,-34.180,10.742,0.000
1728626039.563,-41.016,-23.438,-39.062,-31.738,0.000
1728626039.567,-25.391,-22.461,-43.457,-56.152,0.000
1728626039.571,-9.277,-31.738,-50.293,-42.480,0.000
1728626039.574,-51.270,-48.340,-51.758,-26.367,0.000
1728626039.578,-58.594,-40.527,-45.410,-10.742,0.000
1728626039.582,-52.246,-30.273,-50.781,-30.762,0.000
1728626039.586,-41.504,-23.926,-58.105,-53.711,0.000
1728626039.590,-39.551,-23.438,-51.270,-55.176,0.000
1728626039.594,-55.176,-27.832,-49.805,-33.691,0.000
1728626039.598,-49.316,-20.508,-54.688,-7.324,0.000
1728626039.602,-42.969,-27.832,-63.965,-33.691,0.000
1728626039.606,-20.020,-26.855,-72.266,-65.430,0.000
1728626039.610,-40.527,-22.461,-75.684,-70.312,0.000
1728626039.614,-77.148,-25.879,-62.500,-49.316,0.000
1728626039.618,-58.105,-17.578,-54.688,-12.695,0.000
1728626039.622,-51.270,-14.160,-61.035,-29.785,0.000
1728626039.625,-51.270,-18.066,-59.082,-69.336,0.000
1728626039.629,-43.457,-16.602,-51.758,-71.777,0.000
1728626039.633,-51.758,-11.230,-45.410,-38.574,0.000
1728626039.637,-35.645,-11.230,-40.039,2.441,0.000
1728626039.641,-38.086,-3.906,-43.945,-9.766,0.000
1728626039.645,-40.039,-10.254,-53.223,-50.293,0.000
1728626039.649,-33.691,-25.879,-57.129,-62.012,0.000
1728626039.653,-58.105,-23.926,-50.293,-52.734,0.000
1728626039.657,-54.688,-22.949,-44.434,-21.484,0.000
1728626039.661,-43.945,-29.785,-50.781,-22.949,0.000
1728626039.665,-34.668,-33.691,-62.012,-59.082,0.000
1728626039.669,-14.160,-26.855,-54.199,-66.406,0.000
1728626039.673,-32.227,-19.531,-41.016,-57.617,0.000
1728626039.676,-27.344,-13.672,-42.480,-18.066,0.000
1728626039.680,-20.996,-15.137,-39.551,-7.324,0.000
1728626039.684,-48.828,-26.855,-44.922,-73.242,0.000
1728626039.688,-41.992,-29.297,-51.758,-97.656,0.000
1728626039.692,-41.992,-37.598,-44.922,-67.383,0.000
1728626039.696,-41.992,-36.621,-31.738,-29.297,0.000
1728626039.700,-28.809,-26.367,-29.297,-8.301,0.000
1728626039.704,-30.273,-28.320,-36.133,-38.086,0.000
1728626039.708,-19.043,-28.809,-40.039,-62.500,0.000
1728626039.712,-28.320,-18.555,-35.156,-47.852,0.000
1728626039.716,-53.223,-11.719,-30.273,-24.414,0.000
1728626039.719,-42.969,-18.066,-27.832,-10.742,0.000
1728626039.723,-38.574,-29.785,-23.926,-41.016,0.000
1728626039.727,-22.949,-30.762,-20.508,-68.359,0.000
1728626039.731,-12.207,-21.973,-12.695,-61.035,0.000
1728626039.735,-43.457,-24.414,-5.859,-26.855,0.000
1728626039.739,-44.922,-27.832,-0.977,5.371,0.000
1728626039.743,-41.016,-32.227,-8.301,-29.297,0.000
1728626039.747,-24.902,-31.250,-4.883,-59.082,0.000
1728626039.751,-23.438,-18.066,4.883,-48.828,0.000
1728626039.755,-46.387,-19.531,-6.836,-36.133,0.000
1728626039.759,-36.621,-23.438,-7.812,-16.602,0.000
1728626039.762,-46.387,-26.855,-8.301,-37.109,0.000
1728626039.766,-49.316,-23.926,-7.812,-68.848,0.000
1728626039.770,-52.246,-27.832,-7.324,-66.895,0.000
1728626039.774,-61.035,-33.691,-5.859,-43.945,0.000
1728626039.778,-50.293,-29.785,-2.441,-4.883,0.000
1728626039.782,-56.152,-30.273,-5.859,-25.391,0.000
1728626039.786,-59.082,-37.109,-4.883,-72.754,0.000
1728626039.790,-41.016,-30.762,-2.441,-69.336,0.000
1728626039.794,-43.945,-21.484,-5.371,-50.293,0.000
1728626039.798,-56.152,-31.250,-16.113,-13.672,0.000
1728626039.801,-61.523,-40.039,-21.484,-19.043,0.000
1728626039.805,-58.594,-34.180,-15.137,-63.477,0.000
1728626039.809,-48.828,-42.480,-18.555,-67.871,0.000
1728626039.813,-62.500,-52.246,-25.879,-55.176,0.000
1728626039.817,-48.340,-44.434,-19.531,-23.926,0.000
1728626039.821,-28.809,-31.738,-16.602,-16.113,0.000
1728626039.825,-27.344,-26.367,-30.762,-52.246,0.000
1728626039.829,-20.020,-27.832,-42.969,-63.477,0.000
1728626039.833,-43.945,-29.297,-36.133,-54.688,0.000
1728626039.836,-46.387,-38.086,-23.926,-17.578,0.000
1728626039.840,-44.434,-43.945,-20.020,-9.766,0.000
1728626039.844,-46.387,-42.969,-20.020,-39.062,0.000
1728626039.848,-23.438,-35.156,-21.484,-48.828,0.000
1728626039.852,-41.016,-28.809,-18.555,-47.363,0.000
1728626039.856,-45.410,-31.738,-11.719,-12.207,0.000
1728626039.860,-25.391,-39.062,-9.277,2.930,0.000
1728626039.864,-29.297,-36.621,-18.555,-48.828,0.000
1728626039.867,-11.719,-30.273,-22.949,-67.871,0.000
1728626039.871,-30.273,-39.062,-16.602,-53.711,0.000
1728626039.875,-65.918,-41.016,-13.672,-31.738,0.000
1728626039.879,-62.012,-45.898,-16.113,-15.625,0.000
1728626039.883,-61.523,-56.641,-27.832,-44.434,0.000
1728626039.887,-31.738,-55.176,-28.809,-61.035,0.000
1728626039.891,-26.367,-51.270,-24.414,-61.035,0.000
1728626039.895,-49.316,-43.457,-17.578,-46.875,0.000
1728626039.899,-35.645,-33.691,-11.230,-16.113,0.000
1728626039.903,-41.992,-39.551,-18.066,-43.945,0.000
1728626039.906,-35.645,-48.828,-24.414,-71.777,0.000
1728626039.910,-42.480,-48.828,-34.180,-65.430,0.000
1728626039.915,-61.035,-49.805,-35.645,-30.762,0.000
1728626039.919,-38.574,-49.316,-30.273,7.324,0.000
1728626039.923,-49.805,-42.480,-37.598,-33.203,0.000
1728626039.926,-51.270,-43.457,-41.992,-69.336,0.000
1728626039.930,-44.922,-47.852,-41.016,-61.523,0.000
1728626039.934,-63.477,-43.457,-44.922,-38.086,0.000
1728626039.938,-41.504,-32.227,-44.922,-2.441,0.000
1728626039.942,-30.762,-19.043,-43.457,-24.902,0.000
1728626039.946,-38.086,-25.879,-42.969,-61.035,0.000
1728626039.950,-32.715,-37.598,-48.340,-60.547,0.000
1728626039.954,-50.293,-23.438,-47.363,-47.852,0.000
1728626039.958,-45.410,-21.484,-27.344,-4.395,0.000
1728626039.962,-40.527,-40.527,-18.066,-5.371,0.000
1728626039.966,-42.480,-40.527,-20.508,-58.105,0.000
1728626039.970,-23.438,-28.320,-22.461,-66.895,0.000
1728626039.974,-40.039,-23.926,-19.043,-37.598,0.000
1728626039.977,-47.363,-22.461,-10.254,-8.301,0.000
1728626039.981,-34.180,-24.902,-14.160,-34.180,0.000
1728626039.985,-37.598,-37.598,-21.973,-70.312,0.000
1728626039.989,-34.668,-49.805,-29.297,-69.824,0.000
1728626039.993,-47.852,-46.875,-25.879,-54.199,0.000
1728626039.997,-57.129,-49.805,-20.020,-21.973,0.000
1728626040.001,-55.664,-57.617,-20.020,-19.531,0.000
1728626040.005,-56.641,-55.176,-19.043,-58.105,0.000
1728626040.009,-29.297,-55.176,-18.066,-73.730,0.000
1728626040.013,-11.230,-48.828,-12.695,-56.152,0.000
1728626040.017,-23.438,-39.551,-7.812,-20.020,0.000
1728626040.021,-45.898,-51.270,-17.578,-9.766,0.000
1728626040.025,-62.500,-63.965,-33.691,-49.316,0.000
1728626040.028,-42.969,-61.523,-34.180,-65.430,0.000
1728626040.032,-46.875,-60.059,-30.762,-67.383,0.000
1728626040.036,-44.922,-46.875,-28.320,-42.969,0.000
1728626040.040,-28.320,-36.133,-33.203,-2.930,0.000
